Sample ID:	C:\MCC\MCC Cal\Test\Countertop_Plastic_LaminateB_MCC_30K_min_211215_R1.txt
Sample Weight (mg):	4.52
Heating Rate (C/s):	0.5
Combustor Temp (C):	900
N2 Flow Rate (cc/min):	80
O2 Flow Rate (cc/min):	20
Calibration File:	C:\MCC\MCC Cal\Coeff1 JN10440_30_210304.txt.txt
T Correction Coefficients:	0	1.024463	0
Time Shift (s):	14
*
Time (s)	Temperature (C)	N2 flow rate (cc/min)	O2 flow rate (cc/min)	Flow Rate (cc/min)	Oxygen (%)	HRR (W/g)	Heating rate (C/s)
0.000	109.723	80.003	19.996	102.990	20.388	-0.130	0.050
0.499	109.687	80.005	19.998	102.992	20.390	-0.283	-0.018
1.000	109.651	80.002	19.995	103.000	20.387	-0.070	-0.068
1.500	109.733	80.000	19.995	103.001	20.390	-0.293	-0.013
2.000	109.719	80.000	19.997	102.996	20.388	-0.126	0.057
2.500	109.659	80.003	19.993	102.994	20.388	-0.163	-0.003
3.000	109.757	80.002	19.996	102.992	20.391	-0.368	-0.018
3.500	109.669	80.007	19.994	102.990	20.387	-0.097	0.024
4.000	109.756	80.004	19.996	102.990	20.392	-0.457	0.005
4.500	109.696	80.008	19.995	102.991	20.393	-0.506	0.013
5.000	109.712	80.004	19.995	102.992	20.390	-0.267	-0.008
5.500	109.691	80.004	19.994	102.993	20.392	-0.411	-0.025
6.000	109.697	80.004	19.994	102.991	20.393	-0.531	-0.011
6.500	109.692	80.002	19.995	102.990	20.395	-0.637	-0.007
7.000	109.730	80.003	19.995	102.991	20.387	-0.058	0.017
7.500	109.693	80.003	19.993	102.992	20.391	-0.376	0.017
8.000	109.696	79.999	19.996	102.994	20.390	-0.254	-0.017
8.500	109.729	80.002	19.993	102.995	20.391	-0.328	0.002
9.000	109.684	80.003	19.995	102.996	20.389	-0.203	0.012
9.499	109.692	80.003	19.995	103.001	20.392	-0.413	-0.025
10.000	109.723	80.003	19.992	103.007	20.392	-0.440	0.000
10.500	109.733	80.003	19.992	103.010	20.385	0.093	0.040
10.999	109.713	80.003	19.994	103.013	20.389	-0.229	0.016
11.499	109.722	80.004	19.996	103.014	20.389	-0.238	-0.010
11.999	109.680	80.001	19.995	103.013	20.387	-0.093	-0.022
12.499	109.707	80.005	19.994	103.012	20.386	0.019	-0.024
13.000	109.691	80.002	19.994	103.013	20.389	-0.176	-0.002
13.500	109.693	80.004	19.994	103.016	20.385	0.072	-0.002
13.999	109.708	80.004	19.993	103.018	20.384	0.138	0.001
14.500	109.750	80.005	19.993	103.016	20.386	-0.023	0.037
15.001	109.714	80.003	19.994	103.015	20.386	0.031	0.031
15.500	109.724	80.012	19.996	103.014	20.383	0.233	-0.010
16.000	109.737	80.003	19.995	103.013	20.383	0.211	-0.001
16.500	109.721	79.998	19.996	103.017	20.386	0.027	0.010
17.000	109.765	80.007	19.993	103.024	20.384	0.136	0.012
17.500	109.772	80.000	19.993	103.031	20.383	0.202	0.039
18.000	109.764	79.999	19.996	103.040	20.382	0.283	0.025
18.500	109.759	80.005	19.995	103.048	20.381	0.372	-0.007
19.000	109.813	80.002	19.996	103.051	20.379	0.506	0.018
19.500	109.790	80.004	19.994	103.054	20.379	0.514	0.040
20.000	109.853	80.004	19.996	103.054	20.382	0.256	0.036
20.500	109.796	80.002	19.996	103.053	20.382	0.281	0.023
21.000	109.861	80.003	19.994	103.053	20.378	0.543	0.007
21.500	109.879	80.003	19.997	103.054	20.379	0.471	0.045
22.000	109.862	80.006	19.998	103.057	20.379	0.475	0.042
22.500	109.882	80.006	19.996	103.063	20.380	0.431	0.003
23.000	109.928	80.005	19.995	103.068	20.375	0.799	0.035
23.500	109.908	80.008	19.996	103.074	20.374	0.855	0.046
24.000	109.957	80.002	19.997	103.075	20.372	1.020	0.027
24.501	109.923	80.006	19.994	103.076	20.373	0.896	0.022
25.000	109.954	80.005	19.994	103.079	20.374	0.836	0.006
25.499	109.968	80.007	19.995	103.082	20.373	0.943	0.021
25.999	109.983	80.004	19.996	103.089	20.371	1.089	0.037
26.500	110.038	80.005	19.994	103.103	20.372	0.982	0.049
27.000	110.038	80.005	19.995	103.115	20.373	0.943	0.063
27.501	110.060	80.008	19.995	103.122	20.367	1.356	0.039
28.000	110.040	80.006	19.996	103.128	20.368	1.292	0.012
28.500	110.105	80.006	19.996	103.134	20.368	1.259	0.023
29.000	110.145	80.007	19.995	103.142	20.365	1.492	0.075
29.499	110.180	80.004	19.996	103.151	20.364	1.587	0.090
29.999	110.229	80.006	19.996	103.158	20.368	1.269	0.080
30.499	110.253	80.006	19.995	103.163	20.366	1.457	0.079
30.999	110.244	80.005	19.995	103.158	20.366	1.461	0.044
31.500	110.324	80.006	19.993	103.151	20.368	1.271	0.043
32.000	110.345	80.003	19.994	103.145	20.366	1.397	0.086
32.499	110.371	80.003	19.996	103.140	20.367	1.347	0.074
32.999	110.447	80.003	19.994	103.136	20.368	1.262	0.074
33.500	110.454	80.004	19.993	103.136	20.362	1.708	0.092
34.001	110.557	80.001	19.995	103.136	20.364	1.557	0.097
34.500	110.555	80.004	19.999	103.135	20.362	1.689	0.106
35.000	110.591	80.002	20.002	103.141	20.362	1.728	0.067
35.500	110.680	80.001	19.996	103.148	20.360	1.829	0.079
35.999	110.743	80.006	19.996	103.156	20.358	2.031	0.138
36.499	110.767	80.003	19.994	103.166	20.362	1.704	0.120
36.999	110.841	80.010	19.994	103.176	20.357	2.056	0.093
37.499	110.887	79.994	19.998	103.181	20.356	2.120	0.109
37.999	110.896	79.998	19.994	103.185	20.354	2.270	0.088
38.499	111.014	80.007	19.996	103.187	20.357	2.054	0.091
39.000	111.060	80.008	19.993	103.184	20.356	2.147	0.145
39.500	111.121	80.002	19.995	103.187	20.355	2.186	0.136
39.999	111.207	80.006	19.995	103.185	20.357	2.079	0.127
40.500	111.222	80.004	19.995	103.186	20.355	2.223	0.124
41.000	111.348	80.006	19.998	103.184	20.356	2.122	0.121
41.499	111.420	80.000	19.998	103.188	20.356	2.167	0.169
42.000	111.502	80.007	19.993	103.189	20.350	2.532	0.176
42.500	111.526	80.001	19.995	103.194	20.350	2.598	0.130
42.999	111.664	80.004	19.995	103.200	20.350	2.550	0.134
43.499	111.722	80.003	19.994	103.207	20.349	2.624	0.179
44.000	111.781	80.001	19.994	103.211	20.348	2.707	0.157
44.500	111.867	80.002	19.993	103.213	20.350	2.540	0.131
45.000	111.959	80.002	19.994	103.218	20.350	2.554	0.161
45.500	112.066	80.003	19.995	103.224	20.350	2.544	0.188
45.999	112.152	80.011	19.991	103.226	20.349	2.655	0.196
46.499	112.224	80.010	19.993	103.232	20.351	2.470	0.175
46.999	112.326	80.011	19.995	103.235	20.349	2.660	0.166
47.499	112.402	80.002	19.996	103.231	20.347	2.763	0.176
47.999	112.521	80.013	19.994	103.230	20.346	2.874	0.187
48.499	112.594	80.000	19.996	103.240	20.347	2.765	0.193
48.999	112.676	79.991	19.998	103.243	20.345	2.889	0.173
49.499	112.789	80.003	19.996	103.244	20.345	2.895	0.175
49.999	112.895	80.009	19.998	103.246	20.344	3.008	0.207
50.499	113.039	80.011	19.994	103.243	20.345	2.957	0.235
50.999	113.092	79.996	19.997	103.241	20.344	3.008	0.224
51.499	113.212	79.994	19.996	103.239	20.345	2.938	0.185
51.999	113.336	80.010	19.994	103.242	20.346	2.861	0.208
52.499	113.440	80.010	19.991	103.247	20.341	3.224	0.236
52.999	113.540	79.991	19.999	103.254	20.341	3.207	0.216
53.499	113.658	80.008	19.996	103.251	20.342	3.125	0.211
53.999	113.796	80.007	19.996	103.258	20.340	3.259	0.237
54.499	113.914	80.014	19.994	103.264	20.340	3.250	0.256
54.999	114.041	79.992	19.995	103.265	20.342	3.151	0.250
55.499	114.165	80.011	19.995	103.261	20.340	3.296	0.248
55.999	114.282	80.008	19.994	103.265	20.339	3.337	0.246
56.499	114.411	80.002	19.994	103.261	20.338	3.448	0.243
57.000	114.544	80.008	19.995	103.258	20.340	3.296	0.254
57.500	114.670	79.988	19.995	103.255	20.339	3.352	0.260
57.999	114.753	80.012	19.993	103.256	20.337	3.475	0.234
58.499	114.934	79.996	19.996	103.254	20.337	3.512	0.237
58.999	115.024	80.003	19.994	103.252	20.338	3.459	0.267
59.499	115.164	80.003	19.995	103.251	20.339	3.335	0.250
59.999	115.303	80.004	19.994	103.253	20.340	3.300	0.255
60.499	115.440	80.002	19.995	103.254	20.341	3.197	0.278
60.999	115.571	80.000	19.995	103.254	20.340	3.257	0.272
61.500	115.699	80.001	19.996	103.257	20.338	3.395	0.263
62.000	115.854	80.002	19.994	103.258	20.340	3.253	0.271
62.499	116.010	80.005	19.992	103.263	20.336	3.543	0.297
62.999	116.084	79.990	19.995	103.273	20.338	3.401	0.271
63.499	116.279	80.006	19.994	103.278	20.336	3.561	0.249
64.000	116.476	80.002	19.993	103.281	20.338	3.392	0.331
64.500	116.519	80.017	19.995	103.287	20.335	3.628	0.316
65.000	116.718	80.005	19.993	103.288	20.339	3.325	0.241
65.500	116.900	80.014	19.993	103.286	20.337	3.518	0.312
66.000	116.995	80.001	19.995	103.286	20.337	3.486	0.329
66.501	117.205	79.987	19.996	103.285	20.335	3.657	0.291
67.000	117.312	79.997	19.995	103.282	20.335	3.657	0.311
67.499	117.474	80.008	19.994	103.281	20.334	3.723	0.293
67.999	117.666	79.997	19.994	103.281	20.337	3.500	0.312
68.500	117.821	80.001	19.994	103.282	20.337	3.520	0.350
69.000	117.982	79.997	19.994	103.287	20.337	3.498	0.332
69.500	118.129	80.003	19.993	103.290	20.336	3.545	0.312
70.000	118.353	79.999	19.996	103.289	20.337	3.510	0.339
70.499	118.422	79.993	19.996	103.287	20.337	3.502	0.332
71.000	118.622	79.989	19.994	103.287	20.336	3.543	0.281
71.500	118.812	80.002	19.995	103.286	20.333	3.762	0.330
71.999	118.967	80.001	19.995	103.284	20.336	3.547	0.368
72.499	119.144	80.005	19.995	103.284	20.333	3.753	0.339
72.999	119.312	80.000	19.995	103.286	20.333	3.782	0.338
73.500	119.496	80.001	19.994	103.287	20.333	3.759	0.348
74.000	119.685	80.007	19.993	103.287	20.334	3.691	0.363
74.499	119.852	80.004	19.996	103.290	20.331	3.899	0.365
74.999	120.014	80.006	19.993	103.292	20.335	3.667	0.342
75.499	120.206	80.006	19.996	103.290	20.334	3.710	0.341
75.999	120.391	79.998	19.995	103.289	20.335	3.663	0.366
76.499	120.583	80.004	19.995	103.285	20.329	4.075	0.377
77.000	120.739	80.002	19.995	103.284	20.332	3.848	0.363
77.501	120.955	80.003	19.995	103.284	20.333	3.805	0.360
78.000	121.134	80.003	19.994	103.284	20.332	3.881	0.383
78.500	121.286	80.003	19.994	103.285	20.331	3.904	0.363
79.001	121.459	80.003	19.993	103.287	20.335	3.632	0.328
79.500	121.747	80.003	19.996	103.286	20.332	3.856	0.393
79.999	121.924	80.005	19.994	103.284	20.330	3.961	0.463
80.499	122.066	80.004	19.994	103.284	20.334	3.743	0.392
80.999	122.258	80.002	19.995	103.284	20.332	3.838	0.327
81.499	122.448	80.003	19.996	103.285	20.332	3.858	0.358
81.999	122.663	80.004	19.997	103.286	20.331	3.935	0.393
82.499	122.840	80.007	19.995	103.287	20.331	3.914	0.399
82.999	123.081	80.006	19.995	103.288	20.335	3.648	0.406
83.500	123.250	80.002	19.995	103.288	20.331	3.900	0.414
84.001	123.460	80.004	19.994	103.289	20.334	3.712	0.394
84.501	123.644	80.004	19.995	103.289	20.333	3.747	0.387
85.001	123.853	80.003	19.995	103.290	20.331	3.959	0.394
85.500	124.065	79.999	19.995	103.291	20.334	3.741	0.407
86.000	124.232	80.003	19.994	103.291	20.333	3.778	0.400
86.500	124.453	80.003	19.994	103.291	20.336	3.543	0.384
86.999	124.642	80.007	19.994	103.290	20.335	3.613	0.399
87.499	124.874	80.003	19.995	103.288	20.333	3.801	0.416
87.999	125.044	80.005	19.993	103.287	20.333	3.768	0.412
88.499	125.293	80.005	19.994	103.287	20.333	3.786	0.410
88.999	125.468	80.004	19.994	103.287	20.334	3.700	0.421
89.499	125.682	80.004	19.995	103.288	20.335	3.640	0.407
89.999	125.903	80.005	19.996	103.288	20.331	3.929	0.412
90.499	126.109	80.004	19.995	103.290	20.335	3.658	0.431
90.999	126.325	80.003	19.995	103.290	20.330	4.003	0.425
91.499	126.526	80.009	19.995	103.289	20.328	4.151	0.420
92.000	126.746	80.018	19.993	103.289	20.328	4.133	0.419
92.501	126.960	80.005	19.994	103.291	20.330	4.029	0.427
93.000	127.170	80.005	19.994	103.290	20.328	4.104	0.429
93.499	127.400	80.004	19.996	103.290	20.332	3.862	0.432
94.000	127.604	80.005	19.994	103.290	20.330	4.003	0.437
94.501	127.827	80.002	19.995	103.290	20.329	4.091	0.431
95.000	128.080	80.005	19.994	103.288	20.335	3.644	0.452
95.500	128.273	80.005	19.993	103.289	20.331	3.937	0.461
96.000	128.476	80.002	19.995	103.290	20.330	4.011	0.421
96.499	128.724	80.006	19.995	103.291	20.328	4.135	0.423
96.999	128.950	80.005	19.993	103.291	20.328	4.112	0.462
97.499	129.130	80.005	19.994	103.291	20.326	4.260	0.440
97.999	129.386	80.005	19.995	103.290	20.329	4.048	0.421
98.499	129.601	80.006	19.994	103.289	20.331	3.904	0.453
98.999	129.827	80.004	19.995	103.289	20.331	3.889	0.456
99.500	130.038	80.006	19.994	103.289	20.329	4.075	0.439
100.001	130.302	80.003	19.994	103.289	20.331	3.945	0.456
100.500	130.505	80.005	19.994	103.288	20.331	3.924	0.471
100.999	130.711	80.006	19.994	103.287	20.331	3.918	0.438
101.499	130.931	80.006	19.994	103.287	20.329	4.081	0.418
101.999	131.161	80.006	19.996	103.287	20.334	3.743	0.438
102.499	131.368	80.008	19.994	103.287	20.331	3.899	0.444
102.999	131.633	80.008	19.994	103.289	20.333	3.796	0.455
103.499	131.850	80.010	19.994	103.290	20.330	3.974	0.477
103.999	132.085	80.001	19.996	103.290	20.332	3.827	0.466
104.499	132.287	80.005	19.996	103.289	20.331	3.897	0.445
104.999	132.505	80.002	19.995	103.288	20.332	3.879	0.429
105.499	132.727	80.007	19.994	103.286	20.331	3.939	0.430
105.999	132.982	80.007	19.994	103.285	20.334	3.743	0.458
106.500	133.185	80.002	19.994	103.285	20.329	4.038	0.467
107.001	133.481	80.006	19.993	103.285	20.331	3.959	0.479
107.500	133.672	80.000	19.995	103.287	20.332	3.829	0.494
107.999	133.928	80.005	19.994	103.287	20.331	3.891	0.467
108.499	134.147	80.005	19.993	103.287	20.329	4.052	0.461
108.999	134.375	80.003	19.995	103.287	20.330	3.996	0.461
109.499	134.599	80.003	19.994	103.287	20.328	4.141	0.449
109.999	134.860	80.005	19.995	103.286	20.331	3.959	0.469
110.499	135.070	79.998	19.996	103.287	20.330	3.999	0.478
111.000	135.334	80.006	19.994	103.285	20.330	3.961	0.472
111.500	135.561	80.006	19.994	103.285	20.330	3.995	0.482
111.999	135.816	80.007	19.995	103.286	20.331	3.935	0.486
112.500	136.048	80.005	19.995	103.287	20.331	3.904	0.484
113.001	136.305	80.010	19.995	103.287	20.332	3.842	0.488
113.500	136.500	80.004	19.996	103.291	20.332	3.821	0.471
114.000	136.744	80.004	19.996	103.292	20.330	3.992	0.446
114.500	136.996	80.004	19.995	103.291	20.331	3.900	0.468
114.999	137.274	80.003	19.996	103.291	20.332	3.819	0.513
115.499	137.511	80.000	19.996	103.291	20.332	3.827	0.523
115.999	137.724	80.005	19.994	103.290	20.331	3.898	0.482
116.500	138.005	80.003	19.995	103.291	20.332	3.869	0.472
117.001	138.281	80.003	19.996	103.293	20.330	4.024	0.526
117.500	138.418	80.006	19.995	103.293	20.329	4.094	0.485
117.999	138.705	79.999	19.994	103.293	20.331	3.955	0.418
118.501	138.991	80.002	19.994	103.292	20.327	4.192	0.498
119.001	139.193	80.003	19.995	103.291	20.327	4.207	0.530
119.499	139.425	80.000	19.996	103.291	20.328	4.126	0.461
119.999	139.688	80.005	19.995	103.291	20.327	4.240	0.465
120.500	139.956	80.002	19.994	103.290	20.330	3.986	0.513
121.000	140.196	80.004	19.996	103.290	20.327	4.217	0.519
121.499	140.429	80.000	19.994	103.287	20.329	4.095	0.490
122.000	140.702	80.004	19.993	103.286	20.328	4.169	0.490
122.500	140.908	80.001	19.994	103.284	20.329	4.077	0.493
123.000	141.184	80.005	19.994	103.283	20.327	4.194	0.481
123.500	141.443	80.005	19.994	103.281	20.329	4.069	0.508
123.999	141.671	80.003	19.994	103.284	20.331	3.945	0.511
124.499	141.885	80.005	19.994	103.285	20.332	3.863	0.465
125.001	142.145	80.005	19.993	103.286	20.331	3.935	0.458
125.501	142.391	80.003	19.994	103.289	20.330	3.960	0.490
126.000	142.659	80.004	19.993	103.290	20.329	4.067	0.510
126.499	142.908	80.009	19.994	103.287	20.330	4.011	0.516
127.000	143.177	80.003	19.993	103.288	20.329	4.055	0.517
127.501	143.431	80.001	19.995	103.285	20.330	3.999	0.520
128.000	143.705	80.004	19.995	103.282	20.332	3.820	0.525
128.500	143.938	80.005	19.995	103.284	20.331	3.910	0.517
129.000	144.212	80.003	19.993	103.286	20.330	4.009	0.507
129.500	144.413	80.003	19.995	103.286	20.333	3.772	0.491
130.000	144.691	80.000	19.995	103.289	20.333	3.815	0.477
130.500	144.918	80.004	19.993	103.290	20.328	4.133	0.492
131.000	145.178	80.000	19.994	103.291	20.331	3.924	0.496
131.500	145.461	80.004	19.994	103.291	20.333	3.749	0.515
132.000	145.701	80.004	19.994	103.291	20.330	3.972	0.533
132.500	145.957	80.001	19.996	103.292	20.334	3.735	0.510
133.000	146.178	80.004	19.996	103.292	20.326	4.306	0.486
133.500	146.469	80.006	19.995	103.289	20.333	3.814	0.495
134.000	146.687	80.003	19.994	103.285	20.330	4.001	0.510
134.500	146.920	80.001	19.995	103.284	20.331	3.927	0.480
135.000	147.187	80.003	19.995	103.282	20.331	3.935	0.476
135.500	147.425	80.001	19.995	103.281	20.328	4.154	0.503
136.000	147.697	80.002	19.996	103.281	20.331	3.929	0.507
136.500	147.943	80.003	19.995	103.284	20.329	4.063	0.514
137.000	148.201	80.001	19.995	103.282	20.332	3.863	0.511
137.500	148.504	80.002	19.995	103.280	20.331	3.944	0.532
138.000	148.744	80.003	19.995	103.280	20.334	3.686	0.552
138.500	149.006	80.001	19.994	103.281	20.331	3.946	0.523
139.000	149.292	80.001	19.995	103.278	20.331	3.929	0.525
139.500	149.487	80.000	19.996	103.279	20.330	4.024	0.514
140.000	149.736	80.002	19.996	103.280	20.333	3.775	0.463
140.500	150.032	80.002	19.996	103.281	20.331	3.944	0.495
141.000	150.283	80.002	19.995	103.282	20.329	4.068	0.546
141.500	150.527	80.000	19.997	103.285	20.331	3.899	0.521
142.000	150.778	80.003	19.997	103.285	20.333	3.779	0.495
142.500	151.054	80.002	19.997	103.286	20.331	3.954	0.511
143.000	151.315	80.001	19.997	103.283	20.330	4.020	0.533
143.500	151.534	80.004	19.996	103.279	20.329	4.096	0.509
144.000	151.799	80.003	19.995	103.278	20.326	4.257	0.482
144.500	152.041	80.003	19.996	103.277	20.332	3.839	0.495
145.000	152.281	80.000	19.996	103.273	20.330	4.004	0.494
145.500	152.564	80.000	19.996	103.273	20.330	3.998	0.502
146.000	152.760	80.003	19.995	103.273	20.331	3.953	0.501
146.500	153.046	80.003	19.998	103.273	20.332	3.878	0.481
147.000	153.320	79.999	19.998	103.273	20.334	3.717	0.520
147.500	153.581	80.002	19.996	103.270	20.332	3.866	0.547
148.000	153.821	80.002	19.995	103.267	20.334	3.676	0.518
148.500	154.081	80.002	19.995	103.268	20.333	3.790	0.501
149.000	154.314	80.003	19.995	103.267	20.333	3.767	0.496
149.500	154.573	80.002	19.994	103.264	20.329	4.070	0.492
150.000	154.793	80.004	19.996	103.264	20.329	4.041	0.486
150.500	155.093	80.004	19.994	103.265	20.327	4.233	0.500
151.000	155.341	80.006	19.994	103.260	20.330	3.975	0.534
151.500	155.597	80.001	19.994	103.257	20.331	3.942	0.526
152.000	155.804	80.001	19.993	103.258	20.331	3.891	0.484
152.500	156.074	80.003	19.995	103.261	20.331	3.948	0.471
153.000	156.347	80.003	19.994	103.262	20.330	3.971	0.510
153.500	156.606	80.002	19.996	103.267	20.333	3.800	0.537
154.000	156.868	80.005	19.995	103.268	20.333	3.798	0.527
154.500	157.122	80.003	19.996	103.265	20.331	3.936	0.518
155.000	157.338	80.003	19.995	103.261	20.328	4.149	0.493
155.500	157.615	80.003	19.994	103.258	20.331	3.905	0.481
156.000	157.840	80.005	19.995	103.253	20.328	4.109	0.498
156.500	158.106	80.004	19.994	103.252	20.334	3.726	0.497
157.000	158.347	80.005	19.994	103.253	20.332	3.839	0.499
157.500	158.571	80.004	19.995	103.256	20.330	3.975	0.485
158.000	158.867	80.005	19.995	103.255	20.333	3.771	0.492
158.500	159.110	80.004	19.995	103.256	20.331	3.936	0.530
159.000	159.338	80.004	19.996	103.254	20.333	3.800	0.505
159.500	159.600	80.009	19.995	103.254	20.330	3.975	0.480
160.000	159.863	80.005	19.993	103.253	20.331	3.932	0.508
160.500	160.104	80.007	19.994	103.254	20.329	4.031	0.515
161.000	160.315	80.008	19.994	103.253	20.332	3.847	0.478
161.500	160.650	80.000	19.995	103.253	20.329	4.093	0.499
162.000	160.868	80.008	19.994	103.253	20.332	3.872	0.549
162.500	161.112	80.007	19.995	103.253	20.329	4.062	0.507
163.000	161.365	80.020	19.993	103.254	20.327	4.221	0.479
163.500	161.605	79.996	19.996	103.257	20.329	4.029	0.495
164.000	161.861	80.018	19.992	103.254	20.333	3.808	0.495
164.500	162.122	79.992	19.995	103.257	20.329	4.099	0.506
165.000	162.365	80.007	19.993	103.255	20.333	3.812	0.510
165.500	162.626	80.003	19.995	103.253	20.328	4.159	0.504
166.000	162.876	80.008	19.994	103.249	20.330	3.979	0.508
166.500	163.139	80.008	19.994	103.255	20.330	4.016	0.512
167.000	163.389	80.009	19.995	103.253	20.329	4.089	0.513
167.500	163.646	80.004	19.995	103.256	20.330	4.015	0.510
168.000	163.868	80.008	19.993	103.255	20.331	3.887	0.493
168.500	164.142	79.997	19.997	103.257	20.331	3.940	0.488
169.000	164.388	79.994	19.996	103.252	20.334	3.703	0.508
169.500	164.671	80.008	19.994	103.247	20.331	3.932	0.525
170.000	164.933	80.014	19.995	103.246	20.329	4.093	0.537
170.500	165.179	80.007	19.993	103.249	20.332	3.833	0.527
171.000	165.445	80.008	19.995	103.249	20.327	4.188	0.511
171.500	165.670	80.015	19.993	103.252	20.328	4.132	0.502
172.000	165.924	80.003	19.993	103.257	20.330	3.963	0.485
172.500	166.191	79.991	19.994	103.253	20.325	4.371	0.500
173.000	166.436	80.010	19.993	103.250	20.331	3.944	0.516
173.500	166.678	80.004	19.994	103.248	20.329	4.080	0.499
174.000	166.926	80.005	19.995	103.248	20.327	4.189	0.489
174.500	167.155	80.008	19.992	103.247	20.328	4.142	0.484
175.000	167.426	80.005	19.994	103.250	20.332	3.880	0.489
175.500	167.675	80.003	19.994	103.251	20.329	4.087	0.510
176.000	167.952	80.004	19.993	103.252	20.331	3.895	0.523
176.500	168.178	80.005	19.993	103.251	20.326	4.305	0.514
177.000	168.409	80.005	19.994	103.252	20.329	4.044	0.480
177.500	168.669	80.011	19.994	103.252	20.325	4.336	0.473
178.000	168.932	80.008	19.994	103.253	20.327	4.204	0.507
178.500	169.183	80.011	19.994	103.252	20.329	4.048	0.519
179.000	169.412	80.010	19.992	103.253	20.327	4.227	0.497
179.500	169.690	80.003	19.994	103.253	20.322	4.582	0.494
180.000	169.919	79.996	19.994	103.253	20.325	4.342	0.507
180.500	170.203	80.007	19.994	103.250	20.327	4.210	0.509
181.000	170.427	79.990	19.997	103.253	20.326	4.245	0.510
181.500	170.691	80.001	19.995	103.249	20.329	4.049	0.498
182.000	170.904	80.007	19.994	103.247	20.325	4.328	0.483
182.500	171.206	80.004	19.993	103.245	20.327	4.217	0.496
183.000	171.457	80.020	19.992	103.245	20.328	4.124	0.534
183.500	171.720	80.010	19.992	103.248	20.326	4.279	0.533
184.000	171.881	80.000	19.996	103.254	20.328	4.171	0.469
184.500	172.142	80.017	19.993	103.254	20.329	4.091	0.424
185.000	172.391	80.001	19.993	103.257	20.325	4.347	0.466
185.500	172.639	80.007	19.994	103.259	20.323	4.475	0.503
186.000	172.935	80.012	19.993	103.254	20.326	4.281	0.521
186.500	173.161	79.995	19.994	103.252	20.328	4.126	0.534
187.000	173.392	80.011	19.993	103.251	20.326	4.262	0.489
187.500	173.640	79.993	19.994	103.251	20.325	4.349	0.468
188.000	173.906	80.002	19.995	103.248	20.326	4.282	0.497
188.500	174.144	80.013	19.995	103.247	20.328	4.120	0.509
189.000	174.391	80.004	19.994	103.246	20.322	4.593	0.494
189.500	174.667	80.005	19.994	103.249	20.321	4.666	0.504
190.001	174.903	80.021	19.993	103.247	20.324	4.431	0.518
190.501	175.142	80.018	19.995	103.251	20.324	4.389	0.493
191.000	175.382	79.998	19.996	103.253	20.323	4.496	0.476
191.500	175.604	80.007	19.992	103.254	20.326	4.282	0.470
192.000	175.887	79.999	19.995	103.255	20.318	4.832	0.484
192.500	176.084	80.012	19.992	103.256	20.324	4.406	0.492
193.000	176.356	79.995	19.995	103.255	20.324	4.389	0.475
193.500	176.619	80.001	19.995	103.252	20.322	4.536	0.502
194.000	176.826	80.000	19.995	103.250	20.328	4.130	0.503
194.500	177.131	80.008	19.992	103.246	20.324	4.428	0.491
195.000	177.391	79.992	19.996	103.248	20.321	4.662	0.538
195.500	177.611	80.019	19.995	103.245	20.320	4.736	0.523
196.000	177.830	79.998	19.996	103.248	20.321	4.627	0.460
196.500	178.094	80.000	19.995	103.246	20.318	4.827	0.461
197.000	178.365	79.995	19.995	103.250	20.320	4.675	0.509
197.500	178.596	80.001	19.996	103.248	20.319	4.741	0.518
198.000	178.815	80.002	19.996	103.249	20.322	4.576	0.476
198.500	179.105	80.013	19.995	103.248	20.325	4.341	0.480
199.000	179.334	80.001	19.998	103.257	20.323	4.526	0.514
199.500	179.571	79.999	19.995	103.244	20.320	4.730	0.493
200.000	179.817	80.000	19.995	103.222	20.317	4.908	0.475
200.500	180.059	79.998	19.994	103.208	20.322	4.586	0.485
201.000	180.336	80.007	19.994	103.197	20.320	4.683	0.503
201.500	180.527	79.996	19.996	103.182	20.319	4.799	0.493
202.000	180.799	80.010	19.996	103.192	20.319	4.771	0.466
202.500	181.029	80.006	19.996	103.222	20.322	4.576	0.482
203.000	181.299	79.984	19.992	103.272	20.317	4.905	0.501
203.500	181.537	79.989	19.998	103.295	20.320	4.724	0.504
204.000	181.771	80.000	19.997	103.303	20.320	4.730	0.490
204.500	182.024	80.001	19.995	103.305	20.319	4.777	0.479
205.000	182.287	80.012	19.995	103.296	20.320	4.679	0.501
205.500	182.538	80.006	19.995	103.264	20.316	4.963	0.515
206.000	182.738	80.004	19.995	103.252	20.319	4.747	0.483
206.500	182.994	80.009	19.996	103.252	20.318	4.817	0.453
207.000	183.226	80.000	19.998	103.248	20.323	4.458	0.472
207.500	183.480	79.994	19.996	103.246	20.318	4.817	0.487
208.000	183.727	80.008	19.997	103.242	20.320	4.739	0.494
208.500	183.965	80.011	19.995	103.242	20.317	4.899	0.493
209.000	184.204	80.003	19.994	103.243	20.318	4.819	0.481
209.500	184.470	80.007	19.995	103.247	20.315	5.052	0.491
210.000	184.684	79.991	19.997	103.249	20.313	5.178	0.492
210.500	184.994	80.016	19.992	103.244	20.315	5.052	0.502
211.000	185.228	79.999	19.995	103.247	20.316	5.003	0.534
211.500	185.445	80.004	19.996	103.241	20.315	5.097	0.497
212.000	185.734	80.000	19.994	103.240	20.319	4.770	0.478
212.500	185.960	80.005	19.995	103.239	20.319	4.809	0.511
213.000	186.240	80.008	19.993	103.246	20.317	4.940	0.511
213.500	186.476	80.005	19.994	103.246	20.316	4.965	0.511
214.000	186.744	80.004	19.995	103.249	20.314	5.103	0.510
214.500	187.004	80.004	19.995	103.252	20.315	5.097	0.516
215.000	187.193	80.007	19.996	103.254	20.315	5.070	0.489
215.500	187.484	80.004	19.993	103.252	20.313	5.219	0.465
216.000	187.700	80.005	19.994	103.247	20.312	5.266	0.493
216.500	187.922	80.004	19.996	103.245	20.314	5.139	0.473
217.000	188.182	80.001	19.996	103.244	20.313	5.229	0.460
217.500	188.414	80.006	19.994	103.242	20.313	5.217	0.487
218.000	188.667	80.005	19.995	103.242	20.312	5.305	0.488
218.500	188.928	79.999	20.001	103.246	20.314	5.109	0.500
219.000	189.151	80.003	19.996	103.244	20.312	5.243	0.500
219.500	189.415	79.999	19.995	103.242	20.311	5.332	0.486
220.000	189.645	79.999	19.995	103.240	20.308	5.545	0.490
220.500	189.862	80.004	19.996	103.240	20.313	5.231	0.470
221.000	190.166	80.002	19.994	103.236	20.313	5.178	0.484
221.500	190.395	80.001	19.995	103.235	20.308	5.532	0.527
222.000	190.600	80.008	19.994	103.237	20.312	5.305	0.483
222.500	190.877	80.001	19.994	103.241	20.309	5.454	0.458
223.000	191.126	80.001	19.997	103.242	20.314	5.118	0.504
223.500	191.364	80.004	19.995	103.243	20.310	5.431	0.507
224.000	191.575	80.007	19.995	103.247	20.311	5.365	0.468
224.500	191.857	80.005	19.994	103.247	20.310	5.404	0.470
225.000	192.080	80.002	19.995	103.247	20.309	5.481	0.499
225.500	192.335	80.004	19.997	103.247	20.311	5.361	0.491
226.000	192.596	79.999	19.996	103.248	20.312	5.265	0.497
226.500	192.843	80.002	19.995	103.245	20.311	5.339	0.512
227.000	193.088	80.007	19.995	103.244	20.312	5.296	0.500
227.500	193.319	80.003	19.995	103.244	20.312	5.308	0.484
228.000	193.542	80.000	19.996	103.245	20.311	5.382	0.465
228.500	193.793	80.002	19.996	103.245	20.309	5.520	0.464
229.000	194.042	80.003	19.997	103.248	20.308	5.591	0.487
229.500	194.274	80.001	19.996	103.249	20.310	5.409	0.490
230.000	194.516	80.004	19.996	103.249	20.314	5.110	0.478
230.500	194.743	79.999	19.996	103.249	20.309	5.458	0.472
231.000	194.986	80.002	19.996	103.249	20.310	5.438	0.469
231.500	195.251	80.003	19.996	103.248	20.310	5.406	0.489
232.000	195.517	80.004	19.995	103.247	20.306	5.695	0.520
232.500	195.749	80.006	19.995	103.246	20.310	5.427	0.515
233.000	195.955	80.004	19.995	103.246	20.307	5.631	0.468
233.500	196.225	80.004	19.995	103.247	20.307	5.625	0.457
234.000	196.477	80.005	19.996	103.247	20.309	5.503	0.499
234.500	196.694	80.002	19.995	103.248	20.311	5.320	0.496
235.000	196.983	80.004	19.994	103.247	20.309	5.489	0.488
235.500	197.197	79.998	19.997	103.246	20.306	5.724	0.505
236.000	197.450	80.004	19.996	103.245	20.306	5.685	0.485
236.500	197.694	80.004	19.995	103.243	20.307	5.638	0.482
237.000	197.957	80.003	19.995	103.240	20.302	5.961	0.502
237.500	198.186	80.003	19.994	103.237	20.309	5.493	0.500
238.000	198.445	80.002	19.996	103.236	20.303	5.945	0.490
238.500	198.691	80.001	19.996	103.236	20.304	5.839	0.496
239.000	198.950	80.004	19.995	103.237	20.304	5.833	0.505
239.500	199.170	80.000	19.996	103.240	20.304	5.813	0.492
240.000	199.408	80.004	19.995	103.238	20.303	5.885	0.468
240.500	199.684	80.007	19.992	103.239	20.307	5.642	0.486
241.000	199.936	80.004	19.995	103.241	20.307	5.654	0.521
241.500	200.131	80.004	19.995	103.243	20.303	5.951	0.488
242.000	200.400	80.004	19.994	103.244	20.302	6.019	0.456
242.500	200.652	80.003	19.992	103.250	20.306	5.701	0.493
243.000	200.904	80.001	19.989	103.249	20.304	5.829	0.513
243.500	201.156	80.004	19.993	103.249	20.306	5.720	0.504
244.000	201.418	80.005	19.995	103.249	20.304	5.824	0.509
244.500	201.640	80.005	19.994	103.245	20.300	6.143	0.499
245.000	201.892	80.002	19.996	103.245	20.300	6.162	0.479
245.500	202.164	80.005	19.994	103.242	20.300	6.114	0.499
246.000	202.368	80.015	19.993	103.240	20.302	6.000	0.500
246.500	202.665	80.006	19.994	103.242	20.304	5.836	0.489
247.000	202.887	80.003	19.997	103.246	20.301	6.087	0.510
247.500	203.145	80.001	19.994	103.245	20.302	5.984	0.499
248.000	203.364	80.006	19.992	103.249	20.300	6.114	0.479
248.500	203.639	80.005	19.994	103.250	20.301	6.025	0.486
249.000	203.859	80.005	19.995	103.247	20.301	6.042	0.494
249.500	204.091	80.005	19.994	103.247	20.300	6.128	0.474
250.000	204.286	80.008	19.995	103.249	20.301	6.064	0.440
250.500	204.582	80.004	19.995	103.247	20.303	5.937	0.459
251.000	204.860	80.004	19.993	103.248	20.298	6.250	0.532
251.500	205.114	80.008	19.992	103.248	20.298	6.260	0.553
252.000	205.315	80.006	19.993	103.249	20.301	6.073	0.494
252.500	205.591	80.001	19.994	103.250	20.301	6.068	0.466
253.000	205.807	79.999	19.995	103.249	20.301	6.068	0.484
253.500	206.097	80.006	19.994	103.247	20.301	6.062	0.499
254.000	206.300	80.002	19.995	103.245	20.299	6.172	0.499
254.500	206.576	80.006	19.995	103.241	20.303	5.932	0.486
255.000	206.853	80.009	19.990	103.239	20.300	6.128	0.516
255.500	207.066	80.000	19.995	103.240	20.303	5.910	0.521
256.000	207.344	80.002	19.994	103.242	20.299	6.205	0.490
256.500	207.597	80.005	19.998	103.244	20.299	6.197	0.511
257.000	207.875	79.999	20.001	103.246	20.297	6.314	0.532
257.500	208.120	80.011	19.995	103.244	20.295	6.502	0.527
258.000	208.354	79.996	20.000	103.246	20.296	6.416	0.501
258.500	208.593	80.002	19.996	103.243	20.298	6.275	0.476
259.000	208.840	80.002	19.995	103.243	20.299	6.201	0.480
259.500	209.091	80.013	19.992	103.241	20.298	6.256	0.492
260.000	209.308	80.004	19.994	103.247	20.295	6.489	0.483
260.500	209.580	80.018	19.993	103.245	20.297	6.363	0.479
261.000	209.832	79.985	19.994	103.246	20.296	6.401	0.506
261.500	210.130	80.005	19.992	103.243	20.300	6.147	0.537
262.000	210.290	80.000	19.994	103.248	20.297	6.360	0.504
262.500	210.556	79.995	19.995	103.244	20.295	6.515	0.442
263.000	210.794	79.990	19.998	103.242	20.301	6.026	0.465
263.500	211.099	80.002	19.995	103.246	20.299	6.207	0.523
264.000	211.312	80.008	19.993	103.246	20.292	6.704	0.530
264.500	211.579	80.006	19.994	103.243	20.296	6.389	0.499
265.000	211.853	80.000	19.995	103.243	20.297	6.344	0.511
265.500	212.080	80.002	19.998	103.247	20.295	6.461	0.521
266.000	212.344	80.009	19.991	103.246	20.294	6.554	0.496
266.500	212.577	80.004	19.995	103.249	20.296	6.401	0.494
267.000	212.829	80.007	19.993	103.246	20.295	6.463	0.491
267.500	213.098	80.009	19.991	103.243	20.296	6.382	0.503
268.000	213.292	80.004	19.995	103.237	20.296	6.425	0.492
268.500	213.563	80.004	19.999	103.236	20.295	6.485	0.465
269.000	213.812	80.002	19.995	103.234	20.296	6.419	0.493
269.500	214.070	80.007	19.997	103.237	20.295	6.487	0.514
270.000	214.304	80.012	19.987	103.241	20.295	6.518	0.499
270.500	214.538	79.998	19.999	103.246	20.292	6.702	0.479
271.000	214.793	80.003	19.991	103.247	20.298	6.292	0.478
271.500	214.993	79.998	19.997	103.247	20.294	6.576	0.472
272.000	215.283	80.008	19.991	103.243	20.295	6.498	0.473
272.500	215.540	80.000	19.993	103.236	20.295	6.492	0.519
273.000	215.811	80.007	19.995	103.228	20.294	6.566	0.537
273.500	216.030	80.008	19.992	103.229	20.294	6.560	0.509
274.000	216.300	79.996	19.994	103.231	20.295	6.451	0.490
274.500	216.571	80.004	19.993	103.234	20.293	6.653	0.515
275.000	216.825	80.001	19.996	103.238	20.292	6.690	0.533
275.500	217.041	80.005	19.993	103.235	20.293	6.599	0.498
276.000	217.306	80.001	19.994	103.229	20.291	6.799	0.475
276.500	217.553	80.002	19.996	103.229	20.289	6.879	0.497
277.000	217.809	80.015	19.993	103.227	20.294	6.546	0.508
277.500	218.046	80.003	19.996	103.231	20.294	6.527	0.498
278.000	218.282	80.002	19.993	103.240	20.294	6.570	0.483
278.500	218.564	80.004	19.994	103.243	20.295	6.478	0.495
279.000	218.793	79.994	19.994	103.241	20.291	6.798	0.514
279.500	219.085	80.004	19.994	103.241	20.292	6.734	0.517
280.000	219.280	80.004	19.994	103.240	20.294	6.579	0.504
280.500	219.553	80.013	19.993	103.240	20.292	6.682	0.477
281.000	219.825	80.000	19.994	103.243	20.290	6.816	0.507
281.500	220.036	80.005	19.994	103.240	20.288	6.974	0.514
282.000	220.298	80.005	19.994	103.237	20.293	6.661	0.478
282.500	220.501	79.993	19.994	103.236	20.293	6.622	0.469
283.000	220.780	79.992	19.995	103.230	20.290	6.824	0.474
283.500	221.029	80.004	19.994	103.227	20.289	6.916	0.505
284.000	221.287	80.002	19.994	103.231	20.295	6.475	0.517
284.500	221.528	80.002	19.997	103.236	20.288	6.952	0.503
285.000	221.800	80.001	19.995	103.233	20.288	7.001	0.506
285.500	222.044	80.001	19.995	103.239	20.289	6.942	0.515
286.000	222.301	80.005	19.992	103.238	20.289	6.888	0.508
286.500	222.535	79.991	19.997	103.241	20.290	6.820	0.496
287.000	222.747	80.016	19.993	103.234	20.289	6.878	0.468
287.500	223.072	79.985	19.998	103.238	20.291	6.770	0.492
288.000	223.296	79.999	19.995	103.235	20.285	7.214	0.543
288.500	223.504	80.017	19.995	103.235	20.284	7.296	0.490
289.000	223.763	79.996	19.997	103.235	20.287	7.042	0.449
289.500	224.031	79.989	19.996	103.234	20.288	6.976	0.497
290.000	224.263	79.993	19.995	103.230	20.281	7.463	0.514
290.500	224.538	79.992	19.995	103.229	20.286	7.119	0.504
291.000	224.769	80.007	19.996	103.227	20.283	7.327	0.507
291.500	225.056	80.007	19.994	103.224	20.282	7.389	0.512
292.000	225.305	79.998	19.996	103.230	20.286	7.096	0.527
292.500	225.520	80.002	19.997	103.235	20.282	7.426	0.500
293.000	225.813	80.000	19.996	103.236	20.281	7.483	0.486
293.500	226.019	80.009	19.995	103.240	20.277	7.735	0.503
294.000	226.293	79.997	19.996	103.241	20.279	7.595	0.490
294.500	226.539	80.010	19.996	103.238	20.282	7.437	0.500
295.000	226.798	79.994	19.999	103.236	20.282	7.416	0.512
295.500	227.063	80.008	19.994	103.237	20.278	7.672	0.514
296.000	227.316	80.005	19.997	103.236	20.280	7.564	0.521
296.500	227.600	80.001	19.994	103.233	20.277	7.780	0.528
297.000	227.831	80.012	19.992	103.229	20.277	7.796	0.526
297.500	228.021	80.005	19.991	103.227	20.277	7.790	0.468
298.000	228.323	80.019	19.991	103.229	20.275	7.897	0.456
298.500	228.563	80.013	19.996	103.232	20.278	7.675	0.517
299.000	228.825	79.999	19.996	103.238	20.274	7.962	0.522
299.500	229.065	80.005	19.993	103.244	20.276	7.875	0.502
300.000	229.329	80.003	19.996	103.246	20.276	7.817	0.503
300.500	229.579	79.999	19.995	103.246	20.278	7.706	0.509
301.000	229.832	80.000	19.996	103.240	20.272	8.122	0.508
301.500	230.065	80.004	19.995	103.234	20.272	8.143	0.494
302.000	230.326	80.007	19.994	103.232	20.270	8.293	0.490
302.500	230.523	80.001	19.996	103.235	20.272	8.095	0.476
303.000	230.823	79.998	19.994	103.236	20.273	8.038	0.478
303.500	231.063	80.005	19.995	103.239	20.267	8.450	0.519
304.000	231.325	79.996	19.992	103.243	20.266	8.551	0.521
304.500	231.533	80.004	19.996	103.244	20.270	8.271	0.486
305.000	231.819	80.004	19.996	103.235	20.267	8.485	0.482
305.500	232.053	80.001	19.995	103.233	20.266	8.551	0.507
306.000	232.296	80.015	19.995	103.232	20.269	8.372	0.499
306.500	232.561	80.003	19.994	103.233	20.264	8.694	0.493
307.000	232.800	80.025	19.990	103.234	20.268	8.446	0.506
307.500	232.995	79.994	19.995	103.246	20.263	8.753	0.469
308.000	233.250	79.998	19.996	103.248	20.267	8.461	0.442
308.500	233.571	80.002	19.992	103.245	20.267	8.492	0.513
309.000	233.777	80.007	19.994	103.246	20.263	8.760	0.552
309.500	234.018	80.008	19.995	103.242	20.264	8.698	0.487
310.000	234.260	80.019	19.995	103.234	20.263	8.768	0.465
310.500	234.512	80.000	19.994	103.239	20.260	8.988	0.489
311.000	234.742	80.005	19.994	103.244	20.259	9.054	0.488
311.500	234.994	80.006	19.997	103.244	20.261	8.899	0.482
312.000	235.259	80.008	19.993	103.248	20.255	9.305	0.500
312.500	235.483	80.007	19.998	103.250	20.261	8.943	0.503
313.000	235.738	80.000	19.994	103.248	20.257	9.176	0.483
313.500	236.015	80.009	19.995	103.245	20.256	9.264	0.506
314.000	236.215	80.009	19.995	103.245	20.259	9.063	0.505
314.500	236.504	80.019	19.994	103.247	20.254	9.403	0.483
315.000	236.763	80.001	19.994	103.247	20.253	9.450	0.519
315.500	236.975	80.007	19.994	103.246	20.261	8.894	0.509
316.000	237.250	80.004	19.993	103.246	20.258	9.108	0.479
316.500	237.492	80.008	19.998	103.246	20.256	9.238	0.502
317.000	237.719	79.997	19.997	103.244	20.255	9.347	0.493
317.500	237.985	79.989	19.996	103.241	20.254	9.378	0.480
318.000	238.179	79.996	19.996	103.243	20.256	9.264	0.476
318.500	238.468	79.997	19.994	103.245	20.255	9.355	0.472
319.000	238.692	80.004	19.995	103.241	20.252	9.563	0.498
319.500	238.908	80.012	19.994	103.239	20.255	9.328	0.477
320.000	239.179	80.000	19.995	103.242	20.252	9.565	0.463
320.500	239.449	80.015	19.994	103.243	20.250	9.687	0.514
321.000	239.653	80.011	19.992	103.244	20.249	9.747	0.507
321.500	239.933	79.999	19.996	103.248	20.249	9.743	0.479
322.000	240.169	80.007	19.996	103.253	20.247	9.899	0.500
322.500	240.411	80.009	19.995	103.252	20.249	9.757	0.497
323.000	240.643	80.000	19.995	103.252	20.245	10.031	0.476
323.500	240.892	80.006	19.994	103.250	20.244	10.118	0.477
324.000	241.131	79.998	19.996	103.249	20.245	10.085	0.485
324.500	241.378	79.994	19.996	103.247	20.248	9.854	0.487
325.000	241.628	79.985	19.998	103.246	20.244	10.126	0.491
325.500	241.880	80.001	19.996	103.243	20.242	10.234	0.500
326.000	242.140	80.002	19.995	103.243	20.242	10.282	0.507
326.500	242.386	80.006	19.994	103.243	20.240	10.377	0.509
327.000	242.601	80.003	19.995	103.243	20.243	10.177	0.484
327.500	242.906	80.003	19.996	103.245	20.245	10.034	0.490
328.000	243.114	80.006	19.996	103.249	20.239	10.487	0.516
328.500	243.403	80.005	19.996	103.250	20.240	10.403	0.505
329.000	243.613	80.010	19.995	103.251	20.243	10.223	0.498
329.500	243.918	80.016	19.994	103.251	20.240	10.407	0.507
330.000	244.103	80.002	19.995	103.251	20.239	10.506	0.502
330.500	244.361	80.005	19.994	103.250	20.238	10.555	0.466
331.000	244.608	80.013	19.994	103.249	20.239	10.502	0.474
331.500	244.889	80.016	19.994	103.248	20.238	10.545	0.517
332.000	245.166	79.996	19.996	103.249	20.237	10.619	0.543
332.500	245.369	80.012	19.995	103.247	20.236	10.716	0.519
333.000	245.603	80.001	19.995	103.248	20.238	10.531	0.458
333.500	245.843	80.014	19.995	103.248	20.234	10.807	0.456
334.000	246.109	80.021	19.993	103.247	20.233	10.877	0.490
334.500	246.396	80.007	19.995	103.248	20.234	10.825	0.529
335.000	246.580	79.983	19.999	103.251	20.233	10.914	0.511
335.500	246.860	80.004	19.994	103.247	20.231	11.015	0.467
336.000	247.132	80.003	19.996	103.247	20.231	11.063	0.508
336.500	247.342	80.010	19.993	103.244	20.232	10.992	0.517
337.000	247.583	80.003	19.994	103.243	20.230	11.098	0.466
337.500	247.832	79.996	19.994	103.238	20.228	11.265	0.470
338.000	248.094	80.005	19.993	103.241	20.228	11.258	0.501
338.500	248.365	80.006	19.992	103.242	20.228	11.234	0.522
339.000	248.606	80.000	19.994	103.247	20.228	11.269	0.523
339.500	248.841	80.004	19.994	103.246	20.225	11.462	0.494
340.000	249.080	79.995	19.999	103.248	20.223	11.588	0.475
340.500	249.354	80.004	19.996	103.246	20.222	11.693	0.494
341.000	249.654	80.009	19.995	103.245	20.224	11.566	0.543
341.500	249.912	80.009	19.995	103.247	20.221	11.734	0.566
342.000	250.114	79.997	19.993	103.245	20.223	11.646	0.509
342.500	250.397	80.022	19.991	103.243	20.220	11.846	0.472
343.000	250.659	80.007	19.995	103.249	20.218	11.951	0.515
343.500	250.907	80.002	19.995	103.249	20.219	11.932	0.527
344.001	251.157	80.012	19.993	103.247	20.216	12.111	0.504
344.501	251.385	80.004	19.995	103.249	20.218	11.947	0.488
345.000	251.671	80.008	19.994	103.250	20.217	12.030	0.497
345.500	251.920	80.001	19.996	103.247	20.215	12.215	0.525
346.000	252.155	80.010	19.992	103.247	20.215	12.180	0.509
346.500	252.409	80.005	19.994	103.248	20.208	12.664	0.486
347.000	252.660	80.005	19.994	103.247	20.212	12.410	0.497
347.500	252.916	80.002	19.995	103.247	20.208	12.688	0.506
348.000	253.180	80.011	19.993	103.246	20.208	12.721	0.514
348.500	253.382	80.002	19.994	103.248	20.206	12.808	0.493
349.000	253.642	80.005	19.994	103.248	20.207	12.774	0.463
349.500	253.877	80.005	19.994	103.247	20.206	12.811	0.478
350.000	254.134	80.005	19.993	103.248	20.203	13.023	0.494
350.500	254.389	80.018	19.992	103.248	20.203	13.044	0.503
351.000	254.632	80.011	19.994	103.250	20.202	13.107	0.505
351.500	254.884	80.000	19.995	103.249	20.201	13.220	0.496
352.000	255.157	80.006	19.995	103.248	20.202	13.127	0.510
352.500	255.404	80.009	19.994	103.249	20.203	13.070	0.522
353.000	255.621	80.006	19.998	103.251	20.198	13.390	0.492
353.500	255.877	80.000	19.995	103.248	20.197	13.479	0.468
354.000	256.119	80.005	19.994	103.250	20.194	13.681	0.485
354.500	256.392	80.002	19.995	103.252	20.193	13.767	0.506
355.000	256.666	80.004	19.995	103.252	20.194	13.660	0.531
355.500	256.883	80.005	19.994	103.248	20.192	13.798	0.520
356.000	257.169	80.008	19.994	103.247	20.195	13.608	0.497
356.500	257.381	80.021	19.992	103.249	20.191	13.931	0.500
357.000	257.630	80.012	19.995	103.252	20.190	13.966	0.480
357.500	257.897	80.004	19.995	103.252	20.188	14.102	0.489
358.000	258.162	80.004	19.993	103.255	20.188	14.087	0.524
358.500	258.415	80.008	19.994	103.257	20.185	14.323	0.525
359.000	258.628	80.005	19.996	103.257	20.181	14.598	0.491
359.500	258.892	80.002	19.996	103.253	20.182	14.524	0.471
360.000	259.110	79.993	19.997	103.251	20.180	14.665	0.479
360.500	259.402	80.004	19.993	103.247	20.179	14.750	0.496
361.000	259.622	80.009	19.993	103.249	20.178	14.828	0.511
361.500	259.854	80.011	19.994	103.251	20.178	14.795	0.482
362.000	260.082	80.016	19.993	103.253	20.178	14.797	0.456
362.500	260.323	79.991	19.996	103.255	20.176	14.996	0.465
363.000	260.597	80.002	19.995	103.255	20.177	14.898	0.492
363.500	260.846	80.019	19.992	103.252	20.175	15.039	0.518
364.000	261.103	80.000	19.994	103.250	20.173	15.173	0.514
364.500	261.343	79.998	19.996	103.249	20.174	15.088	0.502
365.000	261.558	80.001	19.997	103.249	20.170	15.368	0.477
365.500	261.860	80.004	19.994	103.250	20.170	15.374	0.486
366.000	262.061	80.005	19.992	103.253	20.170	15.393	0.510
366.500	262.357	80.012	19.993	103.253	20.170	15.381	0.500
367.000	262.595	80.010	19.995	103.254	20.169	15.475	0.515
367.500	262.848	80.008	19.992	103.256	20.165	15.769	0.513
368.000	263.068	80.002	19.995	103.259	20.166	15.670	0.482
368.500	263.343	80.005	19.994	103.263	20.163	15.875	0.484
369.000	263.560	80.014	19.991	103.267	20.165	15.780	0.493
369.500	263.783	80.005	19.995	103.269	20.163	15.934	0.466
370.000	264.058	80.001	19.992	103.264	20.160	16.115	0.469
370.500	264.326	80.002	19.995	103.263	20.159	16.201	0.521
371.000	264.559	80.001	19.993	103.261	20.155	16.506	0.522
371.500	264.831	80.001	19.992	103.256	20.152	16.656	0.503
372.000	265.049	80.007	19.992	103.257	20.151	16.755	0.497
372.500	265.280	79.999	19.996	103.262	20.149	16.901	0.470
373.000	265.551	80.017	19.990	103.260	20.147	17.065	0.476
373.500	265.793	80.010	19.991	103.264	20.150	16.828	0.507
374.000	266.015	79.996	19.994	103.269	20.147	17.070	0.488
374.500	266.287	80.022	19.991	103.269	20.148	16.976	0.480
375.000	266.514	79.990	19.997	103.270	20.144	17.255	0.497
375.500	266.799	80.006	19.994	103.269	20.141	17.439	0.505
376.000	267.044	80.006	19.992	103.263	20.140	17.528	0.521
376.500	267.290	79.993	19.996	103.261	20.139	17.628	0.511
377.000	267.543	80.018	19.993	103.256	20.140	17.551	0.495
377.500	267.773	79.989	19.991	103.257	20.140	17.554	0.491
378.000	268.017	79.991	19.996	103.261	20.136	17.861	0.479
378.500	268.259	80.003	19.994	103.264	20.137	17.780	0.480
379.000	268.585	80.007	19.994	103.265	20.131	18.201	0.527
379.500	268.807	80.011	19.993	103.273	20.130	18.262	0.559
380.000	269.032	80.004	19.995	103.276	20.128	18.400	0.498
380.500	269.295	80.010	19.995	103.280	20.131	18.164	0.467
381.000	269.533	80.006	19.995	103.283	20.124	18.662	0.494
381.500	269.786	80.002	19.995	103.285	20.127	18.478	0.496
382.000	270.040	80.004	19.997	103.286	20.126	18.519	0.499
382.500	270.275	80.019	19.996	103.284	20.123	18.726	0.498
383.000	270.559	80.010	19.995	103.287	20.124	18.675	0.504
383.500	270.770	80.029	19.995	103.289	20.119	19.054	0.507
384.000	271.055	80.013	19.995	103.293	20.120	18.981	0.496
384.500	271.309	80.006	19.998	103.293	20.116	19.233	0.518
385.000	271.569	79.998	19.995	103.289	20.119	19.071	0.526
385.500	271.789	79.989	19.998	103.284	20.114	19.400	0.498
386.000	272.055	80.005	19.993	103.277	20.113	19.478	0.483
386.500	272.307	80.004	19.997	103.277	20.109	19.718	0.502
387.000	272.597	80.009	19.994	103.276	20.108	19.809	0.530
387.500	272.806	80.004	19.995	103.281	20.109	19.736	0.521
388.000	273.051	79.996	19.994	103.286	20.105	20.027	0.476
388.500	273.285	80.006	19.995	103.292	20.102	20.278	0.466
389.001	273.533	80.024	19.991	103.290	20.102	20.248	0.480
389.500	273.817	80.001	19.999	103.297	20.100	20.399	0.507
390.000	274.057	80.012	19.995	103.294	20.097	20.593	0.528
390.500	274.241	80.001	19.996	103.296	20.094	20.800	0.474
391.000	274.559	79.994	19.995	103.294	20.095	20.771	0.463
391.500	274.778	79.989	19.995	103.292	20.094	20.792	0.519
392.000	275.020	80.012	19.992	103.285	20.095	20.740	0.499
392.500	275.280	80.008	19.994	103.289	20.088	21.282	0.482
393.000	275.559	79.996	19.996	103.287	20.090	21.120	0.521
393.500	275.731	79.986	19.997	103.286	20.086	21.377	0.495
394.000	276.053	79.998	19.996	103.281	20.084	21.548	0.472
394.500	276.287	79.996	19.996	103.281	20.086	21.385	0.524
395.000	276.537	79.995	19.994	103.276	20.083	21.635	0.520
395.500	276.814	80.008	19.994	103.274	20.078	21.927	0.505
396.000	277.019	80.004	19.994	103.279	20.076	22.082	0.505
396.500	277.269	80.011	19.995	103.286	20.080	21.820	0.469
397.000	277.527	80.000	19.994	103.288	20.078	21.971	0.482
397.500	277.788	80.005	20.000	103.291	20.074	22.253	0.514
398.000	278.057	80.017	19.994	103.292	20.075	22.146	0.524
398.500	278.258	80.007	19.994	103.291	20.072	22.372	0.499
399.000	278.514	80.008	19.994	103.293	20.069	22.576	0.464
399.500	278.759	80.004	19.997	103.292	20.071	22.489	0.479
400.000	279.022	80.032	19.992	103.290	20.068	22.641	0.505
400.500	279.292	80.005	19.995	103.296	20.067	22.755	0.521
401.000	279.513	80.013	19.995	103.293	20.065	22.884	0.512
401.500	279.746	80.009	19.997	103.290	20.064	22.949	0.472
402.000	279.969	80.002	19.994	103.290	20.063	23.010	0.454
402.500	280.221	79.995	19.996	103.292	20.061	23.161	0.465
403.000	280.471	80.009	19.994	103.285	20.058	23.382	0.489
403.500	280.679	80.010	19.993	103.285	20.055	23.599	0.480
404.000	280.922	80.009	19.992	103.287	20.061	23.146	0.454
404.500	281.189	80.009	19.995	103.291	20.058	23.390	0.480
405.000	281.432	79.999	19.995	103.291	20.052	23.800	0.510
405.500	281.710	80.009	19.997	103.292	20.051	23.915	0.516
406.000	281.953	80.007	19.995	103.292	20.048	24.132	0.521
406.500	282.213	80.000	19.996	103.294	20.049	24.061	0.512
407.000	282.470	80.001	20.002	103.292	20.044	24.364	0.511
407.500	282.707	79.999	19.996	103.291	20.042	24.564	0.506
408.000	282.940	80.003	19.995	103.292	20.041	24.579	0.482
408.500	283.197	80.012	19.995	103.292	20.038	24.842	0.479
409.000	283.458	80.006	19.994	103.290	20.036	24.952	0.504
409.500	283.694	79.998	19.997	103.293	20.036	24.997	0.508
410.000	283.976	80.006	19.994	103.293	20.034	25.104	0.508
410.500	284.202	80.011	19.995	103.296	20.034	25.093	0.513
411.000	284.445	80.017	19.995	103.296	20.032	25.223	0.488
411.500	284.657	80.005	19.996	103.303	20.028	25.510	0.462
412.000	284.977	80.004	19.996	103.301	20.028	25.519	0.494
412.500	285.183	80.009	19.992	103.301	20.024	25.817	0.529
413.000	285.477	80.006	19.995	103.300	20.025	25.776	0.513
413.500	285.728	80.014	19.995	103.305	20.024	25.828	0.522
414.000	285.935	80.015	19.995	103.304	20.024	25.850	0.501
414.500	286.213	80.006	19.994	103.306	20.025	25.761	0.471
415.000	286.415	80.007	19.997	103.306	20.021	26.035	0.483
415.500	286.718	80.009	19.992	103.304	20.021	26.037	0.493
416.000	286.963	80.018	19.997	103.302	20.016	26.376	0.527
416.500	287.202	80.009	19.999	103.298	20.015	26.459	0.516
417.000	287.432	80.006	19.995	103.294	20.016	26.398	0.476
417.500	287.695	80.016	19.997	103.297	20.013	26.599	0.481
418.000	287.967	80.008	20.000	103.299	20.013	26.608	0.514
418.500	288.212	80.022	19.992	103.296	20.006	27.123	0.526
419.000	288.443	80.021	19.994	103.302	20.006	27.120	0.497
419.500	288.672	80.013	19.995	103.313	20.002	27.399	0.468
420.000	288.895	79.990	19.999	103.320	20.003	27.334	0.456
420.500	289.184	80.005	19.996	103.319	20.001	27.445	0.482
421.000	289.398	80.002	19.997	103.323	20.000	27.557	0.508
421.501	289.691	79.993	19.994	103.318	19.999	27.622	0.505
422.000	289.903	79.999	19.997	103.314	19.999	27.585	0.506
422.500	290.163	79.986	20.000	103.312	19.994	27.930	0.489
423.000	290.411	80.003	19.993	103.310	19.997	27.736	0.490
423.500	290.639	79.994	19.992	103.311	19.994	27.981	0.492
424.000	290.938	80.015	19.992	103.312	19.993	28.067	0.502
424.500	291.206	80.012	19.994	103.311	19.989	28.334	0.547
425.000	291.420	80.004	19.997	103.313	19.986	28.531	0.524
425.500	291.657	79.997	19.995	103.315	19.983	28.733	0.466
426.000	291.906	80.014	19.993	103.314	19.982	28.791	0.468
426.500	292.188	80.019	19.988	103.321	19.984	28.699	0.509
427.000	292.434	79.996	19.999	103.325	19.986	28.504	0.530
427.500	292.676	80.002	19.998	103.324	19.977	29.162	0.508
428.000	292.951	80.009	19.988	103.327	19.978	29.067	0.503
428.500	293.178	80.007	19.996	103.331	19.977	29.168	0.509
429.000	293.422	80.018	19.991	103.328	19.984	28.685	0.486
429.500	293.664	80.006	19.996	103.328	19.975	29.332	0.478
430.000	293.945	80.003	19.994	103.327	19.968	29.785	0.504
430.500	294.189	79.999	19.991	103.329	19.969	29.760	0.524
431.000	294.389	80.011	19.990	103.326	19.973	29.430	0.484
431.500	294.702	80.000	19.994	103.328	19.969	29.773	0.478
432.000	294.908	80.003	19.998	103.325	19.970	29.707	0.516
432.500	295.192	80.005	19.994	103.326	19.965	30.021	0.505
433.000	295.413	80.011	19.997	103.326	19.964	30.113	0.498
433.500	295.643	80.007	19.996	103.325	19.964	30.086	0.478
434.000	295.905	80.002	19.994	103.326	19.960	30.355	0.472
434.500	296.163	80.026	19.992	103.326	19.961	30.336	0.506
435.000	296.423	80.008	19.996	103.329	19.956	30.674	0.519
435.500	296.642	80.005	19.995	103.331	19.952	30.976	0.498
436.000	296.918	80.008	19.994	103.333	19.953	30.858	0.487
436.500	297.198	80.005	19.992	103.333	19.949	31.199	0.526
437.000	297.416	80.006	19.995	103.333	19.948	31.273	0.527
437.500	297.722	80.008	19.994	103.328	19.941	31.740	0.511
438.000	297.903	80.001	19.993	103.326	19.943	31.569	0.505
438.500	298.149	80.004	19.994	103.325	19.942	31.695	0.457
439.000	298.395	80.003	19.996	103.325	19.939	31.906	0.460
439.500	298.633	80.002	19.995	103.326	19.940	31.825	0.488
440.000	298.901	80.002	19.998	103.328	19.935	32.163	0.495
440.500	299.175	80.007	19.996	103.329	19.931	32.444	0.524
441.000	299.393	80.006	19.993	103.330	19.932	32.357	0.517
441.500	299.659	80.003	19.996	103.331	19.932	32.407	0.488
442.000	299.900	80.004	19.995	103.332	19.928	32.671	0.495
442.500	300.138	80.002	19.993	103.333	19.927	32.747	0.493
443.000	300.382	80.002	19.994	103.334	19.927	32.763	0.481
443.500	300.673	80.003	19.998	103.333	19.925	32.853	0.509
444.000	300.937	80.002	19.997	103.334	19.920	33.215	0.545
444.500	301.231	80.000	19.991	103.334	19.921	33.142	0.556
445.000	301.463	80.008	19.991	103.337	19.916	33.513	0.542
445.500	301.695	80.001	19.996	103.338	19.918	33.380	0.495
446.000	301.997	80.013	19.993	103.338	19.916	33.544	0.499
446.500	302.230	80.003	19.995	103.340	19.914	33.706	0.535
447.000	302.449	80.004	19.994	103.337	19.910	33.956	0.494
447.500	302.738	80.000	19.994	103.332	19.907	34.187	0.480
448.000	303.000	80.004	19.994	103.332	19.908	34.124	0.529
448.500	303.244	80.007	19.992	103.334	19.905	34.316	0.529
449.000	303.489	80.009	19.995	103.334	19.902	34.519	0.498
449.500	303.733	80.006	19.994	103.335	19.901	34.585	0.488
450.000	303.986	80.009	19.992	103.338	19.901	34.637	0.493
450.500	304.226	80.006	19.995	103.340	19.896	34.993	0.495
451.000	304.496	80.005	19.994	103.339	19.893	35.164	0.502
451.500	304.714	80.001	19.998	103.338	19.896	34.962	0.499
452.000	305.012	80.006	19.993	103.338	19.892	35.215	0.502
452.500	305.209	79.997	20.000	103.337	19.890	35.396	0.505
453.000	305.500	80.007	19.992	103.335	19.890	35.408	0.491
453.500	305.737	80.001	19.996	103.336	19.885	35.710	0.508
454.000	305.995	80.001	19.997	103.339	19.882	35.928	0.512
454.500	306.229	80.004	19.993	103.341	19.878	36.218	0.493
455.000	306.478	80.004	19.989	103.342	19.880	36.065	0.487
455.500	306.721	80.008	19.996	103.343	19.882	35.952	0.488
456.000	306.984	80.008	19.993	103.344	19.876	36.379	0.499
456.500	307.238	80.005	19.995	103.346	19.871	36.751	0.512
457.000	307.468	80.003	19.997	103.348	19.871	36.756	0.501
457.500	307.773	80.006	19.993	103.350	19.865	37.184	0.509
458.000	308.003	80.006	19.990	103.355	19.866	37.098	0.534
458.500	308.257	80.009	19.994	103.359	19.865	37.166	0.510
459.000	308.517	80.002	19.999	103.358	19.863	37.282	0.499
459.500	308.783	80.009	19.992	103.357	19.858	37.643	0.520
460.000	309.021	80.006	19.997	103.359	19.856	37.835	0.515
460.500	309.278	80.008	19.992	103.358	19.855	37.913	0.499
461.000	309.533	80.008	19.993	103.358	19.854	37.941	0.503
461.500	309.798	80.002	19.994	103.359	19.851	38.188	0.516
462.000	310.023	80.007	19.990	103.359	19.850	38.248	0.505
462.500	310.282	80.005	19.998	103.360	19.846	38.550	0.487
463.000	310.515	79.999	19.999	103.360	19.846	38.517	0.488
463.500	310.791	80.008	19.994	103.360	19.846	38.525	0.500
464.000	311.049	80.002	19.993	103.362	19.843	38.780	0.521
464.500	311.266	80.004	19.994	103.359	19.839	39.055	0.505
465.000	311.545	80.006	19.995	103.352	19.837	39.192	0.486
465.500	311.833	80.008	19.992	103.350	19.836	39.248	0.531
466.000	312.097	80.003	19.998	103.351	19.835	39.314	0.559
466.500	312.309	79.998	19.998	103.349	19.828	39.788	0.514
467.000	312.596	80.007	19.996	103.354	19.828	39.816	0.488
467.500	312.828	79.994	20.000	103.361	19.827	39.894	0.509
468.000	313.100	80.008	19.992	103.358	19.822	40.221	0.512
468.500	313.336	80.006	19.996	103.358	19.821	40.295	0.506
469.000	313.594	80.002	19.994	103.358	19.817	40.576	0.501
469.500	313.846	80.005	19.996	103.358	19.819	40.485	0.502
470.000	314.102	80.007	19.993	103.357	19.813	40.898	0.509
470.500	314.359	80.002	19.992	103.364	19.815	40.721	0.511
471.000	314.610	80.001	19.998	103.363	19.810	41.093	0.511
471.500	314.885	79.988	19.998	103.365	19.810	41.114	0.517
472.000	315.099	80.005	19.998	103.367	19.807	41.298	0.508
472.500	315.427	80.005	19.994	103.366	19.804	41.523	0.515
473.000	315.620	80.010	19.992	103.367	19.801	41.713	0.531
473.500	315.865	79.999	19.994	103.368	19.799	41.903	0.480
474.000	316.139	80.006	19.992	103.369	19.796	42.081	0.479
474.500	316.404	80.005	19.994	103.370	19.791	42.449	0.529
475.000	316.607	79.997	20.000	103.372	19.792	42.387	0.503
475.500	316.890	80.004	19.993	103.369	19.789	42.611	0.477
476.000	317.131	79.998	19.994	103.370	19.787	42.718	0.505
476.500	317.367	80.006	19.995	103.369	19.785	42.917	0.500
477.000	317.663	80.003	19.994	103.368	19.782	43.090	0.505
477.500	317.913	80.006	19.995	103.367	19.783	43.042	0.539
478.000	318.098	80.004	19.998	103.369	19.780	43.206	0.490
478.500	318.361	80.006	19.994	103.366	19.777	43.434	0.441
479.000	318.621	80.009	19.994	103.367	19.777	43.445	0.486
479.500	318.886	80.006	19.998	103.366	19.773	43.772	0.525
480.000	319.139	80.006	19.992	103.366	19.771	43.862	0.522
480.500	319.372	80.008	19.994	103.366	19.765	44.328	0.502
481.000	319.626	80.006	19.995	103.368	19.767	44.145	0.486
481.500	319.875	80.001	19.999	103.373	19.766	44.263	0.495
482.000	320.157	80.011	19.992	103.375	19.761	44.612	0.517
482.500	320.350	80.002	19.993	103.378	19.757	44.890	0.503
483.000	320.644	80.004	19.998	103.378	19.753	45.149	0.481
483.500	320.854	80.008	19.996	103.375	19.755	45.034	0.495
484.000	321.111	80.007	19.994	103.369	19.754	45.134	0.485
484.500	321.382	80.009	19.992	103.368	19.750	45.420	0.498
485.000	321.619	80.007	19.994	103.367	19.743	45.888	0.518
485.500	321.860	80.009	19.994	103.367	19.742	45.960	0.493
486.000	322.121	80.005	20.001	103.369	19.738	46.240	0.490
486.500	322.345	80.001	19.999	103.370	19.738	46.251	0.493
487.000	322.606	80.007	19.998	103.368	19.739	46.169	0.485
487.500	322.864	79.999	19.995	103.367	19.735	46.437	0.502
488.000	323.096	80.016	19.994	103.366	19.728	46.964	0.505
488.500	323.339	80.006	19.998	103.367	19.730	46.841	0.483
489.000	323.617	80.001	19.997	103.365	19.728	46.986	0.498
489.500	323.859	80.007	20.002	103.365	19.726	47.078	0.521
490.000	324.113	80.006	19.993	103.364	19.726	47.123	0.508
490.500	324.349	80.007	19.995	103.366	19.718	47.683	0.493
491.000	324.556	80.004	19.995	103.368	19.721	47.455	0.467
491.500	324.863	80.004	19.997	103.376	19.718	47.699	0.478
492.000	325.123	80.004	19.992	103.379	19.718	47.711	0.540
492.500	325.373	80.007	19.995	103.381	19.712	48.116	0.539
493.000	325.641	80.004	19.991	103.383	19.711	48.148	0.514
493.500	325.890	80.009	19.990	103.384	19.711	48.150	0.517
494.000	326.096	80.004	19.995	103.385	19.705	48.618	0.486
494.500	326.362	80.009	19.996	103.388	19.710	48.263	0.464
495.000	326.613	80.006	19.994	103.395	19.701	48.869	0.495
495.500	326.853	80.007	19.993	103.396	19.697	49.147	0.504
496.000	327.119	80.002	19.996	103.399	19.697	49.187	0.498
496.500	327.346	80.008	19.995	103.394	19.696	49.271	0.500
497.000	327.586	80.005	19.992	103.389	19.690	49.670	0.480
497.500	327.858	80.001	19.996	103.385	19.690	49.681	0.489
498.000	328.108	80.013	19.994	103.388	19.687	49.858	0.517
498.500	328.371	80.013	19.997	103.383	19.685	50.054	0.518
499.000	328.600	79.983	20.002	103.386	19.686	49.985	0.503
499.500	328.851	80.005	19.998	103.387	19.682	50.259	0.486
500.000	329.097	79.995	19.995	103.392	19.679	50.475	0.488
500.500	329.339	80.010	19.994	103.391	19.674	50.803	0.492
501.000	329.612	79.996	19.998	103.395	19.677	50.628	0.502
501.500	329.863	80.013	19.996	103.396	19.671	51.052	0.520
502.000	330.087	80.000	19.993	103.403	19.671	51.009	0.500
502.500	330.352	80.017	19.994	103.403	19.664	51.503	0.482
503.000	330.644	80.008	19.992	103.406	19.663	51.614	0.523
503.500	330.866	80.010	19.999	103.403	19.663	51.604	0.536
504.000	331.152	80.007	20.000	103.403	19.661	51.721	0.511
504.500	331.389	80.001	19.988	103.399	19.657	52.033	0.516
505.000	331.644	80.011	19.992	103.399	19.656	52.116	0.508
505.500	331.880	80.005	19.995	103.399	19.653	52.335	0.492
506.000	332.131	80.000	19.999	103.403	19.649	52.612	0.489
506.500	332.396	80.004	19.996	103.403	19.649	52.619	0.501
507.000	332.637	80.005	19.993	103.406	19.643	53.023	0.511
507.500	332.899	80.001	19.997	103.406	19.641	53.186	0.505
508.000	333.162	79.998	19.993	103.402	19.639	53.304	0.514
508.500	333.427	80.017	19.994	103.398	19.636	53.571	0.526
509.000	333.676	80.006	19.996	103.398	19.637	53.449	0.521
509.500	333.930	79.995	19.995	103.397	19.634	53.682	0.508
510.000	334.167	79.984	20.002	103.395	19.628	54.114	0.497
510.500	334.450	80.004	19.993	103.398	19.627	54.160	0.506
511.000	334.706	79.998	19.998	103.399	19.622	54.555	0.530
511.500	334.956	80.006	19.991	103.398	19.620	54.652	0.523
512.000	335.177	79.987	19.998	103.400	19.619	54.767	0.488
512.500	335.462	80.004	19.994	103.401	19.613	55.205	0.488
513.000	335.681	80.008	19.995	103.402	19.608	55.544	0.505
513.500	335.930	79.995	19.994	103.405	19.608	55.542	0.486
514.000	336.222	80.018	19.993	103.405	19.603	55.886	0.505
514.500	336.453	80.004	19.993	103.405	19.601	56.065	0.532
515.000	336.721	80.005	19.992	103.405	19.599	56.188	0.511
515.500	336.947	80.003	19.997	103.407	19.594	56.551	0.496
516.000	337.194	80.006	19.995	103.407	19.595	56.461	0.483
516.500	337.434	79.992	19.995	103.408	19.592	56.706	0.480
517.000	337.729	79.998	19.996	103.403	19.593	56.620	0.511
517.500	337.985	79.998	20.002	103.402	19.586	57.140	0.543
518.000	338.271	80.009	19.991	103.399	19.580	57.526	0.546
518.500	338.471	79.997	19.998	103.406	19.579	57.618	0.514
519.000	338.758	80.000	20.003	103.412	19.575	57.880	0.487
519.500	339.030	80.005	19.993	103.417	19.572	58.118	0.523
520.000	339.276	79.982	19.999	103.426	19.571	58.160	0.538
520.500	339.497	80.006	19.993	103.423	19.570	58.274	0.493
521.000	339.791	80.001	19.993	103.419	19.565	58.649	0.491
521.500	340.038	80.007	19.996	103.421	19.563	58.744	0.528
522.001	340.289	80.003	19.995	103.425	19.562	58.872	0.520
522.500	340.540	80.000	19.994	103.421	19.557	59.192	0.500
523.000	340.817	80.000	19.997	103.429	19.554	59.377	0.515
523.500	341.045	80.008	19.992	103.430	19.548	59.809	0.516
524.000	341.344	80.004	19.997	103.427	19.547	59.878	0.516
524.500	341.558	80.000	19.995	103.427	19.542	60.254	0.520
525.000	341.795	80.008	19.993	103.429	19.539	60.462	0.482
525.500	342.042	80.010	19.993	103.430	19.538	60.560	0.468
526.000	342.289	80.015	19.994	103.431	19.533	60.883	0.489
526.500	342.539	79.997	19.994	103.432	19.532	60.993	0.496
527.000	342.765	80.005	19.995	103.429	19.528	61.238	0.486
527.500	343.040	80.010	19.993	103.432	19.523	61.606	0.488
528.000	343.270	80.005	19.996	103.435	19.522	61.675	0.503
528.500	343.507	79.998	19.995	103.436	19.516	62.114	0.486
529.000	343.758	80.006	19.996	103.434	19.512	62.420	0.477
529.500	344.038	79.998	19.994	103.441	19.513	62.332	0.509
530.000	344.270	80.006	19.994	103.440	19.506	62.814	0.522
530.500	344.511	80.008	19.993	103.439	19.503	63.042	0.493
531.000	344.783	80.011	19.993	103.441	19.501	63.198	0.493
531.500	345.061	80.006	19.989	103.445	19.494	63.721	0.531
532.000	345.260	79.998	19.992	103.445	19.495	63.645	0.514
532.500	345.543	79.999	20.000	103.445	19.495	63.629	0.479
533.000	345.779	80.006	19.993	103.445	19.488	64.104	0.500
533.500	346.049	80.008	19.992	103.445	19.486	64.297	0.512
534.000	346.275	80.004	19.995	103.443	19.483	64.463	0.501
534.500	346.539	80.007	19.993	103.443	19.478	64.868	0.493
535.000	346.746	80.007	19.995	103.445	19.477	64.929	0.480
535.500	346.998	80.000	19.997	103.446	19.472	65.258	0.465
536.000	347.270	80.006	19.998	103.445	19.468	65.529	0.492
536.500	347.520	80.004	19.996	103.447	19.467	65.619	0.523
537.000	347.786	80.004	19.996	103.446	19.466	65.705	0.519
537.500	347.995	80.005	19.992	103.445	19.458	66.279	0.495
538.000	348.273	80.009	19.995	103.445	19.455	66.486	0.482
538.500	348.486	80.004	19.996	103.449	19.455	66.503	0.489
539.000	348.741	80.002	19.994	103.451	19.449	66.912	0.479
539.500	349.007	80.004	19.994	103.453	19.447	67.080	0.494
540.000	349.272	80.004	19.996	103.453	19.446	67.117	0.526
540.500	349.471	80.006	19.996	103.453	19.440	67.551	0.497
541.000	349.762	80.005	19.994	103.451	19.437	67.808	0.477
541.500	349.986	80.005	19.995	103.455	19.435	67.940	0.503
542.000	350.267	80.004	19.995	103.460	19.432	68.179	0.510
542.500	350.517	80.008	19.996	103.464	19.428	68.465	0.518
543.000	350.741	80.004	19.994	103.471	19.429	68.351	0.502
543.500	350.978	80.005	19.994	103.471	19.423	68.755	0.467
544.000	351.199	80.001	19.996	103.467	19.421	68.941	0.460
544.500	351.482	80.002	19.993	103.466	19.415	69.336	0.481
545.000	351.733	80.003	19.991	103.467	19.414	69.437	0.519
545.500	351.947	80.002	19.997	103.467	19.413	69.497	0.500
546.000	352.236	80.004	19.994	103.467	19.405	70.037	0.484
546.500	352.503	80.006	19.996	103.468	19.404	70.134	0.530
547.000	352.735	80.003	19.996	103.466	19.404	70.124	0.528
547.500	353.009	80.001	19.994	103.464	19.399	70.473	0.502
548.000	353.271	80.004	19.995	103.464	19.397	70.675	0.521
548.500	353.531	80.002	19.994	103.470	19.393	70.930	0.529
549.000	353.799	80.005	19.995	103.474	19.391	71.066	0.525
549.500	354.069	80.002	19.992	103.480	19.388	71.308	0.533
550.000	354.272	80.003	19.992	103.484	19.385	71.510	0.506
550.500	354.508	80.000	19.997	103.485	19.385	71.486	0.456
551.000	354.763	80.003	20.000	103.485	19.384	71.583	0.465
551.500	355.028	80.005	19.993	103.484	19.381	71.800	0.505
552.000	355.250	80.003	19.996	103.485	19.380	71.838	0.503
552.500	355.532	80.007	19.992	103.483	19.375	72.241	0.496
553.000	355.787	80.001	19.993	103.483	19.372	72.452	0.521
553.500	356.042	80.005	19.991	103.484	19.370	72.562	0.523
554.000	356.288	80.008	19.994	103.484	19.371	72.518	0.505
554.500	356.534	80.005	19.994	103.483	19.368	72.705	0.497
555.000	356.781	80.004	19.994	103.485	19.369	72.657	0.493
555.500	357.029	80.005	19.995	103.482	19.361	73.213	0.494
556.000	357.311	80.005	19.992	103.478	19.363	73.057	0.513
556.500	357.567	80.004	19.994	103.476	19.358	73.425	0.534
557.000	357.811	80.004	19.996	103.476	19.356	73.562	0.519
557.500	358.076	80.004	19.995	103.474	19.352	73.828	0.504
558.000	358.328	80.004	19.995	103.476	19.353	73.748	0.513
558.500	358.592	80.005	19.995	103.479	19.351	73.913	0.516
559.000	358.818	80.004	19.993	103.482	19.352	73.835	0.503
559.500	359.078	80.006	19.995	103.482	19.346	74.238	0.488
560.000	359.345	80.006	19.994	103.485	19.347	74.221	0.506
560.500	359.568	80.005	19.995	103.486	19.347	74.192	0.508
561.000	359.863	80.005	19.994	103.484	19.347	74.224	0.504
561.500	360.088	80.007	19.995	103.481	19.344	74.422	0.519
562.000	360.323	80.005	19.993	103.481	19.343	74.448	0.490
562.500	360.618	80.004	19.996	103.482	19.344	74.395	0.495
563.000	360.856	80.005	19.995	103.482	19.345	74.301	0.532
563.500	361.113	80.008	19.993	103.483	19.341	74.588	0.514
564.000	361.335	80.006	19.995	103.485	19.342	74.528	0.487
564.500	361.651	80.012	19.996	103.484	19.340	74.639	0.509
565.000	361.922	80.010	19.993	103.482	19.346	74.212	0.562
565.500	362.136	80.007	19.993	103.477	19.343	74.449	0.535
566.000	362.416	80.007	19.996	103.473	19.346	74.239	0.489
566.500	362.649	80.002	19.995	103.469	19.348	74.128	0.503
567.000	362.890	80.009	19.993	103.463	19.348	74.126	0.493
567.500	363.175	80.004	19.994	103.457	19.347	74.131	0.500
568.000	363.409	80.005	19.995	103.456	19.351	73.868	0.523
568.500	363.698	80.003	19.996	103.455	19.348	74.114	0.521
569.000	363.959	80.012	19.990	103.452	19.352	73.768	0.537
569.500	364.156	80.002	19.992	103.454	19.353	73.715	0.504
570.000	364.433	80.004	19.995	103.454	19.354	73.657	0.466
570.500	364.716	80.006	19.996	103.452	19.353	73.713	0.517
571.000	364.963	80.004	19.992	103.450	19.355	73.558	0.545
571.500	365.196	80.003	19.998	103.450	19.358	73.341	0.505
572.000	365.435	80.003	19.999	103.446	19.360	73.216	0.476
572.500	365.732	80.005	19.994	103.443	19.367	72.737	0.504
573.000	365.987	80.002	19.995	103.441	19.364	72.947	0.544
573.500	366.226	79.999	19.999	103.434	19.365	72.814	0.523
574.000	366.478	80.001	19.995	103.426	19.370	72.499	0.492
574.500	366.714	80.004	19.996	103.419	19.374	72.200	0.490
575.000	366.962	80.003	19.996	103.414	19.376	72.075	0.486
575.500	367.260	80.004	19.997	103.411	19.380	71.755	0.514
576.000	367.505	80.004	19.994	103.415	19.388	71.167	0.544
576.500	367.758	80.005	19.996	103.415	19.392	70.888	0.521
577.000	368.008	80.005	19.993	103.415	19.394	70.780	0.501
577.500	368.287	80.003	19.997	103.416	19.398	70.471	0.516
578.000	368.566	80.005	19.997	103.413	19.405	69.941	0.543
578.500	368.806	80.003	19.996	103.408	19.408	69.725	0.538
579.000	369.060	80.005	19.994	103.407	19.412	69.456	0.506
579.500	369.343	80.000	19.992	103.406	19.417	69.059	0.515
580.000	369.611	80.006	19.996	103.401	19.424	68.608	0.545
580.500	369.883	80.007	19.996	103.395	19.428	68.295	0.546
581.000	370.110	80.008	19.993	103.387	19.434	67.840	0.519
581.500	370.377	80.004	19.996	103.382	19.441	67.380	0.497
582.000	370.642	80.006	19.993	103.374	19.449	66.801	0.513
582.500	370.895	80.007	19.994	103.372	19.457	66.231	0.525
583.000	371.184	80.006	19.994	103.371	19.466	65.620	0.530
583.500	371.429	80.001	20.000	103.370	19.470	65.319	0.538
584.000	371.668	80.003	19.995	103.364	19.479	64.696	0.509
584.500	371.913	80.006	19.993	103.358	19.489	63.955	0.484
585.000	372.191	80.010	19.991	103.349	19.496	63.471	0.503
585.500	372.449	80.005	19.996	103.342	19.508	62.555	0.529
586.000	372.740	80.009	19.992	103.335	19.514	62.131	0.543
586.500	372.934	80.010	19.994	103.333	19.526	61.310	0.517
587.000	373.193	80.006	19.997	103.332	19.531	60.951	0.469
587.500	373.475	80.008	19.994	103.331	19.539	60.396	0.497
588.000	373.704	80.004	19.995	103.326	19.549	59.624	0.526
588.500	373.969	80.008	19.994	103.320	19.557	59.066	0.503
589.000	374.247	80.009	19.995	103.313	19.569	58.186	0.519
589.500	374.498	80.005	19.994	103.305	19.579	57.511	0.536
590.000	374.780	80.012	19.994	103.298	19.586	57.040	0.531
590.500	375.051	80.008	19.997	103.294	19.597	56.215	0.543
591.000	375.273	80.004	19.996	103.291	19.608	55.435	0.523
591.500	375.537	80.006	19.995	103.288	19.620	54.585	0.490
592.000	375.797	80.008	19.995	103.287	19.630	53.874	0.505
592.500	376.090	80.007	19.989	103.287	19.640	53.128	0.538
593.000	376.301	80.007	19.987	103.287	19.652	52.262	0.529
593.500	376.561	80.004	19.995	103.287	19.662	51.549	0.488
594.000	376.811	80.005	19.992	103.288	19.676	50.617	0.490
594.500	377.050	80.002	19.995	103.284	19.686	49.856	0.499
595.000	377.324	80.004	19.990	103.278	19.696	49.131	0.501
595.500	377.543	80.005	19.997	103.270	19.701	48.813	0.503
596.000	377.822	80.003	20.002	103.262	19.716	47.733	0.496
596.500	378.061	80.001	19.997	103.252	19.728	46.910	0.508
597.000	378.338	80.005	19.997	103.247	19.738	46.171	0.517
597.500	378.613	80.004	19.995	103.246	19.749	45.383	0.534
598.000	378.857	80.004	19.997	103.243	19.765	44.245	0.536
598.500	379.126	80.003	19.995	103.243	19.774	43.598	0.516
599.000	379.401	80.002	19.997	103.243	19.786	42.768	0.528
599.500	379.634	80.002	19.996	103.239	19.795	42.121	0.526
600.000	379.901	80.004	19.996	103.235	19.806	41.292	0.505
600.500	380.172	80.002	19.997	103.235	19.818	40.440	0.519
601.000	380.430	80.003	19.996	103.230	19.830	39.617	0.533
601.500	380.682	80.006	19.995	103.224	19.841	38.806	0.519
602.000	380.932	80.003	19.996	103.221	19.848	38.321	0.506
602.500	381.145	80.003	19.996	103.217	19.863	37.273	0.483
603.000	381.443	80.003	19.996	103.212	19.872	36.627	0.487
603.500	381.695	80.004	19.995	103.210	19.883	35.828	0.530
604.000	381.945	80.002	19.997	103.210	19.890	35.325	0.526
604.500	382.195	80.003	19.995	103.209	19.905	34.289	0.501
605.000	382.446	80.004	19.994	103.209	19.912	33.784	0.500
605.500	382.717	80.003	19.997	103.207	19.921	33.104	0.511
606.000	382.974	80.003	19.996	103.206	19.933	32.261	0.525
606.500	383.230	80.002	19.997	103.206	19.939	31.820	0.521
607.000	383.475	80.004	19.996	103.204	19.949	31.149	0.507
607.500	383.754	80.003	19.995	103.205	19.957	30.559	0.512
608.000	384.029	80.001	19.998	103.206	19.967	29.845	0.539
608.500	384.230	80.004	19.996	103.200	19.976	29.181	0.515
609.000	384.519	80.002	19.996	103.194	19.983	28.694	0.483
609.500	384.765	80.003	19.994	103.192	19.993	27.984	0.512
610.000	385.026	80.003	19.996	103.185	20.003	27.270	0.520
610.500	385.270	80.005	19.996	103.183	20.008	26.948	0.506
611.000	385.513	80.003	19.994	103.187	20.013	26.581	0.497
611.500	385.800	80.004	19.996	103.190	20.022	25.902	0.508
612.000	386.063	80.004	19.995	103.191	20.033	25.124	0.539
612.500	386.292	80.004	19.995	103.190	20.041	24.569	0.521
613.000	386.580	80.005	19.994	103.192	20.047	24.121	0.505
613.500	386.828	80.004	19.996	103.192	20.053	23.694	0.527
614.000	387.087	80.004	19.996	103.188	20.055	23.574	0.521
614.500	387.364	80.004	19.995	103.189	20.066	22.808	0.521
615.000	387.606	80.001	19.996	103.188	20.068	22.676	0.528
615.500	387.850	80.010	19.996	103.183	20.073	22.263	0.503
616.000	388.120	80.004	19.995	103.179	20.077	22.028	0.500
616.500	388.371	80.007	19.994	103.178	20.086	21.367	0.517
617.000	388.636	80.004	19.994	103.175	20.091	21.013	0.518
617.500	388.903	80.003	19.995	103.174	20.094	20.784	0.524
618.000	389.146	80.004	19.993	103.173	20.105	20.023	0.521
618.500	389.371	80.004	19.992	103.172	20.104	20.101	0.489
619.000	389.627	80.009	19.994	103.172	20.111	19.620	0.474
619.500	389.878	80.006	19.993	103.172	20.111	19.571	0.493
620.000	390.132	80.004	19.995	103.173	20.120	18.926	0.506
620.500	390.391	80.007	19.994	103.173	20.121	18.842	0.510
621.000	390.637	80.006	19.992	103.174	20.126	18.485	0.509
621.500	390.893	80.004	19.995	103.173	20.131	18.130	0.503
622.000	391.157	80.003	19.997	103.172	20.133	17.998	0.511
622.500	391.431	80.005	19.996	103.172	20.136	17.771	0.529
623.000	391.670	80.003	19.996	103.173	20.141	17.467	0.526
623.500	391.929	80.005	19.996	103.173	20.143	17.315	0.505
624.000	392.184	80.005	19.995	103.173	20.144	17.251	0.506
624.500	392.428	80.004	19.995	103.173	20.147	17.016	0.507
625.000	392.692	80.005	19.994	103.172	20.151	16.719	0.504
625.500	392.977	80.003	19.995	103.173	20.152	16.696	0.528
626.000	393.213	80.002	19.996	103.175	20.156	16.415	0.535
626.500	393.516	80.004	19.995	103.175	20.157	16.343	0.530
627.000	393.756	80.005	19.995	103.174	20.159	16.145	0.541
627.500	394.016	80.004	19.994	103.176	20.161	16.023	0.522
628.000	394.248	80.003	19.995	103.174	20.161	16.040	0.496
628.500	394.533	80.004	19.994	103.172	20.163	15.906	0.504
629.000	394.779	80.004	19.996	103.172	20.163	15.912	0.524
629.501	395.042	80.005	19.994	103.174	20.166	15.699	0.520
630.000	395.254	80.000	19.997	103.173	20.169	15.447	0.492
630.500	395.549	80.005	19.994	103.174	20.170	15.404	0.491
631.000	395.802	80.002	19.996	103.176	20.170	15.388	0.527
631.500	396.040	80.003	19.992	103.175	20.171	15.334	0.520
632.000	396.308	80.003	19.994	103.175	20.174	15.072	0.499
632.500	396.555	80.005	19.994	103.175	20.172	15.248	0.510
633.000	396.819	80.003	19.995	103.176	20.174	15.120	0.513
633.500	397.057	80.004	19.996	103.176	20.174	15.115	0.507
634.000	397.304	80.003	19.994	103.176	20.174	15.085	0.493
634.500	397.575	80.004	19.994	103.175	20.173	15.143	0.501
635.001	397.814	80.002	19.995	103.175	20.178	14.841	0.514
635.501	398.085	80.002	19.995	103.174	20.176	14.981	0.510
636.000	398.341	80.006	19.994	103.174	20.179	14.777	0.519
636.500	398.632	80.005	19.994	103.175	20.177	14.899	0.537
637.000	398.840	80.006	19.996	103.175	20.179	14.744	0.523
637.500	399.123	80.003	19.995	103.175	20.181	14.608	0.495
638.001	399.358	80.004	19.996	103.175	20.180	14.692	0.505
638.500	399.612	80.004	19.994	103.175	20.183	14.473	0.504
639.000	399.856	80.002	19.993	103.175	20.181	14.570	0.493
639.500	400.102	80.005	19.995	103.175	20.182	14.544	0.494
640.000	400.414	80.003	19.995	103.175	20.184	14.418	0.525
640.500	400.661	80.004	19.995	103.175	20.185	14.327	0.559
641.000	400.877	80.005	19.994	103.175	20.184	14.357	0.510
641.500	401.135	80.004	19.995	103.174	20.186	14.247	0.468
642.000	401.340	80.004	19.995	103.174	20.186	14.225	0.469
642.500	401.603	80.006	19.995	103.173	20.187	14.196	0.465
643.000	401.887	80.003	19.996	103.173	20.187	14.149	0.508
643.500	402.122	80.005	19.994	103.173	20.186	14.227	0.533
644.000	402.356	80.004	19.994	103.173	20.188	14.111	0.494
644.500	402.638	80.002	19.997	103.173	20.184	14.404	0.493
645.000	402.869	80.006	19.995	103.172	20.186	14.214	0.515
645.500	403.150	80.006	19.993	103.172	20.186	14.228	0.512
646.000	403.409	80.007	19.994	103.172	20.187	14.164	0.526
646.500	403.658	80.006	19.994	103.172	20.185	14.294	0.524
647.000	403.893	80.004	19.995	103.172	20.185	14.300	0.496
647.500	404.143	80.005	19.995	103.173	20.189	14.036	0.485
648.000	404.374	80.007	19.995	103.175	20.190	13.925	0.483
648.500	404.619	80.007	19.995	103.175	20.188	14.115	0.478
649.000	404.874	80.004	19.995	103.175	20.189	14.049	0.488
649.500	405.118	80.004	19.995	103.177	20.191	13.894	0.500
650.000	405.383	80.004	19.995	103.176	20.190	13.991	0.504
650.500	405.628	80.006	19.995	103.175	20.193	13.766	0.510
651.000	405.885	80.006	19.994	103.175	20.190	13.975	0.506
651.500	406.128	80.004	19.994	103.173	20.192	13.835	0.501
652.000	406.415	80.007	19.994	103.170	20.191	13.861	0.515
652.500	406.657	80.006	19.996	103.169	20.193	13.767	0.529
653.000	406.871	80.005	19.993	103.166	20.191	13.919	0.492
653.500	407.107	80.007	19.994	103.165	20.192	13.826	0.453
654.000	407.419	80.008	19.995	103.167	20.192	13.820	0.499
654.500	407.648	80.006	19.995	103.169	20.192	13.808	0.544
655.000	407.922	80.005	19.995	103.171	20.195	13.636	0.522
655.500	408.128	80.005	19.995	103.173	20.192	13.806	0.492
656.000	408.428	80.006	19.995	103.174	20.192	13.834	0.493
656.500	408.678	80.007	19.995	103.173	20.197	13.438	0.528
657.000	408.909	80.005	19.994	103.172	20.195	13.610	0.515
657.500	409.117	80.005	19.996	103.171	20.197	13.447	0.460
658.001	409.370	80.005	19.995	103.172	20.195	13.604	0.450
658.500	409.649	80.002	19.994	103.171	20.195	13.596	0.496
659.000	409.892	80.004	19.994	103.172	20.196	13.548	0.527
659.500	410.126	80.009	19.995	103.171	20.195	13.631	0.499
660.000	410.413	80.005	19.996	103.172	20.194	13.649	0.499
660.500	410.651	80.002	19.995	103.171	20.196	13.563	0.523
661.000	410.903	80.004	19.994	103.171	20.194	13.662	0.508
661.500	411.128	80.004	19.995	103.170	20.195	13.606	0.484
662.000	411.400	80.005	19.996	103.169	20.197	13.485	0.487
662.500	411.651	80.006	19.995	103.169	20.199	13.338	0.510
663.000	411.923	80.006	19.995	103.169	20.197	13.488	0.523
663.500	412.167	80.006	19.996	103.169	20.200	13.251	0.520
664.000	412.402	80.006	19.994	103.169	20.201	13.210	0.498
664.500	412.649	80.006	19.995	103.170	20.200	13.214	0.480
665.000	412.916	80.005	19.995	103.171	20.202	13.119	0.498
665.500	413.181	80.005	19.995	103.170	20.202	13.137	0.523
666.000	413.423	80.006	19.995	103.170	20.203	13.067	0.520
666.500	413.677	80.006	19.995	103.171	20.202	13.135	0.501
667.000	413.914	80.007	19.995	103.170	20.200	13.234	0.494
667.500	414.168	80.006	19.995	103.170	20.203	13.067	0.491
668.000	414.386	80.007	19.995	103.167	20.202	13.110	0.481
668.500	414.673	80.006	19.995	103.165	20.199	13.304	0.488
669.000	414.920	80.007	19.996	103.164	20.199	13.345	0.520
669.500	415.169	80.006	19.994	103.164	20.200	13.265	0.515
670.000	415.423	80.005	19.995	103.164	20.199	13.321	0.500
670.500	415.649	80.006	19.995	103.167	20.200	13.267	0.491
671.000	415.921	80.006	19.995	103.166	20.203	13.024	0.489
671.500	416.156	80.006	19.995	103.164	20.202	13.116	0.503
672.000	416.418	80.006	19.995	103.163	20.200	13.255	0.502
672.500	416.654	80.008	19.994	103.162	20.201	13.211	0.497
673.000	416.941	80.004	19.996	103.162	20.201	13.155	0.510
673.500	417.153	80.008	19.994	103.164	20.202	13.130	0.511
674.000	417.391	80.003	19.994	103.166	20.199	13.354	0.475
674.500	417.647	80.006	19.995	103.166	20.202	13.129	0.472
675.000	417.886	80.005	19.994	103.167	20.202	13.124	0.494
675.500	418.164	80.004	19.995	103.167	20.201	13.154	0.506
676.000	418.416	80.007	19.995	103.167	20.201	13.199	0.523
676.500	418.676	80.005	19.994	103.167	20.201	13.190	0.520
677.000	418.936	80.005	19.995	103.168	20.201	13.192	0.516
677.500	419.182	80.005	19.996	103.167	20.201	13.159	0.514
678.000	419.468	80.005	19.997	103.168	20.201	13.168	0.519
678.500	419.713	80.004	19.995	103.170	20.202	13.129	0.531
679.000	419.937	80.006	19.996	103.170	20.203	13.023	0.500
679.500	420.209	80.005	19.995	103.170	20.201	13.172	0.483
680.000	420.462	80.005	19.996	103.170	20.202	13.094	0.510
680.500	420.687	80.005	19.995	103.169	20.202	13.135	0.501
681.000	420.924	80.002	19.994	103.167	20.201	13.201	0.470
681.500	421.200	80.004	19.998	103.167	20.203	13.003	0.488
682.000	421.465	80.005	19.997	103.168	20.202	13.102	0.527
682.500	421.672	80.004	19.997	103.169	20.202	13.079	0.507
683.000	421.963	80.005	19.995	103.171	20.203	13.052	0.485
683.500	422.206	80.005	19.995	103.172	20.203	13.030	0.516
684.000	422.502	80.004	19.996	103.173	20.207	12.735	0.536
684.500	422.716	80.003	19.995	103.172	20.204	12.968	0.524
685.000	422.981	80.005	19.995	103.171	20.207	12.724	0.495
685.500	423.223	80.004	19.995	103.171	20.205	12.889	0.494
686.000	423.444	80.004	19.995	103.171	20.207	12.774	0.485
686.500	423.698	80.004	19.996	103.170	20.207	12.741	0.469
687.000	423.941	80.004	19.996	103.170	20.208	12.652	0.486
687.500	424.189	80.005	19.995	103.172	20.206	12.827	0.494
688.000	424.478	80.004	19.996	103.172	20.207	12.741	0.514
688.500	424.676	80.003	19.995	103.171	20.204	12.933	0.512
689.000	424.941	80.005	19.995	103.172	20.207	12.726	0.475
689.500	425.201	80.003	19.995	103.172	20.206	12.842	0.494
690.000	425.469	80.004	19.995	103.172	20.207	12.747	0.526
690.500	425.716	80.003	19.995	103.171	20.202	13.131	0.522
691.000	425.968	80.003	19.996	103.171	20.205	12.891	0.507
691.500	426.234	80.004	19.995	103.172	20.203	13.021	0.508
692.000	426.478	80.005	19.995	103.172	20.204	12.949	0.514
692.500	426.712	80.002	19.995	103.172	20.206	12.801	0.494
693.000	426.978	80.005	19.996	103.173	20.207	12.776	0.489
693.500	427.269	80.003	19.995	103.172	20.205	12.866	0.528
694.000	427.516	80.005	19.996	103.170	20.206	12.834	0.547
694.500	427.754	80.003	19.995	103.170	20.207	12.757	0.512
695.000	427.992	80.003	19.996	103.169	20.205	12.921	0.481
695.500	428.267	80.003	19.995	103.168	20.208	12.708	0.495
696.000	428.465	80.002	19.995	103.169	20.207	12.735	0.493
696.500	428.758	80.005	19.995	103.171	20.209	12.576	0.482
697.000	429.050	80.003	19.996	103.171	20.207	12.754	0.538
697.500	429.267	80.003	19.995	103.171	20.204	12.933	0.547
698.000	429.559	80.004	19.995	103.171	20.206	12.800	0.508
698.500	429.812	80.004	19.995	103.171	20.206	12.821	0.527
699.000	430.052	80.004	19.995	103.170	20.207	12.763	0.519
699.500	430.344	80.004	19.996	103.170	20.209	12.619	0.513
700.000	430.554	80.005	19.995	103.170	20.207	12.726	0.517
700.500	430.861	80.004	19.995	103.171	20.206	12.819	0.509
701.000	431.091	80.004	19.997	103.171	20.206	12.791	0.527
701.500	431.360	80.004	19.995	103.171	20.206	12.799	0.518
702.000	431.582	80.004	19.995	103.170	20.206	12.785	0.495
702.500	431.846	80.004	19.994	103.171	20.211	12.479	0.488
703.000	432.111	80.004	19.995	103.171	20.207	12.743	0.508
703.500	432.373	80.003	19.996	103.170	20.208	12.652	0.528
704.000	432.616	80.004	19.994	103.170	20.209	12.585	0.516
704.500	432.838	80.004	19.995	103.171	20.209	12.612	0.485
705.000	433.083	80.004	19.995	103.171	20.206	12.792	0.466
705.500	433.382	80.005	19.995	103.170	20.210	12.530	0.505
706.000	433.638	80.002	19.995	103.168	20.211	12.433	0.550
706.500	433.926	80.004	19.995	103.167	20.211	12.469	0.550
707.000	434.159	80.005	19.994	103.166	20.211	12.453	0.533
707.500	434.419	79.998	19.997	103.167	20.210	12.558	0.507
708.000	434.679	80.003	19.996	103.167	20.214	12.273	0.506
708.500	434.965	80.004	19.994	103.170	20.210	12.504	0.533
709.000	435.201	80.004	19.995	103.173	20.211	12.438	0.534
709.500	435.486	80.002	19.996	103.174	20.212	12.417	0.522
710.000	435.757	80.002	19.996	103.173	20.212	12.423	0.538
710.500	435.983	80.006	19.994	103.173	20.210	12.549	0.526
711.000	436.210	80.003	19.994	103.172	20.213	12.330	0.475
711.500	436.475	80.001	19.994	103.169	20.215	12.159	0.473
712.000	436.750	80.003	19.995	103.168	20.215	12.146	0.516
712.500	437.002	80.002	19.995	103.166	20.214	12.280	0.533
713.000	437.285	80.003	19.994	103.166	20.217	12.033	0.531
713.500	437.511	80.004	19.994	103.168	20.215	12.185	0.522
714.000	437.779	80.005	19.995	103.171	20.213	12.318	0.501
714.500	438.051	80.002	19.995	103.173	20.217	12.039	0.517
715.000	438.295	80.004	19.995	103.175	20.214	12.221	0.528
715.500	438.556	80.003	19.994	103.176	20.219	11.905	0.510
716.000	438.771	80.004	19.995	103.173	20.215	12.202	0.490
716.500	439.068	80.004	19.994	103.172	20.216	12.081	0.494
717.000	439.322	80.004	19.994	103.172	20.216	12.138	0.532
717.500	439.596	80.005	19.995	103.167	20.216	12.101	0.539
718.000	439.873	80.003	19.994	103.164	20.215	12.207	0.540
718.500	440.120	80.004	19.994	103.165	20.217	12.060	0.538
719.000	440.345	80.005	19.996	103.165	20.215	12.184	0.497
719.500	440.621	80.004	19.995	103.165	20.215	12.206	0.486
720.000	440.863	80.005	19.995	103.169	20.217	12.010	0.510
720.500	441.139	80.005	19.994	103.172	20.217	12.037	0.518
721.000	441.390	80.005	19.996	103.171	20.214	12.225	0.522
721.500	441.657	80.005	19.996	103.171	20.217	12.021	0.522
722.000	441.911	80.005	19.995	103.171	20.217	12.029	0.519
722.500	442.171	80.007	19.995	103.171	20.218	11.992	0.518
723.000	442.451	80.006	19.996	103.171	20.217	12.011	0.527
723.500	442.689	80.007	19.995	103.172	20.218	11.959	0.529
724.000	442.931	80.006	19.995	103.172	20.220	11.850	0.499
724.500	443.194	80.006	19.995	103.172	20.221	11.747	0.493
725.000	443.475	80.005	19.995	103.171	20.220	11.842	0.524
725.500	443.724	80.006	19.994	103.170	20.220	11.802	0.536
726.000	443.973	80.006	19.995	103.169	20.220	11.810	0.514
726.500	444.278	80.005	19.994	103.168	20.218	11.988	0.526
727.000	444.527	80.004	19.995	103.168	20.219	11.878	0.554
727.500	444.757	80.007	19.995	103.168	20.219	11.895	0.517
728.000	445.034	80.006	19.994	103.169	20.220	11.824	0.494
728.500	445.249	80.007	19.994	103.169	20.222	11.709	0.500
729.000	445.542	80.006	19.994	103.168	20.218	11.969	0.499
729.500	445.808	80.005	19.995	103.169	20.220	11.835	0.533
730.000	446.064	80.005	19.995	103.168	20.221	11.760	0.541
730.500	446.329	80.008	19.995	103.169	20.222	11.661	0.522
731.000	446.547	80.006	19.994	103.169	20.221	11.758	0.502
731.500	446.784	80.005	19.995	103.170	20.225	11.484	0.469
732.000	447.040	80.005	19.995	103.170	20.223	11.631	0.474
732.500	447.279	80.004	19.994	103.170	20.221	11.786	0.494
733.000	447.547	80.005	19.994	103.170	20.221	11.761	0.501
733.500	447.827	80.006	19.994	103.168	20.221	11.718	0.527
734.000	448.054	80.005	19.994	103.168	20.221	11.733	0.527
734.500	448.353	80.006	19.995	103.167	20.221	11.754	0.516
735.000	448.579	80.006	19.995	103.166	20.220	11.841	0.526
735.500	448.821	80.007	19.995	103.165	20.221	11.764	0.497
736.000	449.075	80.006	19.995	103.166	20.222	11.676	0.483
736.500	449.338	80.003	19.994	103.166	20.223	11.576	0.507
737.000	449.618	80.006	19.994	103.167	20.222	11.679	0.530
737.500	449.848	80.006	19.995	103.169	20.225	11.464	0.526
738.000	450.106	80.004	19.994	103.170	20.223	11.590	0.499
738.500	450.381	80.006	19.994	103.170	20.224	11.526	0.511
739.000	450.625	80.004	19.995	103.171	20.223	11.637	0.526
739.500	450.883	80.006	19.995	103.170	20.222	11.695	0.511
740.000	451.112	80.005	19.994	103.171	20.223	11.606	0.495
740.500	451.397	80.005	19.994	103.171	20.221	11.780	0.500
741.000	451.655	80.005	19.994	103.171	20.222	11.701	0.528
741.500	451.884	80.006	19.997	103.171	20.223	11.643	0.515
742.000	452.161	80.006	19.997	103.171	20.224	11.569	0.497
742.500	452.432	80.006	19.995	103.170	20.222	11.692	0.527
743.000	452.660	80.006	19.996	103.170	20.221	11.749	0.523
743.500	452.902	80.006	19.995	103.166	20.222	11.680	0.484
744.000	453.163	80.007	19.995	103.164	20.219	11.866	0.487
744.500	453.444	80.007	19.994	103.162	20.224	11.532	0.523
745.000	453.696	80.005	19.995	103.159	20.222	11.667	0.538
745.500	453.955	80.005	19.994	103.154	20.223	11.614	0.522
746.000	454.220	80.006	19.995	103.154	20.220	11.840	0.517
746.500	454.429	80.009	19.995	103.155	20.219	11.910	0.499
747.000	454.697	80.006	19.994	103.156	20.219	11.920	0.476
747.500	454.955	80.008	19.995	103.156	20.222	11.695	0.501
748.000	455.208	80.007	19.994	103.160	20.220	11.826	0.518
748.500	455.422	80.006	19.994	103.165	20.222	11.660	0.489
749.000	455.684	80.008	19.995	103.164	20.223	11.631	0.472
749.500	455.995	80.007	19.995	103.164	20.222	11.674	0.524
750.000	456.210	80.007	19.995	103.165	20.222	11.706	0.550
750.500	456.484	80.007	19.994	103.162	20.223	11.640	0.507
751.000	456.766	80.008	19.995	103.155	20.220	11.828	0.522
751.500	457.031	80.006	19.995	103.148	20.218	11.999	0.552
752.000	457.250	80.007	19.995	103.147	20.221	11.781	0.516
752.500	457.495	80.009	19.994	103.149	20.219	11.925	0.474
753.000	457.729	80.004	19.995	103.152	20.217	12.023	0.471
753.500	457.995	80.007	19.995	103.156	20.219	11.916	0.490
754.000	458.240	80.007	19.994	103.163	20.222	11.668	0.506
754.500	458.480	80.005	19.995	103.166	20.218	11.963	0.498
755.000	458.748	80.007	19.994	103.166	20.220	11.831	0.496
755.500	459.022	80.006	19.995	103.164	20.218	11.936	0.525
756.000	459.294	80.007	19.996	103.163	20.216	12.082	0.544
756.500	459.507	80.005	19.994	103.156	20.221	11.762	0.516
757.000	459.755	80.006	19.994	103.149	20.218	11.957	0.473
757.500	460.030	80.004	19.995	103.145	20.221	11.734	0.492
758.000	460.266	80.005	19.995	103.145	20.218	11.943	0.517
758.500	460.494	80.004	19.996	103.150	20.221	11.745	0.487
759.000	460.775	80.004	19.995	103.157	20.223	11.642	0.487
759.500	461.029	80.005	19.996	103.164	20.224	11.537	0.523
760.000	461.296	80.005	19.996	103.167	20.222	11.693	0.528
760.500	461.536	80.004	19.996	103.168	20.222	11.670	0.513
761.000	461.765	80.005	19.997	103.164	20.224	11.557	0.488
761.500	462.013	80.004	19.996	103.161	20.224	11.512	0.473
762.000	462.286	80.003	19.995	103.158	20.220	11.804	0.499
762.500	462.553	80.003	19.996	103.157	20.222	11.705	0.530
763.000	462.796	80.004	19.996	103.157	20.223	11.635	0.525
763.500	463.027	80.003	19.995	103.161	20.220	11.802	0.492
764.000	463.283	80.003	19.996	103.163	20.224	11.552	0.480
764.500	463.519	80.003	19.996	103.164	20.221	11.744	0.490
765.000	463.774	80.004	19.995	103.166	20.223	11.637	0.491
765.500	464.021	80.005	19.995	103.169	20.219	11.922	0.496
766.000	464.296	80.005	19.997	103.170	20.222	11.666	0.512
766.500	464.517	80.005	19.996	103.171	20.221	11.725	0.509
767.000	464.795	80.003	19.995	103.173	20.223	11.630	0.498
767.500	465.054	80.005	19.996	103.173	20.224	11.538	0.518
768.000	465.274	80.002	19.996	103.168	20.223	11.616	0.508
768.500	465.519	80.002	19.995	103.165	20.220	11.825	0.472
769.000	465.772	80.004	19.995	103.161	20.219	11.918	0.482
769.500	466.036	80.003	19.996	103.161	20.222	11.695	0.507
770.000	466.314	80.002	19.997	103.158	20.221	11.732	0.530
770.500	466.510	80.004	19.994	103.159	20.221	11.780	0.508
771.000	466.791	80.003	19.996	103.161	20.220	11.796	0.475
771.500	467.079	80.003	19.995	103.164	20.219	11.913	0.523
772.000	467.280	80.005	19.994	103.164	20.222	11.668	0.529
772.500	467.596	80.003	19.995	103.164	20.219	11.897	0.502
773.000	467.825	80.004	19.995	103.165	20.220	11.855	0.531
773.500	468.083	80.004	19.996	103.166	20.221	11.723	0.516
774.000	468.369	80.004	19.996	103.168	20.220	11.791	0.515
774.500	468.563	80.003	19.995	103.168	20.223	11.606	0.512
775.000	468.872	80.004	19.995	103.170	20.224	11.507	0.492
775.500	469.089	80.004	19.996	103.171	20.224	11.568	0.515
776.000	469.347	80.004	19.995	103.171	20.225	11.493	0.501
776.500	469.591	80.003	19.995	103.169	20.224	11.507	0.489
777.000	469.858	80.004	19.995	103.164	20.226	11.373	0.506
777.500	470.109	80.004	19.996	103.159	20.224	11.539	0.514
778.000	470.362	80.001	19.996	103.156	20.223	11.573	0.511
778.500	470.611	80.005	19.995	103.152	20.222	11.648	0.503
779.000	470.884	80.005	19.995	103.151	20.226	11.401	0.512
779.500	471.101	80.004	19.995	103.150	20.222	11.692	0.506
780.000	471.358	80.005	19.995	103.149	20.222	11.681	0.482
780.500	471.596	80.004	19.996	103.149	20.220	11.835	0.484
781.000	471.887	80.004	19.996	103.148	20.223	11.607	0.512
781.500	472.141	80.003	19.995	103.147	20.223	11.631	0.537
782.000	472.383	80.003	19.995	103.148	20.222	11.710	0.520
782.500	472.636	80.003	19.995	103.151	20.221	11.741	0.495
783.000	472.872	80.003	19.995	103.154	20.224	11.572	0.492
783.500	473.134	80.003	19.994	103.155	20.221	11.731	0.493
784.000	473.409	80.003	19.995	103.156	20.224	11.508	0.518
784.500	473.680	80.003	19.995	103.154	20.222	11.705	0.542
785.000	473.960	80.004	19.995	103.154	20.223	11.574	0.548
785.500	474.209	80.004	19.996	103.152	20.226	11.430	0.540
786.000	474.432	80.004	19.996	103.154	20.226	11.366	0.500
786.500	474.746	80.003	19.995	103.157	20.226	11.413	0.505
787.000	474.971	80.003	19.996	103.163	20.224	11.526	0.538
787.500	475.238	80.003	19.995	103.165	20.220	11.797	0.516
788.000	475.470	80.002	19.996	103.164	20.223	11.599	0.496
788.500	475.731	80.004	19.996	103.160	20.222	11.653	0.496
789.000	476.015	80.002	19.995	103.154	20.226	11.420	0.519
789.500	476.230	80.003	19.995	103.146	20.224	11.521	0.523
790.000	476.500	80.003	19.997	103.141	20.222	11.684	0.492
790.500	476.778	80.003	19.996	103.143	20.224	11.553	0.516
791.000	477.016	80.002	19.996	103.148	20.224	11.511	0.532
791.500	477.295	80.003	19.997	103.154	20.223	11.631	0.516
792.000	477.562	80.002	19.996	103.161	20.223	11.616	0.531
792.500	477.755	80.004	19.996	103.169	20.225	11.493	0.503
793.000	478.048	80.003	19.997	103.166	20.225	11.476	0.473
793.500	478.268	80.003	19.995	103.161	20.223	11.583	0.500
794.000	478.542	80.003	19.997	103.160	20.222	11.670	0.504
794.500	478.776	80.003	19.996	103.156	20.224	11.540	0.501
795.000	479.059	80.003	19.997	103.155	20.225	11.489	0.512
795.500	479.311	80.002	19.997	103.155	20.222	11.712	0.526
796.000	479.534	80.002	19.997	103.159	20.223	11.597	0.505
796.500	479.807	80.004	19.997	103.160	20.226	11.429	0.486
797.000	480.049	80.002	19.996	103.159	20.222	11.650	0.505
797.500	480.328	80.005	19.997	103.158	20.222	11.670	0.518
798.000	480.607	80.005	19.995	103.163	20.226	11.422	0.540
798.500	480.820	80.003	19.996	103.163	20.225	11.463	0.525
799.000	481.123	80.004	19.996	103.158	20.225	11.440	0.504
799.500	481.372	80.004	19.995	103.157	20.226	11.404	0.534
800.000	481.632	80.005	19.996	103.156	20.224	11.530	0.530
800.500	481.875	80.003	19.994	103.153	20.229	11.211	0.505
801.000	482.094	80.004	19.995	103.153	20.227	11.345	0.482
801.500	482.373	80.005	19.995	103.159	20.226	11.376	0.480
802.000	482.643	80.004	19.996	103.164	20.228	11.275	0.523
802.500	482.871	80.005	19.995	103.166	20.229	11.186	0.524
803.000	483.156	80.006	19.994	103.167	20.225	11.460	0.506
803.500	483.382	80.005	19.995	103.168	20.230	11.082	0.513
804.000	483.646	80.005	19.995	103.169	20.226	11.388	0.500
804.500	483.933	80.005	19.996	103.168	20.228	11.256	0.520
805.000	484.141	80.005	19.994	103.167	20.225	11.465	0.523
805.500	484.423	80.005	19.995	103.168	20.228	11.271	0.493
806.000	484.668	80.006	19.995	103.166	20.227	11.288	0.508
806.500	484.941	80.004	19.995	103.160	20.230	11.131	0.522
807.000	485.189	80.005	19.996	103.154	20.227	11.351	0.520
807.500	485.421	80.006	19.995	103.148	20.229	11.168	0.501
808.000	485.686	80.006	19.995	103.142	20.229	11.205	0.489
808.500	485.966	80.006	19.994	103.136	20.229	11.215	0.521
809.000	486.224	80.006	19.996	103.136	20.226	11.362	0.541
809.500	486.432	80.007	19.995	103.138	20.229	11.195	0.502
810.000	486.742	80.006	19.994	103.144	20.230	11.124	0.492
810.500	486.982	80.006	19.995	103.147	20.230	11.145	0.534
811.000	487.230	80.005	19.995	103.152	20.228	11.282	0.519
811.500	487.492	80.006	19.995	103.156	20.231	11.046	0.499
812.000	487.730	80.006	19.995	103.158	20.228	11.278	0.505
812.500	488.018	80.005	19.996	103.158	20.229	11.212	0.513
813.000	488.272	80.006	19.995	103.161	20.227	11.324	0.534
813.500	488.536	80.003	19.995	103.164	20.225	11.480	0.530
814.000	488.803	80.005	19.995	103.164	20.232	10.984	0.525
814.500	489.043	80.006	19.994	103.165	20.229	11.198	0.520
815.000	489.292	80.005	19.995	103.164	20.228	11.269	0.498
815.500	489.520	80.005	19.995	103.159	20.229	11.182	0.483
816.000	489.807	80.005	19.995	103.158	20.225	11.478	0.496
816.500	490.076	80.003	19.995	103.154	20.230	11.133	0.535
817.000	490.320	80.004	19.995	103.154	20.229	11.168	0.534
817.500	490.589	80.003	19.995	103.154	20.228	11.230	0.513
818.000	490.820	80.005	19.995	103.157	20.227	11.355	0.507
818.500	491.057	80.003	19.996	103.155	20.228	11.237	0.484
819.001	491.330	80.004	19.995	103.157	20.226	11.374	0.489
819.500	491.585	80.004	19.994	103.156	20.226	11.368	0.519
820.000	491.819	80.004	19.994	103.156	20.229	11.215	0.509
820.500	492.111	80.004	19.995	103.153	20.227	11.322	0.508
821.000	492.352	80.004	19.995	103.156	20.225	11.467	0.530
821.500	492.636	80.006	19.996	103.158	20.226	11.415	0.529
822.000	492.916	80.004	19.995	103.153	20.225	11.470	0.545
822.500	493.114	80.004	19.995	103.154	20.225	11.486	0.521
823.000	493.373	80.005	19.994	103.154	20.225	11.490	0.468
823.500	493.658	80.004	19.995	103.150	20.222	11.649	0.501
824.000	493.896	80.004	19.994	103.147	20.224	11.530	0.534
824.500	494.154	80.005	19.994	103.153	20.220	11.809	0.509
825.000	494.416	80.006	19.995	103.156	20.222	11.666	0.508
825.500	494.723	80.006	19.995	103.159	20.224	11.507	0.544
826.000	494.966	80.007	19.995	103.160	20.222	11.668	0.559
826.500	495.204	80.006	19.994	103.158	20.223	11.610	0.515
827.000	495.464	80.005	19.995	103.154	20.224	11.513	0.489
827.500	495.735	80.006	19.995	103.153	20.226	11.426	0.515
828.000	495.958	80.005	19.994	103.153	20.223	11.591	0.513
828.500	496.207	80.007	19.995	103.157	20.222	11.655	0.483
829.000	496.473	80.007	19.994	103.160	20.224	11.556	0.493
829.500	496.707	80.006	19.995	103.163	20.223	11.583	0.508
830.000	497.008	80.008	19.995	103.159	20.223	11.602	0.518
830.500	497.245	80.007	19.994	103.155	20.220	11.796	0.536
831.000	497.492	80.008	19.995	103.155	20.220	11.804	0.511
831.500	497.789	80.007	19.995	103.157	20.223	11.579	0.514
832.000	498.011	80.007	19.995	103.159	20.223	11.624	0.531
832.500	498.284	80.008	19.994	103.164	20.222	11.650	0.507
833.000	498.544	80.008	19.994	103.170	20.226	11.376	0.514
833.500	498.750	80.005	19.994	103.172	20.223	11.595	0.499
834.000	499.047	80.006	19.995	103.170	20.222	11.693	0.484
834.500	499.284	80.006	19.995	103.167	20.222	11.711	0.519
835.000	499.507	80.006	19.994	103.164	20.220	11.821	0.497
835.500	499.777	80.006	19.995	103.161	20.220	11.846	0.476
836.000	500.010	80.007	19.994	103.153	20.222	11.689	0.498
836.500	500.238	80.006	19.994	103.150	20.221	11.765	0.482
837.000	500.516	80.006	19.995	103.150	20.221	11.734	0.484
837.500	500.812	80.005	19.995	103.148	20.221	11.775	0.540
838.000	501.058	80.006	19.994	103.149	20.220	11.839	0.558
838.500	501.302	80.006	19.994	103.154	20.220	11.824	0.516
839.000	501.554	80.005	19.994	103.154	20.222	11.713	0.493
839.500	501.775	80.007	19.994	103.156	20.222	11.711	0.485
840.000	502.058	80.006	19.994	103.157	20.222	11.701	0.488
840.500	502.312	80.005	19.995	103.153	20.219	11.876	0.520
841.000	502.567	80.004	19.993	103.151	20.222	11.645	0.523
841.500	502.810	80.004	19.995	103.154	20.221	11.727	0.504
842.000	503.063	80.005	19.996	103.154	20.221	11.762	0.497
842.500	503.327	80.004	19.995	103.156	20.223	11.633	0.507
843.000	503.598	80.005	19.995	103.158	20.225	11.494	0.526
843.500	503.801	80.003	19.995	103.159	20.223	11.626	0.504
844.000	504.094	80.004	19.994	103.159	20.221	11.762	0.485
844.500	504.350	80.005	19.995	103.156	20.218	11.976	0.522
845.000	504.610	80.004	19.994	103.152	20.218	11.979	0.532
845.500	504.858	80.004	19.995	103.151	20.220	11.823	0.512
846.000	505.101	80.003	19.995	103.147	20.220	11.830	0.500
846.500	505.361	80.004	19.994	103.143	20.220	11.807	0.497
847.000	505.634	80.004	19.996	103.143	20.216	12.129	0.518
847.500	505.882	80.004	19.994	103.148	20.218	11.935	0.527
848.000	506.108	80.002	19.994	103.151	20.219	11.888	0.497
848.500	506.387	80.004	19.995	103.154	20.220	11.814	0.489
849.000	506.674	80.003	19.995	103.154	20.219	11.901	0.536
849.500	506.895	80.003	19.995	103.156	20.218	11.971	0.537
850.000	507.185	80.004	19.995	103.156	20.220	11.854	0.510
850.500	507.390	80.004	19.995	103.155	20.219	11.920	0.503
851.000	507.649	80.002	19.996	103.154	20.215	12.188	0.479
851.500	507.947	80.004	19.996	103.153	20.220	11.809	0.511
852.000	508.164	80.004	19.995	103.149	20.220	11.831	0.536
852.500	508.422	80.003	19.996	103.144	20.219	11.907	0.495
853.000	508.686	80.005	19.996	103.139	20.218	11.932	0.498
853.500	508.945	80.004	19.995	103.135	20.221	11.746	0.522
854.000	509.198	80.003	19.995	103.136	20.218	11.949	0.518
854.500	509.458	80.003	19.995	103.141	20.218	11.951	0.512
855.000	509.735	80.004	19.995	103.144	20.217	12.032	0.524
855.500	509.993	80.004	19.995	103.147	20.219	11.917	0.536
856.000	510.254	80.004	19.996	103.152	20.219	11.880	0.527
856.500	510.486	80.003	19.996	103.152	20.220	11.818	0.506
857.000	510.763	80.003	19.995	103.146	20.221	11.772	0.501
857.500	511.047	80.003	19.995	103.144	20.218	11.975	0.535
858.000	511.260	80.004	19.996	103.143	20.215	12.154	0.529
858.500	511.514	80.004	19.996	103.141	20.216	12.111	0.482
859.000	511.750	80.004	19.995	103.138	20.218	11.963	0.478
859.500	511.995	80.003	19.996	103.138	20.216	12.130	0.485
860.000	512.269	80.003	19.995	103.138	20.217	12.068	0.500
860.500	512.547	80.004	19.996	103.136	20.216	12.089	0.535
861.000	512.788	80.003	19.994	103.134	20.213	12.301	0.536
861.500	513.025	80.004	19.997	103.136	20.215	12.206	0.499
862.000	513.289	80.004	19.996	103.139	20.217	12.018	0.490
862.500	513.559	80.003	19.996	103.143	20.213	12.311	0.517
863.000	513.825	80.004	19.996	103.149	20.216	12.123	0.535
863.500	514.104	80.006	19.995	103.153	20.216	12.132	0.541
864.000	514.356	80.004	19.997	103.153	20.215	12.163	0.539
864.500	514.606	80.004	19.996	103.151	20.216	12.072	0.516
865.000	514.838	80.003	19.996	103.150	20.216	12.092	0.492
865.500	515.175	80.005	19.995	103.148	20.213	12.347	0.526
866.000	515.402	80.005	19.996	103.144	20.212	12.376	0.566
866.500	515.653	80.003	19.996	103.143	20.212	12.418	0.521
867.000	515.922	80.004	19.995	103.141	20.213	12.355	0.499
867.500	516.139	80.004	19.994	103.140	20.214	12.223	0.503
868.000	516.417	80.004	19.995	103.140	20.216	12.104	0.491
868.500	516.694	80.004	19.995	103.140	20.218	11.965	0.525
869.000	516.918	80.005	19.995	103.139	20.218	11.965	0.527
869.500	517.161	80.004	19.995	103.139	20.214	12.258	0.484
870.000	517.431	80.002	19.995	103.138	20.217	12.057	0.491
870.500	517.711	80.003	19.995	103.134	20.214	12.218	0.532
871.000	517.991	80.004	19.995	103.136	20.216	12.084	0.554
871.500	518.185	80.006	19.995	103.138	20.221	11.784	0.517
872.000	518.452	80.003	19.994	103.139	20.209	12.633	0.467
872.500	518.682	80.003	19.995	103.140	20.223	11.585	0.479
873.000	518.952	80.004	19.995	103.140	20.225	11.476	0.499
873.500	519.169	80.004	19.995	103.139	20.216	12.071	0.493
874.000	519.475	80.003	19.995	103.139	20.212	12.378	0.505
874.500	519.731	80.003	19.995	103.139	20.221	11.744	0.543
875.000	519.953	80.003	19.995	103.139	20.218	11.986	0.520
875.500	520.207	80.003	19.995	103.142	20.216	12.132	0.477
876.000	520.413	80.004	19.996	103.146	20.216	12.082	0.468
876.500	520.739	80.003	19.996	103.149	20.216	12.112	0.496
877.000	521.013	80.003	19.996	103.153	20.215	12.142	0.566
877.500	521.244	80.003	19.996	103.157	20.208	12.658	0.552
878.000	521.430	80.003	19.995	103.153	20.213	12.311	0.461
878.500	521.704	80.004	19.996	103.149	20.212	12.377	0.439
879.000	521.968	80.004	19.996	103.145	20.214	12.259	0.499
879.500	522.239	80.003	19.995	103.139	20.214	12.234	0.536
880.000	522.371	80.003	19.995	103.136	20.209	12.589	0.469
880.500	522.736	80.003	19.995	103.139	20.212	12.414	0.450
881.000	522.949	80.004	19.996	103.143	20.212	12.392	0.538
881.500	523.241	80.003	19.995	103.143	20.211	12.487	0.541
882.000	523.488	80.004	19.995	103.143	20.211	12.476	0.522
882.500	523.790	80.003	19.996	103.143	20.212	12.404	0.544
883.000	524.069	80.003	19.996	103.141	20.212	12.360	0.565
883.500	524.230	80.004	19.996	103.141	20.214	12.261	0.511
884.000	524.606	80.004	19.995	103.147	20.214	12.251	0.488
884.500	524.765	80.005	19.996	103.150	20.213	12.300	0.536
885.000	525.009	80.005	19.995	103.152	20.212	12.403	0.470
885.500	525.421	80.004	19.995	103.151	20.212	12.375	0.529
886.000	525.505	80.005	19.995	103.147	20.221	11.776	0.576
886.500	526.341	80.005	19.995	103.141	20.209	12.580	0.708
887.000	526.594	80.006	19.996	103.137	20.214	12.244	1.005
887.500	526.664	80.005	19.995	103.135	20.212	12.360	0.705
888.000	526.422	80.007	19.995	103.136	20.214	12.282	0.075
888.500	526.851	80.005	19.997	103.137	20.212	12.407	0.008
889.000	527.500	80.006	19.995	103.141	20.210	12.541	0.633
889.500	527.236	80.006	19.996	103.145	20.212	12.358	0.732
890.000	527.675	80.004	19.996	103.147	20.211	12.485	0.280
890.500	527.843	80.007	19.995	103.147	20.214	12.246	0.391
891.000	528.212	80.005	19.995	103.146	20.210	12.510	0.572
891.500	528.355	80.006	19.997	103.140	20.210	12.560	0.525
892.000	528.712	80.006	19.994	103.138	20.213	12.312	0.506
892.500	528.847	80.005	19.994	103.141	20.211	12.437	0.496
893.000	529.202	80.005	19.996	103.143	20.211	12.468	0.491
893.500	529.476	80.006	19.996	103.143	20.209	12.605	0.559
894.000	529.648	80.005	19.995	103.145	20.211	12.495	0.537
894.500	529.973	80.006	19.996	103.144	20.207	12.747	0.471
895.000	530.215	80.005	19.994	103.140	20.210	12.522	0.532
895.500	530.457	80.004	19.994	103.144	20.212	12.405	0.525
896.000	530.716	80.006	19.995	103.149	20.208	12.650	0.492
896.500	531.028	80.004	19.994	103.156	20.208	12.648	0.536
897.000	531.240	80.005	19.994	103.162	20.210	12.558	0.548
897.500	531.474	80.005	19.995	103.166	20.209	12.575	0.485
898.000	531.791	80.004	19.994	103.166	20.207	12.757	0.499
898.500	531.996	80.005	19.994	103.163	20.208	12.656	0.537
899.000	532.279	80.005	19.996	103.155	20.214	12.270	0.505
899.500	532.602	80.005	19.995	103.150	20.207	12.734	0.547
900.000	532.834	80.005	19.995	103.148	20.211	12.488	0.581
900.500	533.031	80.005	19.994	103.149	20.209	12.635	0.492
901.000	533.366	80.006	19.994	103.149	20.207	12.717	0.480
901.500	533.533	80.005	19.994	103.151	20.208	12.680	0.516
902.000	533.840	80.006	19.994	103.151	20.202	13.070	0.488
902.500	534.087	80.006	19.994	103.150	20.205	12.864	0.514
903.000	534.346	80.004	19.994	103.150	20.206	12.786	0.530
903.500	534.591	80.005	19.993	103.153	20.208	12.675	0.505
904.000	534.921	80.005	19.994	103.159	20.203	13.065	0.539
904.500	535.099	80.006	19.995	103.164	20.206	12.852	0.541
905.000	535.421	80.003	19.994	103.170	20.206	12.782	0.504
905.500	535.644	80.006	19.994	103.170	20.203	13.056	0.523
906.000	535.941	80.006	19.993	103.171	20.204	12.929	0.533
906.500	536.167	80.005	19.995	103.169	20.204	12.979	0.521
907.000	536.452	80.004	19.994	103.168	20.205	12.859	0.517
907.500	536.694	80.005	19.993	103.169	20.203	13.003	0.519
908.000	536.930	80.006	19.994	103.166	20.203	13.029	0.503
908.500	537.173	80.006	19.994	103.160	20.202	13.091	0.479
909.000	537.475	80.005	19.993	103.158	20.206	12.829	0.512
909.500	537.738	80.006	19.994	103.154	20.207	12.723	0.555
910.000	538.036	80.005	19.994	103.153	20.206	12.849	0.563
910.500	538.289	80.006	19.994	103.156	20.206	12.788	0.556
911.000	538.530	80.007	19.994	103.161	20.207	12.738	0.522
911.500	538.850	80.006	19.994	103.161	20.208	12.703	0.527
912.000	539.067	80.006	19.994	103.161	20.208	12.698	0.549
912.500	539.320	80.007	19.994	103.159	20.206	12.849	0.504
913.000	539.602	80.006	19.993	103.158	20.206	12.851	0.503
913.500	539.847	80.007	19.993	103.155	20.205	12.916	0.531
914.000	540.103	80.007	19.994	103.153	20.206	12.833	0.514
914.500	540.409	80.006	19.994	103.153	20.206	12.811	0.532
915.000	540.609	80.007	19.995	103.150	20.208	12.685	0.534
915.500	540.895	80.007	19.994	103.143	20.206	12.822	0.496
916.000	541.150	80.008	19.994	103.141	20.207	12.778	0.514
916.500	541.367	80.007	19.994	103.139	20.205	12.865	0.507
917.000	541.651	80.006	19.994	103.137	20.208	12.706	0.486
917.500	541.917	80.007	19.994	103.135	20.208	12.701	0.526
918.000	542.172	80.006	19.995	103.136	20.205	12.890	0.536
918.500	542.449	80.005	19.994	103.137	20.204	12.981	0.527
919.000	542.727	80.006	19.995	103.141	20.204	12.993	0.544
919.500	542.986	80.007	19.994	103.142	20.205	12.911	0.546
920.000	543.224	80.006	19.994	103.145	20.204	12.977	0.517
920.500	543.503	80.006	19.995	103.147	20.203	13.010	0.507
921.000	543.766	80.004	19.994	103.151	20.203	12.998	0.529
921.500	544.059	80.005	19.995	103.155	20.202	13.114	0.549
922.000	544.267	80.005	19.996	103.159	20.207	12.753	0.528
922.500	544.554	80.005	19.995	103.156	20.207	12.725	0.498
923.000	544.761	80.004	19.995	103.153	20.202	13.078	0.495
923.500	545.102	80.004	19.995	103.150	20.206	12.792	0.522
924.000	545.306	80.004	19.995	103.145	20.204	12.931	0.547
924.500	545.591	80.005	19.995	103.141	20.204	12.972	0.517
925.000	545.894	80.004	19.995	103.141	20.206	12.838	0.538
925.500	546.109	80.005	19.995	103.141	20.206	12.788	0.553
926.000	546.403	80.003	19.995	103.139	20.203	13.010	0.514
926.500	546.658	80.004	19.994	103.137	20.202	13.086	0.529
927.000	546.907	80.005	19.994	103.139	20.203	12.998	0.526
927.500	547.164	80.006	19.995	103.139	20.204	12.969	0.505
928.000	547.440	80.005	19.994	103.138	20.203	13.005	0.520
928.500	547.727	80.005	19.995	103.142	20.205	12.860	0.548
929.000	548.015	80.005	19.994	103.146	20.205	12.908	0.569
929.500	548.274	80.005	19.995	103.150	20.203	13.050	0.561
930.000	548.503	80.006	19.994	103.153	20.202	13.110	0.518
930.500	548.759	80.005	19.994	103.159	20.204	12.978	0.486
931.000	548.998	80.005	19.993	103.160	20.204	12.925	0.489
931.500	549.254	80.006	19.993	103.161	20.201	13.198	0.495
932.000	549.573	80.004	19.994	103.159	20.204	12.975	0.535
932.500	549.774	80.004	19.994	103.158	20.202	13.094	0.547
933.000	550.105	80.005	19.993	103.156	20.200	13.243	0.526
933.500	550.289	80.005	19.994	103.152	20.200	13.234	0.524
934.000	550.584	80.006	19.993	103.145	20.201	13.146	0.497
934.500	550.832	80.005	19.994	103.141	20.201	13.173	0.511
935.000	551.119	80.004	19.995	103.139	20.199	13.331	0.539
935.500	551.371	80.006	19.994	103.140	20.204	12.955	0.537
936.000	551.628	80.005	19.994	103.141	20.203	13.044	0.524
936.500	551.881	80.006	19.994	103.144	20.202	13.093	0.510
937.000	552.138	80.005	19.995	103.147	20.200	13.231	0.510
937.500	552.415	80.007	19.995	103.148	20.199	13.351	0.522
938.000	552.681	80.006	19.995	103.143	20.200	13.244	0.538
938.500	552.929	80.005	19.994	103.141	20.202	13.102	0.529
939.000	553.172	80.006	19.995	103.141	20.198	13.398	0.503
939.500	553.506	80.006	19.994	103.139	20.200	13.245	0.534
940.000	553.743	80.005	19.994	103.139	20.202	13.123	0.574
940.500	553.988	80.005	19.994	103.140	20.200	13.247	0.526
941.000	554.267	80.005	19.995	103.142	20.199	13.304	0.503
941.500	554.524	80.005	19.995	103.143	20.202	13.135	0.530
942.000	554.815	80.005	19.994	103.149	20.200	13.230	0.542
942.500	555.069	80.004	19.995	103.150	20.201	13.147	0.547
943.000	555.328	80.006	19.995	103.150	20.199	13.319	0.529
943.500	555.570	80.005	19.995	103.148	20.197	13.449	0.507
944.000	555.817	80.005	19.995	103.146	20.202	13.078	0.495
944.500	556.096	80.005	19.995	103.140	20.200	13.278	0.508
945.000	556.356	80.004	19.994	103.137	20.201	13.151	0.532
945.500	556.628	80.005	19.995	103.135	20.202	13.071	0.536
946.000	556.877	80.006	19.995	103.137	20.201	13.160	0.527
946.500	557.144	80.005	19.996	103.140	20.201	13.206	0.518
947.000	557.401	80.005	19.994	103.142	20.200	13.241	0.519
947.500	557.631	80.004	19.995	103.144	20.199	13.312	0.506
948.000	557.901	80.004	19.995	103.144	20.197	13.450	0.494
948.500	558.153	80.004	19.995	103.142	20.199	13.301	0.511
949.000	558.445	80.005	19.995	103.143	20.197	13.458	0.533
949.500	558.707	80.004	19.994	103.142	20.199	13.338	0.549
950.000	558.985	80.005	19.995	103.145	20.197	13.465	0.547
950.500	559.203	80.004	19.995	103.150	20.200	13.268	0.518
951.000	559.462	80.004	19.995	103.154	20.200	13.277	0.486
951.500	559.763	80.003	19.996	103.151	20.197	13.483	0.519
952.000	559.976	80.004	19.996	103.153	20.196	13.518	0.537
952.500	560.239	80.004	19.995	103.153	20.196	13.494	0.495
953.000	560.516	80.003	19.994	103.151	20.200	13.267	0.508
953.500	560.761	80.004	19.995	103.153	20.199	13.310	0.531
954.000	561.038	80.003	19.995	103.155	20.197	13.471	0.522
954.500	561.300	80.003	19.996	103.153	20.198	13.391	0.531
955.000	561.544	80.004	19.994	103.151	20.201	13.194	0.522
955.500	561.797	80.003	19.996	103.147	20.200	13.274	0.501
956.000	562.069	80.004	19.995	103.142	20.198	13.391	0.511
956.500	562.307	80.003	19.995	103.139	20.200	13.234	0.517
957.000	562.571	80.004	19.995	103.138	20.197	13.425	0.506
957.500	562.852	80.004	19.995	103.137	20.196	13.496	0.524
958.000	563.093	80.004	19.995	103.137	20.199	13.327	0.533
958.500	563.335	80.003	19.995	103.139	20.198	13.383	0.503
959.000	563.597	80.004	19.995	103.144	20.197	13.429	0.494
959.500	563.841	80.004	19.994	103.147	20.194	13.670	0.505
960.000	564.125	80.003	19.994	103.148	20.198	13.385	0.517
960.500	564.370	80.005	19.995	103.150	20.194	13.656	0.529
961.000	564.612	80.004	19.995	103.152	20.196	13.517	0.508
961.500	564.865	80.003	19.995	103.147	20.196	13.560	0.491
962.000	565.127	80.005	19.994	103.144	20.198	13.395	0.505
962.500	565.396	80.004	19.995	103.144	20.196	13.565	0.523
963.000	565.600	80.005	19.995	103.145	20.196	13.548	0.502
963.500	565.909	80.004	19.995	103.144	20.193	13.746	0.493
964.000	566.138	80.005	19.995	103.142	20.194	13.645	0.526
964.500	566.412	80.005	19.995	103.142	20.197	13.456	0.521
965.000	566.666	80.004	19.995	103.142	20.195	13.619	0.515
965.500	566.925	80.004	19.995	103.140	20.197	13.483	0.520
966.000	567.176	80.005	19.995	103.144	20.194	13.656	0.512
966.500	567.410	80.007	19.995	103.148	20.194	13.689	0.498
967.000	567.686	80.005	19.994	103.151	20.191	13.873	0.497
967.500	567.981	80.005	19.995	103.154	20.193	13.717	0.540
968.000	568.199	80.005	19.993	103.159	20.195	13.608	0.542
968.500	568.469	80.005	19.994	103.155	20.192	13.781	0.501
969.000	568.733	80.005	19.995	103.152	20.193	13.767	0.511
969.500	568.965	80.005	19.995	103.149	20.195	13.627	0.515
970.000	569.210	80.007	19.995	103.146	20.193	13.724	0.486
970.500	569.464	80.006	19.995	103.140	20.192	13.825	0.488
971.000	569.703	80.006	19.994	103.137	20.192	13.809	0.496
971.500	569.976	80.005	19.994	103.136	20.192	13.782	0.503
972.000	570.241	80.006	19.995	103.136	20.193	13.714	0.525
972.500	570.476	80.006	19.994	103.139	20.190	13.955	0.519
973.000	570.730	80.005	19.995	103.142	20.195	13.585	0.494
973.500	570.986	80.006	19.994	103.148	20.192	13.839	0.500
974.000	571.237	80.005	19.995	103.151	20.193	13.737	0.509
974.500	571.472	80.005	19.996	103.152	20.193	13.765	0.496
975.000	571.763	80.007	19.994	103.150	20.191	13.880	0.506
975.500	571.970	80.004	19.995	103.149	20.189	14.020	0.512
976.000	572.235	80.005	19.996	103.145	20.190	13.939	0.485
976.500	572.510	80.005	19.996	103.146	20.189	14.010	0.506
977.000	572.745	80.005	19.995	103.147	20.189	14.016	0.525
977.500	573.018	80.005	19.995	103.146	20.191	13.855	0.510
978.000	573.263	80.005	19.996	103.144	20.189	14.056	0.513
978.500	573.500	80.005	19.996	103.142	20.192	13.798	0.500
979.000	573.790	80.005	19.997	103.138	20.191	13.913	0.504
979.500	574.061	80.005	19.996	103.136	20.187	14.175	0.544
980.000	574.303	80.004	19.996	103.136	20.192	13.830	0.537
980.500	574.531	80.005	19.996	103.135	20.188	14.103	0.491
981.000	574.788	80.004	19.994	103.134	20.193	13.743	0.477
981.500	575.027	80.005	19.996	103.134	20.188	14.066	0.491
982.000	575.307	80.004	19.998	103.134	20.192	13.843	0.508
982.500	575.580	80.006	19.997	103.134	20.188	14.096	0.535
983.000	575.804	80.006	19.997	103.135	20.189	14.051	0.525
983.500	576.086	80.005	19.996	103.136	20.189	14.034	0.502
984.000	576.308	80.005	19.997	103.138	20.189	14.033	0.505
984.500	576.549	80.006	19.994	103.139	20.190	13.933	0.484
985.000	576.780	80.006	19.996	103.141	20.188	14.094	0.468
985.500	577.067	80.005	19.995	103.139	20.190	13.987	0.495
986.000	577.311	80.004	19.995	103.138	20.189	14.001	0.525
986.500	577.556	80.004	19.995	103.142	20.186	14.255	0.510
987.000	577.816	80.005	19.996	103.143	20.191	13.900	0.497
987.500	578.030	80.007	19.996	103.140	20.188	14.112	0.489
988.000	578.301	80.006	19.995	103.142	20.189	14.054	0.480
988.500	578.564	80.006	19.995	103.143	20.191	13.917	0.510
989.000	578.794	80.006	19.994	103.138	20.191	13.880	0.514
989.500	579.049	80.007	19.995	103.134	20.188	14.080	0.489
990.000	579.296	80.007	19.995	103.142	20.187	14.175	0.494
990.500	579.550	80.007	19.995	103.143	20.188	14.087	0.502
991.000	579.780	80.007	19.995	103.141	20.188	14.090	0.492
991.500	580.038	80.008	19.995	103.142	20.184	14.369	0.486
992.000	580.275	80.008	19.995	103.144	20.190	13.968	0.492
992.500	580.547	80.008	19.994	103.142	20.187	14.159	0.502
993.000	580.814	80.007	19.994	103.141	20.185	14.324	0.524
993.500	581.023	80.007	19.995	103.143	20.188	14.090	0.507
994.000	581.291	80.007	19.995	103.143	20.187	14.175	0.476
994.500	581.540	80.009	19.995	103.142	20.186	14.219	0.497
995.001	581.767	80.006	19.993	103.141	20.187	14.155	0.497
995.500	582.047	80.008	19.995	103.142	20.186	14.259	0.491
996.000	582.315	80.006	19.995	103.145	20.186	14.228	0.527
996.500	582.536	80.007	19.994	103.145	20.187	14.177	0.518
997.000	582.784	80.009	19.993	103.148	20.185	14.337	0.480
997.500	583.053	80.006	19.994	103.146	20.185	14.305	0.493
998.000	583.315	80.007	19.994	103.145	20.189	14.047	0.524
998.500	583.543	80.008	19.994	103.145	20.184	14.402	0.510
999.000	583.805	80.010	19.995	103.151	20.185	14.305	0.490
999.500	584.037	80.007	19.994	103.154	20.185	14.324	0.492
1000.000	584.307	80.008	19.995	103.154	20.184	14.389	0.498
1000.500	584.562	80.007	19.993	103.156	20.185	14.321	0.514
1001.000	584.796	80.008	19.994	103.155	20.184	14.365	0.507
1001.500	585.074	80.007	19.995	103.150	20.185	14.339	0.501
1002.000	585.349	80.006	19.995	103.144	20.183	14.424	0.532
1002.500	585.554	80.006	19.996	103.144	20.184	14.393	0.516
1003.000	585.832	80.006	19.995	103.142	20.186	14.226	0.481
1003.500	586.042	80.007	19.996	103.140	20.185	14.316	0.485
1004.000	586.360	80.007	19.995	103.137	20.183	14.444	0.508
1004.500	586.562	80.006	19.995	103.142	20.185	14.344	0.524
1005.000	586.823	80.005	19.995	103.144	20.182	14.513	0.492
1005.500	587.077	80.004	19.996	103.148	20.184	14.368	0.489
1006.000	587.343	80.006	19.994	103.154	20.184	14.353	0.517
1006.500	587.565	80.005	19.995	103.161	20.182	14.514	0.504
1007.000	587.860	80.005	19.994	103.162	20.186	14.213	0.502
1007.500	588.081	80.005	19.995	103.159	20.184	14.390	0.516
1008.000	588.309	80.005	19.996	103.159	20.183	14.451	0.482
1008.500	588.629	80.006	19.995	103.155	20.185	14.333	0.498
1009.000	588.872	80.006	19.994	103.154	20.186	14.240	0.556
1009.500	589.154	80.006	19.995	103.152	20.189	14.015	0.544
1010.000	589.402	80.005	19.995	103.153	20.184	14.383	0.528
1010.500	589.646	80.005	19.996	103.149	20.183	14.482	0.511
1011.000	589.887	80.004	19.994	103.149	20.185	14.301	0.488
1011.500	590.182	80.004	19.996	103.144	20.185	14.303	0.511
1012.000	590.452	80.006	19.995	103.139	20.182	14.545	0.550
1012.500	590.666	80.005	19.995	103.136	20.182	14.544	0.524
1013.000	590.938	80.004	19.994	103.135	20.181	14.605	0.485
1013.500	591.192	80.004	19.995	103.134	20.182	14.553	0.506
1014.000	591.446	80.005	19.995	103.135	20.180	14.671	0.517
1014.500	591.703	80.004	19.994	103.135	20.178	14.840	0.509
1015.000	591.989	80.007	19.994	103.138	20.177	14.867	0.527
1015.500	592.227	80.005	19.995	103.143	20.180	14.682	0.533
1016.000	592.505	80.004	19.995	103.145	20.180	14.633	0.520
1016.500	592.762	80.006	19.994	103.150	20.182	14.554	0.526
1017.000	593.002	80.004	19.994	103.152	20.182	14.526	0.516
1017.500	593.309	80.004	19.995	103.151	20.176	14.937	0.522
1018.000	593.560	80.005	19.994	103.151	20.178	14.790	0.552
1018.500	593.818	80.006	19.993	103.153	20.178	14.806	0.533
1019.000	594.086	80.006	19.993	103.148	20.180	14.696	0.517
1019.500	594.365	80.005	19.994	103.149	20.177	14.848	0.536
1020.000	594.640	80.005	19.994	103.147	20.181	14.592	0.550
1020.500	594.916	80.005	19.994	103.145	20.179	14.764	0.552
1021.000	595.175	80.006	19.995	103.143	20.177	14.909	0.544
1021.500	595.458	80.005	19.994	103.142	20.179	14.775	0.539
1022.000	595.746	80.005	19.995	103.140	20.180	14.646	0.556
1022.500	595.969	80.005	19.994	103.140	20.181	14.609	0.541
1023.000	596.214	80.006	19.994	103.141	20.178	14.792	0.490
1023.500	596.498	80.005	19.994	103.145	20.177	14.852	0.499
1024.000	596.762	80.005	19.995	103.151	20.181	14.582	0.539
1024.499	597.018	80.007	19.994	103.151	20.179	14.752	0.534
1024.999	597.291	80.005	19.995	103.151	20.176	14.925	0.524
1025.499	597.565	80.005	19.994	103.152	20.176	14.934	0.538
1026.000	597.804	80.006	19.994	103.149	20.179	14.730	0.530
1026.501	598.060	80.006	19.993	103.145	20.179	14.739	0.504
1027.000	598.318	80.005	19.995	103.147	20.176	14.974	0.505
1027.499	598.577	80.006	19.994	103.146	20.174	15.116	0.516
1027.999	598.834	80.005	19.994	103.141	20.176	14.932	0.517
1028.499	599.077	80.006	19.995	103.142	20.179	14.737	0.508
1028.999	599.364	80.004	19.995	103.144	20.174	15.079	0.515
1029.499	599.634	80.004	19.994	103.145	20.178	14.839	0.544
1029.999	599.894	80.005	19.994	103.152	20.176	14.946	0.544
1030.499	600.158	80.004	19.994	103.156	20.175	15.009	0.527
1030.999	600.425	80.006	19.993	103.155	20.174	15.118	0.527
1031.499	600.674	80.005	19.994	103.150	20.176	14.961	0.524
1032.000	600.959	80.006	19.994	103.150	20.175	15.036	0.525
1032.500	601.181	80.004	19.994	103.143	20.177	14.858	0.520
1032.999	601.451	80.004	19.993	103.140	20.179	14.774	0.499
1033.499	601.743	80.004	19.995	103.139	20.176	14.944	0.527
1034.000	601.994	80.006	19.994	103.142	20.179	14.723	0.552
1034.500	602.251	80.005	19.994	103.144	20.178	14.822	0.526
1034.999	602.525	80.004	19.994	103.150	20.174	15.092	0.520
1035.500	602.771	80.004	19.994	103.151	20.175	15.026	0.525
1036.000	603.035	80.005	19.995	103.150	20.173	15.158	0.515
1036.499	603.283	80.003	19.995	103.148	20.175	15.007	0.511
1036.999	603.579	80.004	19.995	103.146	20.174	15.080	0.528
1037.500	603.811	80.004	19.994	103.142	20.171	15.317	0.536
1038.000	604.063	80.006	19.994	103.140	20.176	14.918	0.506
1038.499	604.352	80.005	19.995	103.140	20.171	15.314	0.513
1039.000	604.634	80.004	19.995	103.143	20.173	15.194	0.557
1039.501	604.870	80.004	19.994	103.141	20.172	15.233	0.545
1040.000	605.145	80.005	19.994	103.143	20.176	14.962	0.514
1040.500	605.421	80.004	19.996	103.146	20.178	14.837	0.531
1041.000	605.644	80.005	19.994	103.147	20.174	15.067	0.525
1041.500	605.910	80.005	19.997	103.144	20.170	15.356	0.494
1042.000	606.210	80.004	19.996	103.147	20.169	15.468	0.527
1042.499	606.436	80.004	19.996	103.144	20.171	15.324	0.546
1043.000	606.695	80.006	19.996	103.141	20.171	15.314	0.506
1043.500	606.968	80.005	19.996	103.142	20.169	15.431	0.509
1043.999	607.172	80.005	19.995	103.142	20.172	15.227	0.504
1044.499	607.514	80.005	19.995	103.138	20.173	15.155	0.511
1044.999	607.712	80.004	19.996	103.138	20.170	15.348	0.543
1045.500	608.006	80.004	19.995	103.137	20.171	15.322	0.517
1046.001	608.273	80.005	19.996	103.135	20.173	15.154	0.526
1046.500	608.519	80.005	19.997	103.136	20.170	15.389	0.536
1047.000	608.814	80.005	19.997	103.138	20.166	15.682	0.527
1047.501	609.092	80.005	19.996	103.138	20.169	15.443	0.557
1048.001	609.349	80.005	19.996	103.138	20.170	15.414	0.554
1048.500	609.577	80.005	19.996	103.141	20.168	15.534	0.510
1049.000	609.809	80.005	19.997	103.141	20.167	15.609	0.472
1049.501	610.039	80.007	19.995	103.144	20.168	15.553	0.461
1050.000	610.325	80.005	19.995	103.144	20.171	15.298	0.489
1050.500	610.593	80.007	19.994	103.147	20.170	15.388	0.535
1051.000	610.850	80.006	19.996	103.148	20.167	15.613	0.539
1051.500	611.060	80.006	19.995	103.146	20.167	15.559	0.496
1052.000	611.347	80.005	19.994	103.141	20.165	15.714	0.482
1052.500	611.613	80.004	19.996	103.140	20.167	15.605	0.525
1053.000	611.867	80.007	19.995	103.139	20.167	15.600	0.536
1053.499	612.112	80.007	19.994	103.134	20.165	15.706	0.509
1054.000	612.383	80.005	19.994	103.134	20.164	15.834	0.507
1054.500	612.661	80.005	19.995	103.134	20.166	15.665	0.532
1054.999	612.938	80.005	19.994	103.135	20.166	15.684	0.552
1055.500	613.152	80.006	19.994	103.134	20.162	15.945	0.523
1056.000	613.414	80.006	19.995	103.140	20.165	15.763	0.483
1056.499	613.665	80.005	19.994	103.146	20.166	15.632	0.495
1056.999	613.908	80.007	19.996	103.152	20.168	15.510	0.504
1057.499	614.187	80.006	19.995	103.154	20.168	15.489	0.508
1058.000	614.450	80.006	19.994	103.152	20.171	15.343	0.532
1058.501	614.708	80.006	19.994	103.148	20.167	15.570	0.531
1059.000	615.000	80.007	19.995	103.141	20.166	15.672	0.535
1059.499	615.265	80.007	19.993	103.137	20.169	15.480	0.554
1060.000	615.517	80.005	19.995	103.136	20.166	15.643	0.537
1060.500	615.756	80.007	19.995	103.137	20.169	15.484	0.504
1060.999	615.975	80.006	19.995	103.141	20.166	15.675	0.474
1061.499	616.229	80.006	19.994	103.146	20.166	15.633	0.466
1061.999	616.530	80.007	19.996	103.148	20.169	15.435	0.514
1062.499	616.759	80.005	19.995	103.149	20.166	15.648	0.542
1062.999	617.056	80.005	19.995	103.149	20.164	15.803	0.527
1063.499	617.288	80.005	19.995	103.144	20.166	15.676	0.527
1063.999	617.548	80.007	19.993	103.139	20.164	15.790	0.511
1064.500	617.804	80.006	19.995	103.134	20.167	15.601	0.504
1065.001	618.027	80.005	19.995	103.131	20.165	15.758	0.497
1065.500	618.296	80.005	19.995	103.131	20.164	15.824	0.485
1066.000	618.527	80.006	19.995	103.131	20.165	15.725	0.496
1066.500	618.825	80.006	19.994	103.137	20.167	15.626	0.514
1066.999	619.088	80.007	19.995	103.138	20.165	15.730	0.545
1067.500	619.300	80.006	19.994	103.143	20.165	15.732	0.519
1068.000	619.522	80.005	19.995	103.145	20.167	15.612	0.454
1068.499	619.800	80.005	19.994	103.145	20.166	15.696	0.466
1068.999	620.060	80.006	19.996	103.143	20.164	15.791	0.519
1069.499	620.335	80.005	19.995	103.143	20.165	15.728	0.537
1070.000	620.584	80.006	19.996	103.140	20.164	15.817	0.530
1070.501	620.834	80.004	19.996	103.139	20.168	15.495	0.512
1071.000	621.085	80.007	19.995	103.138	20.165	15.758	0.500
1071.499	621.341	80.005	19.995	103.137	20.164	15.833	0.504
1071.999	621.596	80.005	19.995	103.136	20.163	15.868	0.509
1072.499	621.866	80.006	19.995	103.137	20.165	15.711	0.518
1072.999	622.148	80.005	19.997	103.137	20.164	15.828	0.539
1073.499	622.370	80.006	19.995	103.137	20.165	15.738	0.528
1073.999	622.657	80.005	19.995	103.136	20.165	15.754	0.506
1074.500	622.850	80.006	19.996	103.137	20.160	16.059	0.494
1075.000	623.132	80.007	19.995	103.139	20.164	15.835	0.477
1075.500	623.384	80.007	19.996	103.141	20.161	16.007	0.505
1076.000	623.672	80.008	19.995	103.144	20.163	15.896	0.537
1076.499	623.879	80.005	19.996	103.145	20.161	16.035	0.517
1076.999	624.130	80.007	19.995	103.144	20.165	15.772	0.477
1077.499	624.393	80.007	19.994	103.143	20.164	15.802	0.486
1078.000	624.655	80.008	19.995	103.140	20.163	15.909	0.519
1078.500	624.863	80.009	19.995	103.137	20.161	16.036	0.497
1078.999	625.131	80.009	19.994	103.137	20.161	16.021	0.473
1079.499	625.415	80.007	19.995	103.141	20.160	16.059	0.514
1079.999	625.679	80.008	19.996	103.146	20.161	15.989	0.551
1080.499	625.917	80.008	19.996	103.150	20.161	16.026	0.525
1081.000	626.162	80.007	19.994	103.149	20.161	16.041	0.493
1081.501	626.437	80.008	19.995	103.147	20.162	15.924	0.501
1082.001	626.673	80.007	19.993	103.146	20.160	16.067	0.515
1082.500	626.947	80.006	19.995	103.141	20.157	16.285	0.510
1082.999	627.180	80.006	19.995	103.141	20.164	15.841	0.509
1083.499	627.448	80.007	19.994	103.143	20.160	16.107	0.504
1083.999	627.684	80.007	19.994	103.147	20.160	16.069	0.503
1084.499	627.931	80.008	19.995	103.152	20.162	15.918	0.493
1084.999	628.197	80.008	19.993	103.154	20.159	16.191	0.498
1085.499	628.457	80.006	19.994	103.158	20.160	16.060	0.519
1086.000	628.712	80.006	19.994	103.162	20.160	16.115	0.520
1086.500	628.967	80.006	19.994	103.161	20.162	15.982	0.513
1086.999	629.190	80.006	19.996	103.156	20.160	16.126	0.494
1087.500	629.502	80.005	19.994	103.152	20.159	16.178	0.507
1088.001	629.697	80.004	19.995	103.144	20.161	15.996	0.521
1088.500	629.955	80.004	19.995	103.142	20.162	15.930	0.480
1088.999	630.214	80.006	19.994	103.141	20.162	15.955	0.485
1089.499	630.481	80.006	19.995	103.145	20.161	15.990	0.522
1090.000	630.695	80.004	19.995	103.152	20.161	16.042	0.503
1090.500	630.970	80.005	19.994	103.155	20.163	15.895	0.485
1090.999	631.251	80.005	19.995	103.158	20.161	15.995	0.522
1091.499	631.478	80.004	19.995	103.158	20.162	15.982	0.532
1092.000	631.733	80.005	19.993	103.153	20.159	16.160	0.495
1092.501	631.986	80.004	19.993	103.150	20.161	16.006	0.495
1093.000	632.234	80.005	19.995	103.147	20.158	16.227	0.505
1093.500	632.499	80.003	19.994	103.141	20.156	16.352	0.507
1094.000	632.712	80.003	19.994	103.140	20.162	15.952	0.495
1094.499	632.988	80.003	19.995	103.143	20.158	16.200	0.484
1095.000	633.248	80.004	19.994	103.146	20.159	16.132	0.513
1095.500	633.461	80.006	19.994	103.147	20.160	16.102	0.505
1095.999	633.746	80.005	19.994	103.148	20.157	16.339	0.486
1096.499	633.995	80.005	19.995	103.149	20.158	16.222	0.516
1096.999	634.307	80.004	19.993	103.144	20.160	16.087	0.548
1097.499	634.553	80.004	19.995	103.140	20.160	16.095	0.559
1098.000	634.791	80.004	19.995	103.138	20.159	16.133	0.521
1098.500	635.034	80.004	19.995	103.138	20.157	16.304	0.483
1099.000	635.318	80.005	19.993	103.137	20.158	16.232	0.505
1099.501	635.588	80.003	19.995	103.138	20.155	16.480	0.540
1100.001	635.786	80.006	19.995	103.137	20.156	16.355	0.510
1100.500	636.094	80.005	19.992	103.138	20.156	16.400	0.487
1100.999	636.330	80.002	19.994	103.137	20.156	16.369	0.525
1101.500	636.579	80.003	19.996	103.138	20.157	16.313	0.514
1102.001	636.829	80.004	19.997	103.145	20.156	16.391	0.492
1102.500	637.113	80.004	19.994	103.147	20.156	16.364	0.517
1102.999	637.357	80.005	19.994	103.147	20.156	16.360	0.531
1103.500	637.608	80.006	19.994	103.151	20.158	16.240	0.511
1104.000	637.828	80.005	19.995	103.151	20.153	16.592	0.483
1104.499	638.107	80.006	19.993	103.144	20.158	16.213	0.485
1104.999	638.348	80.005	19.995	103.143	20.158	16.264	0.509
1105.500	638.600	80.006	19.993	103.143	20.157	16.312	0.506
1106.000	638.842	80.004	19.995	103.139	20.153	16.622	0.494
1106.499	639.100	80.006	19.993	103.137	20.157	16.281	0.497
1106.999	639.352	80.006	19.995	103.140	20.158	16.216	0.505
1107.500	639.613	80.003	19.995	103.143	20.158	16.261	0.511
1108.000	639.843	80.005	19.994	103.148	20.154	16.546	0.502
1108.501	640.104	80.005	19.995	103.150	20.155	16.471	0.491
1109.001	640.347	80.005	19.995	103.150	20.154	16.502	0.497
1109.500	640.627	80.005	19.995	103.148	20.156	16.400	0.514
1110.000	640.871	80.004	19.995	103.148	20.154	16.516	0.524
1110.500	641.124	80.005	19.994	103.144	20.156	16.384	0.511
1111.000	641.371	80.006	19.995	103.143	20.155	16.438	0.498
1111.500	641.614	80.005	19.996	103.145	20.154	16.525	0.495
1112.001	641.860	80.005	19.995	103.144	20.153	16.581	0.490
1112.500	642.121	80.005	19.994	103.145	20.156	16.379	0.498
1113.000	642.335	80.006	19.994	103.150	20.155	16.479	0.491
1113.500	642.593	80.004	19.996	103.150	20.154	16.509	0.474
1114.000	642.863	80.004	19.995	103.147	20.153	16.579	0.500
1114.500	643.103	80.005	19.995	103.149	20.153	16.556	0.519
1115.000	643.329	80.005	19.994	103.144	20.155	16.437	0.488
1115.500	643.605	80.005	19.994	103.139	20.154	16.508	0.484
1116.000	643.849	80.004	19.995	103.140	20.154	16.550	0.511
1116.500	644.097	80.005	19.994	103.140	20.153	16.583	0.506
1117.000	644.389	80.005	19.996	103.138	20.153	16.587	0.517
1117.500	644.590	80.004	19.994	103.136	20.155	16.465	0.517
1118.000	644.836	80.004	19.994	103.135	20.149	16.887	0.469
1118.500	645.103	80.005	19.995	103.134	20.151	16.715	0.480
1119.000	645.352	80.004	19.993	103.134	20.151	16.727	0.515
1119.500	645.597	80.004	19.995	103.137	20.151	16.754	0.505
1120.000	645.871	80.004	19.996	103.140	20.152	16.666	0.506
1120.500	646.126	80.005	19.993	103.140	20.148	16.943	0.524
1121.000	646.372	80.003	19.995	103.139	20.147	16.992	0.515
1121.500	646.620	80.005	19.994	103.139	20.150	16.769	0.498
1122.000	646.885	80.004	19.996	103.136	20.151	16.733	0.503
1122.500	647.116	80.007	19.994	103.134	20.151	16.764	0.504
1123.001	647.385	80.003	19.994	103.134	20.148	16.926	0.498
1123.501	647.629	80.004	19.994	103.136	20.148	16.932	0.507
1124.001	647.882	80.006	19.993	103.140	20.147	17.009	0.505
1124.500	648.106	80.005	19.994	103.144	20.147	16.984	0.487
1124.999	648.387	80.004	19.995	103.147	20.145	17.153	0.490
1125.499	648.638	80.005	19.995	103.147	20.146	17.076	0.519
1125.999	648.880	80.005	19.994	103.146	20.147	17.008	0.513
1126.499	649.130	80.006	19.994	103.141	20.148	16.968	0.492
1126.999	649.414	80.004	19.996	103.138	20.146	17.057	0.513
1127.500	649.671	80.005	19.995	103.135	20.146	17.115	0.538
1128.000	649.934	80.004	19.995	103.135	20.148	16.947	0.530
1128.499	650.164	80.004	19.995	103.138	20.147	17.009	0.507
1128.999	650.435	80.005	19.994	103.143	20.148	16.953	0.497
1129.500	650.680	80.005	19.995	103.145	20.147	17.008	0.508
1130.001	650.933	80.005	19.994	103.147	20.146	17.077	0.507
1130.500	651.168	80.005	19.994	103.147	20.146	17.120	0.493
1130.999	651.438	80.005	19.996	103.147	20.144	17.210	0.496
1131.500	651.692	80.005	19.993	103.144	20.144	17.204	0.515
1132.000	651.900	80.007	19.994	103.144	20.146	17.104	0.493
1132.500	652.174	80.006	19.994	103.145	20.146	17.068	0.472
1133.000	652.471	80.006	19.995	103.149	20.146	17.079	0.526
1133.499	652.657	80.007	19.995	103.149	20.146	17.061	0.527
1133.999	652.948	80.007	19.995	103.146	20.145	17.178	0.480
1134.499	653.222	80.005	19.995	103.145	20.147	17.044	0.521
1134.999	653.467	80.004	19.996	103.144	20.147	17.014	0.542
1135.500	653.725	80.006	19.995	103.143	20.145	17.130	0.511
1136.000	653.946	80.006	19.996	103.144	20.145	17.150	0.491
1136.499	654.203	80.006	19.994	103.149	20.143	17.301	0.478
1136.999	654.480	80.007	19.995	103.151	20.146	17.088	0.506
1137.500	654.755	80.006	19.995	103.152	20.143	17.312	0.543
1138.001	655.061	80.005	19.994	103.150	20.146	17.087	0.566
1138.500	655.278	80.006	19.995	103.149	20.145	17.171	0.552
1138.999	655.505	80.006	19.995	103.144	20.144	17.225	0.484
1139.499	655.780	80.006	19.996	103.143	20.145	17.191	0.473
1139.999	656.049	80.006	19.995	103.142	20.144	17.205	0.523
1140.500	656.364	80.007	19.994	103.139	20.146	17.088	0.564
1141.000	656.597	80.007	19.994	103.140	20.144	17.205	0.566
1141.499	656.841	80.006	19.996	103.144	20.142	17.366	0.513
1141.999	657.056	80.005	19.994	103.141	20.145	17.141	0.468
1142.499	657.346	80.006	19.993	103.138	20.142	17.372	0.482
1143.000	657.592	80.005	19.995	103.139	20.142	17.397	0.520
1143.500	657.832	80.004	19.995	103.135	20.139	17.556	0.511
1144.000	658.075	80.005	19.995	103.131	20.144	17.249	0.484
1144.500	658.323	80.005	19.995	103.131	20.145	17.134	0.487
1145.001	658.598	80.005	19.994	103.132	20.145	17.192	0.507
1145.501	658.864	80.004	19.996	103.132	20.147	17.017	0.532
1146.000	659.138	80.006	19.995	103.136	20.145	17.146	0.540
1146.500	659.399	80.004	19.995	103.138	20.147	16.995	0.538
1146.999	659.652	80.005	19.995	103.139	20.147	17.041	0.524
1147.499	659.931	80.004	19.995	103.139	20.145	17.181	0.522
1147.999	660.131	80.005	19.995	103.138	20.145	17.146	0.506
1148.500	660.400	80.005	19.995	103.134	20.142	17.351	0.474
1149.000	660.634	80.004	19.994	103.133	20.145	17.185	0.486
1149.499	660.918	80.004	19.994	103.135	20.144	17.248	0.510
1150.000	661.162	80.004	19.995	103.135	20.145	17.188	0.523
1150.500	661.446	80.005	19.994	103.138	20.143	17.268	0.528
1150.999	661.653	80.005	19.994	103.141	20.143	17.311	0.509
1151.500	661.937	80.006	19.994	103.142	20.145	17.153	0.491
1152.000	662.180	80.005	19.994	103.141	20.145	17.173	0.509
1152.499	662.442	80.005	19.995	103.143	20.144	17.259	0.516
1153.000	662.724	80.005	19.995	103.141	20.144	17.232	0.524
1153.500	663.009	80.005	19.994	103.142	20.142	17.351	0.556
1153.999	663.241	80.005	19.995	103.141	20.140	17.491	0.542
1154.500	663.517	80.006	19.995	103.141	20.145	17.156	0.513
1155.000	663.704	80.005	19.994	103.138	20.143	17.290	0.485
1155.499	663.981	80.005	19.994	103.138	20.144	17.243	0.463
1155.999	664.277	80.005	19.995	103.134	20.141	17.462	0.519
1156.499	664.513	80.005	19.994	103.134	20.143	17.324	0.553
1156.999	664.760	80.006	19.995	103.138	20.140	17.528	0.507
1157.499	664.993	80.005	19.996	103.142	20.140	17.499	0.482
1157.999	665.277	80.006	19.994	103.150	20.142	17.369	0.499
1158.499	665.571	80.007	19.993	103.150	20.138	17.626	0.547
1159.000	665.825	80.007	19.995	103.150	20.139	17.605	0.563
1159.501	666.092	80.007	19.994	103.146	20.139	17.607	0.534
1160.000	666.316	80.006	19.995	103.142	20.142	17.383	0.506
1160.499	666.563	80.007	19.994	103.134	20.142	17.391	0.481
1160.999	666.858	80.005	19.994	103.134	20.138	17.646	0.506
1161.500	667.123	80.006	19.996	103.135	20.137	17.737	0.551
1162.000	667.338	80.007	19.995	103.138	20.137	17.762	0.520
1162.499	667.568	80.008	19.995	103.144	20.138	17.672	0.462
1163.000	667.845	80.006	19.996	103.151	20.137	17.705	0.476
1163.500	668.091	80.007	19.996	103.153	20.138	17.663	0.515
1164.000	668.386	80.006	19.994	103.154	20.139	17.607	0.532
1164.500	668.635	80.006	19.995	103.156	20.142	17.395	0.543
1164.999	668.898	80.006	19.995	103.150	20.138	17.649	0.528
1165.499	669.116	80.007	19.994	103.143	20.137	17.729	0.496
1165.999	669.410	80.005	19.995	103.140	20.141	17.475	0.496
1166.499	669.666	80.005	19.995	103.139	20.141	17.475	0.531
1166.999	669.936	80.006	19.994	103.137	20.140	17.488	0.538
1167.499	670.184	80.006	19.995	103.137	20.141	17.446	0.522
1167.999	670.394	80.004	19.995	103.137	20.138	17.672	0.488
1168.499	670.688	80.005	19.995	103.137	20.138	17.679	0.481
1168.999	670.944	80.004	19.996	103.135	20.138	17.677	0.528
1169.500	671.210	80.004	19.995	103.133	20.139	17.559	0.536
1170.000	671.440	80.004	19.995	103.133	20.138	17.683	0.509
1170.499	671.705	80.005	19.995	103.135	20.139	17.562	0.495
1170.999	671.959	80.004	19.995	103.139	20.137	17.724	0.506
1171.499	672.209	80.003	19.996	103.141	20.138	17.687	0.511
1172.000	672.467	80.005	19.996	103.146	20.138	17.687	0.506
1172.500	672.696	80.004	19.995	103.147	20.141	17.448	0.498
1172.999	672.985	80.002	19.994	103.146	20.138	17.648	0.503
1173.499	673.232	80.004	19.995	103.141	20.138	17.653	0.527
1174.000	673.491	80.004	19.994	103.140	20.141	17.417	0.521
1174.501	673.757	80.004	19.994	103.135	20.140	17.539	0.516
1175.000	674.004	80.004	19.994	103.133	20.141	17.430	0.519
1175.500	674.273	80.003	19.994	103.132	20.139	17.612	0.515
1176.001	674.532	80.002	19.996	103.133	20.138	17.678	0.522
1176.500	674.803	80.004	19.994	103.132	20.139	17.609	0.529
1176.999	675.027	80.004	19.995	103.133	20.138	17.661	0.512
1177.499	675.320	80.003	19.995	103.133	20.139	17.560	0.506
1177.999	675.589	80.005	19.994	103.133	20.138	17.665	0.539
1178.499	675.856	80.004	19.994	103.132	20.140	17.529	0.549
1178.999	676.103	80.004	19.994	103.132	20.139	17.583	0.525
1179.499	676.372	80.005	19.995	103.135	20.139	17.585	0.515
1179.999	676.604	80.004	19.994	103.136	20.137	17.723	0.509
1180.499	676.893	80.003	19.994	103.136	20.139	17.558	0.511
1180.999	677.115	80.005	19.994	103.138	20.140	17.525	0.516
1181.499	677.386	80.004	19.993	103.141	20.138	17.630	0.502
1182.000	677.660	80.003	19.994	103.138	20.136	17.818	0.519
1182.501	677.907	80.004	19.995	103.136	20.139	17.578	0.533
1183.000	678.147	80.003	19.995	103.136	20.138	17.651	0.504
1183.500	678.414	80.004	19.995	103.135	20.135	17.865	0.497
1184.001	678.666	80.005	19.994	103.134	20.137	17.698	0.513
1184.501	678.908	80.005	19.995	103.134	20.138	17.656	0.507
1185.001	679.169	80.004	19.995	103.134	20.137	17.740	0.498
1185.500	679.435	80.005	19.995	103.133	20.137	17.759	0.515
1185.999	679.682	80.004	19.994	103.132	20.136	17.825	0.520
1186.500	679.972	80.005	19.995	103.131	20.135	17.881	0.525
1187.000	680.200	80.004	19.994	103.132	20.138	17.629	0.527
1187.499	680.443	80.005	19.993	103.132	20.135	17.858	0.494
1187.999	680.717	80.006	19.994	103.133	20.134	17.914	0.494
1188.499	680.976	80.005	19.995	103.133	20.136	17.767	0.525
1189.000	681.234	80.005	19.995	103.132	20.134	17.957	0.526
1189.501	681.441	80.006	19.995	103.132	20.135	17.846	0.491
1190.001	681.640	80.005	19.994	103.132	20.134	17.927	0.436
1190.500	682.005	80.005	19.995	103.132	20.132	18.115	0.485
1191.000	682.255	80.006	19.993	103.133	20.134	17.954	0.589
1191.500	682.539	80.005	19.995	103.132	20.136	17.830	0.574
1191.999	682.736	80.006	19.993	103.133	20.134	17.925	0.507
1192.499	683.065	80.005	19.994	103.132	20.134	17.954	0.504
1193.000	683.326	80.007	19.994	103.133	20.136	17.831	0.559
1193.501	683.590	80.005	19.994	103.133	20.133	18.006	0.558
1194.000	683.825	80.005	19.994	103.134	20.133	18.039	0.512
1194.499	684.053	80.005	19.995	103.134	20.132	18.056	0.481
1195.000	684.316	80.006	19.994	103.136	20.134	17.962	0.477
1195.500	684.573	80.004	19.994	103.138	20.133	18.043	0.506
1195.999	684.865	80.004	19.995	103.140	20.129	18.283	0.535
1196.499	685.118	80.006	19.994	103.142	20.132	18.120	0.546
1196.999	685.369	80.006	19.995	103.142	20.133	18.033	0.524
1197.499	685.630	80.005	19.994	103.140	20.134	17.975	0.508
1197.999	685.863	80.006	19.995	103.139	20.133	17.979	0.503
1198.499	686.187	80.005	19.994	103.136	20.132	18.110	0.525
1199.000	686.406	80.003	19.996	103.139	20.132	18.054	0.550
1199.500	686.693	80.005	19.994	103.139	20.133	18.044	0.525
1200.000	686.898	80.005	19.994	103.139	20.133	17.989	0.499
1200.500	687.185	80.006	19.995	103.137	20.133	18.026	0.492
1200.999	687.452	80.006	19.995	103.137	20.131	18.175	0.523
1201.499	687.737	80.003	19.994	103.133	20.131	18.138	0.553
1201.999	687.986	80.004	19.995	103.133	20.132	18.092	0.543
1202.499	688.238	80.005	19.994	103.133	20.129	18.330	0.518
1202.999	688.513	80.004	19.995	103.134	20.130	18.257	0.514
1203.499	688.756	80.004	19.993	103.134	20.130	18.220	0.522
1203.999	688.986	80.004	19.994	103.138	20.130	18.214	0.495
1204.499	689.234	80.004	19.994	103.142	20.132	18.084	0.476
1204.999	689.544	80.004	19.993	103.142	20.130	18.194	0.518
1205.499	689.827	80.005	19.995	103.142	20.131	18.149	0.576
1205.999	690.086	80.005	19.994	103.144	20.132	18.112	0.567
1206.500	690.320	80.005	19.994	103.143	20.133	18.009	0.518
1207.000	690.628	80.004	19.994	103.141	20.133	18.005	0.518
1207.499	690.877	80.005	19.994	103.142	20.132	18.060	0.549
1207.999	691.160	80.005	19.994	103.142	20.131	18.144	0.545
1208.499	691.405	80.005	19.994	103.142	20.132	18.109	0.530
1208.999	691.689	80.005	19.995	103.145	20.131	18.180	0.528
1209.499	691.930	80.005	19.995	103.148	20.130	18.212	0.527
1209.999	692.197	80.005	19.994	103.153	20.129	18.297	0.516
1210.499	692.485	80.004	19.995	103.160	20.130	18.258	0.531
1210.999	692.722	80.005	19.993	103.165	20.133	18.007	0.540
1211.500	692.991	80.005	19.994	103.166	20.132	18.077	0.516
1212.001	693.278	80.005	19.994	103.168	20.131	18.131	0.531
1212.500	693.539	80.005	19.994	103.168	20.128	18.397	0.552
1212.999	693.806	80.005	19.994	103.167	20.131	18.178	0.538
1213.499	694.097	80.006	19.994	103.163	20.132	18.088	0.543
1213.999	694.321	80.007	19.993	103.160	20.131	18.148	0.537
1214.499	694.609	80.005	19.994	103.156	20.132	18.056	0.513
1214.999	694.812	80.005	19.995	103.155	20.133	18.027	0.502
1215.499	695.137	80.005	19.994	103.155	20.128	18.360	0.510
1215.999	695.408	80.005	19.994	103.154	20.129	18.319	0.562
1216.499	695.675	80.007	19.994	103.152	20.131	18.184	0.566
1216.999	695.947	80.006	19.994	103.149	20.130	18.238	0.538
1217.499	696.212	80.007	19.993	103.149	20.127	18.454	0.538
1218.000	696.493	80.006	19.994	103.150	20.130	18.223	0.542
1218.500	696.748	80.006	19.994	103.153	20.127	18.418	0.541
1218.999	697.015	80.006	19.994	103.154	20.126	18.548	0.529
1219.499	697.274	80.007	19.994	103.152	20.129	18.333	0.524
1220.000	697.548	80.007	19.994	103.149	20.130	18.261	0.529
1220.500	697.818	80.006	19.993	103.144	20.126	18.515	0.538
1220.999	698.086	80.006	19.993	103.142	20.127	18.443	0.541
1221.499	698.348	80.007	19.995	103.143	20.126	18.486	0.534
1222.000	698.643	80.007	19.995	103.147	20.126	18.512	0.544
1222.501	698.868	80.005	19.994	103.150	20.124	18.627	0.539
1223.000	699.149	80.006	19.996	103.148	20.124	18.640	0.514
1223.499	699.399	80.006	19.994	103.148	20.127	18.472	0.519
1223.999	699.651	80.005	19.994	103.149	20.127	18.477	0.516
1224.499	699.945	80.006	19.994	103.145	20.126	18.514	0.524
1224.999	700.202	80.005	19.993	103.143	20.126	18.489	0.549
1225.499	700.482	80.005	19.994	103.143	20.125	18.583	0.544
1225.999	700.758	80.006	19.994	103.140	20.126	18.495	0.547
1226.499	700.975	80.005	19.994	103.138	20.128	18.358	0.525
1226.999	701.236	80.005	19.993	103.137	20.124	18.642	0.486
1227.499	701.482	80.006	19.994	103.138	20.125	18.556	0.493
1227.999	701.759	80.006	19.995	103.141	20.126	18.531	0.515
1228.500	702.076	80.005	19.995	103.141	20.125	18.554	0.558
1229.001	702.330	80.005	19.994	103.143	20.124	18.639	0.582
1229.500	702.586	80.005	19.995	103.146	20.123	18.726	0.541
1229.999	702.852	80.005	19.995	103.148	20.127	18.453	0.516
1230.499	703.107	80.005	19.995	103.146	20.124	18.633	0.521
1230.999	703.352	80.005	19.995	103.146	20.121	18.863	0.510
1231.499	703.598	80.005	19.995	103.145	20.123	18.703	0.496
1231.999	703.899	80.007	19.994	103.146	20.124	18.674	0.519
1232.500	704.169	80.005	19.996	103.146	20.121	18.874	0.558
1233.001	704.415	80.005	19.995	103.151	20.125	18.571	0.543
1233.500	704.664	80.006	19.995	103.153	20.124	18.644	0.506
1233.999	704.910	80.006	19.995	103.154	20.125	18.576	0.496
1234.499	705.199	80.006	19.995	103.154	20.126	18.487	0.515
1235.000	705.398	80.006	19.996	103.153	20.123	18.700	0.511
1235.501	705.696	80.005	19.995	103.150	20.125	18.596	0.493
1236.001	705.951	80.005	19.994	103.151	20.124	18.681	0.525
1236.500	706.201	80.005	19.994	103.149	20.123	18.742	0.529
1237.000	706.465	80.007	19.995	103.145	20.122	18.778	0.509
1237.500	706.744	80.006	19.995	103.145	20.120	18.914	0.528
1237.999	706.973	80.007	19.996	103.144	20.116	19.238	0.526
1238.499	707.265	80.007	19.995	103.140	20.122	18.813	0.514
1239.000	707.556	80.007	19.995	103.140	20.121	18.857	0.552
1239.501	707.806	80.007	19.995	103.139	20.122	18.817	0.562
1240.000	708.037	80.008	19.995	103.138	20.123	18.747	0.511
1240.499	708.324	80.008	19.995	103.136	20.119	19.038	0.500
1240.999	708.592	80.007	19.994	103.135	20.121	18.860	0.537
1241.500	708.868	80.007	19.994	103.133	20.122	18.808	0.550
1242.001	709.079	80.005	19.994	103.133	20.121	18.848	0.516
1242.500	709.377	80.007	19.995	103.135	20.119	19.033	0.498
1242.999	709.609	80.008	19.995	103.135	20.120	18.942	0.519
1243.499	709.878	80.008	19.994	103.135	20.119	18.977	0.515
1243.999	710.138	80.008	19.994	103.134	20.120	18.936	0.515
1244.499	710.408	80.008	19.994	103.134	20.119	18.998	0.530
1244.999	710.649	80.007	19.995	103.131	20.123	18.750	0.520
1245.500	710.913	80.007	19.994	103.130	20.117	19.158	0.508
1246.000	711.153	80.008	19.994	103.131	20.119	19.007	0.505
1246.499	711.439	80.007	19.994	103.132	20.119	19.007	0.515
1246.999	711.701	80.009	19.995	103.133	20.120	18.922	0.537
1247.499	711.965	80.007	19.994	103.137	20.114	19.348	0.537
1247.999	712.214	80.007	19.993	103.140	20.118	19.118	0.520
1248.500	712.461	80.007	19.995	103.141	20.117	19.137	0.505
1249.001	712.715	80.009	19.994	103.142	20.119	18.990	0.498
1249.501	712.993	80.008	19.994	103.142	20.118	19.118	0.517
1250.000	713.222	80.008	19.993	103.138	20.117	19.159	0.520
1250.500	713.458	80.006	19.995	103.135	20.116	19.246	0.486
1251.000	713.729	80.006	19.993	103.133	20.118	19.107	0.486
1251.499	714.005	80.006	19.994	103.134	20.114	19.340	0.527
1251.999	714.247	80.005	19.995	103.134	20.115	19.266	0.533
1252.500	714.516	80.005	19.994	103.134	20.117	19.182	0.515
1253.000	714.768	80.006	19.995	103.135	20.117	19.152	0.516
1253.499	715.018	80.006	19.995	103.135	20.118	19.095	0.511
1254.000	715.306	80.004	19.994	103.130	20.117	19.149	0.520
1254.500	715.558	80.003	19.995	103.127	20.116	19.211	0.539
1255.000	715.819	80.005	19.995	103.128	20.116	19.220	0.526
1255.501	716.072	80.005	19.995	103.127	20.113	19.414	0.514
1256.000	716.298	80.005	19.996	103.128	20.118	19.115	0.497
1256.499	716.595	80.006	19.995	103.130	20.118	19.052	0.501
1256.999	716.850	80.004	19.996	103.132	20.117	19.163	0.538
1257.500	717.081	80.006	19.995	103.132	20.117	19.159	0.519
1258.000	717.368	80.004	19.996	103.135	20.115	19.291	0.502
1258.500	717.591	80.004	19.994	103.142	20.113	19.471	0.513
1259.000	717.873	80.004	19.994	103.145	20.116	19.217	0.507
1259.499	718.076	80.004	19.995	103.144	20.118	19.111	0.495
1259.999	718.378	80.004	19.996	103.145	20.117	19.178	0.495
1260.499	718.597	80.005	19.996	103.143	20.114	19.398	0.513
1260.999	718.850	80.006	19.995	103.138	20.114	19.340	0.496
1261.499	719.114	80.004	19.996	103.136	20.115	19.287	0.494
1261.999	719.391	80.004	19.995	103.139	20.114	19.373	0.529
1262.499	719.625	80.004	19.996	103.139	20.114	19.333	0.526
1263.000	719.910	80.004	19.995	103.139	20.115	19.273	0.515
1263.500	720.174	80.005	19.996	103.137	20.115	19.322	0.534
1263.999	720.412	80.005	19.996	103.138	20.118	19.082	0.525
1264.499	720.676	80.005	19.996	103.135	20.113	19.450	0.502
1264.999	720.886	80.004	19.996	103.134	20.115	19.265	0.488
1265.499	721.120	80.005	19.997	103.133	20.115	19.314	0.458
1265.999	721.413	80.005	19.995	103.133	20.114	19.398	0.485
1266.500	721.684	80.006	19.996	103.131	20.115	19.303	0.546
1267.000	721.935	80.006	19.995	103.131	20.116	19.204	0.543
1267.499	722.208	80.006	19.996	103.133	20.115	19.318	0.523
1267.999	722.429	80.005	19.995	103.136	20.114	19.349	0.508
1268.499	722.665	80.005	19.995	103.136	20.115	19.310	0.475
1269.000	722.964	80.006	19.994	103.136	20.113	19.471	0.497
1269.500	723.210	80.006	19.995	103.137	20.111	19.567	0.540
1269.999	723.474	80.005	19.995	103.136	20.112	19.529	0.527
1270.499	723.716	80.003	19.994	103.137	20.108	19.829	0.507
1270.999	723.985	80.007	19.995	103.137	20.109	19.717	0.508
1271.499	724.211	80.006	19.994	103.138	20.110	19.626	0.503
1271.999	724.439	80.005	19.994	103.138	20.111	19.575	0.475
1272.499	724.722	80.005	19.995	103.136	20.110	19.671	0.482
1272.999	724.975	80.006	19.994	103.132	20.106	19.921	0.524
1273.499	725.213	80.006	19.994	103.133	20.107	19.844	0.514
1274.000	725.468	80.006	19.994	103.132	20.107	19.858	0.492
1274.500	725.711	80.006	19.993	103.135	20.106	19.964	0.495
1275.000	725.995	80.005	19.994	103.138	20.104	20.057	0.512
1275.500	726.245	80.005	19.995	103.139	20.109	19.711	0.531
1275.999	726.507	80.005	19.994	103.141	20.106	19.966	0.524
1276.499	726.696	80.006	19.994	103.144	20.107	19.890	0.481
1277.000	726.990	80.005	19.995	103.140	20.105	19.974	0.467
1277.500	727.270	80.006	19.995	103.139	20.104	20.048	0.528
1278.000	727.519	80.006	19.994	103.139	20.104	20.044	0.552
1278.500	727.766	80.005	19.994	103.138	20.105	20.040	0.512
1278.999	727.991	80.006	19.996	103.135	20.106	19.970	0.484
1279.499	728.271	80.005	19.995	103.135	20.107	19.861	0.488
1279.999	728.518	80.006	19.994	103.134	20.106	19.931	0.516
1280.499	728.749	80.005	19.994	103.139	20.103	20.127	0.502
1280.999	729.009	80.004	19.994	103.144	20.104	20.095	0.485
1281.499	729.277	80.006	19.995	103.149	20.107	19.856	0.510
1281.999	729.506	80.005	19.995	103.154	20.107	19.856	0.512
1282.499	729.786	80.005	19.995	103.154	20.105	20.005	0.503
1283.000	730.033	80.005	19.994	103.151	20.104	20.084	0.518
1283.501	730.279	80.006	19.995	103.146	20.105	19.975	0.510
1284.000	730.518	80.004	19.995	103.143	20.104	20.056	0.489
1284.499	730.754	80.004	19.995	103.140	20.105	20.034	0.480
1284.999	731.009	80.004	19.995	103.140	20.104	20.081	0.484
1285.499	731.290	80.004	19.993	103.139	20.103	20.168	0.513
1285.999	731.556	80.005	19.995	103.137	20.102	20.216	0.541
1286.500	731.769	80.004	19.995	103.135	20.102	20.193	0.513
1287.000	732.022	80.005	19.995	103.135	20.104	20.075	0.473
1287.499	732.295	80.005	19.994	103.136	20.106	19.928	0.496
1288.000	732.532	80.005	19.995	103.137	20.106	19.968	0.518
1288.500	732.784	80.005	19.995	103.138	20.107	19.900	0.499
1289.000	733.038	80.004	19.993	103.139	20.107	19.886	0.498
1289.500	733.281	80.005	19.994	103.139	20.108	19.790	0.501
1289.999	733.543	80.005	19.995	103.138	20.106	19.923	0.501
1290.499	733.788	80.004	19.994	103.138	20.107	19.849	0.506
1290.999	734.021	80.004	19.995	103.137	20.106	19.915	0.493
1291.499	734.309	80.005	19.994	103.139	20.106	19.959	0.500
1292.000	734.531	80.004	19.995	103.145	20.110	19.679	0.515
1292.500	734.799	80.004	19.994	103.148	20.106	19.910	0.500
1292.999	735.053	80.004	19.995	103.150	20.109	19.689	0.506
1293.500	735.301	80.005	19.995	103.151	20.108	19.796	0.511
1294.000	735.561	80.004	19.994	103.147	20.107	19.868	0.505
1294.499	735.805	80.005	19.995	103.144	20.106	19.904	0.506
1294.999	736.080	80.006	19.994	103.141	20.105	19.983	0.512
1295.499	736.324	80.005	19.995	103.140	20.105	20.016	0.519
1295.999	736.600	80.006	19.994	103.139	20.106	19.950	0.520
1296.499	736.823	80.004	19.994	103.139	20.106	19.940	0.510
1296.999	737.079	80.005	19.994	103.137	20.105	19.995	0.489
1297.499	737.288	80.006	19.993	103.136	20.106	19.902	0.472
1297.999	737.572	80.006	19.993	103.141	20.106	19.911	0.479
1298.499	737.784	80.006	19.994	103.144	20.104	20.066	0.494
1298.999	738.069	80.006	19.994	103.145	20.103	20.130	0.497
1299.499	738.306	80.008	19.994	103.146	20.104	20.074	0.510
1300.000	738.576	80.008	19.994	103.146	20.107	19.883	0.514
1300.500	738.819	80.006	19.994	103.141	20.106	19.903	0.510
1301.000	739.045	80.006	19.994	103.138	20.104	20.105	0.491
1301.500	739.326	80.006	19.994	103.136	20.106	19.947	0.488
1301.999	739.576	80.006	19.994	103.134	20.103	20.115	0.519
1302.499	739.869	80.006	19.994	103.134	20.106	19.962	0.537
1302.999	740.114	80.006	19.993	103.135	20.103	20.151	0.541
1303.499	740.343	80.007	19.994	103.138	20.104	20.100	0.506
1303.999	740.589	80.005	19.994	103.139	20.101	20.323	0.474
1304.499	740.838	80.007	19.993	103.139	20.102	20.199	0.485
1304.999	741.072	80.004	19.993	103.140	20.102	20.205	0.490
1305.499	741.359	80.006	19.994	103.138	20.102	20.200	0.502
1305.999	741.622	80.006	19.994	103.135	20.102	20.194	0.536
1306.500	741.888	80.006	19.994	103.134	20.104	20.048	0.539
1307.000	742.112	80.006	19.994	103.134	20.103	20.136	0.509
1307.499	742.406	80.006	19.995	103.134	20.100	20.368	0.504
1307.999	742.631	80.007	19.994	103.136	20.099	20.405	0.519
1308.500	742.879	80.006	19.995	103.136	20.101	20.287	0.496
1309.001	743.112	80.006	19.995	103.136	20.099	20.420	0.477
1309.500	743.358	80.007	19.996	103.135	20.100	20.331	0.481
1310.000	743.625	80.006	19.995	103.135	20.102	20.228	0.496
