Sample ID:	C:\MCC\MCC Cal\Test\PMMA_R06_MCC_30K_min_211015_R2.txt
Sample Weight (mg):	4.09
Heating Rate (C/s):	0.5
Combustor Temp (C):	900
N2 Flow Rate (cc/min):	80
O2 Flow Rate (cc/min):	20
Calibration File:	C:\MCC\MCC Cal\Coeff1 JN10440_30_210304.txt.txt
T Correction Coefficients:	0	1.024463	0
Time Shift (s):	14
*
Time (s)	Temperature (C)	N2 flow rate (cc/min)	O2 flow rate (cc/min)	Flow Rate (cc/min)	Oxygen (%)	HRR (W/g)	Heating rate (C/s)
0.000	106.657	79.996	19.995	102.724	20.024	-0.073	0.023
0.499	106.658	79.994	19.995	102.725	20.028	-0.400	0.006
1.000	106.659	79.995	19.997	102.723	20.026	-0.210	-0.001
1.500	106.667	79.998	19.994	102.725	20.022	0.111	0.005
2.000	106.651	79.996	19.993	102.728	20.025	-0.124	0.000
2.500	106.614	79.995	19.994	102.729	20.026	-0.237	-0.031
3.000	106.663	79.996	19.995	102.727	20.023	-0.030	-0.021
3.500	106.629	79.996	19.995	102.726	20.023	0.004	0.014
4.000	106.627	79.996	19.994	102.722	20.024	-0.062	-0.010
4.500	106.610	79.995	19.995	102.723	20.024	-0.058	-0.027
5.000	106.644	79.996	19.994	102.728	20.022	0.098	-0.001
5.500	106.624	79.996	19.994	102.734	20.022	0.047	0.015
6.000	106.624	79.994	19.994	102.738	20.024	-0.054	-0.003
6.500	106.643	79.995	19.995	102.743	20.020	0.199	-0.001
7.000	106.618	79.995	19.994	102.745	20.019	0.280	0.006
7.500	106.636	79.994	19.995	102.746	20.019	0.327	-0.006
8.000	106.638	79.995	19.996	102.746	20.019	0.325	0.007
8.500	106.608	79.994	19.994	102.747	20.020	0.261	-0.004
9.000	106.632	79.993	19.994	102.746	20.021	0.143	-0.017
9.500	106.619	79.991	19.995	102.744	20.019	0.293	0.002
10.000	106.634	79.992	19.996	102.744	20.019	0.287	0.006
10.500	106.636	79.993	19.995	102.744	20.019	0.280	0.010
11.000	106.633	79.993	19.995	102.750	20.017	0.450	0.008
11.500	106.650	79.994	19.997	102.758	20.017	0.462	0.006
12.000	106.630	79.994	19.995	102.761	20.016	0.582	0.005
12.500	106.648	79.994	19.996	102.761	20.015	0.649	-0.002
13.000	106.644	79.994	19.994	102.763	20.013	0.754	0.006
13.500	106.685	79.993	19.995	102.760	20.010	0.981	0.025
14.000	106.665	79.992	19.995	102.761	20.011	0.921	0.029
14.500	106.678	79.995	19.994	102.770	20.011	0.948	0.007
15.000	106.700	79.992	19.995	102.785	20.014	0.739	0.014
15.500	106.724	79.993	19.995	102.799	20.008	1.143	0.041
16.000	106.703	79.993	19.995	102.811	20.009	1.120	0.025
16.500	106.702	79.995	19.995	102.820	20.009	1.081	-0.010
17.000	106.703	79.992	19.995	102.825	20.009	1.101	-0.011
17.500	106.706	79.992	19.995	102.826	20.008	1.163	0.002
18.000	106.744	79.992	19.996	102.833	20.005	1.430	0.022
18.500	106.714	79.993	19.995	102.839	20.007	1.238	0.025
19.000	106.768	79.994	19.995	102.847	20.007	1.293	0.016
19.500	106.840	79.995	19.994	102.858	20.005	1.437	0.075
20.000	106.828	79.993	19.996	102.866	20.005	1.416	0.093
20.500	106.833	79.992	19.997	102.867	20.004	1.471	0.027
21.000	106.857	79.995	19.995	102.868	20.001	1.735	0.011
21.500	106.891	79.994	19.995	102.868	20.003	1.574	0.043
22.000	106.934	79.993	19.996	102.864	20.003	1.559	0.068
22.500	106.964	79.994	19.995	102.862	20.000	1.829	0.075
23.000	107.006	79.994	19.996	102.862	20.002	1.662	0.072
23.500	107.029	79.995	19.996	102.862	20.002	1.656	0.068
24.000	107.044	79.996	19.995	102.861	19.998	1.977	0.051
24.500	107.097	79.993	19.996	102.861	19.998	1.973	0.053
25.000	107.091	79.994	19.997	102.864	20.000	1.797	0.057
25.500	107.198	79.993	19.996	102.864	19.998	1.977	0.074
26.000	107.202	79.994	19.996	102.870	19.997	2.056	0.106
26.500	107.244	79.992	19.995	102.878	19.996	2.157	0.078
27.000	107.271	79.993	19.996	102.884	19.995	2.236	0.058
27.500	107.314	79.995	19.996	102.888	19.996	2.104	0.070
28.000	107.384	79.994	19.996	102.887	19.993	2.322	0.091
28.500	107.444	79.993	19.996	102.881	19.994	2.254	0.122
29.000	107.497	79.994	19.995	102.877	19.993	2.384	0.121
29.500	107.520	79.993	19.996	102.878	19.994	2.245	0.095
30.000	107.595	79.995	19.994	102.881	19.994	2.279	0.087
30.500	107.624	79.995	19.995	102.886	19.994	2.301	0.101
31.000	107.695	79.993	19.996	102.893	19.990	2.584	0.102
31.500	107.748	79.994	19.995	102.896	19.992	2.419	0.112
32.000	107.772	79.995	19.995	102.897	19.993	2.372	0.100
32.499	107.893	79.993	19.995	102.898	19.993	2.335	0.111
32.999	107.931	79.995	19.995	102.900	19.991	2.530	0.152
33.500	107.962	79.993	19.996	102.901	19.990	2.567	0.114
34.000	108.034	79.992	19.996	102.902	19.990	2.586	0.086
34.499	108.106	79.994	19.995	102.903	19.989	2.687	0.123
34.999	108.154	79.994	19.995	102.904	19.987	2.807	0.132
35.499	108.237	79.994	19.995	102.905	19.988	2.757	0.126
35.999	108.291	79.993	19.996	102.911	19.987	2.852	0.134
36.499	108.392	79.992	19.996	102.917	19.990	2.565	0.146
36.999	108.431	79.994	19.996	102.921	19.987	2.856	0.147
37.499	108.525	79.995	19.996	102.923	19.985	2.976	0.136
37.999	108.594	79.993	19.996	102.922	19.985	3.019	0.148
38.499	108.685	79.992	19.995	102.919	19.981	3.265	0.162
38.999	108.738	79.994	19.995	102.919	19.985	3.021	0.152
39.499	108.831	79.994	19.995	102.921	19.986	2.927	0.145
39.999	108.915	79.993	19.995	102.925	19.984	3.060	0.162
40.499	108.972	79.991	19.996	102.932	19.983	3.169	0.159
40.999	109.036	79.993	19.997	102.931	19.985	3.006	0.130
41.500	109.153	79.993	19.996	102.931	19.984	3.057	0.151
42.000	109.252	79.992	19.995	102.932	19.981	3.334	0.199
42.499	109.317	79.993	19.997	102.932	19.983	3.128	0.190
42.999	109.373	79.993	19.996	102.933	19.984	3.032	0.142
43.499	109.506	79.990	19.996	102.939	19.984	3.062	0.155
43.999	109.581	79.991	19.995	102.942	19.984	3.029	0.199
44.499	109.668	79.993	19.996	102.941	19.983	3.145	0.185
44.999	109.754	79.992	19.996	102.942	19.984	3.051	0.167
45.500	109.874	79.993	19.996	102.942	19.982	3.199	0.189
46.000	109.959	79.992	19.996	102.941	19.983	3.117	0.206
46.499	110.103	79.993	19.996	102.938	19.984	3.047	0.217
46.999	110.131	79.990	19.997	102.938	19.985	2.974	0.201
47.500	110.257	79.993	19.996	102.938	19.985	2.969	0.163
48.000	110.373	79.992	19.997	102.937	19.984	3.036	0.198
48.499	110.452	79.992	19.996	102.936	19.986	2.914	0.218
48.999	110.568	79.993	19.996	102.939	19.981	3.282	0.195
49.499	110.652	79.993	19.996	102.940	19.985	3.019	0.197
49.999	110.775	79.994	19.995	102.940	19.985	3.019	0.203
50.499	110.879	79.994	19.996	102.940	19.985	3.006	0.217
50.999	110.983	79.992	19.996	102.941	19.984	3.075	0.218
51.499	111.072	79.993	19.995	102.941	19.983	3.154	0.201
51.999	111.193	79.993	19.996	102.941	19.984	3.096	0.201
52.499	111.281	79.993	19.996	102.941	19.984	3.036	0.209
52.999	111.422	79.991	19.996	102.940	19.983	3.152	0.218
53.499	111.557	79.993	19.996	102.941	19.983	3.150	0.252
53.999	111.665	79.996	19.996	102.937	19.984	3.058	0.260
54.499	111.759	79.996	19.997	102.934	19.979	3.441	0.223
54.999	111.890	79.995	19.996	102.934	19.983	3.103	0.214
55.499	111.963	79.994	19.995	102.937	19.979	3.441	0.214
56.000	112.110	79.994	19.996	102.937	19.982	3.236	0.212
56.500	112.198	79.994	19.997	102.937	19.980	3.356	0.228
56.999	112.331	79.993	19.995	102.939	19.981	3.326	0.228
57.500	112.449	79.994	19.996	102.938	19.981	3.261	0.236
58.000	112.579	79.994	19.996	102.935	19.978	3.548	0.249
58.499	112.721	79.994	19.995	102.934	19.982	3.208	0.260
58.999	112.831	79.995	19.995	102.937	19.979	3.461	0.262
59.499	112.969	79.995	19.994	102.938	19.982	3.227	0.250
59.999	113.106	79.995	19.994	102.939	19.983	3.148	0.262
60.499	113.205	79.995	19.995	102.942	19.983	3.129	0.256
60.999	113.303	79.995	19.995	102.943	19.983	3.144	0.216
61.499	113.481	79.993	19.994	102.942	19.982	3.195	0.236
61.999	113.579	79.993	19.994	102.942	19.985	3.003	0.276
62.499	113.724	79.993	19.994	102.942	19.981	3.279	0.259
62.999	113.814	79.991	19.995	102.942	19.980	3.369	0.239
63.499	113.995	79.994	19.995	102.943	19.981	3.313	0.254
63.999	114.141	79.994	19.995	102.945	19.979	3.454	0.299
64.499	114.269	79.994	19.995	102.945	19.980	3.368	0.301
64.999	114.391	79.994	19.994	102.946	19.982	3.223	0.262
65.499	114.502	79.994	19.995	102.947	19.981	3.313	0.241
65.999	114.645	79.993	19.995	102.951	19.981	3.283	0.243
66.499	114.789	79.995	19.994	102.952	19.981	3.313	0.271
66.999	114.904	79.994	19.995	102.953	19.979	3.452	0.273
67.499	115.026	79.992	19.995	102.953	19.978	3.512	0.248
67.999	115.180	79.995	19.994	102.954	19.981	3.268	0.257
68.499	115.329	79.993	19.995	102.952	19.975	3.756	0.290
68.999	115.446	79.994	19.994	102.950	19.977	3.581	0.284
69.499	115.590	79.995	19.995	102.949	19.981	3.292	0.264
69.999	115.738	79.997	19.995	102.949	19.978	3.555	0.276
70.499	115.894	79.994	19.995	102.946	19.980	3.380	0.298
70.999	116.009	79.994	19.996	102.950	19.979	3.455	0.287
71.499	116.176	79.994	19.995	102.955	19.981	3.260	0.276
71.999	116.299	79.993	19.996	102.960	19.978	3.566	0.286
72.499	116.453	79.994	19.995	102.964	19.978	3.504	0.284
72.999	116.610	79.995	19.994	102.970	19.977	3.615	0.294
73.499	116.755	79.994	19.994	102.967	19.980	3.384	0.307
73.999	116.904	79.995	19.995	102.964	19.980	3.412	0.298
74.500	117.092	79.994	19.996	102.959	19.979	3.429	0.315
75.000	117.243	79.995	19.995	102.954	19.978	3.543	0.338
75.499	117.391	79.995	19.995	102.951	19.978	3.504	0.319
75.999	117.518	79.994	19.995	102.952	19.979	3.459	0.287
76.500	117.671	79.995	19.995	102.949	19.977	3.588	0.278
77.000	117.807	79.996	19.995	102.948	19.977	3.599	0.284
77.499	117.949	79.995	19.995	102.950	19.977	3.590	0.283
77.999	118.102	79.994	19.994	102.949	19.977	3.575	0.286
78.499	118.275	79.997	19.994	102.947	19.982	3.249	0.311
78.999	118.460	79.996	19.995	102.949	19.977	3.594	0.342
79.499	118.592	79.997	19.995	102.956	19.976	3.676	0.337
79.999	118.794	79.996	19.995	102.961	19.976	3.661	0.326
80.499	118.927	79.997	19.995	102.963	19.978	3.567	0.335
80.999	119.088	79.998	19.995	102.962	19.977	3.575	0.315
81.500	119.273	79.997	19.995	102.963	19.974	3.848	0.320
82.000	119.446	79.996	19.995	102.964	19.975	3.785	0.352
82.499	119.588	79.995	19.995	102.962	19.978	3.524	0.336
82.999	119.743	79.997	19.995	102.960	19.979	3.453	0.306
83.499	119.880	79.996	19.995	102.962	19.978	3.502	0.295
83.999	120.062	79.995	19.994	102.965	19.975	3.745	0.306
84.499	120.209	79.995	19.994	102.962	19.976	3.712	0.324
84.999	120.403	79.996	19.995	102.963	19.977	3.605	0.335
85.499	120.532	79.995	19.995	102.969	19.978	3.502	0.331
85.999	120.715	79.994	19.995	102.975	19.973	3.965	0.318
86.499	120.875	79.995	19.996	102.977	19.976	3.667	0.328
86.999	121.092	79.996	19.995	102.979	19.974	3.824	0.360
87.499	121.257	79.996	19.995	102.980	19.974	3.837	0.379
87.999	121.434	79.996	19.995	102.980	19.977	3.618	0.362
88.499	121.599	79.996	19.995	102.980	19.974	3.815	0.343
88.999	121.767	79.995	19.995	102.980	19.975	3.779	0.337
89.499	121.939	79.995	19.994	102.980	19.973	3.957	0.336
89.999	122.120	79.995	19.995	102.980	19.977	3.619	0.347
90.499	122.291	79.993	19.996	102.981	19.974	3.831	0.352
90.999	122.478	79.994	19.996	102.981	19.976	3.666	0.355
91.499	122.660	79.994	19.996	102.984	19.978	3.559	0.364
91.999	122.865	79.994	19.995	102.986	19.976	3.717	0.378
92.499	123.047	79.994	19.996	102.986	19.974	3.880	0.387
92.999	123.235	79.994	19.995	102.985	19.972	4.013	0.379
93.499	123.404	79.993	19.995	102.985	19.974	3.841	0.364
93.999	123.601	79.994	19.996	102.983	19.974	3.816	0.361
94.499	123.737	79.993	19.995	102.981	19.975	3.762	0.349
94.999	123.935	79.994	19.995	102.981	19.972	4.028	0.334
95.499	124.130	79.993	19.996	102.981	19.974	3.818	0.364
95.999	124.295	79.992	19.994	102.981	19.971	4.073	0.376
96.499	124.529	79.994	19.996	102.981	19.973	3.925	0.379
96.999	124.706	79.993	19.995	102.981	19.970	4.178	0.405
97.500	124.910	79.994	19.996	102.981	19.972	4.034	0.396
98.000	125.067	79.994	19.995	102.982	19.970	4.124	0.371
98.499	125.293	79.993	19.995	102.982	19.971	4.090	0.373
99.000	125.479	79.994	19.995	102.982	19.972	4.002	0.397
99.500	125.687	79.994	19.996	102.983	19.971	4.088	0.403
99.999	125.834	79.993	19.996	102.990	19.972	4.035	0.375
100.499	126.045	79.992	19.995	102.993	19.971	4.105	0.356
100.999	126.262	79.994	19.996	102.995	19.969	4.206	0.393
101.499	126.429	79.992	19.995	102.998	19.969	4.249	0.407
101.999	126.660	79.991	19.995	103.001	19.970	4.146	0.391
102.499	126.856	79.993	19.995	102.997	19.971	4.051	0.412
102.999	127.004	79.991	19.996	103.000	19.968	4.351	0.385
103.499	127.227	79.993	19.996	102.999	19.968	4.321	0.357
103.999	127.448	79.993	19.995	102.996	19.966	4.454	0.408
104.499	127.609	79.993	19.995	102.994	19.972	3.989	0.413
104.999	127.841	79.992	19.996	102.996	19.970	4.182	0.388
105.499	128.021	79.994	19.995	102.996	19.974	3.858	0.403
105.999	128.221	79.993	19.995	102.995	19.969	4.244	0.396
106.499	128.401	79.992	19.995	102.995	19.971	4.095	0.379
106.999	128.626	79.992	19.995	102.993	19.971	4.088	0.392
107.499	128.831	79.993	19.995	102.989	19.971	4.116	0.418
107.999	129.039	79.994	19.996	102.985	19.970	4.198	0.422
108.499	129.283	79.994	19.996	102.984	19.968	4.346	0.433
108.999	129.445	79.993	19.996	102.986	19.967	4.408	0.429
109.499	129.668	79.995	19.996	102.992	19.968	4.322	0.396
109.999	129.884	79.992	19.996	102.992	19.970	4.198	0.412
110.499	130.075	79.992	19.996	102.997	19.968	4.326	0.423
110.999	130.252	79.994	19.996	102.998	19.971	4.097	0.387
111.499	130.438	79.993	19.996	102.997	19.969	4.219	0.365
111.999	130.664	79.992	19.996	102.992	19.968	4.307	0.387
112.499	130.895	79.994	19.995	102.992	19.968	4.320	0.434
112.999	131.110	79.992	19.996	102.987	19.971	4.117	0.452
113.499	131.313	79.993	19.995	102.988	19.968	4.322	0.432
113.999	131.503	79.992	19.996	102.989	19.968	4.329	0.405
114.499	131.731	79.993	19.996	102.989	19.971	4.052	0.405
114.999	131.936	79.994	19.995	102.991	19.968	4.284	0.425
115.499	132.118	79.993	19.996	102.991	19.970	4.153	0.410
115.999	132.366	79.993	19.995	102.989	19.970	4.155	0.409
116.499	132.581	79.994	19.996	102.987	19.967	4.376	0.447
116.999	132.791	79.993	19.995	102.992	19.969	4.228	0.444
117.500	133.015	79.993	19.996	102.996	19.969	4.243	0.430
118.001	133.206	79.993	19.995	103.000	19.968	4.324	0.425
118.500	133.484	79.993	19.996	103.006	19.968	4.326	0.442
118.999	133.698	79.993	19.995	103.011	19.969	4.281	0.480
119.500	133.906	79.994	19.995	103.009	19.971	4.092	0.456
120.000	134.147	79.994	19.995	103.007	19.969	4.262	0.436
120.499	134.338	79.990	19.995	103.007	19.972	4.026	0.441
120.999	134.559	79.992	19.994	103.001	19.971	4.097	0.422
121.499	134.789	79.994	19.995	102.998	19.973	3.953	0.431
122.000	134.988	79.993	19.996	103.001	19.968	4.348	0.440
122.500	135.213	79.993	19.994	103.005	19.968	4.322	0.427
122.999	135.417	79.992	19.996	103.006	19.971	4.078	0.427
123.499	135.672	79.991	19.996	103.010	19.971	4.078	0.445
123.999	135.879	79.993	19.996	103.015	19.972	3.979	0.461
124.499	136.142	79.991	19.996	103.011	19.971	4.063	0.466
124.999	136.367	79.991	19.996	103.006	19.970	4.189	0.479
125.499	136.587	79.993	19.995	103.008	19.971	4.101	0.466
125.999	136.786	79.992	19.996	103.010	19.967	4.373	0.431
126.499	137.030	79.991	19.995	103.011	19.967	4.362	0.431
126.999	137.279	79.993	19.996	103.015	19.966	4.444	0.469
127.499	137.508	79.992	19.995	103.017	19.969	4.216	0.486
127.999	137.697	79.994	19.995	103.011	19.970	4.167	0.448
128.500	137.916	79.994	19.995	103.004	19.965	4.581	0.413
129.000	138.168	79.992	19.995	102.998	19.968	4.287	0.439
129.500	138.392	79.993	19.994	102.992	19.971	4.118	0.473
130.000	138.637	79.992	19.995	102.990	19.969	4.219	0.472
130.500	138.855	79.993	19.994	102.993	19.969	4.277	0.466
131.000	139.087	79.993	19.995	102.995	19.969	4.260	0.457
131.500	139.306	79.992	19.995	102.994	19.971	4.052	0.451
132.000	139.525	79.992	19.995	103.000	19.970	4.185	0.444
132.500	139.782	79.992	19.995	102.999	19.967	4.360	0.456
133.000	140.058	79.995	19.996	103.001	19.968	4.287	0.504
133.500	140.271	79.994	19.997	103.003	19.969	4.240	0.511
134.000	140.523	79.994	19.997	103.010	19.965	4.529	0.477
134.500	140.750	79.993	19.996	103.011	19.968	4.336	0.472
135.000	140.995	79.992	19.997	103.015	19.968	4.330	0.476
135.500	141.237	79.994	19.995	103.010	19.969	4.231	0.479
136.000	141.430	79.992	19.996	103.004	19.969	4.225	0.461
136.500	141.669	79.994	19.996	102.998	19.968	4.330	0.434
137.000	141.923	79.993	19.996	102.995	19.967	4.411	0.462
137.500	142.136	79.994	19.996	102.989	19.968	4.291	0.479
138.000	142.401	79.993	19.996	102.988	19.967	4.407	0.473
138.500	142.628	79.994	19.995	102.988	19.964	4.628	0.485
139.000	142.846	79.994	19.996	102.987	19.965	4.566	0.468
139.500	143.102	79.993	19.997	102.987	19.969	4.263	0.459
140.000	143.323	79.994	19.995	102.989	19.967	4.426	0.476
140.500	143.579	79.993	19.997	102.995	19.970	4.191	0.477
141.000	143.837	79.995	19.995	103.000	19.967	4.397	0.496
141.500	144.060	79.994	19.996	103.001	19.966	4.454	0.498
142.000	144.336	79.994	19.996	102.999	19.967	4.390	0.490
142.500	144.571	79.994	19.997	102.997	19.965	4.555	0.505
143.000	144.843	79.994	19.997	102.997	19.964	4.656	0.509
143.500	145.036	79.994	19.996	102.991	19.966	4.454	0.485
144.000	145.331	79.994	19.996	102.989	19.965	4.565	0.476
144.500	145.552	79.993	19.996	102.986	19.965	4.546	0.502
145.000	145.807	79.994	19.996	102.987	19.964	4.638	0.496
145.500	146.047	79.993	19.996	102.984	19.967	4.381	0.486
146.000	146.269	79.994	19.996	102.987	19.967	4.417	0.479
146.500	146.494	79.994	19.996	102.989	19.970	4.201	0.454
147.000	146.738	79.994	19.996	102.988	19.969	4.237	0.458
147.500	147.001	79.994	19.996	102.987	19.969	4.270	0.488
148.000	147.229	79.992	19.995	102.983	19.969	4.214	0.499
148.500	147.455	79.995	19.995	102.981	19.967	4.381	0.472
149.000	147.722	79.993	19.995	102.980	19.970	4.147	0.474
149.500	147.982	79.995	19.995	102.981	19.969	4.257	0.510
150.000	148.226	79.993	19.995	102.985	19.968	4.282	0.516
150.500	148.472	79.994	19.994	102.986	19.969	4.231	0.497
151.000	148.725	79.994	19.995	102.989	19.970	4.175	0.495
151.500	148.937	79.993	19.996	102.990	19.968	4.287	0.481
152.000	149.222	79.993	19.995	102.990	19.971	4.092	0.481
152.500	149.421	79.994	19.995	102.988	19.972	4.034	0.491
153.000	149.679	79.995	19.995	102.986	19.970	4.197	0.471
153.500	149.939	79.994	19.995	102.984	19.970	4.173	0.487
154.000	150.180	79.995	19.994	102.982	19.973	3.961	0.510
154.500	150.455	79.996	19.995	102.981	19.970	4.152	0.509
155.000	150.650	79.995	19.995	102.980	19.967	4.398	0.493
155.500	150.922	79.994	19.995	102.980	19.966	4.475	0.468
156.000	151.179	79.996	19.996	102.979	19.967	4.381	0.498
156.500	151.404	79.993	19.995	102.980	19.968	4.351	0.505
157.000	151.656	79.995	19.996	102.979	19.971	4.117	0.480
157.500	151.908	79.994	19.994	102.979	19.964	4.651	0.490
158.000	152.147	79.995	19.995	102.979	19.968	4.295	0.497
158.500	152.385	79.996	19.995	102.979	19.968	4.295	0.484
159.000	152.644	79.995	19.995	102.980	19.969	4.265	0.487
159.500	152.900	79.995	19.995	102.980	19.967	4.390	0.506
160.000	153.159	79.996	19.995	102.980	19.967	4.385	0.515
160.500	153.410	79.995	19.995	102.979	19.967	4.428	0.513
161.000	153.645	79.997	19.996	102.979	19.967	4.413	0.498
161.500	153.889	79.996	19.995	102.978	19.966	4.478	0.483
162.000	154.146	79.995	19.995	102.979	19.967	4.362	0.490
162.500	154.406	79.996	19.995	102.978	19.968	4.295	0.509
163.000	154.644	79.997	19.996	102.979	19.965	4.538	0.508
163.500	154.888	79.995	19.995	102.979	19.967	4.379	0.490
164.000	155.149	79.995	19.996	102.980	19.965	4.583	0.493
164.500	155.403	79.996	19.994	102.980	19.965	4.544	0.510
165.000	155.646	79.997	19.996	102.980	19.965	4.589	0.506
165.500	155.860	79.995	19.995	102.980	19.967	4.362	0.478
166.000	156.138	79.995	19.996	102.979	19.968	4.349	0.475
166.500	156.383	79.994	19.995	102.978	19.967	4.392	0.507
167.000	156.612	79.996	19.995	102.975	19.971	4.122	0.498
167.500	156.889	79.995	19.995	102.976	19.966	4.467	0.490
168.000	157.152	79.995	19.995	102.976	19.967	4.420	0.523
168.500	157.380	79.994	19.996	102.977	19.966	4.497	0.516
169.000	157.589	79.993	19.995	102.977	19.963	4.683	0.464
169.500	157.833	79.993	19.996	102.980	19.965	4.540	0.445
170.000	158.084	79.993	19.995	102.980	19.971	4.098	0.474
170.500	158.356	79.994	19.996	102.980	19.968	4.328	0.509
171.000	158.623	79.994	19.995	102.980	19.969	4.214	0.531
171.500	158.825	79.993	19.996	102.981	19.970	4.154	0.504
172.000	159.124	79.992	19.995	102.982	19.966	4.447	0.485
172.500	159.371	79.992	19.995	102.981	19.969	4.216	0.524
173.000	159.619	79.993	19.996	102.982	19.970	4.162	0.520
173.500	159.824	79.993	19.995	102.982	19.967	4.383	0.474
174.000	160.100	79.993	19.996	102.983	19.968	4.355	0.467
174.500	160.364	79.992	19.996	102.983	19.969	4.205	0.510
175.000	160.602	79.993	19.997	102.983	19.968	4.327	0.521
175.500	160.848	79.994	19.995	102.984	19.968	4.312	0.493
176.000	161.097	79.992	19.995	102.984	19.968	4.334	0.490
176.500	161.373	79.992	19.996	102.984	19.969	4.246	0.510
177.000	161.610	79.992	19.996	102.984	19.968	4.353	0.519
177.500	161.862	79.993	19.996	102.984	19.969	4.254	0.501
178.000	162.129	79.992	19.996	102.984	19.966	4.445	0.504
178.500	162.347	79.994	19.996	102.984	19.967	4.374	0.502
179.000	162.627	79.994	19.995	102.983	19.969	4.209	0.491
179.500	162.857	79.991	19.996	102.981	19.968	4.286	0.504
180.000	163.128	79.994	19.995	102.981	19.968	4.357	0.506
180.500	163.373	79.992	19.996	102.981	19.970	4.183	0.508
181.000	163.618	79.994	19.995	102.981	19.968	4.320	0.503
181.500	163.885	79.993	19.995	102.980	19.968	4.352	0.501
182.000	164.102	79.992	19.995	102.978	19.969	4.266	0.498
182.500	164.392	79.993	19.995	102.976	19.970	4.131	0.495
183.000	164.626	79.994	19.996	102.974	19.969	4.251	0.515
183.500	164.890	79.993	19.995	102.974	19.967	4.386	0.511
184.000	165.170	79.993	19.996	102.973	19.970	4.180	0.522
184.500	165.419	79.994	19.995	102.976	19.968	4.354	0.536
185.000	165.699	79.992	19.995	102.974	19.968	4.313	0.529
185.500	165.891	79.993	19.995	102.976	19.970	4.185	0.500
186.000	166.127	79.992	19.995	102.977	19.970	4.157	0.450
186.500	166.406	79.993	19.995	102.978	19.972	4.043	0.472
187.000	166.657	79.992	19.995	102.979	19.970	4.133	0.523
187.500	166.885	79.994	19.994	102.978	19.970	4.122	0.504
188.000	167.192	79.994	19.995	102.973	19.967	4.422	0.507
188.500	167.416	79.994	19.995	102.966	19.970	4.150	0.533
189.000	167.650	79.994	19.996	102.962	19.970	4.191	0.495
189.500	167.901	79.993	19.995	102.959	19.969	4.251	0.472
190.000	168.151	79.994	19.995	102.962	19.969	4.255	0.493
190.500	168.398	79.994	19.994	102.965	19.974	3.868	0.499
191.000	168.667	79.992	19.994	102.970	19.971	4.065	0.507
191.500	168.903	79.993	19.994	102.967	19.971	4.101	0.511
192.000	169.169	79.994	19.995	102.963	19.972	4.043	0.503
192.500	169.408	79.993	19.994	102.960	19.971	4.097	0.504
193.000	169.645	79.993	19.995	102.956	19.971	4.084	0.491
193.500	169.916	79.993	19.995	102.951	19.974	3.859	0.492
194.000	170.161	79.993	19.995	102.951	19.972	4.011	0.512
194.500	170.419	79.993	19.995	102.952	19.971	4.064	0.509
195.000	170.666	79.992	19.995	102.948	19.972	4.032	0.504
195.500	170.921	79.993	19.995	102.949	19.972	4.030	0.504
196.000	171.130	79.994	19.995	102.952	19.972	3.966	0.483
196.500	171.377	79.992	19.994	102.952	19.972	3.985	0.460
197.000	171.610	79.992	19.996	102.950	19.973	3.906	0.468
197.500	171.900	79.993	19.995	102.950	19.970	4.148	0.502
198.000	172.116	79.994	19.995	102.948	19.972	4.043	0.515
198.500	172.348	79.994	19.995	102.944	19.974	3.840	0.477
199.000	172.628	79.993	19.995	102.943	19.973	3.932	0.480
199.500	172.867	79.993	19.996	102.943	19.972	4.026	0.515
200.000	173.110	79.994	19.996	102.942	19.972	3.996	0.500
200.500	173.360	79.993	19.997	102.943	19.975	3.780	0.487
201.000	173.588	79.995	19.996	102.945	19.976	3.653	0.486
201.500	173.833	79.993	19.997	102.947	19.973	3.930	0.476
202.000	174.103	79.991	19.996	102.948	19.975	3.754	0.494
202.500	174.308	79.993	19.996	102.948	19.972	4.024	0.494
203.000	174.555	79.992	19.996	102.946	19.973	3.894	0.463
203.500	174.822	79.993	19.996	102.945	19.973	3.962	0.483
204.000	175.065	79.993	19.996	102.941	19.975	3.791	0.512
204.500	175.323	79.993	19.996	102.941	19.975	3.778	0.506
205.000	175.558	79.993	19.996	102.941	19.974	3.861	0.497
205.500	175.799	79.994	19.997	102.942	19.972	3.990	0.484
206.000	176.031	79.992	19.996	102.941	19.977	3.628	0.474
206.500	176.257	79.993	19.996	102.942	19.973	3.898	0.466
207.000	176.507	79.994	19.996	102.942	19.971	4.116	0.467
207.500	176.779	79.991	19.996	102.941	19.973	3.958	0.499
208.000	177.019	79.993	19.996	102.941	19.970	4.127	0.517
208.500	177.273	79.992	19.996	102.941	19.972	4.003	0.503
209.000	177.458	79.992	19.996	102.941	19.969	4.243	0.467
209.500	177.738	79.995	19.996	102.944	19.972	4.033	0.452
210.000	177.957	79.992	19.995	102.948	19.973	3.896	0.481
210.500	178.198	79.993	19.996	102.947	19.969	4.273	0.479
211.000	178.435	79.993	19.996	102.949	19.968	4.350	0.469
211.500	178.700	79.994	19.996	102.950	19.972	3.999	0.490
212.000	178.975	79.995	19.995	102.948	19.970	4.147	0.522
212.500	179.208	79.993	19.996	102.947	19.969	4.207	0.524
213.000	179.446	79.993	19.996	102.951	19.970	4.162	0.489
213.500	179.694	79.995	19.996	102.955	19.966	4.481	0.478
214.000	179.976	79.993	19.996	102.956	19.970	4.187	0.508
214.500	180.228	79.995	19.995	102.957	19.968	4.309	0.532
215.000	180.458	79.993	19.997	102.959	19.971	4.097	0.508
215.500	180.693	79.993	19.995	102.958	19.970	4.159	0.474
216.000	180.939	79.993	19.995	102.953	19.970	4.161	0.473
216.500	181.166	79.994	19.995	102.952	19.970	4.125	0.477
217.000	181.409	79.995	19.996	102.951	19.971	4.067	0.472
217.500	181.664	79.996	19.995	102.948	19.970	4.185	0.484
218.000	181.919	79.994	19.996	102.948	19.971	4.099	0.504
218.500	182.163	79.994	19.995	102.950	19.970	4.185	0.505
219.000	182.392	79.995	19.996	102.949	19.970	4.131	0.486
219.500	182.660	79.995	19.995	102.951	19.968	4.348	0.485
220.000	182.882	79.994	19.995	102.953	19.966	4.502	0.493
220.500	183.126	79.994	19.995	102.952	19.970	4.157	0.477
221.000	183.384	79.996	19.997	102.950	19.971	4.101	0.484
221.500	183.602	79.995	19.995	102.953	19.973	3.915	0.489
222.000	183.884	79.995	19.996	102.954	19.971	4.091	0.488
222.500	184.129	79.995	19.996	102.956	19.970	4.163	0.513
223.000	184.352	79.995	19.996	102.962	19.969	4.230	0.497
223.500	184.630	79.994	19.995	102.968	19.970	4.125	0.484
224.000	184.854	79.994	19.997	102.967	19.967	4.373	0.502
224.500	185.113	79.994	19.997	102.965	19.971	4.046	0.492
225.000	185.329	79.994	19.996	102.960	19.970	4.127	0.479
225.500	185.592	79.993	19.996	102.954	19.973	3.942	0.477
226.000	185.849	79.994	19.996	102.948	19.972	4.037	0.499
226.500	186.119	79.995	19.996	102.946	19.970	4.148	0.523
227.000	186.383	79.995	19.997	102.944	19.972	3.970	0.531
227.500	186.612	79.993	19.997	102.945	19.970	4.129	0.514
228.000	186.833	79.993	19.996	102.949	19.969	4.225	0.471
228.500	187.131	79.993	19.996	102.949	19.971	4.076	0.484
229.000	187.360	79.994	19.996	102.950	19.971	4.065	0.523
229.500	187.604	79.994	19.996	102.955	19.968	4.299	0.500
230.000	187.879	79.994	19.997	102.956	19.970	4.196	0.496
230.500	188.080	79.994	19.997	102.952	19.973	3.964	0.498
231.000	188.391	79.994	19.997	102.954	19.972	4.024	0.494
231.500	188.600	79.995	19.997	102.955	19.971	4.114	0.516
232.000	188.845	79.993	19.997	102.952	19.971	4.092	0.487
232.500	189.133	79.993	19.997	102.949	19.968	4.296	0.493
233.000	189.318	79.994	19.996	102.949	19.969	4.249	0.503
233.500	189.557	79.994	19.996	102.952	19.969	4.221	0.449
234.000	189.849	79.992	19.997	102.953	19.967	4.407	0.477
234.500	190.095	79.993	19.997	102.952	19.970	4.180	0.534
235.000	190.349	79.994	19.997	102.951	19.970	4.129	0.519
235.500	190.600	79.993	19.996	102.950	19.971	4.050	0.503
236.000	190.831	79.994	19.996	102.945	19.969	4.257	0.494
236.500	191.065	79.995	19.996	102.942	19.971	4.069	0.474
237.000	191.360	79.994	19.996	102.942	19.971	4.045	0.497
237.500	191.587	79.994	19.996	102.942	19.969	4.221	0.525
238.000	191.835	79.993	19.996	102.943	19.968	4.315	0.498
238.500	192.072	79.996	19.995	102.945	19.972	4.017	0.480
239.000	192.366	79.996	19.996	102.947	19.970	4.176	0.508
239.500	192.586	79.993	19.996	102.952	19.966	4.452	0.523
240.000	192.828	79.994	19.996	102.955	19.970	4.161	0.488
240.500	193.075	79.995	19.995	102.954	19.969	4.253	0.475
241.000	193.350	79.995	19.996	102.953	19.970	4.200	0.506
241.500	193.585	79.994	19.995	102.949	19.970	4.187	0.516
242.000	193.843	79.996	19.995	102.945	19.971	4.114	0.501
242.500	194.098	79.994	19.994	102.942	19.969	4.253	0.503
243.000	194.332	79.995	19.996	102.942	19.971	4.097	0.501
243.500	194.570	79.995	19.996	102.942	19.970	4.155	0.481
244.000	194.828	79.994	19.994	102.942	19.972	4.013	0.484
244.500	195.123	79.996	19.994	102.943	19.967	4.367	0.524
245.000	195.323	79.994	19.995	102.943	19.968	4.356	0.524
245.500	195.596	79.995	19.994	102.944	19.969	4.266	0.484
246.000	195.842	79.995	19.995	102.944	19.968	4.322	0.496
246.500	196.077	79.995	19.995	102.944	19.971	4.054	0.500
247.000	196.324	79.995	19.995	102.943	19.968	4.332	0.481
247.500	196.565	79.995	19.995	102.943	19.968	4.343	0.484
248.000	196.787	79.997	19.995	102.944	19.968	4.305	0.476
248.500	197.054	79.995	19.994	102.943	19.968	4.332	0.476
249.000	197.327	79.994	19.995	102.943	19.966	4.448	0.514
249.500	197.606	79.995	19.994	102.944	19.967	4.373	0.546
250.000	197.808	79.996	19.995	102.944	19.969	4.227	0.516
250.500	198.068	79.995	19.994	102.944	19.971	4.101	0.472
251.000	198.329	79.993	19.995	102.946	19.967	4.360	0.492
251.500	198.578	79.994	19.995	102.946	19.968	4.283	0.515
252.000	198.810	79.994	19.995	102.946	19.968	4.305	0.495
252.500	199.098	79.993	19.995	102.946	19.970	4.200	0.501
253.000	199.318	79.994	19.995	102.946	19.969	4.247	0.514
253.500	199.532	79.994	19.995	102.945	19.970	4.144	0.471
254.000	199.835	79.993	19.996	102.945	19.971	4.107	0.475
254.500	200.090	79.994	19.995	102.945	19.972	4.017	0.538
255.000	200.314	79.994	19.995	102.945	19.970	4.169	0.519
255.500	200.583	79.993	19.995	102.945	19.967	4.435	0.486
256.000	200.814	79.993	19.996	102.944	19.968	4.325	0.496
256.500	201.111	79.994	19.995	102.945	19.968	4.340	0.514
257.000	201.317	79.992	19.995	102.945	19.968	4.298	0.515
257.500	201.596	79.993	19.996	102.946	19.968	4.334	0.494
258.000	201.837	79.993	19.996	102.945	19.969	4.212	0.502
258.500	202.093	79.993	19.995	102.944	19.968	4.283	0.509
259.000	202.329	79.992	19.995	102.943	19.970	4.178	0.495
259.500	202.570	79.994	19.996	102.943	19.970	4.150	0.485
260.000	202.833	79.994	19.995	102.942	19.968	4.330	0.491
260.500	203.078	79.994	19.995	102.942	19.969	4.207	0.506
261.000	203.331	79.991	19.996	102.943	19.971	4.104	0.503
261.500	203.627	79.992	19.996	102.943	19.971	4.109	0.524
262.000	203.820	79.994	19.995	102.943	19.970	4.186	0.519
262.500	204.095	79.993	19.995	102.943	19.970	4.199	0.478
263.000	204.324	79.994	19.996	102.943	19.972	4.036	0.486
263.500	204.574	79.994	19.995	102.943	19.971	4.103	0.492
264.000	204.849	79.993	19.995	102.941	19.969	4.219	0.502
264.500	205.090	79.994	19.996	102.941	19.968	4.283	0.520
265.000	205.338	79.992	19.996	102.940	19.966	4.463	0.502
265.500	205.574	79.994	19.996	102.938	19.971	4.109	0.486
266.000	205.869	79.992	19.995	102.933	19.968	4.345	0.508
266.500	206.113	79.993	19.995	102.929	19.969	4.278	0.535
267.000	206.326	79.994	19.996	102.930	19.970	4.150	0.498
267.500	206.598	79.993	19.995	102.929	19.968	4.302	0.471
268.000	206.851	79.993	19.996	102.930	19.971	4.092	0.505
268.500	207.114	79.994	19.994	102.934	19.971	4.107	0.520
269.000	207.342	79.992	19.996	102.939	19.969	4.221	0.504
269.500	207.578	79.994	19.995	102.938	19.968	4.300	0.478
270.000	207.827	79.992	19.995	102.937	19.969	4.250	0.474
270.500	208.079	79.994	19.995	102.937	19.973	3.888	0.493
271.000	208.317	79.995	19.996	102.931	19.971	4.080	0.495
271.500	208.595	79.995	19.994	102.923	19.969	4.232	0.503
272.000	208.863	79.994	19.996	102.920	19.970	4.185	0.531
272.500	209.095	79.994	19.995	102.920	19.967	4.359	0.523
273.000	209.361	79.993	19.996	102.921	19.966	4.488	0.499
273.500	209.602	79.995	19.995	102.927	19.965	4.557	0.502
274.000	209.819	79.995	19.996	102.934	19.968	4.349	0.483
274.500	210.090	79.993	19.994	102.939	19.968	4.295	0.473
275.000	210.307	79.994	19.995	102.941	19.967	4.421	0.488
275.500	210.565	79.993	19.995	102.940	19.968	4.353	0.481
276.000	210.828	79.995	19.994	102.937	19.968	4.353	0.498
276.500	211.089	79.995	19.995	102.935	19.967	4.365	0.523
277.000	211.347	79.995	19.995	102.934	19.970	4.190	0.521
277.500	211.585	79.996	19.995	102.933	19.971	4.093	0.507
278.000	211.826	79.994	19.995	102.932	19.968	4.292	0.488
278.500	212.059	79.995	19.995	102.936	19.968	4.299	0.477
279.000	212.283	79.994	19.994	102.936	19.966	4.462	0.466
279.500	212.509	79.994	19.996	102.936	19.967	4.412	0.453
280.000	212.746	79.994	19.995	102.935	19.966	4.470	0.457
280.500	213.018	79.993	19.995	102.930	19.969	4.275	0.486
281.000	213.266	79.993	19.995	102.925	19.968	4.335	0.514
281.500	213.511	79.994	19.995	102.917	19.968	4.288	0.507
282.000	213.762	79.994	19.996	102.912	19.968	4.286	0.495
282.500	214.036	79.994	19.995	102.907	19.966	4.496	0.510
283.000	214.234	79.993	19.995	102.912	19.967	4.391	0.498
283.500	214.449	79.993	19.995	102.914	19.969	4.209	0.443
284.000	214.728	79.992	19.995	102.921	19.966	4.480	0.453
284.500	214.957	79.992	19.995	102.924	19.969	4.244	0.500
285.000	215.225	79.994	19.995	102.923	19.966	4.480	0.502
285.500	215.461	79.992	19.994	102.920	19.965	4.548	0.501
286.000	215.676	79.994	19.996	102.918	19.966	4.469	0.477
286.500	215.919	79.992	19.996	102.915	19.967	4.366	0.455
287.000	216.173	79.994	19.994	102.915	19.969	4.241	0.478
287.500	216.390	79.993	19.996	102.915	19.970	4.183	0.484
288.000	216.632	79.992	19.996	102.915	19.968	4.352	0.465
288.500	216.888	79.992	19.996	102.913	19.970	4.121	0.478
289.000	217.119	79.992	19.996	102.909	19.969	4.202	0.492
289.500	217.346	79.993	19.995	102.906	19.971	4.119	0.472
290.000	217.610	79.993	19.996	102.907	19.971	4.093	0.475
290.500	217.855	79.994	19.996	102.906	19.969	4.248	0.501
291.000	218.092	79.993	19.995	102.911	19.968	4.291	0.496
291.500	218.340	79.992	19.996	102.914	19.968	4.332	0.483
292.000	218.547	79.992	19.996	102.912	19.970	4.180	0.470
292.500	218.834	79.993	19.996	102.911	19.969	4.244	0.474
293.000	219.054	79.993	19.996	102.913	19.971	4.109	0.500
293.500	219.270	79.994	19.995	102.912	19.966	4.436	0.471
294.000	219.565	79.993	19.996	102.916	19.971	4.115	0.473
294.500	219.799	79.994	19.996	102.922	19.967	4.391	0.520
295.000	220.033	79.994	19.996	102.928	19.969	4.265	0.499
295.500	220.278	79.992	19.996	102.933	19.966	4.447	0.473
296.000	220.519	79.993	19.996	102.932	19.967	4.420	0.483
296.500	220.775	79.993	19.995	102.928	19.965	4.578	0.491
297.000	220.995	79.994	19.995	102.925	19.966	4.460	0.486
297.500	221.210	79.995	19.995	102.920	19.966	4.458	0.455
298.000	221.480	79.995	19.996	102.915	19.967	4.377	0.460
298.500	221.709	79.995	19.996	102.911	19.965	4.563	0.492
299.000	221.966	79.994	19.995	102.909	19.968	4.312	0.493
299.500	222.214	79.994	19.995	102.907	19.966	4.500	0.496
300.000	222.452	79.994	19.996	102.905	19.967	4.374	0.496
300.500	222.673	79.994	19.995	102.905	19.969	4.273	0.472
301.000	222.922	79.995	19.997	102.907	19.969	4.241	0.464
301.500	223.183	79.995	19.995	102.913	19.968	4.299	0.490
302.000	223.407	79.993	19.996	102.919	19.969	4.258	0.498
302.500	223.670	79.994	19.994	102.926	19.967	4.393	0.486
303.000	223.926	79.994	19.995	102.926	19.970	4.151	0.503
303.500	224.146	79.995	19.995	102.927	19.968	4.286	0.497
304.000	224.412	79.995	19.995	102.923	19.972	4.008	0.481
304.500	224.620	79.995	19.995	102.918	19.967	4.402	0.480
305.000	224.874	79.995	19.995	102.916	19.972	3.991	0.468
305.500	225.113	79.995	19.996	102.918	19.968	4.314	0.478
306.000	225.356	79.993	19.995	102.923	19.968	4.342	0.487
306.500	225.595	79.993	19.996	102.925	19.968	4.280	0.482
307.000	225.852	79.995	19.996	102.931	19.967	4.389	0.489
307.500	226.090	79.995	19.996	102.927	19.968	4.308	0.495
308.000	226.328	79.994	19.995	102.926	19.972	4.035	0.485
308.500	226.559	79.994	19.995	102.925	19.974	3.866	0.473
309.000	226.788	79.995	19.995	102.922	19.968	4.297	0.464
309.500	227.023	79.993	19.995	102.917	19.967	4.383	0.462
310.000	227.254	79.993	19.996	102.916	19.968	4.332	0.465
310.500	227.471	79.993	19.996	102.913	19.968	4.336	0.457
311.000	227.747	79.993	19.995	102.907	19.966	4.448	0.471
311.500	227.998	79.993	19.994	102.906	19.969	4.242	0.510
312.000	228.274	79.994	19.995	102.906	19.966	4.467	0.526
312.500	228.487	79.992	19.996	102.910	19.966	4.460	0.508
313.000	228.726	79.993	19.995	102.910	19.967	4.377	0.471
313.500	228.978	79.992	19.995	102.912	19.965	4.521	0.472
314.000	229.216	79.992	19.995	102.916	19.964	4.671	0.491
314.500	229.461	79.993	19.995	102.919	19.964	4.619	0.486
315.000	229.719	79.993	19.995	102.917	19.966	4.474	0.493
315.500	229.952	79.994	19.997	102.921	19.963	4.688	0.497
316.000	230.240	79.995	19.995	102.920	19.965	4.551	0.506
316.500	230.484	79.993	19.997	102.919	19.966	4.501	0.526
317.000	230.698	79.995	19.995	102.918	19.967	4.373	0.495
317.500	230.989	79.993	19.995	102.916	19.966	4.501	0.481
318.000	231.229	79.993	19.996	102.915	19.966	4.459	0.518
318.500	231.439	79.993	19.995	102.914	19.970	4.176	0.490
319.000	231.673	79.994	19.996	102.911	19.965	4.574	0.447
319.500	231.934	79.994	19.995	102.912	19.965	4.584	0.470
320.000	232.184	79.994	19.996	102.917	19.967	4.422	0.503
320.500	232.412	79.995	19.997	102.920	19.961	4.852	0.495
321.000	232.634	79.993	19.995	102.925	19.967	4.390	0.464
321.500	232.903	79.994	19.996	102.929	19.965	4.570	0.470
322.000	233.185	79.994	19.996	102.931	19.963	4.750	0.521
322.500	233.400	79.994	19.996	102.929	19.963	4.692	0.524
323.000	233.639	79.993	19.996	102.931	19.963	4.687	0.476
323.500	233.866	79.993	19.996	102.933	19.965	4.587	0.460
324.000	234.127	79.995	19.996	102.936	19.966	4.503	0.477
324.500	234.394	79.994	19.995	102.938	19.963	4.683	0.508
325.000	234.595	79.994	19.996	102.940	19.960	4.985	0.498
325.500	234.847	79.994	19.996	102.940	19.961	4.906	0.461
326.000	235.099	79.995	19.996	102.938	19.964	4.664	0.478
326.500	235.333	79.995	19.995	102.935	19.964	4.638	0.495
327.000	235.580	79.995	19.996	102.934	19.962	4.786	0.484
327.500	235.798	79.996	19.995	102.935	19.963	4.692	0.473
328.000	236.031	79.995	19.996	102.934	19.961	4.853	0.458
328.500	236.322	79.995	19.995	102.935	19.961	4.835	0.488
329.000	236.523	79.996	19.995	102.937	19.958	5.065	0.508
329.500	236.792	79.995	19.995	102.933	19.962	4.803	0.481
330.000	237.032	79.994	19.997	102.926	19.961	4.887	0.489
330.500	237.300	79.995	19.996	102.924	19.961	4.829	0.509
331.000	237.529	79.995	19.995	102.925	19.961	4.838	0.503
331.500	237.818	79.994	19.995	102.925	19.958	5.127	0.507
332.000	238.032	79.995	19.996	102.927	19.960	4.939	0.511
332.500	238.316	79.994	19.996	102.932	19.960	4.911	0.501
333.000	238.559	79.994	19.995	102.928	19.958	5.082	0.512
333.500	238.821	79.993	19.996	102.926	19.960	4.954	0.516
334.000	239.008	79.993	19.995	102.926	19.960	4.979	0.477
334.500	239.298	79.993	19.995	102.925	19.961	4.891	0.463
335.000	239.520	79.993	19.995	102.925	19.962	4.814	0.494
335.500	239.796	79.995	19.995	102.925	19.962	4.794	0.505
336.000	239.983	79.993	19.996	102.923	19.962	4.814	0.481
336.500	240.249	79.994	19.995	102.924	19.960	4.972	0.458
337.000	240.531	79.994	19.995	102.926	19.956	5.298	0.501
337.500	240.739	79.993	19.996	102.929	19.957	5.197	0.519
338.000	241.010	79.994	19.995	102.934	19.955	5.321	0.484
338.500	241.248	79.993	19.996	102.938	19.955	5.343	0.494
339.000	241.524	79.993	19.995	102.934	19.958	5.131	0.511
339.500	241.763	79.993	19.995	102.932	19.956	5.289	0.515
340.000	242.049	79.993	19.995	102.930	19.957	5.167	0.520
340.500	242.295	79.993	19.995	102.932	19.956	5.227	0.529
341.000	242.556	79.994	19.995	102.932	19.960	4.970	0.519
341.500	242.826	79.994	19.996	102.937	19.955	5.345	0.519
342.000	243.083	79.993	19.994	102.939	19.957	5.163	0.529
342.500	243.304	79.994	19.995	102.941	19.955	5.328	0.502
343.000	243.595	79.995	19.995	102.941	19.955	5.300	0.495
343.500	243.834	79.992	19.995	102.941	19.955	5.326	0.521
344.000	244.086	79.994	19.995	102.939	19.956	5.244	0.511
344.500	244.344	79.994	19.995	102.938	19.952	5.612	0.501
345.000	244.565	79.994	19.995	102.934	19.954	5.379	0.495
345.500	244.844	79.994	19.995	102.932	19.953	5.479	0.489
346.000	245.092	79.994	19.995	102.927	19.953	5.512	0.513
346.500	245.318	79.994	19.994	102.927	19.953	5.467	0.500
347.000	245.617	79.995	19.995	102.927	19.954	5.443	0.499
347.500	245.874	79.995	19.995	102.925	19.954	5.452	0.540
348.000	246.141	79.993	19.995	102.925	19.953	5.519	0.541
348.500	246.389	79.994	19.994	102.927	19.952	5.553	0.520
349.000	246.653	79.996	19.995	102.922	19.951	5.639	0.513
349.500	246.932	79.995	19.995	102.922	19.953	5.515	0.527
350.000	247.170	79.995	19.995	102.928	19.950	5.703	0.530
350.500	247.406	79.994	19.994	102.929	19.950	5.739	0.495
351.000	247.682	79.994	19.994	102.930	19.952	5.589	0.492
351.500	247.897	79.995	19.994	102.933	19.950	5.756	0.501
352.000	248.160	79.994	19.995	102.930	19.950	5.707	0.484
352.500	248.447	79.995	19.995	102.929	19.951	5.621	0.514
353.000	248.684	79.994	19.995	102.929	19.951	5.688	0.538
353.500	248.958	79.993	19.995	102.925	19.952	5.608	0.518
354.000	249.252	79.995	19.995	102.928	19.950	5.756	0.539
354.500	249.498	79.994	19.996	102.925	19.950	5.753	0.553
355.000	249.760	79.996	19.995	102.920	19.949	5.792	0.524
355.500	250.009	79.994	19.994	102.914	19.948	5.908	0.510
356.000	250.257	79.994	19.995	102.918	19.949	5.779	0.504
356.500	250.514	79.993	19.995	102.914	19.948	5.888	0.501
357.000	250.852	79.994	19.995	102.917	19.948	5.901	0.550
357.500	251.056	79.994	19.995	102.918	19.949	5.843	0.568
358.000	251.316	79.992	19.995	102.920	19.948	5.884	0.503
358.500	251.589	79.994	19.995	102.922	19.946	6.034	0.499
359.000	251.877	79.993	19.995	102.928	19.942	6.344	0.547
359.500	252.080	79.994	19.995	102.931	19.946	6.023	0.526
360.000	252.370	79.995	19.996	102.935	19.945	6.141	0.492
360.500	252.647	79.994	19.996	102.933	19.942	6.332	0.530
361.000	252.862	79.994	19.996	102.927	19.945	6.111	0.530
361.500	253.133	79.992	19.995	102.920	19.945	6.085	0.489
362.000	253.392	79.993	19.995	102.917	19.942	6.347	0.507
362.500	253.645	79.992	19.995	102.917	19.941	6.439	0.520
363.000	253.874	79.994	19.995	102.922	19.938	6.651	0.497
363.500	254.144	79.993	19.995	102.927	19.942	6.334	0.491
364.000	254.408	79.993	19.995	102.927	19.941	6.407	0.517
364.500	254.695	79.992	19.996	102.924	19.943	6.289	0.543
365.000	254.931	79.991	19.996	102.920	19.939	6.606	0.537
365.500	255.211	79.993	19.996	102.914	19.942	6.340	0.519
366.000	255.453	79.994	19.995	102.911	19.940	6.492	0.519
366.500	255.736	79.992	19.996	102.912	19.937	6.764	0.524
367.000	256.005	79.994	19.996	102.912	19.938	6.668	0.538
367.500	256.241	79.993	19.996	102.912	19.936	6.811	0.528
368.000	256.471	79.993	19.996	102.911	19.935	6.884	0.485
368.500	256.745	79.993	19.996	102.910	19.934	6.983	0.485
369.000	256.988	79.993	19.995	102.910	19.934	6.998	0.510
369.500	257.248	79.994	19.995	102.910	19.932	7.169	0.510
370.000	257.509	79.993	19.995	102.911	19.930	7.300	0.512
370.500	257.790	79.993	19.996	102.914	19.931	7.242	0.531
371.000	258.022	79.993	19.995	102.914	19.933	7.077	0.527
371.500	258.273	79.991	19.996	102.912	19.929	7.398	0.498
372.000	258.551	79.992	19.996	102.914	19.931	7.220	0.506
372.500	258.800	79.993	19.995	102.912	19.930	7.276	0.528
373.000	259.022	79.992	19.995	102.910	19.928	7.441	0.499
373.500	259.337	79.993	19.995	102.910	19.928	7.458	0.504
374.000	259.569	79.994	19.995	102.911	19.926	7.604	0.542
374.500	259.808	79.993	19.994	102.911	19.925	7.698	0.509
375.000	260.080	79.993	19.996	102.910	19.925	7.657	0.491
375.500	260.356	79.995	19.994	102.910	19.920	8.058	0.530
376.000	260.559	79.993	19.994	102.911	19.922	7.936	0.513
376.500	260.866	79.995	19.995	102.911	19.921	8.038	0.494
377.000	261.087	79.994	19.995	102.910	19.920	8.051	0.519
377.500	261.367	79.994	19.995	102.910	19.920	8.060	0.515
378.000	261.577	79.995	19.996	102.909	19.919	8.171	0.496
378.500	261.849	79.994	19.995	102.910	19.918	8.221	0.486
379.000	262.120	79.994	19.995	102.910	19.916	8.386	0.513
379.500	262.357	79.994	19.995	102.910	19.916	8.388	0.526
380.000	262.634	79.994	19.995	102.912	19.915	8.502	0.511
380.500	262.881	79.994	19.996	102.914	19.910	8.839	0.519
381.000	263.126	79.994	19.995	102.912	19.912	8.718	0.508
381.500	263.379	79.994	19.995	102.911	19.908	8.999	0.495
382.000	263.664	79.995	19.996	102.912	19.912	8.753	0.517
382.500	263.890	79.994	19.995	102.912	19.908	9.037	0.525
383.000	264.128	79.994	19.995	102.910	19.907	9.078	0.488
383.500	264.397	79.994	19.995	102.910	19.909	8.988	0.486
384.000	264.642	79.994	19.995	102.910	19.905	9.262	0.510
384.500	264.893	79.995	19.996	102.909	19.902	9.493	0.505
385.000	265.125	79.993	19.996	102.907	19.905	9.281	0.490
385.500	265.421	79.995	19.995	102.907	19.904	9.359	0.506
386.000	265.655	79.994	19.995	102.906	19.902	9.491	0.529
386.500	265.902	79.995	19.995	102.906	19.902	9.495	0.505
387.000	266.168	79.995	19.996	102.906	19.900	9.671	0.497
387.500	266.407	79.994	19.995	102.905	19.898	9.780	0.509
388.000	266.637	79.994	19.995	102.905	19.895	10.028	0.487
388.500	266.894	79.993	19.995	102.906	19.895	10.017	0.478
389.000	267.162	79.995	19.996	102.907	19.894	10.103	0.506
389.500	267.404	79.994	19.996	102.911	19.891	10.337	0.517
390.000	267.662	79.994	19.996	102.915	19.890	10.423	0.505
390.500	267.886	79.993	19.995	102.916	19.890	10.457	0.491
391.000	268.150	79.993	19.997	102.920	19.890	10.408	0.485
391.500	268.385	79.994	19.996	102.922	19.888	10.594	0.493
392.000	268.662	79.993	19.995	102.918	19.888	10.594	0.505
392.500	268.893	79.993	19.996	102.916	19.884	10.881	0.510
393.000	269.125	79.994	19.995	102.917	19.882	11.099	0.486
393.500	269.388	79.992	19.995	102.912	19.882	11.060	0.479
394.000	269.654	79.993	19.996	102.911	19.884	10.943	0.512
394.500	269.905	79.994	19.996	102.913	19.881	11.144	0.523
395.000	270.137	79.995	19.996	102.915	19.881	11.127	0.500
395.500	270.399	79.995	19.994	102.912	19.878	11.418	0.488
396.000	270.623	79.994	19.995	102.915	19.877	11.448	0.490
396.500	270.929	79.994	19.996	102.916	19.876	11.577	0.508
397.000	271.187	79.995	19.996	102.914	19.876	11.517	0.547
397.500	271.440	79.994	19.995	102.909	19.870	11.986	0.537
398.000	271.703	79.994	19.997	102.909	19.871	11.935	0.513
398.500	271.951	79.993	19.996	102.907	19.868	12.203	0.514
399.000	272.193	79.995	19.996	102.905	19.865	12.387	0.501
399.500	272.431	79.994	19.996	102.904	19.864	12.458	0.486
400.000	272.685	79.995	19.996	102.906	19.864	12.498	0.486
400.500	272.931	79.994	19.995	102.910	19.861	12.712	0.495
401.000	273.181	79.995	19.994	102.909	19.859	12.879	0.498
401.500	273.407	79.994	19.996	102.911	19.857	13.022	0.486
402.000	273.673	79.995	19.995	102.915	19.855	13.202	0.484
402.500	273.885	79.995	19.996	102.913	19.851	13.470	0.485
403.000	274.167	79.995	19.996	102.909	19.851	13.473	0.486
403.500	274.388	79.995	19.996	102.907	19.850	13.558	0.499
404.000	274.674	79.995	19.996	102.908	19.847	13.836	0.505
404.500	274.890	79.995	19.996	102.904	19.845	13.963	0.505
405.000	275.158	79.996	19.996	102.906	19.841	14.325	0.493
405.500	275.395	79.995	19.995	102.906	19.843	14.138	0.494
406.000	275.664	79.996	19.995	102.908	19.841	14.275	0.505
406.500	275.907	79.995	19.995	102.905	19.838	14.525	0.509
407.000	276.149	79.997	19.996	102.906	19.838	14.548	0.498
407.500	276.364	79.995	19.995	102.905	19.838	14.489	0.471
408.000	276.619	79.996	19.996	102.905	19.836	14.671	0.464
408.500	276.886	79.996	19.995	102.907	19.833	14.924	0.496
409.000	277.125	79.996	19.996	102.908	19.829	15.265	0.514
409.500	277.382	79.995	19.996	102.911	19.826	15.460	0.501
410.000	277.651	79.996	19.997	102.912	19.825	15.533	0.511
410.500	277.871	79.995	19.995	102.913	19.824	15.588	0.507
411.000	278.132	79.997	19.996	102.909	19.824	15.635	0.485
411.500	278.383	79.995	19.996	102.908	19.818	16.068	0.496
412.000	278.619	79.995	19.997	102.904	19.816	16.248	0.500
412.500	278.831	79.994	19.997	102.906	19.816	16.263	0.468
413.000	279.125	79.994	19.997	102.905	19.812	16.532	0.477
413.500	279.357	79.993	19.996	102.908	19.810	16.699	0.516
414.000	279.595	79.995	19.996	102.914	19.806	17.015	0.498
414.500	279.839	79.993	19.997	102.919	19.805	17.118	0.475
415.000	280.054	79.992	19.996	102.916	19.800	17.473	0.470
415.500	280.317	79.991	19.997	102.921	19.801	17.452	0.468
416.000	280.587	79.994	19.996	102.925	19.802	17.355	0.506
416.500	280.809	79.992	19.997	102.921	19.797	17.737	0.513
417.000	281.045	79.993	19.997	102.916	19.793	18.058	0.475
417.500	281.272	79.992	19.997	102.916	19.793	18.071	0.460
418.000	281.496	79.992	19.996	102.910	19.790	18.261	0.457
418.500	281.757	79.991	19.996	102.903	19.791	18.229	0.468
419.000	282.037	79.993	19.998	102.901	19.787	18.555	0.513
419.500	282.257	79.993	19.996	102.903	19.786	18.586	0.520
420.000	282.469	79.993	19.997	102.903	19.784	18.766	0.466
420.500	282.738	79.992	19.996	102.904	19.781	18.996	0.457
421.000	282.995	79.993	19.996	102.907	19.779	19.163	0.503
421.500	283.231	79.993	19.998	102.915	19.778	19.226	0.509
422.000	283.505	79.993	19.997	102.917	19.775	19.505	0.502
422.500	283.759	79.992	19.996	102.919	19.772	19.704	0.519
423.000	283.973	79.994	19.995	102.920	19.769	19.926	0.498
423.500	284.206	79.992	19.996	102.919	19.766	20.201	0.457
424.000	284.460	79.994	19.996	102.913	19.767	20.120	0.467
424.500	284.643	79.994	19.996	102.910	19.765	20.255	0.462
425.000	284.894	79.995	19.995	102.910	19.762	20.499	0.435
425.500	285.173	79.994	19.996	102.908	19.760	20.665	0.482
426.000	285.429	79.994	19.996	102.907	19.755	21.025	0.533
426.500	285.659	79.993	19.995	102.907	19.753	21.184	0.511
427.000	285.915	79.993	19.995	102.906	19.751	21.347	0.486
427.500	286.132	79.995	19.995	102.905	19.751	21.349	0.479
428.000	286.383	79.994	19.995	102.906	19.745	21.833	0.471
428.500	286.620	79.995	19.997	102.909	19.745	21.840	0.478
429.000	286.860	79.992	19.995	102.913	19.740	22.183	0.482
429.500	287.119	79.994	19.996	102.916	19.738	22.324	0.488
430.000	287.382	79.994	19.995	102.920	19.733	22.716	0.511
430.500	287.597	79.994	19.996	102.923	19.725	23.382	0.500
431.000	287.863	79.993	19.995	102.925	19.719	23.865	0.479
431.500	288.105	79.994	19.995	102.931	19.707	24.789	0.495
432.000	288.322	79.994	19.996	102.940	19.697	25.599	0.484
432.500	288.553	79.993	19.995	102.944	19.686	26.434	0.453
433.000	288.814	79.993	19.996	102.959	19.679	27.004	0.469
433.500	289.077	79.993	19.995	102.978	19.676	27.259	0.508
434.000	289.300	79.993	19.995	102.987	19.668	27.914	0.506
434.500	289.572	79.993	19.995	102.989	19.663	28.238	0.491
435.000	289.811	79.994	19.996	102.990	19.663	28.306	0.503
435.500	290.037	79.993	19.996	102.978	19.661	28.458	0.488
436.000	290.299	79.992	19.995	102.958	19.659	28.569	0.477
436.500	290.528	79.993	19.995	102.938	19.662	28.335	0.489
437.000	290.791	79.994	19.995	102.917	19.659	28.618	0.491
437.500	291.044	79.995	19.995	102.900	19.657	28.727	0.504
438.000	291.280	79.993	19.995	102.883	19.661	28.461	0.502
438.500	291.540	79.993	19.995	102.871	19.657	28.771	0.492
439.000	291.770	79.994	19.995	102.863	19.662	28.310	0.493
439.500	291.992	79.993	19.995	102.863	19.661	28.441	0.471
440.000	292.259	79.995	19.995	102.857	19.661	28.437	0.471
440.500	292.517	79.995	19.994	102.855	19.658	28.621	0.507
441.000	292.743	79.994	19.995	102.856	19.659	28.565	0.504
441.500	292.976	79.993	19.995	102.864	19.661	28.389	0.471
442.000	293.236	79.994	19.994	102.873	19.658	28.667	0.476
442.500	293.462	79.993	19.995	102.894	19.657	28.705	0.490
443.000	293.733	79.995	19.995	102.915	19.658	28.695	0.492
443.500	293.960	79.993	19.996	102.930	19.662	28.319	0.497
444.000	294.189	79.992	19.997	102.938	19.662	28.306	0.477
444.500	294.455	79.992	19.996	102.946	19.659	28.581	0.476
445.000	294.701	79.993	19.995	102.950	19.661	28.398	0.504
445.500	294.953	79.994	19.996	102.951	19.660	28.511	0.505
446.000	295.196	79.992	19.994	102.951	19.661	28.449	0.496
446.500	295.414	79.993	19.994	102.951	19.661	28.453	0.478
447.000	295.692	79.993	19.994	102.950	19.661	28.426	0.479
447.500	295.953	79.993	19.995	102.948	19.663	28.283	0.518
448.000	296.173	79.993	19.996	102.946	19.663	28.236	0.510
448.500	296.431	79.992	19.995	102.945	19.659	28.601	0.479
449.000	296.642	79.993	19.995	102.944	19.660	28.510	0.474
449.500	296.919	79.993	19.995	102.942	19.660	28.464	0.479
450.000	297.146	79.992	19.995	102.935	19.660	28.467	0.496
450.500	297.417	79.993	19.994	102.928	19.661	28.410	0.501
451.000	297.668	79.993	19.995	102.927	19.662	28.324	0.510
451.500	297.921	79.993	19.995	102.925	19.662	28.319	0.513
452.000	298.166	79.995	19.994	102.927	19.661	28.459	0.500
452.500	298.389	79.994	19.994	102.933	19.659	28.570	0.483
453.000	298.676	79.993	19.995	102.939	19.662	28.365	0.489
453.500	298.918	79.994	19.996	102.937	19.660	28.532	0.520
454.000	299.168	79.995	19.995	102.932	19.661	28.438	0.511
454.500	299.393	79.994	19.995	102.928	19.666	28.068	0.484
455.000	299.662	79.995	19.996	102.926	19.661	28.405	0.484
455.500	299.909	79.993	19.995	102.923	19.664	28.172	0.505
456.000	300.135	79.994	19.995	102.927	19.660	28.495	0.494
456.500	300.373	79.995	19.995	102.930	19.661	28.446	0.468
457.000	300.701	79.995	19.996	102.932	19.660	28.499	0.515
457.500	300.902	79.996	19.994	102.933	19.662	28.333	0.548
458.000	301.171	79.996	19.995	102.935	19.661	28.391	0.500
458.500	301.422	79.994	19.996	102.936	19.661	28.458	0.495
459.000	301.651	79.996	19.995	102.937	19.662	28.309	0.500
459.500	301.925	79.996	19.995	102.940	19.664	28.175	0.491
460.000	302.177	79.996	19.996	102.938	19.665	28.107	0.514
460.500	302.395	79.996	19.994	102.931	19.665	28.131	0.498
461.000	302.651	79.995	19.995	102.929	19.665	28.143	0.472
461.500	302.909	79.995	19.994	102.925	19.667	27.967	0.493
462.000	303.177	79.996	19.995	102.921	19.667	27.972	0.520
462.500	303.431	79.996	19.995	102.919	19.666	28.011	0.524
463.000	303.678	79.997	19.994	102.923	19.667	27.952	0.512
463.500	303.894	79.998	19.993	102.921	19.669	27.788	0.482
464.000	304.186	79.996	19.993	102.922	19.669	27.769	0.486
464.500	304.438	79.996	19.995	102.923	19.665	28.074	0.526
465.000	304.663	79.998	19.994	102.925	19.671	27.643	0.510
465.500	304.910	79.994	19.994	102.925	19.668	27.876	0.475
466.000	305.169	79.997	19.995	102.927	19.673	27.470	0.489
466.500	305.475	79.997	19.994	102.929	19.676	27.281	0.535
467.000	305.687	79.995	19.995	102.930	19.675	27.364	0.542
467.500	305.898	79.995	19.994	102.930	19.675	27.360	0.471
468.000	306.195	79.995	19.996	102.926	19.673	27.466	0.465
468.500	306.468	79.995	19.995	102.925	19.678	27.113	0.539
469.000	306.694	79.995	19.995	102.925	19.676	27.241	0.535
469.500	306.962	79.993	19.995	102.926	19.674	27.404	0.497
470.000	307.193	79.995	19.995	102.928	19.672	27.517	0.496
470.500	307.443	79.994	19.995	102.933	19.675	27.307	0.490
471.000	307.712	79.995	19.996	102.935	19.672	27.563	0.500
471.500	307.965	79.997	19.995	102.931	19.674	27.364	0.520
472.000	308.211	79.995	19.994	102.927	19.673	27.493	0.510
472.500	308.496	79.994	19.995	102.925	19.674	27.373	0.515
473.000	308.729	79.995	19.996	102.926	19.674	27.391	0.524
473.500	309.008	79.995	19.995	102.928	19.674	27.378	0.515
474.000	309.279	79.996	19.995	102.934	19.669	27.782	0.531
474.500	309.488	79.995	19.994	102.938	19.670	27.706	0.515
475.000	309.782	79.995	19.996	102.939	19.671	27.634	0.491
475.500	310.031	79.994	19.996	102.940	19.669	27.799	0.523
476.000	310.267	79.994	19.996	102.939	19.667	27.979	0.514
476.500	310.543	79.995	19.996	102.938	19.664	28.174	0.499
477.000	310.791	79.994	19.997	102.939	19.671	27.612	0.518
477.500	311.081	79.994	19.995	102.938	19.671	27.627	0.531
478.000	311.345	79.993	19.996	102.938	19.669	27.818	0.546
478.500	311.559	79.995	19.995	102.937	19.668	27.911	0.516
479.000	311.848	79.995	19.996	102.934	19.666	27.992	0.491
479.500	312.111	79.996	19.996	102.928	19.669	27.781	0.528
480.000	312.382	79.996	19.996	102.926	19.669	27.816	0.543
480.500	312.659	79.995	19.996	102.919	19.671	27.680	0.541
481.000	312.926	79.996	19.996	102.915	19.668	27.905	0.546
481.500	313.140	79.997	19.995	102.914	19.670	27.744	0.513
482.000	313.458	79.994	19.996	102.914	19.670	27.742	0.506
482.500	313.685	79.996	19.995	102.911	19.667	27.954	0.538
483.000	313.934	79.996	19.996	102.914	19.663	28.306	0.511
483.500	314.175	79.996	19.996	102.914	19.665	28.136	0.483
484.000	314.440	79.996	19.995	102.911	19.663	28.262	0.498
484.500	314.730	79.997	19.995	102.911	19.660	28.470	0.531
485.000	314.939	79.996	19.995	102.916	19.661	28.429	0.527
485.500	315.175	79.997	19.996	102.918	19.658	28.619	0.472
486.000	315.439	79.997	19.996	102.922	19.656	28.813	0.472
486.500	315.729	79.996	19.996	102.930	19.654	28.920	0.527
487.000	315.999	79.996	19.997	102.937	19.655	28.892	0.557
487.500	316.262	79.996	19.996	102.938	19.653	29.015	0.547
488.000	316.479	79.996	19.995	102.935	19.650	29.235	0.506
488.500	316.781	79.997	19.995	102.935	19.652	29.144	0.500
489.000	316.995	79.996	19.995	102.935	19.644	29.707	0.518
489.500	317.274	79.995	19.996	102.932	19.637	30.283	0.504
490.000	317.509	79.997	19.995	102.930	19.629	30.931	0.503
490.500	317.775	79.997	19.994	102.940	19.620	31.640	0.508
491.000	318.034	79.996	19.996	102.943	19.610	32.475	0.513
491.500	318.273	79.997	19.995	102.948	19.603	32.986	0.511
492.000	318.536	79.994	19.995	102.972	19.594	33.742	0.500
492.500	318.783	79.995	19.995	102.994	19.593	33.816	0.506
493.000	319.073	79.995	19.995	102.996	19.587	34.241	0.524
493.500	319.330	79.996	19.996	102.995	19.584	34.482	0.543
494.000	319.588	79.996	19.995	102.991	19.582	34.665	0.531
494.500	319.851	79.995	19.995	102.969	19.578	34.977	0.518
495.000	320.071	79.994	19.995	102.945	19.581	34.713	0.502
495.500	320.340	79.995	19.996	102.929	19.584	34.456	0.485
496.000	320.599	79.995	19.995	102.914	19.582	34.622	0.508
496.500	320.873	79.994	19.995	102.897	19.580	34.742	0.531
497.000	321.108	79.994	19.996	102.879	19.585	34.360	0.521
497.500	321.345	79.994	19.995	102.869	19.584	34.493	0.490
498.000	321.616	79.994	19.995	102.861	19.581	34.713	0.490
498.500	321.862	79.993	19.997	102.857	19.580	34.810	0.513
499.000	322.122	79.995	19.995	102.856	19.570	35.575	0.511
499.500	322.396	79.993	19.995	102.861	19.569	35.620	0.519
500.000	322.622	79.992	19.996	102.869	19.564	36.043	0.517
500.500	322.890	79.993	19.998	102.889	19.555	36.736	0.497
501.000	323.143	79.994	19.996	102.923	19.560	36.360	0.508
501.500	323.396	79.991	19.997	102.957	19.553	36.947	0.513
502.000	323.656	79.993	19.996	102.981	19.551	37.100	0.509
502.500	323.945	79.993	19.996	102.998	19.549	37.216	0.531
503.000	324.185	79.992	19.997	103.001	19.549	37.229	0.539
503.500	324.394	79.993	19.997	102.994	19.547	37.365	0.488
504.000	324.644	79.992	19.997	102.982	19.545	37.517	0.454
504.500	324.932	79.992	19.996	102.971	19.544	37.631	0.499
505.000	325.237	79.993	19.997	102.955	19.540	37.936	0.566
505.500	325.442	79.992	19.997	102.940	19.540	37.944	0.552
506.000	325.726	79.991	19.997	102.926	19.536	38.256	0.499
506.500	325.939	79.992	19.997	102.920	19.536	38.268	0.492
507.000	326.223	79.993	19.998	102.915	19.533	38.500	0.497
507.500	326.474	79.992	19.996	102.915	19.530	38.713	0.517
508.000	326.693	79.993	19.997	102.914	19.529	38.817	0.503
508.500	326.992	79.993	19.996	102.913	19.528	38.855	0.494
509.000	327.241	79.992	19.997	102.913	19.519	39.604	0.533
509.500	327.518	79.992	19.997	102.919	19.517	39.759	0.537
510.000	327.773	79.993	19.997	102.929	19.514	39.950	0.529
510.500	327.991	79.991	19.997	102.940	19.510	40.261	0.502
511.000	328.250	79.991	19.997	102.950	19.511	40.211	0.475
511.500	328.517	79.992	19.997	102.957	19.502	40.905	0.502
512.000	328.788	79.992	19.997	102.960	19.499	41.122	0.532
512.500	329.017	79.992	19.996	102.961	19.495	41.447	0.519
513.000	329.285	79.991	19.996	102.961	19.490	41.836	0.499
513.500	329.546	79.992	19.996	102.957	19.488	42.023	0.513
514.000	329.802	79.993	19.997	102.952	19.482	42.481	0.523
514.500	330.051	79.993	19.995	102.949	19.476	42.948	0.511
515.000	330.271	79.992	19.996	102.947	19.474	43.097	0.487
515.500	330.550	79.992	19.997	102.945	19.466	43.775	0.484
516.000	330.828	79.993	19.996	102.946	19.458	44.389	0.528
516.500	331.050	79.992	19.997	102.949	19.453	44.750	0.528
517.000	331.313	79.994	19.996	102.952	19.445	45.400	0.492
517.500	331.573	79.993	19.996	102.952	19.443	45.588	0.504
518.000	331.802	79.993	19.996	102.954	19.436	46.128	0.506
518.500	332.052	79.994	19.996	102.955	19.429	46.644	0.484
519.000	332.302	79.993	19.996	102.952	19.424	47.047	0.490
519.500	332.547	79.994	19.993	102.949	19.419	47.476	0.498
520.000	332.843	79.994	19.997	102.949	19.417	47.610	0.518
520.500	333.054	79.993	19.996	102.951	19.413	47.955	0.524
521.000	333.319	79.992	19.996	102.950	19.405	48.588	0.492
521.500	333.587	79.995	19.996	102.951	19.399	48.987	0.504
522.000	333.801	79.993	19.997	102.950	19.395	49.313	0.508
522.500	334.073	79.993	19.996	102.949	19.391	49.640	0.484
523.000	334.341	79.992	19.995	102.945	19.384	50.180	0.513
523.500	334.583	79.993	19.995	102.939	19.382	50.326	0.525
524.000	334.839	79.994	19.994	102.937	19.377	50.758	0.504
524.500	335.070	79.994	19.995	102.937	19.370	51.276	0.492
525.000	335.302	79.994	19.995	102.937	19.366	51.645	0.475
525.500	335.602	79.993	19.995	102.942	19.361	52.035	0.498
526.000	335.884	79.993	19.994	102.949	19.355	52.509	0.558
526.500	336.091	79.992	19.995	102.956	19.350	52.842	0.536
527.000	336.353	79.994	19.995	102.959	19.340	53.663	0.479
527.500	336.628	79.992	19.995	102.960	19.337	53.924	0.502
528.000	336.828	79.994	19.995	102.958	19.331	54.391	0.506
528.500	337.087	79.993	19.995	102.956	19.324	54.947	0.467
529.000	337.336	79.993	19.994	102.956	19.313	55.745	0.483
529.500	337.586	79.992	19.996	102.959	19.307	56.232	0.503
530.000	337.842	79.993	19.995	102.966	19.298	56.960	0.502
530.500	338.123	79.992	19.995	102.971	19.291	57.547	0.521
531.000	338.379	79.993	19.995	102.979	19.283	58.109	0.537
531.500	338.607	79.991	19.995	102.981	19.275	58.755	0.511
532.000	338.837	79.992	19.996	102.984	19.270	59.171	0.471
532.500	339.100	79.993	19.995	102.984	19.261	59.888	0.476
533.000	339.353	79.993	19.995	102.984	19.251	60.658	0.504
533.500	339.586	79.993	19.995	102.983	19.245	61.159	0.501
534.000	339.836	79.993	19.996	102.982	19.237	61.770	0.485
534.500	340.105	79.994	19.995	102.978	19.229	62.429	0.501
535.000	340.362	79.992	19.996	102.977	19.221	62.993	0.522
535.500	340.605	79.993	19.995	102.976	19.213	63.656	0.513
536.000	340.811	79.994	19.996	102.976	19.203	64.444	0.475
536.500	341.058	79.993	19.995	102.975	19.197	64.958	0.451
537.000	341.340	79.995	19.996	102.976	19.189	65.613	0.491
537.500	341.582	79.995	19.995	102.977	19.181	66.230	0.526
538.000	341.848	79.996	19.996	102.978	19.175	66.657	0.516
538.500	342.082	79.994	19.996	102.977	19.164	67.518	0.504
539.000	342.332	79.994	19.996	102.981	19.157	68.045	0.492
539.500	342.579	79.996	19.995	102.987	19.144	69.083	0.491
540.000	342.783	79.993	19.996	102.988	19.138	69.539	0.474
540.500	343.061	79.994	19.994	102.989	19.127	70.437	0.467
541.000	343.278	79.995	19.996	102.991	19.123	70.797	0.489
541.500	343.578	79.994	19.995	102.990	19.110	71.859	0.506
542.000	343.822	79.997	19.995	102.991	19.103	72.440	0.530
542.500	344.017	79.995	19.995	102.995	19.091	73.396	0.491
543.000	344.279	79.993	19.996	102.999	19.082	74.075	0.448
543.500	344.537	79.996	19.996	103.005	19.070	75.016	0.489
544.000	344.790	79.995	19.996	103.010	19.059	75.902	0.515
544.500	345.012	79.997	19.995	103.007	19.044	77.005	0.493
545.000	345.277	79.994	19.996	103.008	19.033	77.860	0.481
545.500	345.550	79.995	19.996	103.010	19.011	79.538	0.513
546.000	345.783	79.995	19.995	103.016	18.996	80.635	0.522
546.500	346.010	79.995	19.995	103.024	18.979	81.926	0.483
547.000	346.294	79.996	19.995	103.039	18.961	83.382	0.485
547.500	346.491	79.997	19.996	103.058	18.943	84.766	0.496
548.000	346.734	79.995	19.995	103.073	18.924	86.221	0.460
548.500	347.000	79.995	19.995	103.075	18.908	87.496	0.475
549.000	347.245	79.995	19.995	103.076	18.889	88.963	0.510
549.500	347.497	79.996	19.994	103.066	18.863	90.977	0.504
550.000	347.699	79.994	19.994	103.052	18.836	93.197	0.475
550.500	347.947	79.995	19.995	103.042	18.802	95.849	0.452
551.000	348.184	79.994	19.996	103.048	18.765	98.887	0.468
551.500	348.441	79.995	19.995	103.056	18.728	101.858	0.490
552.000	348.721	79.995	19.995	103.081	18.693	104.699	0.515
552.500	348.909	79.995	19.996	103.124	18.661	107.276	0.502
553.000	349.208	79.995	19.995	103.175	18.636	109.352	0.477
553.500	349.429	79.996	19.996	103.206	18.618	110.781	0.504
554.000	349.645	79.995	19.995	103.221	18.598	112.410	0.479
554.500	349.905	79.994	19.995	103.206	18.589	113.064	0.456
555.000	350.200	79.996	19.994	103.163	18.575	114.131	0.515
555.500	350.396	79.994	19.995	103.106	18.569	114.507	0.523
556.000	350.685	79.995	19.995	103.050	18.564	114.852	0.488
556.500	350.934	79.994	19.993	103.000	18.557	115.325	0.511
557.000	351.156	79.994	19.995	102.956	18.548	115.936	0.504
557.500	351.399	79.994	19.995	102.914	18.547	116.037	0.468
558.000	351.681	79.996	19.995	102.879	18.539	116.611	0.495
558.500	351.907	79.994	19.994	102.852	18.533	117.047	0.517
559.000	352.185	79.995	19.995	102.835	18.527	117.596	0.506
559.500	352.422	79.994	19.996	102.828	18.511	118.826	0.510
560.000	352.682	79.995	19.995	102.836	18.497	120.020	0.506
560.500	352.909	79.994	19.995	102.855	18.480	121.378	0.492
561.000	353.197	79.994	19.995	102.892	18.453	123.520	0.501
561.500	353.432	79.994	19.996	102.948	18.428	125.558	0.519
562.000	353.650	79.995	19.995	103.026	18.397	128.008	0.488
562.500	353.921	79.994	19.995	103.105	18.364	130.706	0.471
563.000	354.203	79.994	19.995	103.196	18.342	132.393	0.521
563.500	354.420	79.994	19.996	103.287	18.312	134.715	0.526
564.000	354.740	79.996	19.994	103.349	18.292	136.213	0.518
564.500	354.978	79.995	19.995	103.393	18.281	136.976	0.548
565.000	355.192	79.995	19.995	103.408	18.266	138.091	0.505
565.500	355.445	79.993	19.995	103.368	18.252	139.103	0.459
566.000	355.731	79.995	19.995	103.300	18.231	140.769	0.503
566.500	356.021	79.995	19.994	103.236	18.210	142.400	0.557
567.000	356.221	79.995	19.994	103.160	18.196	143.502	0.533
567.500	356.501	79.996	19.994	103.099	18.176	145.025	0.486
568.000	356.712	79.994	19.995	103.058	18.150	147.136	0.485
568.500	357.021	79.995	19.995	103.026	18.123	149.312	0.505
569.000	357.272	79.996	19.995	103.007	18.094	151.628	0.540
569.500	357.524	79.994	19.995	103.005	18.068	153.766	0.531
570.000	357.741	79.994	19.994	103.018	18.033	156.667	0.486
570.500	358.037	79.995	19.995	103.046	18.008	158.816	0.491
571.000	358.328	79.995	19.996	103.073	17.977	161.435	0.550
571.500	358.600	79.996	19.995	103.105	17.951	163.581	0.575
572.000	358.843	79.996	19.995	103.147	17.936	164.871	0.540
572.500	359.127	79.995	19.995	103.195	17.920	166.164	0.521
573.000	359.384	79.996	19.996	103.229	17.908	167.067	0.534
573.500	359.658	79.994	19.995	103.256	17.898	167.832	0.536
574.000	359.901	79.995	19.996	103.249	17.888	168.448	0.524
574.500	360.212	79.994	19.996	103.206	17.879	169.050	0.536
575.000	360.568	79.996	19.995	103.143	17.866	169.983	0.610
575.500	360.564	79.995	19.995	103.082	17.858	170.419	0.509
576.000	361.153	79.994	19.995	103.027	17.851	170.852	0.469
576.500	361.186	79.995	19.994	102.990	17.841	171.457	0.604
577.000	361.688	79.993	19.995	102.964	17.836	171.689	0.579
577.500	361.458	79.993	19.995	102.947	17.831	172.013	0.404
578.000	362.161	79.992	19.996	102.948	17.816	173.189	0.373
578.500	362.328	79.994	19.996	102.947	17.800	174.463	0.671
579.000	362.540	79.992	19.996	102.953	17.774	176.551	0.624
579.500	362.902	79.991	19.996	102.992	17.744	178.875	0.477
580.000	363.193	79.993	19.995	103.053	17.709	181.697	0.614
580.500	363.027	79.992	19.995	103.122	17.664	185.410	0.389
581.000	363.574	79.994	19.996	103.213	17.623	188.761	0.253
581.500	363.906	79.994	19.995	103.317	17.576	192.597	0.630
582.000	364.069	79.994	19.995	103.412	17.527	196.574	0.687
582.500	364.305	79.992	19.996	103.490	17.488	199.745	0.447
583.000	364.556	79.994	19.995	103.552	17.451	202.700	0.443
583.500	364.885	79.992	19.995	103.582	17.418	205.335	0.534
584.000	365.247	79.993	19.996	103.571	17.396	207.098	0.636
584.500	365.423	79.994	19.996	103.513	17.376	208.649	0.615
585.000	365.709	79.994	19.996	103.445	17.359	209.806	0.500
585.500	365.914	79.993	19.996	103.386	17.347	210.674	0.476
586.000	366.178	79.993	19.996	103.287	17.328	212.067	0.480
586.500	366.410	79.994	19.996	103.178	17.317	212.867	0.483
587.000	366.694	79.993	19.996	103.094	17.299	214.250	0.506
587.500	366.972	79.993	19.996	103.010	17.284	215.425	0.539
588.000	367.244	79.994	19.995	102.922	17.270	216.543	0.556
588.500	367.505	79.993	19.996	102.880	17.258	217.362	0.542
589.000	367.716	79.994	19.996	102.878	17.238	218.921	0.503
589.500	367.994	79.993	19.996	102.886	17.222	220.104	0.480
590.000	368.279	79.994	19.995	102.896	17.206	221.360	0.526
590.500	368.511	79.995	19.996	102.907	17.189	222.663	0.540
591.000	368.782	79.993	19.996	102.950	17.169	224.252	0.511
591.500	369.067	79.993	19.996	103.017	17.152	225.631	0.530
592.000	369.309	79.993	19.995	103.102	17.134	227.003	0.541
592.500	369.553	79.993	19.996	103.182	17.117	228.292	0.506
593.000	369.876	79.993	19.995	103.250	17.106	229.213	0.526
593.500	370.165	79.994	19.996	103.305	17.092	230.362	0.589
594.000	370.366	79.994	19.995	103.327	17.079	231.337	0.551
594.500	370.660	79.992	19.996	103.313	17.068	232.136	0.493
595.000	370.922	79.992	19.997	103.326	17.062	232.635	0.525
595.500	371.195	79.993	19.997	103.312	17.053	233.381	0.545
596.000	371.410	79.993	19.996	103.249	17.044	234.137	0.511
596.500	371.727	79.993	19.997	103.196	17.038	234.596	0.510
597.000	371.968	79.993	19.997	103.169	17.034	234.963	0.545
597.500	372.249	79.993	19.997	103.119	17.033	235.120	0.540
598.000	372.530	79.995	19.995	103.105	17.032	235.226	0.542
598.500	372.810	79.994	19.997	103.114	17.034	235.153	0.561
599.000	373.071	79.995	19.996	103.094	17.038	234.917	0.551
599.500	373.371	79.994	19.995	103.048	17.045	234.337	0.551
600.000	373.587	79.993	19.995	103.031	17.053	233.788	0.538
600.500	373.884	79.994	19.996	103.029	17.062	233.061	0.514
601.000	374.155	79.995	19.995	103.017	17.080	231.637	0.540
601.500	374.473	79.993	19.997	103.012	17.094	230.580	0.579
602.000	374.758	79.994	19.997	103.019	17.108	229.493	0.597
602.500	374.951	79.992	19.996	103.015	17.130	227.729	0.541
603.000	375.254	79.992	19.997	102.998	17.150	226.173	0.487
603.500	375.539	79.993	19.997	102.996	17.172	224.406	0.542
604.000	375.808	79.994	19.997	103.005	17.188	223.083	0.571
604.500	376.093	79.992	19.997	103.020	17.212	221.215	0.554
605.000	376.332	79.993	19.998	103.011	17.235	219.391	0.539
605.500	376.604	79.994	19.997	102.997	17.254	217.877	0.518
606.000	376.921	79.993	19.997	103.005	17.276	216.127	0.550
606.500	377.223	79.993	19.995	103.022	17.296	214.512	0.603
607.000	377.454	79.994	19.997	103.026	17.313	213.175	0.576
607.500	377.778	79.994	19.996	103.042	17.338	211.188	0.545
608.000	378.005	79.994	19.998	103.065	17.351	210.119	0.553
608.500	378.296	79.993	19.997	103.082	17.372	208.510	0.534
609.000	378.583	79.994	19.995	103.103	17.389	207.154	0.548
609.500	378.859	79.994	19.996	103.132	17.403	206.064	0.571
610.000	379.140	79.992	19.996	103.156	17.422	204.599	0.560
610.500	379.419	79.993	19.996	103.171	17.435	203.542	0.559
611.000	379.689	79.991	19.996	103.177	17.446	202.637	0.554
611.500	379.920	79.991	19.997	103.181	17.461	201.506	0.525
612.000	380.259	79.993	19.995	103.187	17.471	200.739	0.536
612.500	380.508	79.991	19.996	103.193	17.485	199.586	0.579
613.000	380.745	79.994	19.995	103.194	17.498	198.590	0.537
613.500	381.038	79.994	19.995	103.194	17.507	197.825	0.508
614.000	381.296	79.992	19.996	103.190	17.520	196.827	0.540
614.500	381.622	79.993	19.996	103.181	17.532	195.854	0.567
615.000	381.879	79.993	19.995	103.167	17.543	194.969	0.584
615.500	382.110	79.994	19.996	103.159	17.557	193.869	0.536
616.000	382.447	79.994	19.995	103.151	17.566	193.129	0.528
616.500	382.694	79.992	19.997	103.137	17.576	192.402	0.576
617.000	382.981	79.994	19.995	103.123	17.587	191.534	0.559
617.500	383.260	79.993	19.995	103.115	17.595	190.882	0.550
618.000	383.543	79.994	19.996	103.107	17.603	190.235	0.564
618.500	383.809	79.994	19.995	103.100	17.613	189.420	0.555
619.000	384.085	79.994	19.995	103.100	17.623	188.622	0.546
619.500	384.347	79.995	19.995	103.100	17.636	187.619	0.540
620.000	384.640	79.994	19.995	103.100	17.644	186.964	0.546
620.500	384.894	79.993	19.996	103.099	17.657	185.975	0.551
621.000	385.152	79.994	19.995	103.099	17.664	185.401	0.530
621.500	385.384	79.994	19.995	103.099	17.674	184.630	0.501
622.000	385.710	79.994	19.995	103.098	17.684	183.859	0.524
622.500	385.942	79.996	19.995	103.098	17.697	182.859	0.558
623.000	386.239	79.995	19.995	103.098	17.708	181.953	0.544
623.500	386.529	79.996	19.994	103.094	17.715	181.409	0.558
624.000	386.771	79.994	19.994	103.093	17.730	180.243	0.560
624.500	387.031	79.995	19.995	103.089	17.737	179.679	0.517
625.000	387.289	79.995	19.996	103.082	17.750	178.654	0.510
625.500	387.576	79.995	19.996	103.074	17.764	177.569	0.531
626.000	387.884	79.994	19.994	103.070	17.774	176.775	0.570
626.500	388.116	79.995	19.994	103.064	17.786	175.772	0.568
627.000	388.405	79.993	19.995	103.060	17.803	174.500	0.531
627.500	388.650	79.996	19.995	103.058	17.816	173.468	0.527
628.000	388.906	79.993	19.995	103.056	17.829	172.435	0.517
628.500	389.191	79.995	19.993	103.057	17.844	171.265	0.521
629.000	389.460	79.995	19.998	103.057	17.856	170.257	0.548
629.500	389.724	79.994	19.995	103.054	17.871	169.110	0.544
630.000	389.974	79.995	19.995	103.049	17.887	167.841	0.523
630.500	390.252	79.994	19.994	103.047	17.902	166.636	0.521
631.000	390.486	79.994	19.996	103.043	17.917	165.436	0.520
631.500	390.791	79.995	19.995	103.036	17.932	164.275	0.526
632.000	391.027	79.994	19.994	103.037	17.948	163.032	0.540
632.500	391.287	79.995	19.994	103.039	17.964	161.802	0.519
633.000	391.578	79.994	19.995	103.038	17.979	160.555	0.523
633.500	391.828	79.994	19.995	103.036	17.998	159.127	0.546
634.000	392.134	79.993	19.995	103.036	18.012	157.968	0.549
634.500	392.378	79.994	19.995	103.034	18.033	156.360	0.553
635.000	392.649	79.993	19.995	103.034	18.050	155.014	0.533
635.500	392.895	79.993	19.995	103.033	18.065	153.828	0.516
636.000	393.169	79.994	19.995	103.032	18.081	152.596	0.518
636.500	393.436	79.994	19.994	103.031	18.102	150.905	0.530
637.000	393.715	79.992	19.995	103.028	18.118	149.666	0.544
637.500	393.951	79.995	19.995	103.024	18.137	148.175	0.531
638.000	394.278	79.993	19.995	103.022	18.158	146.523	0.539
638.500	394.526	79.995	19.994	103.020	18.175	145.181	0.569
639.000	394.749	79.993	19.994	103.019	18.193	143.729	0.523
639.500	395.029	79.994	19.995	103.015	18.214	142.090	0.487
640.000	395.288	79.994	19.994	103.011	18.235	140.462	0.521
640.500	395.552	79.995	19.995	103.008	18.252	139.091	0.531
641.000	395.845	79.995	19.995	103.004	18.271	137.566	0.540
641.500	396.115	79.995	19.994	103.000	18.289	136.161	0.560
642.000	396.364	79.994	19.995	102.999	18.313	134.320	0.541
642.500	396.655	79.994	19.994	102.998	18.332	132.775	0.530
643.000	396.880	79.995	19.996	102.998	18.349	131.489	0.528
643.500	397.173	79.996	19.995	102.996	18.368	129.949	0.517
644.000	397.421	79.996	19.994	102.994	18.391	128.124	0.530
644.500	397.655	79.994	19.996	102.992	18.409	126.720	0.512
645.000	397.932	79.996	19.995	102.988	18.430	125.114	0.497
645.500	398.204	79.996	19.996	102.984	18.449	123.614	0.530
646.000	398.448	79.996	19.994	102.984	18.471	121.910	0.532
646.500	398.709	79.997	19.995	102.984	18.490	120.394	0.510
647.000	398.985	79.998	19.994	102.983	18.510	118.791	0.521
647.500	399.256	79.998	19.994	102.983	18.530	117.208	0.542
648.000	399.518	79.996	19.995	102.982	18.559	114.994	0.540
648.500	399.807	79.997	19.995	102.981	18.572	113.931	0.542
649.000	400.078	79.998	19.994	102.979	18.595	112.129	0.555
649.500	400.288	79.997	19.995	102.973	18.616	110.514	0.520
650.000	400.534	79.998	19.994	102.967	18.634	109.033	0.469
650.500	400.820	79.997	19.994	102.963	18.654	107.509	0.494
651.000	401.092	79.997	19.995	102.957	18.678	105.634	0.545
651.500	401.351	79.998	19.994	102.951	18.697	104.145	0.545
652.000	401.591	79.997	19.994	102.949	18.718	102.493	0.516
652.500	401.855	79.997	19.994	102.946	18.736	101.027	0.502
653.000	402.077	79.994	19.995	102.944	18.756	99.430	0.494
653.500	402.343	79.996	19.996	102.942	18.774	98.017	0.487
654.000	402.613	79.997	19.994	102.942	18.795	96.411	0.512
654.500	402.912	79.996	19.994	102.942	18.816	94.726	0.553
655.000	403.143	79.996	19.995	102.943	18.834	93.327	0.549
655.500	403.412	79.995	19.995	102.941	18.852	91.913	0.515
656.000	403.690	79.994	19.995	102.941	18.868	90.686	0.523
656.500	403.964	79.995	19.995	102.941	18.890	88.901	0.550
657.000	404.179	79.993	19.996	102.941	18.906	87.714	0.521
657.500	404.420	79.995	19.993	102.939	18.925	86.191	0.472
658.000	404.676	79.996	19.996	102.939	18.943	84.779	0.476
658.500	404.943	79.993	19.997	102.939	18.964	83.132	0.510
659.000	405.206	79.994	19.997	102.938	18.985	81.489	0.527
659.500	405.492	79.994	19.996	102.937	19.003	80.097	0.540
660.000	405.711	79.994	19.997	102.936	19.020	78.727	0.527
660.500	405.961	79.993	19.997	102.935	19.038	77.331	0.487
661.000	406.253	79.993	19.995	102.934	19.053	76.135	0.505
661.500	406.478	79.993	19.996	102.934	19.072	74.670	0.530
662.000	406.731	79.993	19.996	102.929	19.088	73.377	0.498
662.500	407.011	79.992	19.997	102.924	19.107	71.929	0.506
663.000	407.258	79.992	19.996	102.920	19.124	70.554	0.530
663.500	407.502	79.994	19.996	102.915	19.141	69.205	0.509
664.000	407.780	79.992	19.996	102.911	19.157	67.934	0.506
664.500	408.022	79.993	19.996	102.910	19.174	66.633	0.521
665.000	408.306	79.993	19.996	102.910	19.192	65.212	0.523
665.500	408.542	79.993	19.996	102.909	19.208	63.930	0.523
666.000	408.784	79.993	19.996	102.906	19.219	63.121	0.498
666.500	409.086	79.993	19.996	102.903	19.235	61.857	0.511
667.000	409.335	79.994	19.996	102.903	19.255	60.280	0.548
667.500	409.572	79.993	19.995	102.902	19.269	59.189	0.518
668.000	409.786	79.992	19.995	102.902	19.283	58.090	0.469
668.500	410.077	79.993	19.996	102.901	19.298	56.882	0.478
669.000	410.327	79.993	19.996	102.901	19.317	55.405	0.523
669.500	410.600	79.993	19.995	102.901	19.331	54.342	0.532
670.000	410.824	79.994	19.997	102.900	19.344	53.262	0.510
670.500	411.099	79.994	19.996	102.900	19.356	52.334	0.498
671.000	411.323	79.994	19.996	102.899	19.374	50.935	0.499
671.500	411.581	79.994	19.995	102.897	19.385	50.038	0.490
672.000	411.841	79.995	19.993	102.896	19.396	49.186	0.500
672.500	412.131	79.995	19.995	102.896	19.412	47.958	0.534
673.000	412.382	79.994	19.996	102.896	19.424	47.000	0.546
673.500	412.631	79.995	19.995	102.898	19.438	45.889	0.521
674.000	412.905	79.993	19.995	102.896	19.449	45.081	0.512
674.500	413.149	79.993	19.995	102.896	19.465	43.779	0.521
675.000	413.390	79.994	19.995	102.895	19.475	43.010	0.501
675.500	413.618	79.993	19.995	102.893	19.489	41.905	0.477
676.000	413.873	79.994	19.996	102.888	19.500	41.077	0.476
676.500	414.130	79.994	19.995	102.889	19.509	40.368	0.497
677.000	414.341	79.993	19.996	102.886	19.524	39.171	0.490
677.500	414.616	79.995	19.995	102.886	19.535	38.322	0.477
678.000	414.905	79.994	19.995	102.883	19.548	37.294	0.525
678.500	415.142	79.995	19.995	102.885	19.554	36.778	0.545
679.000	415.376	79.993	19.995	102.885	19.567	35.752	0.498
679.500	415.595	79.994	19.996	102.885	19.578	34.948	0.462
680.000	415.896	79.994	19.996	102.882	19.588	34.102	0.486
680.500	416.122	79.993	19.996	102.884	19.597	33.419	0.524
681.000	416.399	79.995	19.996	102.882	19.609	32.465	0.515
681.500	416.632	79.994	19.996	102.881	19.619	31.701	0.506
682.000	416.904	79.995	19.997	102.879	19.629	30.949	0.508
682.500	417.152	79.994	19.996	102.879	19.640	30.050	0.513
683.000	417.416	79.992	19.996	102.875	19.646	29.555	0.516
683.500	417.652	79.993	19.995	102.874	19.654	28.978	0.506
684.000	417.909	79.993	19.995	102.872	19.665	28.084	0.496
684.500	418.150	79.993	19.995	102.872	19.674	27.414	0.495
685.000	418.399	79.995	19.996	102.870	19.679	26.958	0.494
685.500	418.656	79.993	19.996	102.871	19.689	26.196	0.498
686.000	418.893	79.995	19.996	102.875	19.699	25.430	0.500
686.500	419.192	79.993	19.994	102.878	19.706	24.895	0.515
687.000	419.411	79.994	19.996	102.885	19.712	24.434	0.527
687.500	419.686	79.993	19.996	102.887	19.723	23.552	0.506
688.000	419.930	79.993	19.995	102.885	19.732	22.817	0.506
688.500	420.193	79.992	19.996	102.882	19.735	22.584	0.513
689.000	420.448	79.993	19.995	102.877	19.746	21.745	0.513
689.500	420.659	79.993	19.998	102.871	19.751	21.323	0.492
690.000	420.931	79.988	19.998	102.869	19.756	20.956	0.474
690.500	421.195	79.994	19.996	102.866	19.766	20.186	0.509
691.000	421.458	79.992	19.996	102.866	19.773	19.608	0.531
691.500	421.718	79.994	19.995	102.867	19.778	19.207	0.525
692.000	421.955	79.993	19.996	102.868	19.782	18.886	0.510
692.500	422.209	79.992	19.995	102.869	19.788	18.424	0.494
693.000	422.430	79.992	19.994	102.869	19.796	17.786	0.483
693.500	422.689	79.993	19.996	102.869	19.801	17.430	0.478
694.000	422.936	79.994	19.996	102.867	19.809	16.818	0.493
694.500	423.208	79.993	19.996	102.865	19.812	16.539	0.513
695.000	423.454	79.991	19.997	102.865	19.818	16.120	0.519
695.500	423.709	79.991	19.997	102.866	19.822	15.800	0.509
696.000	423.948	79.993	19.998	102.867	19.825	15.507	0.497
696.500	424.179	79.994	19.995	102.868	19.833	14.925	0.482
697.000	424.429	79.996	19.993	102.869	19.837	14.580	0.475
697.500	424.691	79.991	19.995	102.870	19.841	14.295	0.497
698.000	424.931	79.993	19.996	102.870	19.851	13.533	0.507
698.500	425.180	79.994	19.996	102.869	19.849	13.632	0.495
699.000	425.378	79.994	19.995	102.867	19.854	13.251	0.468
699.500	425.698	79.993	19.995	102.869	19.860	12.818	0.482
700.000	425.935	79.994	19.996	102.868	19.865	12.418	0.537
700.500	426.229	79.994	19.995	102.867	19.867	12.207	0.544
701.000	426.446	79.993	19.997	102.867	19.872	11.882	0.522
701.500	426.743	79.995	19.995	102.867	19.877	11.462	0.512
702.000	426.935	79.993	19.995	102.867	19.882	11.036	0.501
702.500	427.203	79.993	19.995	102.867	19.883	11.010	0.474
703.000	427.479	79.994	19.994	102.868	19.886	10.771	0.502
703.500	427.700	79.994	19.994	102.868	19.890	10.432	0.521
704.000	427.964	79.994	19.994	102.868	19.894	10.103	0.491
704.500	428.210	79.994	19.995	102.867	19.898	9.810	0.497
705.000	428.481	79.995	19.994	102.867	19.898	9.833	0.513
705.500	428.709	79.996	19.996	102.866	19.904	9.360	0.508
706.000	428.979	79.996	19.994	102.865	19.907	9.078	0.499
706.500	429.233	79.995	19.995	102.865	19.908	9.058	0.511
707.000	429.501	79.995	19.993	102.864	19.911	8.752	0.523
707.500	429.719	79.996	19.995	102.865	19.917	8.322	0.504
708.000	430.002	79.995	19.995	102.865	19.918	8.204	0.493
708.500	430.233	79.995	19.996	102.865	19.923	7.838	0.507
709.000	430.452	79.993	19.996	102.866	19.921	7.992	0.482
709.500	430.755	79.995	19.995	102.867	19.924	7.761	0.486
710.000	430.949	79.994	19.996	102.866	19.928	7.470	0.509
710.500	431.223	79.996	19.995	102.866	19.928	7.455	0.482
711.000	431.465	79.995	19.994	102.864	19.933	7.061	0.492
711.500	431.740	79.995	19.994	102.860	19.931	7.247	0.517
712.000	431.977	79.995	19.995	102.859	19.936	6.825	0.515
712.500	432.234	79.994	19.995	102.856	19.936	6.834	0.503
713.000	432.498	79.996	19.995	102.855	19.940	6.477	0.508
713.500	432.739	79.995	19.996	102.855	19.938	6.663	0.513
714.000	432.937	79.995	19.996	102.858	19.944	6.207	0.472
714.500	433.205	79.994	19.995	102.858	19.945	6.142	0.452
715.000	433.510	79.993	19.996	102.861	19.944	6.164	0.519
715.500	433.765	79.995	19.994	102.861	19.944	6.202	0.566
716.000	434.008	79.995	19.995	102.862	19.946	6.003	0.529
716.500	434.254	79.994	19.994	102.862	19.949	5.782	0.493
717.000	434.491	79.994	19.994	102.862	19.952	5.555	0.486
717.500	434.781	79.996	19.996	102.861	19.952	5.588	0.505
718.000	435.023	79.994	19.995	102.858	19.956	5.290	0.530
718.500	435.278	79.995	19.995	102.858	19.955	5.341	0.515
719.000	435.544	79.995	19.995	102.859	19.957	5.192	0.509
719.500	435.798	79.996	19.994	102.859	19.955	5.367	0.521
720.000	436.004	79.995	19.996	102.859	19.960	4.933	0.491
720.500	436.260	79.995	19.994	102.862	19.961	4.866	0.461
721.000	436.523	79.994	19.995	102.862	19.959	4.995	0.490
721.500	436.802	79.994	19.997	102.862	19.962	4.794	0.530
722.000	437.069	79.995	19.996	102.862	19.964	4.624	0.544
722.500	437.309	79.993	19.996	102.864	19.960	4.907	0.526
723.000	437.523	79.996	19.995	102.865	19.963	4.710	0.480
723.500	437.789	79.994	19.995	102.864	19.968	4.352	0.467
724.000	438.020	79.994	19.994	102.865	19.966	4.489	0.488
724.500	438.303	79.994	19.995	102.865	19.968	4.325	0.506
725.000	438.530	79.995	19.995	102.865	19.967	4.430	0.513
725.500	438.783	79.995	19.996	102.864	19.969	4.265	0.495
726.000	439.024	79.995	19.994	102.862	19.969	4.231	0.487
726.500	439.324	79.995	19.996	102.860	19.966	4.492	0.517
727.000	439.553	79.996	19.995	102.855	19.966	4.445	0.534
727.500	439.792	79.995	19.995	102.854	19.971	4.117	0.498
728.000	440.034	79.997	19.995	102.855	19.967	4.432	0.475
728.500	440.309	79.997	19.995	102.856	19.969	4.256	0.500
729.000	440.533	79.996	19.996	102.855	19.970	4.168	0.508
729.500	440.768	79.995	19.995	102.858	19.970	4.141	0.478
730.000	441.039	79.997	19.994	102.858	19.973	3.929	0.482
730.500	441.310	79.997	19.996	102.858	19.972	4.023	0.524
731.000	441.531	79.997	19.996	102.858	19.972	4.025	0.517
731.500	441.758	79.997	19.996	102.860	19.973	3.950	0.470
732.000	442.028	79.997	19.994	102.861	19.972	3.987	0.472
732.500	442.285	79.997	19.994	102.861	19.975	3.772	0.512
733.000	442.545	79.996	19.994	102.861	19.975	3.764	0.522
733.500	442.774	79.996	19.994	102.861	19.972	4.006	0.503
734.000	443.035	79.997	19.995	102.861	19.975	3.753	0.489
734.500	443.311	79.998	19.993	102.860	19.977	3.633	0.513
735.000	443.570	79.997	19.994	102.860	19.978	3.560	0.536
735.500	443.760	79.997	19.994	102.861	19.974	3.830	0.492
736.000	444.050	79.996	19.994	102.861	19.977	3.642	0.465
736.500	444.283	79.996	19.994	102.862	19.978	3.558	0.501
737.000	444.515	79.996	19.995	102.862	19.975	3.730	0.494
737.500	444.812	79.996	19.994	102.862	19.978	3.526	0.497
738.000	445.065	79.996	19.995	102.862	19.979	3.432	0.540
738.500	445.322	79.996	19.995	102.862	19.978	3.516	0.530
739.000	445.579	79.995	19.994	102.862	19.979	3.456	0.512
739.500	445.794	79.997	19.994	102.862	19.980	3.396	0.493
740.000	446.073	79.996	19.994	102.862	19.977	3.575	0.483
740.500	446.299	79.995	19.995	102.863	19.981	3.304	0.499
741.000	446.567	79.995	19.995	102.865	19.979	3.436	0.499
741.500	446.778	79.995	19.995	102.865	19.979	3.443	0.487
742.000	447.036	79.995	19.994	102.866	19.979	3.421	0.474
742.500	447.286	79.992	19.995	102.866	19.982	3.244	0.488
743.000	447.556	79.993	19.995	102.866	19.979	3.475	0.514
743.500	447.843	79.995	19.994	102.865	19.979	3.464	0.539
744.000	448.033	79.995	19.996	102.865	19.982	3.237	0.517
744.500	448.333	79.994	19.995	102.865	19.981	3.271	0.483
745.000	448.580	79.995	19.995	102.865	19.979	3.460	0.519
745.500	448.843	79.992	19.995	102.865	19.979	3.428	0.529
746.000	449.089	79.993	19.994	102.866	19.981	3.291	0.509
746.500	449.308	79.993	19.995	102.866	19.982	3.254	0.487
747.000	449.592	79.993	19.996	102.866	19.980	3.368	0.484
747.500	449.846	79.993	19.995	102.866	19.980	3.396	0.521
748.000	450.106	79.993	19.994	102.866	19.978	3.543	0.526
748.500	450.364	79.994	19.995	102.866	19.979	3.460	0.515
749.000	450.607	79.993	19.996	102.866	19.980	3.396	0.509
749.500	450.862	79.993	19.995	102.866	19.977	3.608	0.500
750.000	451.156	79.994	19.997	102.865	19.981	3.312	0.524
750.500	451.391	79.993	19.994	102.865	19.982	3.207	0.539
751.000	451.633	79.993	19.996	102.866	19.981	3.274	0.502
751.500	451.937	79.993	19.995	102.865	19.981	3.284	0.511
752.000	452.134	79.994	19.995	102.866	19.980	3.389	0.524
752.500	452.403	79.992	19.995	102.866	19.979	3.419	0.484
753.000	452.676	79.995	19.996	102.866	19.979	3.432	0.504
753.500	452.942	79.992	19.996	102.865	19.981	3.256	0.541
754.000	453.148	79.994	19.995	102.865	19.981	3.303	0.506
754.500	453.417	79.994	19.995	102.865	19.980	3.363	0.473
755.000	453.686	79.991	19.998	102.865	19.980	3.374	0.506
755.500	453.955	79.993	19.994	102.865	19.980	3.368	0.538
756.000	454.245	79.995	19.998	102.865	19.980	3.366	0.549
756.500	454.425	79.989	20.002	102.865	19.977	3.601	0.514
757.000	454.729	79.990	19.995	102.862	19.981	3.280	0.477
757.500	454.995	79.992	20.000	102.863	19.979	3.430	0.527
758.000	455.284	79.996	19.993	102.863	19.980	3.340	0.562
758.500	455.503	79.998	19.996	102.863	19.980	3.346	0.532
759.000	455.742	79.991	19.997	102.864	19.979	3.419	0.483
759.500	456.002	79.994	19.996	102.866	19.981	3.334	0.478
760.000	456.278	79.993	19.996	102.865	19.980	3.413	0.518
760.500	456.538	79.992	19.997	102.866	19.982	3.201	0.536
761.000	456.776	79.995	19.996	102.866	19.978	3.513	0.517
761.500	457.005	79.995	19.993	102.865	19.980	3.402	0.482
762.000	457.269	79.994	19.995	102.866	19.980	3.364	0.481
762.500	457.501	79.996	19.994	102.866	19.981	3.319	0.495
763.000	457.814	79.995	19.996	102.866	19.976	3.678	0.520
763.500	458.058	79.993	19.998	102.867	19.978	3.565	0.551
764.000	458.312	79.993	19.995	102.864	19.978	3.492	0.528
764.500	458.557	79.993	19.995	102.863	19.978	3.516	0.499
765.000	458.805	79.993	19.996	102.862	19.977	3.629	0.496
765.500	459.080	79.993	19.997	102.861	19.977	3.591	0.508
766.000	459.364	79.992	19.995	102.861	19.980	3.396	0.541
766.500	459.605	79.993	19.995	102.863	19.976	3.655	0.542
767.000	459.839	79.993	19.995	102.865	19.977	3.640	0.500
767.500	460.119	79.994	19.995	102.867	19.978	3.515	0.494
768.000	460.367	79.993	19.995	102.867	19.977	3.612	0.521
768.500	460.589	79.993	19.995	102.868	19.979	3.475	0.499
769.000	460.877	79.993	19.995	102.869	19.981	3.329	0.490
769.500	461.121	79.992	19.995	102.867	19.978	3.569	0.521
770.000	461.375	79.992	19.996	102.865	19.980	3.404	0.515
770.500	461.639	79.992	19.993	102.865	19.979	3.443	0.508
771.000	461.885	79.991	19.997	102.866	19.980	3.346	0.514
771.500	462.133	79.992	19.996	102.866	19.984	3.098	0.502
772.000	462.382	79.992	19.997	102.866	19.982	3.216	0.496
772.500	462.685	79.995	19.993	102.867	19.979	3.443	0.525
773.000	462.918	79.992	19.997	102.867	19.983	3.151	0.544
773.500	463.140	79.993	19.995	102.866	19.981	3.295	0.495
774.000	463.423	79.993	19.994	102.867	19.980	3.359	0.480
774.500	463.692	79.993	19.997	102.867	19.980	3.387	0.528
775.000	463.917	79.993	19.995	102.866	19.982	3.203	0.523
775.500	464.186	79.993	19.995	102.866	19.980	3.376	0.494
776.000	464.412	79.995	19.995	102.867	19.980	3.363	0.495
776.500	464.654	79.993	19.997	102.867	19.980	3.385	0.482
777.000	464.862	79.991	19.996	102.865	19.982	3.252	0.459
777.500	465.154	79.994	19.996	102.865	19.983	3.173	0.475
778.000	465.407	79.993	19.995	102.864	19.981	3.263	0.523
778.500	465.649	79.994	19.997	102.863	19.982	3.218	0.520
779.000	465.929	79.994	19.996	102.862	19.982	3.194	0.508
779.500	466.165	79.991	19.997	102.861	19.981	3.267	0.519
780.000	466.438	79.992	19.997	102.861	19.980	3.342	0.513
780.500	466.666	79.994	19.996	102.860	19.982	3.185	0.505
781.000	466.952	79.993	19.997	102.861	19.981	3.297	0.507
781.500	467.191	79.993	19.997	102.863	19.980	3.383	0.519
782.000	467.463	79.993	19.993	102.865	19.980	3.406	0.518
782.500	467.711	79.993	19.997	102.865	19.981	3.327	0.516
783.000	467.977	79.994	19.997	102.865	19.981	3.274	0.517
783.500	468.217	79.992	19.998	102.865	19.981	3.297	0.509
784.000	468.458	79.996	19.996	102.862	19.983	3.166	0.494
784.500	468.729	79.992	19.995	102.861	19.983	3.156	0.497
785.000	468.991	79.990	19.997	102.859	19.981	3.291	0.522
785.500	469.248	79.996	19.996	102.858	19.981	3.263	0.526
786.000	469.470	79.994	19.994	102.858	19.979	3.436	0.499
786.500	469.762	80.000	19.992	102.858	19.978	3.492	0.496
787.000	469.961	79.996	19.997	102.860	19.979	3.428	0.502
787.500	470.247	79.996	19.993	102.862	19.981	3.318	0.488
788.000	470.538	79.992	19.997	102.863	19.981	3.312	0.531
788.500	470.775	79.993	20.000	102.863	19.979	3.436	0.553
789.000	471.015	79.996	19.996	102.862	19.978	3.520	0.502
789.500	471.227	79.997	19.995	102.854	19.981	3.312	0.465
790.000	471.511	79.995	19.997	102.854	19.982	3.243	0.474
790.500	471.756	79.997	19.995	102.853	19.984	3.061	0.512
791.000	472.009	79.996	19.997	102.853	19.984	3.089	0.513
791.500	472.276	79.995	19.995	102.854	19.986	2.939	0.509
792.000	472.508	79.996	19.996	102.861	19.984	3.034	0.509
792.500	472.782	79.997	19.991	102.862	19.983	3.136	0.503
793.000	473.046	79.996	19.999	102.864	19.983	3.139	0.522
793.500	473.297	79.997	19.992	102.862	19.986	2.922	0.527
794.000	473.498	79.993	19.994	102.864	19.983	3.130	0.484
794.500	473.764	79.995	19.996	102.864	19.982	3.201	0.459
795.000	474.033	79.995	19.994	102.863	19.982	3.214	0.500
795.500	474.290	79.995	19.995	102.862	19.983	3.145	0.530
796.000	474.544	79.993	19.994	102.863	19.985	2.980	0.518
796.500	474.807	79.995	19.995	102.862	19.985	2.965	0.514
797.000	475.051	79.992	20.000	102.862	19.985	2.991	0.512
797.500	475.326	79.995	19.995	102.860	19.983	3.143	0.513
798.000	475.560	79.995	19.995	102.860	19.985	2.999	0.514
798.500	475.802	79.993	19.996	102.861	19.983	3.126	0.492
799.000	476.040	79.994	19.995	102.859	19.986	2.929	0.478
799.500	476.320	79.994	19.994	102.858	19.984	3.057	0.499
800.000	476.570	79.996	19.994	102.857	19.983	3.139	0.524
800.500	476.786	79.995	19.994	102.858	19.983	3.164	0.497
801.000	477.046	79.995	19.994	102.858	19.986	2.903	0.471
801.500	477.319	79.994	19.996	102.858	19.982	3.252	0.505
802.000	477.571	79.994	19.996	102.859	19.983	3.115	0.529
802.500	477.777	79.994	19.995	102.861	19.983	3.168	0.492
803.000	478.054	79.993	19.995	102.860	19.983	3.134	0.471
803.500	478.344	79.996	19.995	102.861	19.983	3.156	0.525
804.000	478.549	79.995	19.994	102.862	19.984	3.051	0.530
804.500	478.837	79.995	19.995	102.860	19.982	3.250	0.494
805.000	479.082	79.996	19.995	102.860	19.985	2.950	0.513
805.500	479.316	79.995	19.994	102.860	19.984	3.055	0.506
806.000	479.590	79.994	19.995	102.861	19.983	3.126	0.494
806.500	479.862	79.995	19.994	102.857	19.980	3.398	0.527
807.000	480.092	79.996	19.995	102.856	19.981	3.329	0.524
807.500	480.353	79.997	19.994	102.855	19.983	3.132	0.496
808.000	480.614	79.995	19.994	102.852	19.981	3.282	0.506
808.500	480.882	79.995	19.995	102.853	19.984	3.038	0.526
809.000	481.118	79.998	19.994	102.856	19.982	3.184	0.516
809.500	481.379	79.996	19.993	102.859	19.981	3.291	0.501
810.000	481.623	79.995	19.997	102.857	19.982	3.246	0.501
810.500	481.868	79.995	19.995	102.859	19.982	3.226	0.497
811.000	482.131	79.995	19.993	102.859	19.984	3.089	0.498
811.500	482.387	79.995	19.995	102.860	19.982	3.184	0.514
812.000	482.604	79.993	19.996	102.861	19.981	3.271	0.497
812.500	482.878	79.993	20.000	102.864	19.982	3.229	0.482
813.000	483.124	79.994	19.995	102.862	19.984	3.092	0.505
813.500	483.368	79.997	19.995	102.858	19.979	3.471	0.505
814.000	483.599	79.996	19.995	102.856	19.981	3.304	0.483
814.500	483.860	79.994	19.995	102.856	19.979	3.447	0.484
815.000	484.127	79.997	19.994	102.855	19.975	3.787	0.510
815.500	484.347	79.996	19.994	102.857	19.979	3.481	0.507
816.000	484.595	79.996	19.994	102.861	19.979	3.436	0.477
816.500	484.869	79.997	19.996	102.862	19.980	3.338	0.495
817.000	485.124	79.995	19.993	102.861	19.981	3.263	0.526
817.500	485.348	79.994	19.995	102.862	19.981	3.321	0.504
818.000	485.615	79.995	19.994	102.862	19.984	3.094	0.485
818.500	485.860	79.996	19.990	102.863	19.983	3.130	0.501
819.000	486.106	79.995	19.994	102.862	19.982	3.214	0.501
819.500	486.348	79.996	19.994	102.863	19.981	3.329	0.490
820.000	486.646	79.995	19.993	102.862	19.982	3.233	0.515
820.500	486.867	79.994	19.992	102.859	19.979	3.436	0.530
821.000	487.145	79.995	19.996	102.859	19.981	3.316	0.509
821.500	487.399	79.993	19.992	102.858	19.982	3.181	0.516
822.000	487.636	79.992	19.994	102.860	19.983	3.145	0.511
822.500	487.908	79.997	19.994	102.861	19.980	3.393	0.500
823.000	488.133	79.992	19.997	102.863	19.985	3.019	0.503
823.500	488.397	79.993	19.997	102.863	19.981	3.295	0.493
824.000	488.645	79.995	19.993	102.864	19.981	3.282	0.500
824.500	488.901	79.991	19.995	102.864	19.984	3.057	0.508
825.000	489.163	79.995	19.992	102.864	19.982	3.218	0.511
825.500	489.419	79.993	19.995	102.864	19.983	3.117	0.518
826.000	489.681	79.991	19.993	102.862	19.984	3.083	0.518
826.500	489.919	79.992	19.994	102.863	19.984	3.025	0.509
827.000	490.187	79.996	19.997	102.863	19.981	3.269	0.503
827.500	490.435	79.994	19.995	102.862	19.985	2.997	0.511
828.000	490.669	79.992	19.993	102.861	19.984	3.074	0.499
828.500	490.910	79.993	19.994	102.864	19.980	3.363	0.478
829.000	491.168	79.994	19.993	102.863	19.979	3.421	0.487
829.500	491.426	79.988	19.995	102.862	19.984	3.023	0.507
830.000	491.707	79.993	19.994	102.862	19.984	3.027	0.527
830.500	491.959	79.990	19.997	102.863	19.982	3.179	0.536
831.000	492.219	79.994	19.992	102.863	19.982	3.250	0.523
831.500	492.490	79.991	19.988	102.861	19.984	3.091	0.522
832.000	492.720	80.001	19.992	102.859	19.986	2.916	0.516
832.500	492.996	79.992	19.995	102.859	19.987	2.856	0.504
833.000	493.245	79.993	20.000	102.858	19.988	2.770	0.516
833.500	493.482	79.991	19.998	102.857	19.986	2.931	0.505
834.000	493.756	79.996	19.993	102.858	19.986	2.942	0.498
834.500	493.986	79.992	19.993	102.861	19.988	2.747	0.507
835.000	494.286	79.993	19.996	102.862	19.987	2.847	0.517
835.500	494.555	79.990	19.997	102.864	19.986	2.912	0.549
836.000	494.795	79.994	19.995	102.863	19.989	2.683	0.539
836.500	495.076	79.994	19.994	102.864	19.987	2.850	0.515
837.000	495.320	79.993	19.996	102.862	19.987	2.832	0.523
837.500	495.563	79.992	19.997	102.861	19.988	2.713	0.506
838.000	495.845	79.995	19.995	102.861	19.988	2.753	0.506
838.500	496.068	79.995	19.994	102.862	19.986	2.937	0.515
839.000	496.332	79.991	19.997	102.863	19.990	2.573	0.496
839.500	496.607	79.996	19.995	102.863	19.986	2.935	0.513
840.000	496.871	79.995	19.995	102.860	19.989	2.655	0.539
840.500	497.109	79.999	19.996	102.858	19.988	2.723	0.520
841.000	497.331	79.995	19.999	102.857	19.988	2.740	0.481
841.500	497.589	79.997	19.997	102.857	19.985	2.978	0.471
842.000	497.891	79.995	19.995	102.857	19.989	2.706	0.520
842.500	498.103	79.992	19.994	102.859	19.991	2.537	0.537
843.000	498.375	79.994	19.996	102.861	19.988	2.775	0.499
843.500	498.607	79.996	19.998	102.863	19.984	3.036	0.494
844.000	498.896	79.992	19.996	102.863	19.989	2.652	0.512
844.500	499.118	79.993	19.997	102.863	19.989	2.702	0.516
845.000	499.401	79.993	19.995	102.861	19.986	2.920	0.508
845.500	499.655	79.996	19.993	102.861	19.985	2.969	0.521
846.000	499.881	79.990	19.999	102.859	19.989	2.704	0.509
846.500	500.154	79.994	19.996	102.858	19.984	3.091	0.490
847.000	500.424	79.992	19.998	102.859	19.986	2.892	0.521
847.500	500.685	79.995	19.995	102.860	19.987	2.860	0.537
848.000	500.940	79.995	19.995	102.858	19.989	2.631	0.523
848.500	501.210	79.996	19.997	102.860	19.988	2.755	0.521
849.000	501.473	79.996	19.991	102.862	19.988	2.747	0.529
849.500	501.712	79.993	19.996	102.862	19.988	2.725	0.517
850.000	501.930	79.995	19.994	102.864	19.989	2.638	0.480
850.500	502.197	79.989	20.003	102.865	19.983	3.138	0.472
851.000	502.463	79.996	19.997	102.860	19.984	3.076	0.509
851.500	502.728	79.999	19.994	102.859	19.987	2.809	0.532
852.000	502.974	79.994	19.994	102.858	19.984	3.059	0.521
852.500	503.226	79.994	19.995	102.854	19.986	2.897	0.504
853.000	503.509	79.997	19.997	102.853	19.985	3.008	0.517
853.500	503.780	79.991	19.996	102.857	19.984	3.034	0.544
854.000	504.019	79.991	20.000	102.858	19.983	3.158	0.532
854.500	504.248	79.998	19.994	102.856	19.984	3.034	0.489
855.000	504.506	79.998	19.996	102.857	19.985	2.995	0.477
855.500	504.806	79.994	19.992	102.858	19.984	3.042	0.523
856.000	504.994	79.990	20.000	102.856	19.983	3.173	0.524
856.500	505.305	79.997	19.997	102.854	19.984	3.079	0.493
857.000	505.544	79.994	19.993	102.853	19.984	3.031	0.524
857.500	505.760	79.994	19.996	102.853	19.985	2.961	0.503
858.000	506.060	79.993	19.994	102.852	19.985	3.012	0.486
858.500	506.316	79.994	19.993	102.853	19.983	3.158	0.536
859.000	506.567	79.990	19.997	102.856	19.984	3.051	0.531
859.500	506.818	79.991	19.995	102.859	19.981	3.299	0.504
860.000	507.059	79.981	20.009	102.861	19.981	3.276	0.497
860.500	507.332	79.988	20.000	102.859	19.980	3.380	0.503
861.000	507.589	79.987	20.000	102.858	19.983	3.154	0.522
861.500	507.858	79.998	19.987	102.857	19.983	3.160	0.528
862.000	508.094	79.995	19.994	102.859	19.982	3.222	0.515
862.500	508.373	79.994	19.996	102.860	19.983	3.155	0.511
863.000	508.639	79.994	19.996	102.863	19.984	3.059	0.530
863.500	508.883	79.993	19.997	102.863	19.982	3.248	0.527
864.000	509.142	79.994	19.996	102.863	19.979	3.425	0.506
864.500	509.365	79.992	19.997	102.861	19.981	3.301	0.492
865.000	509.607	79.992	19.998	102.859	19.981	3.312	0.474
865.500	509.914	79.995	19.995	102.858	19.982	3.201	0.507
866.000	510.127	79.988	20.001	102.860	19.982	3.216	0.534
866.500	510.381	79.991	20.001	102.859	19.980	3.340	0.493
867.000	510.640	79.991	20.000	102.859	19.983	3.154	0.490
867.500	510.890	79.991	19.999	102.857	19.978	3.569	0.511
868.000	511.163	79.998	19.997	102.857	19.982	3.239	0.516
868.500	511.442	79.996	19.990	102.856	19.982	3.179	0.537
869.000	511.701	79.993	19.994	102.858	19.980	3.361	0.545
869.500	511.965	79.996	19.995	102.859	19.978	3.567	0.531
870.000	512.194	79.989	20.005	102.862	19.981	3.316	0.508
870.500	512.466	79.997	19.993	102.860	19.984	3.089	0.497
871.000	512.697	79.995	19.998	102.862	19.980	3.404	0.502
871.500	512.982	79.995	19.993	102.860	19.978	3.541	0.509
872.000	513.245	79.993	19.997	102.860	19.977	3.633	0.532
872.500	513.502	79.990	19.999	102.857	19.981	3.280	0.534
873.000	513.795	79.994	19.996	102.856	19.980	3.410	0.535
873.500	514.010	79.993	19.998	102.854	19.981	3.303	0.529
874.000	514.307	79.996	19.994	102.853	19.980	3.413	0.510
874.500	514.555	79.995	19.995	102.853	19.979	3.447	0.529
875.000	514.798	79.992	19.996	102.856	19.982	3.194	0.518
875.500	515.091	79.994	19.993	102.862	19.981	3.271	0.513
876.000	515.346	79.996	19.996	102.864	19.982	3.222	0.542
876.500	515.585	79.996	19.994	102.865	19.980	3.383	0.521
877.000	515.870	79.993	19.997	102.866	19.981	3.329	0.509
877.500	516.139	79.993	19.997	102.864	19.981	3.289	0.539
878.000	516.405	79.994	19.996	102.862	19.981	3.274	0.545
878.500	516.645	79.993	19.994	102.859	19.982	3.188	0.521
879.000	516.893	79.993	19.996	102.859	19.979	3.428	0.497
879.500	517.166	79.992	19.996	102.856	19.981	3.284	0.504
880.000	517.450	79.993	19.995	102.855	19.983	3.111	0.539
880.500	517.684	79.997	19.991	102.858	19.981	3.303	0.538
881.000	517.947	79.996	20.000	102.861	19.982	3.233	0.507
881.500	518.191	79.994	19.995	102.857	19.981	3.308	0.502
882.000	518.471	79.997	19.991	102.855	19.981	3.265	0.515
882.500	518.696	79.998	19.996	102.855	19.985	3.019	0.515
883.000	519.010	79.993	19.994	102.853	19.983	3.177	0.522
883.500	519.281	79.994	19.992	102.853	19.984	3.074	0.562
884.000	519.536	79.995	19.995	102.858	19.983	3.139	0.555
884.500	519.785	79.986	20.001	102.862	19.983	3.111	0.515
885.000	520.053	79.997	19.994	102.862	19.979	3.458	0.510
885.500	520.338	79.994	19.993	102.863	19.982	3.192	0.535
886.000	520.586	79.985	19.996	102.861	19.982	3.222	0.543
886.500	520.845	79.997	19.998	102.861	19.983	3.166	0.520
887.000	521.120	79.995	19.996	102.861	19.983	3.168	0.520
887.500	521.395	80.001	19.992	102.862	19.983	3.162	0.542
888.000	521.636	79.994	19.997	102.863	19.986	2.918	0.533
888.500	521.887	79.995	19.995	102.864	19.983	3.138	0.505
889.000	522.179	79.993	19.996	102.865	19.983	3.177	0.517
889.500	522.418	79.994	19.994	102.864	19.983	3.119	0.537
890.000	522.695	79.993	19.999	102.862	19.984	3.051	0.524
890.500	522.928	79.995	19.995	102.858	19.982	3.239	0.513
891.000	523.180	79.993	19.997	102.855	19.983	3.149	0.497
891.500	523.467	79.998	19.997	102.853	19.983	3.117	0.512
892.000	523.708	79.999	19.992	102.854	19.983	3.145	0.534
892.500	524.020	79.993	19.993	102.857	19.981	3.329	0.541
893.000	524.314	79.995	19.991	102.854	19.981	3.294	0.579
893.500	524.555	79.994	19.989	102.857	19.980	3.367	0.571
894.000	524.810	79.999	19.991	102.858	19.984	3.089	0.515
894.500	525.104	79.996	19.990	102.861	19.984	3.044	0.522
895.000	525.318	79.993	19.995	102.860	19.980	3.365	0.528
895.500	525.575	79.994	19.995	102.861	19.981	3.271	0.489
896.000	525.858	79.993	19.993	102.861	19.981	3.306	0.506
896.500	526.118	79.997	19.993	102.861	19.980	3.381	0.542
897.000	526.408	79.993	19.993	102.861	19.981	3.278	0.547
897.500	526.677	79.995	19.989	102.856	19.982	3.190	0.554
898.000	526.931	79.995	19.992	102.858	19.982	3.237	0.541
898.500	527.161	79.996	19.995	102.858	19.982	3.239	0.503
899.000	527.385	79.994	19.998	102.857	19.982	3.237	0.469
899.500	527.700	79.994	19.994	102.856	19.981	3.271	0.497
900.000	527.959	79.993	19.995	102.860	19.980	3.393	0.557
900.500	528.235	79.993	19.997	102.861	19.981	3.331	0.555
901.000	528.495	79.991	19.997	102.863	19.980	3.385	0.535
901.500	528.802	79.994	19.991	102.862	19.980	3.370	0.552
902.000	529.029	79.995	19.996	102.862	19.982	3.209	0.551
902.500	529.307	79.991	19.995	102.856	19.979	3.460	0.519
903.000	529.553	79.993	19.993	102.853	19.982	3.188	0.514
903.500	529.846	79.994	19.995	102.852	19.984	3.051	0.531
904.000	530.074	79.994	19.995	102.849	19.980	3.378	0.530
904.500	530.308	79.988	19.998	102.845	19.981	3.308	0.492
905.000	530.612	79.994	19.990	102.848	19.979	3.472	0.500
905.500	530.867	79.994	19.999	102.854	19.983	3.141	0.548
906.000	531.141	79.998	19.990	102.853	19.979	3.447	0.544
906.500	531.392	79.995	19.993	102.858	19.979	3.415	0.528
907.000	531.693	79.996	19.993	102.862	19.979	3.440	0.539
907.500	531.920	79.992	19.992	102.864	19.980	3.412	0.540
908.000	532.150	79.995	19.994	102.864	19.982	3.254	0.493
908.500	532.466	80.000	19.994	102.861	19.982	3.232	0.501
909.000	532.715	79.992	19.995	102.857	19.981	3.301	0.555
909.500	532.968	79.996	19.994	102.856	19.980	3.384	0.534
910.000	533.224	79.994	19.989	102.855	19.983	3.172	0.506
910.500	533.469	79.992	19.995	102.855	19.984	3.089	0.505
911.000	533.762	79.996	19.994	102.858	19.987	2.860	0.519
911.500	534.016	79.996	19.996	102.862	19.986	2.928	0.542
912.000	534.302	79.993	19.994	102.861	19.984	3.072	0.543
912.500	534.550	79.994	19.995	102.861	19.981	3.260	0.537
913.000	534.819	79.992	19.997	102.859	19.983	3.166	0.526
913.500	535.095	79.993	19.996	102.857	19.983	3.124	0.531
914.000	535.360	79.992	19.997	102.857	19.983	3.149	0.543
914.500	535.615	79.994	19.996	102.857	19.983	3.119	0.530
915.000	535.863	79.991	19.998	102.857	19.983	3.143	0.512
915.500	536.128	79.992	19.996	102.857	19.982	3.194	0.508
916.000	536.408	79.993	19.997	102.858	19.982	3.185	0.528
916.500	536.656	79.996	19.994	102.858	19.979	3.468	0.536
917.000	536.920	79.996	19.995	102.860	19.984	3.080	0.520
917.500	537.173	79.993	19.996	102.859	19.984	3.063	0.514
918.000	537.455	79.993	19.994	102.856	19.983	3.113	0.526
918.500	537.703	79.992	19.995	102.855	19.984	3.081	0.533
919.000	537.971	79.995	19.995	102.852	19.982	3.194	0.523
919.500	538.182	79.994	19.994	102.847	19.979	3.460	0.497
920.000	538.464	79.990	19.995	102.847	19.981	3.308	0.486
920.500	538.750	79.994	19.995	102.851	19.983	3.113	0.531
921.000	539.012	79.993	19.993	102.849	19.984	3.023	0.558
921.500	539.296	79.995	19.994	102.849	19.987	2.808	0.547
922.000	539.554	79.996	19.994	102.849	19.980	3.380	0.544
922.500	539.762	79.995	19.997	102.848	19.985	2.990	0.504
923.000	540.034	79.995	19.993	102.848	19.984	3.035	0.473
923.500	540.290	79.992	19.997	102.852	19.985	3.006	0.504
924.000	540.567	79.997	19.993	102.856	19.984	3.064	0.531
924.500	540.799	79.988	19.999	102.859	19.978	3.545	0.521
925.000	541.095	80.001	19.993	102.861	19.981	3.293	0.518
925.500	541.408	80.000	19.991	102.858	19.982	3.233	0.568
926.000	541.609	79.992	20.000	102.856	19.984	3.081	0.562
926.500	541.848	79.988	20.000	102.853	19.984	3.091	0.478
927.000	542.160	79.992	19.997	102.848	19.983	3.175	0.496
927.500	542.416	79.993	19.995	102.848	19.983	3.177	0.560
928.000	542.643	79.995	19.997	102.850	19.983	3.126	0.525
928.500	542.927	79.993	19.995	102.850	19.984	3.096	0.496
929.000	543.168	79.994	19.995	102.852	19.985	2.961	0.518
929.500	543.438	79.994	19.995	102.858	19.982	3.196	0.518
930.000	543.686	79.993	19.998	102.859	19.983	3.162	0.515
930.500	543.937	79.990	19.997	102.858	19.986	2.877	0.508
931.000	544.207	79.994	19.998	102.856	19.983	3.106	0.510
931.500	544.456	79.998	19.995	102.851	19.985	2.963	0.520
932.000	544.680	79.996	19.994	102.846	19.985	3.016	0.496
932.500	544.930	79.992	19.999	102.844	19.985	2.954	0.473
933.000	545.194	79.994	19.997	102.841	19.986	2.899	0.494
933.500	545.467	79.993	19.996	102.842	19.982	3.200	0.526
934.000	545.698	79.993	19.997	102.848	19.985	2.989	0.521
934.500	545.979	79.991	19.992	102.853	19.985	2.993	0.508
935.000	546.250	79.993	19.995	102.856	19.985	2.993	0.532
935.500	546.467	79.995	19.996	102.860	19.988	2.772	0.520
936.000	546.730	79.990	19.993	102.860	19.985	2.986	0.484
936.500	546.970	79.990	19.997	102.861	19.984	3.085	0.492
937.000	547.276	79.992	19.995	102.862	19.986	2.914	0.525
937.500	547.502	79.994	19.995	102.861	19.986	2.905	0.539
938.000	547.767	79.992	20.001	102.860	19.983	3.123	0.512
938.500	548.017	79.989	19.992	102.855	19.982	3.220	0.503
939.000	548.254	79.993	19.997	102.853	19.988	2.755	0.501
939.500	548.514	79.992	19.993	102.853	19.988	2.744	0.492
940.000	548.768	79.995	19.993	102.851	19.984	3.020	0.505
940.500	549.061	79.994	19.995	102.851	19.984	3.044	0.530
941.000	549.270	79.995	19.997	102.853	19.986	2.888	0.524
941.500	549.532	79.994	19.996	102.855	19.985	2.950	0.487
942.000	549.830	79.994	19.995	102.855	19.985	3.014	0.516
942.500	550.053	79.994	19.996	102.853	19.987	2.862	0.540
943.000	550.353	79.989	19.996	102.851	19.984	3.076	0.522
943.500	550.571	79.992	19.998	102.853	19.986	2.888	0.521
944.000	550.858	79.995	19.991	102.852	19.985	2.995	0.511
944.500	551.096	80.001	19.993	102.852	19.987	2.790	0.515
945.000	551.348	79.994	19.992	102.856	19.986	2.937	0.508
945.500	551.572	79.993	19.996	102.854	19.985	2.973	0.484
946.000	551.860	79.994	19.996	102.857	19.983	3.121	0.494
946.500	552.099	79.998	19.995	102.853	19.984	3.057	0.519
947.000	552.367	79.994	19.998	102.850	19.982	3.178	0.517
947.500	552.575	79.994	19.995	102.850	19.983	3.168	0.491
948.000	552.848	79.996	19.995	102.854	19.982	3.223	0.478
948.500	553.106	79.989	20.001	102.854	19.980	3.339	0.506
949.000	553.376	79.992	19.999	102.854	19.980	3.369	0.530
949.500	553.615	79.998	19.993	102.854	19.981	3.309	0.519
950.000	553.887	79.991	19.995	102.853	19.982	3.189	0.510
950.500	554.124	79.993	19.999	102.850	19.981	3.326	0.510
951.000	554.377	79.994	19.998	102.848	19.979	3.466	0.500
951.500	554.623	79.999	19.998	102.851	19.981	3.324	0.495
952.000	554.872	79.995	19.995	102.851	19.981	3.288	0.497
952.500	555.139	79.995	19.997	102.854	19.982	3.254	0.505
953.000	555.401	79.992	20.000	102.857	19.983	3.156	0.522
953.500	555.669	79.996	19.997	102.858	19.979	3.479	0.529
954.000	555.903	79.994	19.998	102.858	19.984	3.064	0.516
954.500	556.163	79.996	19.993	102.861	19.979	3.419	0.498
955.000	556.412	79.997	19.994	102.861	19.981	3.263	0.502
955.500	556.678	79.990	19.999	102.861	19.981	3.291	0.512
956.000	556.909	79.993	19.994	102.858	19.982	3.192	0.506
956.500	557.181	79.995	19.996	102.852	19.984	3.074	0.500
957.000	557.360	79.994	19.990	102.846	19.982	3.211	0.477
957.500	557.626	79.992	19.997	102.841	19.984	3.085	0.448
958.000	557.892	79.995	19.997	102.835	19.982	3.194	0.489
958.500	558.132	79.993	19.997	102.835	19.983	3.119	0.519
959.000	558.385	79.997	19.995	102.836	19.983	3.130	0.500
959.500	558.633	79.993	19.996	102.837	19.984	3.089	0.497
960.000	558.828	79.993	20.000	102.837	19.986	2.873	0.472
960.500	559.128	79.990	19.997	102.839	19.984	3.040	0.469
961.000	559.346	79.991	20.002	102.836	19.987	2.819	0.507
961.500	559.597	79.994	19.997	102.841	19.984	3.046	0.494
962.000	559.858	79.994	19.996	102.845	19.984	3.097	0.491
962.500	560.072	79.991	19.996	102.845	19.983	3.117	0.494
963.000	560.340	79.996	19.996	102.846	19.983	3.164	0.478
963.500	560.580	79.993	19.995	102.851	19.984	3.046	0.495
964.000	560.814	79.994	19.997	102.854	19.986	2.922	0.490
964.500	561.052	79.994	19.998	102.856	19.985	3.003	0.473
965.000	561.294	79.996	19.994	102.861	19.983	3.134	0.476
965.500	561.578	79.995	19.994	102.865	19.985	2.973	0.503
966.000	561.808	79.994	19.997	102.866	19.985	2.988	0.520
966.500	562.056	79.993	19.998	102.864	19.986	2.907	0.496
967.000	562.308	79.993	19.994	102.861	19.982	3.213	0.489
967.500	562.566	79.991	19.995	102.861	19.987	2.802	0.505
968.000	562.824	79.992	19.993	102.857	19.985	2.978	0.513
968.500	563.072	79.989	19.998	102.852	19.983	3.115	0.512
969.000	563.317	79.994	19.993	102.850	19.982	3.203	0.500
969.500	563.580	79.996	19.992	102.852	19.984	3.072	0.500
970.000	563.794	79.996	19.996	102.848	19.985	3.010	0.492
970.500	564.057	79.996	19.997	102.846	19.985	3.012	0.476
971.000	564.303	79.992	19.999	102.846	19.982	3.213	0.493
971.500	564.534	80.000	19.992	102.842	19.983	3.099	0.494
972.000	564.804	79.995	19.995	102.837	19.984	3.046	0.489
972.500	565.018	79.997	19.999	102.834	19.984	3.074	0.492
973.000	565.315	79.996	19.993	102.837	19.983	3.108	0.497
973.500	565.547	79.998	19.996	102.839	19.982	3.204	0.520
974.000	565.813	80.000	19.994	102.844	19.983	3.157	0.514
974.500	566.061	79.992	19.997	102.849	19.982	3.251	0.506
975.000	566.274	79.997	19.994	102.853	19.984	3.050	0.487
975.500	566.563	79.993	19.996	102.853	19.983	3.142	0.481
976.000	566.807	79.995	19.993	102.848	19.984	3.059	0.518
976.500	567.044	79.993	20.000	102.846	19.983	3.106	0.507
977.000	567.297	79.995	19.998	102.841	19.980	3.360	0.486
977.500	567.557	79.994	19.996	102.836	19.985	3.005	0.502
978.000	567.814	79.999	19.994	102.837	19.984	3.024	0.516
978.500	568.093	79.995	19.997	102.843	19.984	3.076	0.527
979.000	568.301	79.998	19.994	102.846	19.981	3.297	0.511
979.500	568.566	79.995	19.994	102.850	19.982	3.207	0.480
980.000	568.867	80.000	19.991	102.852	19.983	3.149	0.519
980.500	569.074	79.998	19.991	102.849	19.982	3.207	0.537
981.000	569.326	79.995	19.990	102.844	19.980	3.340	0.483
981.500	569.569	79.996	19.998	102.843	19.982	3.241	0.477
982.000	569.874	79.996	19.998	102.841	19.980	3.342	0.522
982.500	570.096	79.995	20.004	102.841	19.979	3.446	0.538
983.000	570.338	79.994	19.996	102.839	19.983	3.106	0.496
983.500	570.635	80.000	19.994	102.836	19.978	3.534	0.501
984.000	570.886	79.991	20.003	102.834	19.981	3.333	0.544
984.500	571.131	79.996	19.992	102.831	19.977	3.604	0.522
985.000	571.398	79.996	19.993	102.831	19.979	3.442	0.504
985.500	571.629	79.992	19.995	102.835	19.981	3.269	0.505
986.000	571.915	80.000	19.995	102.836	19.979	3.427	0.507
986.500	572.170	79.992	19.999	102.838	19.979	3.414	0.529
987.000	572.417	79.995	19.996	102.839	19.980	3.384	0.522
987.500	572.703	79.993	19.995	102.836	19.977	3.615	0.517
988.000	572.962	79.991	19.995	102.833	19.977	3.587	0.539
988.500	573.215	79.993	19.997	102.835	19.978	3.538	0.529
989.000	573.498	79.992	19.997	102.838	19.979	3.427	0.524
989.500	573.724	79.991	19.997	102.843	19.981	3.303	0.522
990.000	574.043	79.994	19.995	102.848	19.981	3.333	0.527
990.500	574.279	79.992	19.997	102.855	19.979	3.436	0.550
991.000	574.573	79.993	19.995	102.856	19.981	3.286	0.543
991.500	574.805	79.998	19.997	102.853	19.979	3.466	0.528
992.000	575.085	79.996	19.996	102.852	19.979	3.468	0.519
992.500	575.337	79.995	19.998	102.851	19.981	3.288	0.522
993.000	575.583	79.993	19.997	102.848	19.983	3.126	0.515
993.500	575.893	79.995	19.994	102.847	19.979	3.436	0.527
994.000	576.132	79.998	19.992	102.844	19.980	3.380	0.552
994.500	576.370	79.993	19.992	102.840	19.979	3.427	0.513
995.000	576.618	79.993	19.996	102.836	19.981	3.279	0.482
995.500	576.879	79.995	19.995	102.837	19.981	3.260	0.498
996.000	577.136	79.993	19.994	102.842	19.982	3.235	0.514
996.500	577.428	79.992	19.995	102.848	19.981	3.286	0.534
997.000	577.649	79.994	19.997	102.848	19.982	3.204	0.531
997.500	577.929	79.986	19.995	102.845	19.981	3.281	0.507
998.000	578.183	79.992	20.000	102.841	19.981	3.273	0.518
998.500	578.411	79.994	19.996	102.839	19.981	3.266	0.508
999.000	578.682	79.992	20.001	102.839	19.979	3.414	0.490
999.500	578.990	79.993	19.996	102.840	19.982	3.211	0.539
1000.000	579.228	79.990	19.996	102.848	19.980	3.378	0.563
1000.500	579.486	79.997	19.995	102.854	19.980	3.339	0.521
1001.000	579.770	80.000	19.996	102.854	19.982	3.251	0.519
1001.500	580.023	79.995	19.994	102.852	19.980	3.350	0.539
1002.000	580.261	79.994	19.994	102.858	19.980	3.339	0.514
1002.500	580.533	79.999	19.994	102.858	19.979	3.419	0.500
1003.000	580.804	79.994	19.996	102.857	19.981	3.312	0.527
1003.500	581.067	79.995	19.995	102.858	19.979	3.479	0.538
1004.000	581.330	79.995	19.994	102.860	19.977	3.581	0.530
1004.500	581.608	79.996	19.992	102.854	19.977	3.607	0.534
1005.000	581.868	79.994	19.995	102.852	19.981	3.292	0.540
1005.500	582.114	79.995	19.997	102.852	19.981	3.333	0.522
1006.000	582.380	79.996	19.995	102.849	19.980	3.369	0.508
1006.500	582.650	79.994	19.995	102.846	19.978	3.560	0.524
1007.000	582.899	79.994	19.997	102.848	19.978	3.568	0.528
1007.500	583.152	79.992	19.998	102.847	19.977	3.577	0.511
1008.000	583.439	79.993	19.997	102.843	19.982	3.249	0.521
1008.500	583.703	79.995	19.992	102.840	19.977	3.605	0.545
1009.000	583.975	79.993	19.995	102.839	19.978	3.562	0.543
1009.500	584.213	79.996	19.996	102.839	19.981	3.295	0.523
1010.000	584.483	79.995	19.994	102.838	19.980	3.368	0.509
1010.500	584.748	79.994	19.995	102.837	19.979	3.490	0.522
1011.000	584.975	79.994	19.994	102.842	19.978	3.522	0.514
1011.500	585.273	79.994	19.997	102.842	19.981	3.310	0.509
1012.000	585.520	79.993	19.993	102.839	19.980	3.404	0.535
1012.500	585.814	79.992	19.995	102.841	19.981	3.331	0.543
1013.000	586.083	79.991	19.998	102.844	19.980	3.404	0.552
1013.500	586.315	79.996	19.993	102.846	19.978	3.547	0.532
1014.000	586.596	79.990	20.000	102.852	19.975	3.793	0.507
1014.500	586.833	79.992	19.995	102.854	19.979	3.477	0.515
1015.000	587.124	79.994	19.994	102.851	19.983	3.130	0.523
1015.500	587.364	79.991	19.995	102.850	19.983	3.113	0.529
1016.000	587.658	79.991	19.995	102.849	19.981	3.316	0.533
1016.500	587.863	79.991	19.999	102.845	19.984	3.070	0.517
1017.000	588.140	79.996	19.993	102.844	19.983	3.149	0.491
1017.500	588.391	79.992	19.992	102.844	19.979	3.472	0.505
1018.000	588.633	79.988	19.993	102.845	19.981	3.256	0.510
1018.500	588.926	79.991	19.993	102.841	19.983	3.143	0.514
1019.000	589.191	79.992	19.993	102.843	19.984	3.072	0.547
1019.500	589.433	79.991	19.995	102.846	19.980	3.344	0.533
1020.000	589.705	79.991	19.996	102.851	19.982	3.215	0.511
1020.500	590.002	79.988	19.997	102.854	19.982	3.185	0.542
1021.000	590.259	79.992	19.991	102.859	19.982	3.211	0.562
1021.500	590.487	79.990	19.985	102.861	19.982	3.200	0.520
1022.000	590.731	79.994	19.993	102.863	19.983	3.151	0.478
1022.500	591.008	79.993	19.995	102.859	19.980	3.360	0.496
1023.000	591.220	79.992	19.996	102.855	19.982	3.249	0.505
1023.500	591.527	79.995	19.997	102.852	19.981	3.311	0.504
1024.000	591.786	79.994	19.994	102.847	19.981	3.290	0.543
1024.499	592.082	79.993	19.994	102.847	19.983	3.155	0.561
1024.999	592.342	79.993	19.993	102.850	19.980	3.358	0.555
1025.500	592.572	79.996	19.991	102.855	19.983	3.157	0.523
1026.000	592.840	79.992	19.994	102.853	19.982	3.236	0.494
1026.499	593.145	79.998	19.994	102.858	19.982	3.209	0.536
1026.999	593.332	79.995	19.993	102.854	19.980	3.367	0.533
1027.499	593.596	79.993	19.998	102.858	19.984	3.089	0.471
1027.999	593.866	79.992	19.991	102.857	19.981	3.279	0.493
1028.499	594.172	79.993	19.994	102.859	19.979	3.444	0.555
1028.999	594.392	79.996	19.999	102.853	19.985	2.947	0.550
1029.499	594.699	79.996	19.992	102.849	19.982	3.206	0.526
1029.999	594.927	79.998	19.992	102.844	19.983	3.127	0.531
1030.500	595.207	79.998	19.994	102.844	19.981	3.260	0.521
1031.000	595.473	79.993	20.001	102.843	19.981	3.262	0.527
1031.499	595.718	79.996	19.997	102.844	19.982	3.204	0.529
1031.999	595.978	79.995	20.002	102.845	19.985	2.992	0.508
1032.499	596.259	79.995	19.995	102.842	19.983	3.129	0.523
1032.999	596.452	79.998	19.997	102.837	19.982	3.238	0.508
1033.499	596.756	79.988	19.998	102.838	19.982	3.213	0.485
1033.999	597.030	79.995	19.998	102.840	19.980	3.343	0.537
1034.499	597.263	79.995	19.996	102.840	19.983	3.157	0.543
1034.999	597.539	79.997	19.992	102.839	19.983	3.155	0.508
1035.499	597.786	79.992	20.001	102.842	19.982	3.224	0.516
1035.999	598.032	79.996	19.996	102.838	19.982	3.194	0.508
1036.499	598.303	79.996	19.993	102.836	19.981	3.292	0.505
1036.999	598.538	79.994	19.995	102.838	19.980	3.403	0.511
1037.499	598.835	79.995	19.994	102.843	19.981	3.303	0.519
1037.999	599.074	79.991	19.999	102.839	19.983	3.164	0.534
1038.499	599.316	79.994	19.995	102.836	19.985	2.971	0.509
1038.999	599.626	79.996	19.988	102.837	19.982	3.243	0.517
1039.499	599.832	79.997	19.996	102.836	19.984	3.082	0.534
1039.999	600.097	79.998	19.994	102.834	19.982	3.250	0.493
1040.499	600.373	79.996	19.994	102.838	19.981	3.258	0.506
1040.999	600.589	79.993	19.996	102.842	19.982	3.230	0.516
1041.499	600.857	79.996	19.996	102.838	19.980	3.346	0.488
1041.999	601.137	79.989	19.999	102.835	19.981	3.296	0.516
1042.499	601.407	79.991	19.996	102.832	19.977	3.639	0.549
1042.999	601.655	79.997	20.000	102.827	19.978	3.521	0.534
1043.499	601.900	79.995	19.996	102.825	19.978	3.547	0.506
1043.999	602.156	79.989	19.999	102.829	19.980	3.378	0.497
1044.499	602.408	79.992	19.996	102.829	19.982	3.191	0.505
1044.999	602.670	79.995	19.994	102.831	19.979	3.487	0.511
1045.499	602.930	79.997	19.995	102.838	19.981	3.264	0.518
1046.000	603.183	79.995	19.995	102.841	19.978	3.525	0.517
1046.500	603.421	79.995	19.996	102.840	19.978	3.540	0.502
1046.999	603.690	79.994	19.995	102.842	19.979	3.470	0.499
1047.499	603.937	79.993	19.996	102.843	19.980	3.406	0.511
1047.999	604.171	79.993	19.996	102.838	19.980	3.395	0.499
1048.499	604.449	79.999	19.997	102.835	19.978	3.536	0.497
1048.999	604.701	79.993	19.999	102.838	19.985	2.977	0.521
1049.499	604.921	79.992	19.998	102.843	19.982	3.185	0.501
1049.999	605.200	79.993	20.001	102.843	19.982	3.249	0.486
1050.499	605.484	79.994	19.989	102.843	19.980	3.350	0.531
1050.999	605.736	79.996	19.998	102.849	19.979	3.459	0.549
1051.499	605.999	79.989	19.999	102.845	19.980	3.360	0.526
1051.999	606.265	79.996	19.999	102.839	19.981	3.264	0.522
1052.499	606.458	79.988	20.005	102.842	19.982	3.236	0.494
1052.999	606.762	79.997	19.994	102.842	19.979	3.489	0.478
1053.499	607.004	79.997	20.000	102.836	19.982	3.206	0.521
1053.999	607.283	79.995	19.993	102.836	19.979	3.446	0.533
1054.499	607.489	79.995	19.998	102.838	19.981	3.277	0.503
1054.999	607.755	79.995	19.996	102.835	19.980	3.377	0.479
1055.499	608.024	79.995	19.997	102.838	19.983	3.172	0.503
1055.999	608.253	79.995	19.998	102.840	19.980	3.362	0.516
1056.499	608.516	79.994	19.997	102.839	19.980	3.386	0.495
1056.999	608.803	79.997	19.995	102.840	19.978	3.566	0.521
1057.499	609.061	79.993	19.999	102.844	19.980	3.393	0.548
1057.999	609.288	79.995	19.992	102.843	19.981	3.275	0.515
1058.499	609.512	80.000	19.996	102.842	19.983	3.166	0.468
1058.999	609.795	79.996	19.995	102.843	19.981	3.256	0.479
1059.499	610.041	79.996	19.996	102.842	19.982	3.230	0.518
1059.999	610.280	79.993	19.995	102.837	19.975	3.761	0.507
1060.499	610.545	79.993	19.994	102.832	19.980	3.359	0.494
1060.999	610.830	79.994	19.993	102.832	19.978	3.517	0.527
1061.499	611.088	79.993	19.993	102.831	19.983	3.125	0.546
1062.000	611.327	79.992	19.998	102.831	19.980	3.390	0.520
1062.500	611.622	79.991	19.996	102.830	19.976	3.681	0.515
1062.999	611.895	79.999	19.994	102.832	19.980	3.360	0.551
1063.499	612.113	79.996	19.995	102.837	19.980	3.348	0.529
1063.999	612.410	79.991	19.997	102.841	19.977	3.609	0.503
1064.499	612.616	79.994	19.997	102.838	19.980	3.352	0.509
1065.000	612.899	79.989	19.996	102.837	19.982	3.243	0.496
1065.500	613.135	79.994	19.999	102.835	19.980	3.360	0.504
1065.999	613.398	79.996	19.997	102.829	19.978	3.555	0.509
1066.499	613.658	79.999	19.994	102.827	19.979	3.448	0.511
1066.999	613.932	79.994	19.998	102.830	19.980	3.371	0.528
1067.499	614.157	79.995	19.997	102.836	19.977	3.609	0.517
1067.999	614.447	79.994	19.993	102.843	19.980	3.352	0.507
1068.499	614.701	79.993	19.994	102.849	19.979	3.425	0.530
1068.999	614.949	79.992	19.994	102.850	19.979	3.440	0.523
1069.499	615.227	79.993	19.997	102.853	19.980	3.337	0.514
1069.999	615.479	79.994	19.993	102.854	19.983	3.117	0.529
1070.499	615.694	79.990	19.996	102.851	19.984	3.072	0.499
1070.999	615.953	79.989	19.999	102.850	19.982	3.206	0.471
1071.499	616.249	79.990	19.997	102.847	19.977	3.617	0.514
1072.000	616.459	79.993	19.994	102.840	19.984	3.046	0.530
1072.500	616.743	79.994	19.994	102.835	19.982	3.228	0.500
1072.999	617.009	79.995	19.995	102.834	19.983	3.176	0.522
1073.499	617.290	79.998	19.991	102.831	19.985	2.969	0.549
1073.999	617.511	79.992	19.995	102.835	19.983	3.151	0.525
1074.499	617.785	79.995	19.996	102.838	19.983	3.177	0.499
1074.999	618.028	79.993	19.996	102.838	19.984	3.059	0.505
1075.499	618.294	79.994	19.998	102.836	19.982	3.194	0.513
1075.999	618.550	79.991	19.996	102.835	19.981	3.273	0.515
1076.499	618.775	79.989	19.996	102.830	19.982	3.222	0.502
1076.999	619.048	80.000	19.989	102.827	19.983	3.145	0.490
1077.499	619.300	79.994	19.993	102.831	19.983	3.175	0.512
1077.999	619.554	79.987	20.006	102.837	19.981	3.288	0.515
1078.499	619.815	79.990	20.000	102.840	19.982	3.207	0.510
1078.999	620.084	79.994	19.995	102.844	19.979	3.463	0.523
1079.499	620.303	79.994	19.994	102.846	19.984	3.042	0.509
1079.999	620.590	79.994	19.994	102.845	19.982	3.198	0.497
1080.499	620.842	79.995	19.996	102.840	19.981	3.271	0.522
1080.999	621.109	79.993	19.994	102.839	19.981	3.260	0.529
1081.499	621.353	79.995	19.995	102.837	19.983	3.172	0.515
1081.999	621.577	79.992	19.996	102.836	19.978	3.493	0.489
1082.500	621.856	79.996	19.995	102.833	19.981	3.330	0.485
1083.000	622.106	79.992	20.000	102.832	19.985	3.005	0.516
1083.499	622.389	79.993	19.995	102.833	19.982	3.198	0.531
1083.999	622.620	79.995	19.995	102.834	19.983	3.151	0.523
1084.499	622.900	79.993	19.997	102.837	19.981	3.273	0.513
1084.999	623.148	79.995	19.994	102.845	19.981	3.297	0.520
1085.499	623.411	79.994	19.993	102.852	19.981	3.269	0.519
1085.999	623.673	79.995	19.992	102.858	19.981	3.327	0.518
1086.499	623.972	79.993	19.992	102.860	19.982	3.233	0.543
1086.999	624.176	79.990	19.996	102.859	19.983	3.115	0.532
1087.499	624.457	79.994	19.994	102.856	19.982	3.239	0.494
1087.999	624.694	79.994	19.994	102.853	19.983	3.170	0.502
1088.499	624.949	79.992	19.995	102.846	19.982	3.190	0.505
1088.999	625.169	79.993	19.995	102.841	19.985	3.018	0.484
1089.499	625.469	79.991	19.994	102.843	19.982	3.192	0.497
1090.000	625.721	79.993	19.995	102.843	19.989	2.676	0.536
1090.500	625.964	79.993	19.998	102.843	19.984	3.050	0.523
1090.999	626.207	79.996	19.993	102.842	19.984	3.057	0.490
1091.499	626.459	79.994	19.995	102.845	19.986	2.888	0.491
1091.999	626.725	79.993	19.994	102.842	19.986	2.931	0.507
1092.499	626.979	79.993	19.995	102.839	19.984	3.097	0.519
1092.999	627.249	79.992	19.997	102.836	19.987	2.787	0.522
1093.499	627.516	79.991	19.994	102.835	19.986	2.913	0.530
1093.999	627.763	79.996	19.995	102.836	19.980	3.348	0.525
1094.499	628.014	79.993	19.996	102.839	19.982	3.198	0.506
1094.999	628.212	79.994	19.995	102.844	19.985	2.964	0.473
1095.499	628.531	79.996	19.996	102.848	19.984	3.052	0.482
1095.999	628.780	79.992	19.996	102.854	19.985	3.012	0.542
1096.499	628.989	79.992	19.996	102.852	19.985	2.988	0.513
1096.999	629.270	79.995	19.996	102.854	19.984	3.024	0.474
1097.499	629.562	79.992	19.995	102.853	19.983	3.104	0.532
1097.999	629.777	79.994	19.995	102.854	19.983	3.108	0.540
1098.499	629.995	79.991	19.995	102.854	19.983	3.104	0.470
1098.999	630.295	79.992	19.996	102.851	19.986	2.933	0.476
1099.499	630.547	79.992	19.995	102.847	19.985	2.982	0.535
1099.999	630.814	79.992	19.996	102.849	19.983	3.162	0.535
1100.500	631.072	79.993	19.994	102.844	19.982	3.179	0.522
1101.000	631.338	79.993	19.995	102.839	19.982	3.221	0.525
1101.499	631.603	79.992	19.997	102.844	19.984	3.027	0.527
1101.999	631.844	79.995	19.994	102.848	19.983	3.140	0.519
1102.499	632.140	79.993	19.994	102.845	19.980	3.361	0.522
1102.999	632.373	79.992	19.994	102.849	19.982	3.236	0.533
1103.499	632.587	79.993	19.997	102.847	19.983	3.104	0.488
1103.999	632.881	79.997	19.996	102.844	19.980	3.335	0.478
1104.499	633.146	79.994	19.995	102.840	19.981	3.311	0.534
1104.999	633.411	79.994	19.996	102.836	19.980	3.395	0.544
1105.499	633.636	79.994	19.995	102.832	19.980	3.388	0.510
1105.999	633.927	79.992	19.993	102.834	19.982	3.210	0.503
1106.499	634.170	79.992	19.996	102.835	19.980	3.392	0.525
1106.999	634.458	80.002	19.993	102.837	19.983	3.127	0.532
1107.499	634.691	79.990	20.001	102.840	19.982	3.243	0.526
1107.999	634.921	79.989	19.994	102.838	19.982	3.232	0.492
1108.499	635.178	79.994	19.998	102.840	19.984	3.086	0.475
1108.999	635.465	79.995	19.995	102.841	19.981	3.288	0.516
1109.499	635.718	79.994	19.996	102.844	19.982	3.189	0.542
1109.999	635.952	79.996	19.995	102.845	19.981	3.307	0.513
1110.499	636.243	79.997	19.997	102.847	19.983	3.172	0.506
1110.999	636.492	79.999	19.990	102.844	19.983	3.104	0.533
1111.499	636.719	79.998	19.992	102.842	19.980	3.386	0.508
1111.999	636.971	79.994	19.995	102.840	19.982	3.204	0.477
1112.499	637.207	79.994	19.994	102.841	19.981	3.275	0.484
1112.999	637.481	79.996	20.000	102.840	19.982	3.200	0.499
1113.499	637.734	79.995	19.996	102.840	19.980	3.341	0.518
1113.999	638.024	79.995	19.993	102.838	19.979	3.431	0.535
1114.499	638.260	79.995	19.993	102.837	19.985	3.011	0.534
1114.999	638.473	79.993	19.992	102.834	19.980	3.345	0.487
1115.499	638.752	80.001	19.991	102.834	19.980	3.373	0.471
1115.999	639.018	79.997	19.999	102.833	19.977	3.587	0.519
1116.499	639.225	79.995	20.001	102.833	19.982	3.221	0.509
1116.999	639.499	79.996	19.999	102.829	19.982	3.195	0.477
1117.499	639.743	79.996	19.994	102.827	19.980	3.352	0.499
1117.999	640.005	79.993	19.994	102.828	19.982	3.187	0.511
1118.499	640.237	79.995	19.996	102.832	19.978	3.559	0.500
1118.999	640.460	79.992	19.999	102.832	19.981	3.279	0.475
1119.499	640.756	79.994	19.992	102.834	19.980	3.371	0.487
1119.999	640.983	79.994	19.995	102.835	19.980	3.391	0.521
1120.499	641.268	79.994	19.997	102.833	19.979	3.416	0.517
1120.999	641.511	79.995	19.996	102.827	19.983	3.162	0.520
1121.499	641.773	79.996	19.996	102.831	19.983	3.166	0.516
1121.999	642.011	79.999	19.993	102.836	19.978	3.545	0.503
1122.499	642.285	79.996	19.996	102.837	19.980	3.363	0.506
1122.999	642.541	79.991	19.997	102.838	19.982	3.211	0.521
1123.499	642.784	79.994	19.996	102.837	19.983	3.140	0.515
1123.999	643.025	79.995	19.995	102.831	19.980	3.408	0.492
1124.499	643.266	79.995	19.995	102.827	19.981	3.262	0.483
1125.000	643.532	79.994	19.997	102.827	19.980	3.380	0.494
1125.500	643.770	79.991	19.993	102.827	19.981	3.262	0.505
1125.999	644.000	79.995	19.992	102.829	19.981	3.290	0.486
1126.499	644.260	79.992	19.996	102.831	19.980	3.343	0.479
1127.000	644.500	79.993	20.000	102.832	19.983	3.140	0.495
1127.500	644.736	79.995	19.997	102.829	19.981	3.277	0.488
1127.999	644.989	79.993	19.996	102.828	19.980	3.362	0.482
1128.499	645.255	79.993	19.998	102.827	19.982	3.230	0.504
1128.999	645.487	79.995	19.995	102.825	19.981	3.292	0.509
1129.500	645.741	79.995	19.998	102.828	19.982	3.198	0.492
1130.000	645.999	79.993	19.995	102.831	19.981	3.279	0.499
1130.499	646.266	79.996	19.995	102.837	19.979	3.450	0.518
1130.999	646.503	79.992	19.994	102.844	19.984	3.044	0.514
1131.499	646.745	79.992	19.998	102.845	19.982	3.202	0.492
1131.999	647.016	79.992	19.998	102.843	19.984	3.084	0.496
1132.499	647.270	79.994	19.992	102.841	19.979	3.424	0.519
1132.999	647.533	79.996	19.996	102.841	19.983	3.108	0.521
1133.499	647.758	79.995	19.995	102.836	19.983	3.176	0.503
1133.999	648.014	79.992	19.994	102.836	19.981	3.266	0.485
1134.499	648.260	79.995	19.996	102.841	19.984	3.095	0.491
1134.999	648.502	79.996	19.996	102.845	19.982	3.196	0.495
1135.499	648.768	79.996	19.995	102.838	19.978	3.525	0.498
1135.999	649.013	79.994	19.993	102.838	19.982	3.178	0.509
1136.499	649.286	79.996	19.996	102.840	19.980	3.384	0.514
1136.999	649.572	79.995	19.996	102.835	19.981	3.296	0.539
1137.499	649.808	79.994	19.994	102.830	19.982	3.232	0.541
1137.999	650.051	79.993	19.995	102.831	19.980	3.339	0.500
1138.499	650.288	79.998	19.993	102.830	19.982	3.183	0.479
1138.999	650.544	79.998	19.992	102.828	19.980	3.356	0.487
1139.499	650.828	79.998	19.993	102.828	19.982	3.219	0.517
1139.999	651.066	79.995	20.000	102.831	19.981	3.298	0.531
1140.499	651.314	79.992	19.998	102.833	19.982	3.217	0.504
1140.999	651.590	79.997	19.997	102.835	19.984	3.086	0.505
1141.499	651.828	79.996	19.996	102.835	19.981	3.302	0.519
1141.999	652.085	79.996	19.989	102.834	19.985	2.986	0.504
1142.499	652.321	79.996	19.997	102.833	19.984	3.078	0.494
1142.999	652.594	79.995	19.997	102.831	19.984	3.041	0.501
1143.499	652.839	79.992	20.001	102.832	19.982	3.187	0.514
1143.999	653.076	79.992	19.998	102.833	19.983	3.127	0.500
1144.499	653.354	79.989	20.000	102.833	19.978	3.512	0.498
1144.999	653.643	79.989	19.999	102.830	19.981	3.275	0.541
1145.499	653.864	79.998	19.996	102.833	19.980	3.377	0.539
1145.999	654.124	79.998	19.999	102.834	19.977	3.572	0.496
1146.499	654.364	79.990	19.997	102.832	19.981	3.292	0.490
1146.999	654.641	79.989	20.001	102.835	19.981	3.292	0.508
1147.499	654.932	79.993	19.994	102.835	19.980	3.412	0.543
1147.999	655.172	79.991	19.999	102.834	19.983	3.110	0.549
1148.499	655.408	79.993	19.996	102.834	19.984	3.063	0.503
1148.999	655.667	79.994	19.997	102.837	19.983	3.170	0.486
1149.499	655.880	79.991	19.995	102.839	19.984	3.069	0.483
1149.999	656.161	79.993	19.995	102.840	19.980	3.367	0.483
1150.499	656.419	79.994	19.995	102.839	19.983	3.129	0.516
1150.999	656.682	79.993	19.995	102.836	19.980	3.356	0.530
1151.499	656.992	79.998	19.991	102.835	19.980	3.394	0.547
1151.999	657.186	79.988	19.999	102.832	19.981	3.257	0.539
1152.499	657.438	79.998	19.995	102.831	19.981	3.294	0.475
1152.999	657.686	79.992	19.999	102.831	19.981	3.264	0.473
1153.499	657.955	79.993	19.998	102.831	19.983	3.131	0.509
1153.999	658.223	79.991	19.997	102.829	19.982	3.181	0.527
1154.499	658.484	79.993	19.994	102.828	19.981	3.292	0.533
1154.999	658.766	79.993	19.997	102.829	19.982	3.243	0.536
1155.499	658.987	79.993	19.997	102.828	19.981	3.256	0.523
1155.999	659.257	79.993	19.995	102.829	19.980	3.363	0.497
1156.499	659.503	79.987	20.004	102.829	19.981	3.266	0.504
1156.999	659.741	79.993	19.996	102.828	19.981	3.326	0.500
1157.499	660.010	79.993	19.997	102.828	19.983	3.103	0.495
1157.999	660.278	79.994	19.994	102.828	19.981	3.319	0.522
1158.499	660.498	79.992	19.987	102.830	19.980	3.334	0.512
1158.999	660.802	79.993	19.996	102.831	19.982	3.217	0.506
1159.499	661.011	79.994	19.997	102.833	19.980	3.364	0.519
1159.999	661.278	79.993	19.995	102.836	19.980	3.337	0.495
1160.499	661.537	79.992	19.996	102.836	19.982	3.187	0.501
1160.999	661.776	79.994	19.996	102.834	19.980	3.379	0.511
1161.499	662.044	79.994	19.996	102.833	19.982	3.219	0.502
1161.999	662.280	79.995	19.995	102.830	19.982	3.247	0.506
1162.499	662.538	79.995	19.994	102.827	19.982	3.200	0.500
1162.999	662.815	79.992	19.994	102.825	19.984	3.048	0.515
1163.499	663.069	79.996	19.993	102.826	19.983	3.129	0.533
1163.999	663.285	79.993	19.994	102.828	19.985	2.981	0.500
1164.499	663.569	79.994	19.995	102.832	19.984	3.063	0.485
1164.999	663.785	79.996	19.992	102.835	19.981	3.268	0.500
1165.499	664.062	79.996	19.994	102.840	19.983	3.101	0.496
1165.999	664.312	79.998	19.996	102.840	19.982	3.234	0.510
1166.499	664.563	79.998	19.993	102.837	19.983	3.103	0.514
1166.999	664.838	79.990	19.994	102.834	19.980	3.367	0.513
1167.500	665.062	79.992	19.996	102.833	19.983	3.133	0.513
1168.000	665.299	79.991	19.997	102.829	19.984	3.033	0.480
1168.499	665.539	79.995	19.998	102.828	19.980	3.358	0.469
1168.999	665.836	79.997	19.990	102.827	19.983	3.099	0.507
1169.500	666.101	79.995	19.994	102.829	19.982	3.202	0.549
1170.000	666.304	79.994	19.998	102.827	19.980	3.382	0.515
1170.499	666.538	79.992	19.997	102.825	19.985	2.994	0.453
1170.999	666.822	79.995	19.995	102.827	19.985	2.990	0.478
1171.499	667.058	79.995	19.996	102.829	19.982	3.183	0.519
1171.999	667.303	79.995	19.996	102.827	19.979	3.418	0.501
1172.499	667.558	79.992	19.995	102.826	19.980	3.382	0.491
1172.999	667.819	79.994	19.997	102.827	19.986	2.874	0.508
1173.499	668.071	79.994	19.993	102.828	19.985	2.994	0.514
1173.999	668.290	79.992	19.996	102.828	19.979	3.424	0.492
1174.499	668.548	79.994	19.997	102.828	19.981	3.313	0.474
1174.999	668.799	79.994	19.996	102.828	19.983	3.153	0.493
1175.500	669.074	79.993	19.994	102.828	19.984	3.056	0.518
1176.000	669.328	79.994	19.995	102.828	19.982	3.225	0.527
1176.499	669.601	79.994	19.996	102.828	19.981	3.262	0.528
1176.999	669.835	79.997	19.995	102.829	19.984	3.024	0.517
1177.499	670.077	79.991	19.998	102.830	19.982	3.183	0.491
1177.999	670.330	79.996	19.995	102.830	19.984	3.033	0.486
1178.499	670.556	79.993	19.998	102.828	19.983	3.114	0.487
1178.999	670.849	79.995	19.997	102.828	19.987	2.847	0.499
1179.499	671.094	79.993	19.997	102.826	19.983	3.127	0.528
1179.999	671.326	79.992	19.995	102.826	19.985	2.988	0.507
1180.499	671.611	79.994	19.996	102.826	19.987	2.862	0.497
1180.999	671.842	79.993	19.995	102.827	19.983	3.127	0.517
1181.499	672.127	79.992	19.994	102.827	19.984	3.061	0.516
1181.999	672.337	79.992	19.996	102.830	19.986	2.902	0.505
1182.499	672.619	79.992	19.995	102.831	19.981	3.255	0.494
1182.999	672.869	79.993	19.996	102.830	19.987	2.821	0.512
1183.499	673.116	79.992	19.996	102.830	19.985	3.005	0.514
1183.999	673.369	79.995	19.996	102.829	19.984	3.058	0.498
1184.499	673.622	79.997	19.993	102.828	19.984	3.022	0.504
1184.999	673.862	79.996	19.994	102.829	19.980	3.343	0.500
1185.499	674.133	79.992	19.999	102.830	19.981	3.328	0.502
1185.999	674.386	79.990	19.998	102.830	19.985	2.958	0.517
1186.499	674.674	79.995	19.996	102.831	19.981	3.266	0.533
1186.999	674.894	79.994	19.996	102.831	19.980	3.341	0.525
1187.499	675.198	79.992	19.999	102.830	19.983	3.170	0.516
1187.999	675.411	79.994	19.995	102.828	19.978	3.553	0.520
1188.500	675.695	79.995	19.994	102.828	19.980	3.360	0.507
1189.000	675.914	79.995	19.995	102.828	19.979	3.420	0.500
1189.499	676.199	79.995	19.996	102.827	19.982	3.221	0.504
1189.999	676.403	79.994	19.995	102.828	19.980	3.384	0.496
1190.499	676.662	79.994	19.995	102.832	19.987	2.853	0.476
1190.999	676.939	79.997	19.996	102.833	19.982	3.238	0.500
1191.499	677.209	79.995	19.996	102.833	19.980	3.335	0.542
1191.999	677.446	79.996	19.995	102.835	19.979	3.422	0.527
1192.499	677.663	79.994	19.996	102.833	19.980	3.409	0.481
1192.999	677.967	79.995	19.995	102.829	19.973	3.923	0.487
1193.499	678.225	79.996	19.994	102.828	19.977	3.604	0.542
1193.999	678.447	79.995	19.994	102.828	19.980	3.337	0.521
1194.499	678.705	79.995	19.993	102.826	19.978	3.495	0.480
1194.999	678.965	79.992	19.995	102.831	19.975	3.771	0.499
1195.499	679.220	79.994	19.996	102.835	19.977	3.583	0.517
1195.999	679.503	79.995	19.994	102.835	19.977	3.636	0.527
1196.499	679.662	79.995	19.994	102.836	19.979	3.457	0.490
1196.999	679.923	79.993	19.997	102.840	19.975	3.778	0.431
1197.499	680.158	79.993	19.997	102.838	19.978	3.519	0.458
1197.999	680.401	79.995	19.995	102.834	19.980	3.390	0.487
1198.499	680.662	79.994	19.997	102.834	19.977	3.581	0.491
1198.999	680.941	79.992	19.994	102.833	19.981	3.328	0.523
1199.499	681.151	79.992	19.997	102.830	19.974	3.848	0.515
1199.999	681.466	79.996	19.998	102.827	19.977	3.645	0.507
1200.499	681.724	79.997	19.988	102.826	19.974	3.812	0.548
1200.999	681.968	79.993	19.991	102.830	19.972	3.998	0.537
1201.499	682.199	79.998	19.995	102.831	19.975	3.754	0.489
1202.000	682.439	79.989	19.997	102.830	19.978	3.508	0.473
1202.500	682.680	79.993	19.987	102.829	19.973	3.951	0.476
1202.999	682.974	79.995	19.997	102.832	19.976	3.690	0.508
1203.499	683.171	79.994	19.995	102.828	19.975	3.747	0.513
1203.999	683.464	79.992	19.995	102.829	19.975	3.760	0.490
1204.499	683.703	79.991	19.997	102.829	19.969	4.244	0.511
1204.999	683.912	79.990	19.994	102.827	19.977	3.587	0.490
1205.499	684.190	79.988	20.000	102.824	19.975	3.782	0.468
1205.999	684.447	79.995	19.993	102.823	19.977	3.572	0.511
1206.499	684.690	79.992	19.994	102.823	19.976	3.715	0.517
1206.999	684.933	79.993	19.988	102.826	19.978	3.493	0.493
1207.499	685.231	79.993	19.998	102.830	19.975	3.758	0.514
1207.999	685.463	79.993	19.997	102.832	19.977	3.645	0.536
1208.499	685.722	79.994	19.992	102.832	19.979	3.446	0.510
1208.999	685.957	79.996	19.993	102.835	19.977	3.640	0.492
1209.499	686.175	79.990	19.995	102.835	19.977	3.613	0.473
1209.999	686.466	79.995	19.997	102.835	19.980	3.411	0.481
1210.499	686.678	79.990	19.995	102.834	19.977	3.621	0.507
1210.999	686.941	79.990	19.992	102.835	19.980	3.386	0.489
1211.499	687.212	79.994	19.994	102.833	19.978	3.536	0.504
1211.999	687.435	79.998	19.998	102.830	19.980	3.358	0.514
1212.499	687.688	79.995	19.997	102.828	19.979	3.435	0.485
1212.999	687.903	79.993	19.999	102.828	19.980	3.366	0.472
1213.499	688.131	79.984	20.002	102.827	19.980	3.347	0.456
1213.999	688.392	79.996	20.000	102.825	19.980	3.411	0.466
1214.499	688.611	79.994	19.995	102.823	19.977	3.642	0.484
1214.999	688.852	79.994	19.994	102.824	19.984	3.095	0.470
1215.499	689.079	79.991	19.992	102.824	19.979	3.420	0.464
1215.999	689.328	79.993	20.001	102.825	19.981	3.262	0.472
1216.499	689.588	79.991	19.997	102.826	19.985	2.973	0.492
1216.999	689.849	79.996	19.996	102.826	19.981	3.326	0.514
1217.499	690.096	79.996	19.996	102.826	19.980	3.366	0.514
1217.999	690.345	79.995	19.997	102.825	19.979	3.471	0.502
1218.499	690.571	80.001	19.992	102.824	19.985	3.015	0.486
1218.999	690.731	79.990	19.999	102.826	19.983	3.120	0.431
1219.499	691.027	79.995	20.000	102.825	19.982	3.182	0.421
1219.999	691.269	80.002	19.994	102.824	19.985	2.956	0.497
1220.499	691.502	79.996	19.997	102.826	19.980	3.379	0.507
1220.999	691.763	79.998	19.999	102.825	19.978	3.521	0.485
1221.499	691.981	79.994	19.996	102.824	19.983	3.159	0.486
1221.999	692.199	80.001	19.993	102.825	19.980	3.403	0.457
1222.499	692.431	79.998	19.995	102.827	19.984	3.073	0.443
1222.999	692.711	79.991	19.999	102.826	19.995	2.187	0.481
1223.499	692.950	79.995	19.997	102.826	19.984	3.075	0.515
1223.999	693.203	79.995	19.997	102.826	19.979	3.476	0.505
1224.499	693.451	79.994	19.997	102.825	19.981	3.313	0.496
1224.999	693.675	79.995	19.996	102.824	19.981	3.319	0.486
1225.499	693.882	79.995	19.996	102.822	19.979	3.416	0.452
1225.999	694.099	79.995	19.996	102.822	19.981	3.279	0.428
1226.499	694.393	79.994	19.995	102.823	19.980	3.343	0.467
1227.000	694.587	79.993	19.995	102.823	19.981	3.268	0.499
1227.500	694.833	79.995	19.995	102.823	19.979	3.467	0.464
1227.999	695.126	79.994	19.996	102.823	19.979	3.442	0.490
1228.499	695.335	79.993	19.996	102.824	19.979	3.486	0.520
1228.999	695.555	79.992	19.996	102.823	19.981	3.324	0.465
1229.499	695.852	79.994	19.996	102.822	19.981	3.298	0.473
1229.999	696.083	79.995	19.997	102.823	19.978	3.561	0.523
1230.499	696.348	79.994	19.995	102.824	19.980	3.396	0.512
1230.999	696.609	79.994	19.995	102.825	19.982	3.210	0.511
1231.499	696.819	79.992	19.996	102.826	19.984	3.067	0.499
1231.999	697.068	79.994	19.995	102.826	19.983	3.129	0.465
1232.499	697.277	79.991	19.995	102.826	19.977	3.621	0.458
1232.999	697.548	79.992	19.996	102.826	19.979	3.463	0.469
1233.499	697.757	79.993	19.997	102.825	19.978	3.544	0.480
1233.999	697.994	79.994	19.996	102.824	19.978	3.525	0.463
1234.499	698.288	79.995	19.996	102.824	19.976	3.692	0.489
1234.999	698.519	79.993	19.996	102.826	19.986	2.875	0.528
1235.499	698.753	79.994	19.998	102.826	19.981	3.298	0.495
1235.999	699.006	79.989	19.994	102.828	19.979	3.478	0.476
1236.499	699.225	79.994	19.997	102.829	19.978	3.500	0.480
1236.999	699.504	79.994	19.996	102.832	19.980	3.409	0.485
1237.499	699.750	79.994	19.995	102.830	19.975	3.762	0.511
1238.000	700.045	79.994	19.995	102.831	19.980	3.386	0.532
1238.500	700.334	79.995	19.996	102.831	19.978	3.493	0.562
1238.999	700.565	79.992	19.995	102.831	19.980	3.356	0.552
1239.499	700.833	79.994	19.996	102.828	19.979	3.480	0.509
1240.000	701.053	79.993	19.998	102.827	19.980	3.345	0.493
1240.500	701.324	79.996	19.995	102.825	19.981	3.300	0.490
1240.999	701.604	79.995	20.000	102.824	19.982	3.245	0.521
1241.499	701.850	79.992	19.997	102.823	19.979	3.457	0.538
1241.999	702.125	79.993	19.996	102.823	19.979	3.437	0.523
1242.499	702.349	79.993	19.996	102.823	19.980	3.384	0.510
1242.999	702.618	79.994	19.998	102.824	19.980	3.390	0.495
1243.499	702.886	79.993	19.996	102.824	19.982	3.202	0.515
1243.999	703.135	79.996	19.993	102.824	19.980	3.358	0.528
1244.499	703.408	79.995	19.996	102.827	19.978	3.491	0.520
1244.999	703.593	79.995	19.997	102.831	19.979	3.476	0.490
1245.499	703.887	79.992	19.998	102.837	19.983	3.172	0.468
1245.999	704.129	79.994	19.997	102.841	19.979	3.442	0.507
1246.499	704.367	79.995	19.996	102.841	19.979	3.454	0.508
1246.999	704.702	79.996	19.996	102.838	19.980	3.335	0.527
1247.499	704.902	79.994	19.996	102.835	19.980	3.349	0.554
1247.999	705.210	79.992	19.996	102.828	19.980	3.365	0.521
1248.499	705.477	79.995	19.996	102.825	19.979	3.446	0.541
1248.999	705.697	79.993	19.997	102.824	19.978	3.517	0.531
1249.499	705.972	79.995	19.997	102.823	19.978	3.523	0.491
1249.999	706.234	79.994	19.995	102.823	19.978	3.523	0.516
1250.499	706.594	79.994	19.996	102.823	19.978	3.534	0.580
1250.999	706.786	79.995	19.995	102.822	19.978	3.501	0.587
1251.499	707.009	79.994	19.996	102.824	19.977	3.589	0.484
1251.999	707.299	79.995	19.995	102.828	19.978	3.523	0.464
1252.499	707.572	79.995	19.996	102.831	19.978	3.512	0.538
1252.999	707.860	79.995	19.996	102.833	19.980	3.382	0.561
1253.500	708.116	79.994	19.996	102.833	19.976	3.688	0.553
1254.001	708.369	79.995	19.995	102.832	19.978	3.538	0.527
1254.500	708.629	79.992	19.995	102.832	19.977	3.589	0.511
1254.999	708.939	79.996	19.995	102.831	19.977	3.583	0.541
1255.500	709.187	79.995	19.995	102.832	19.978	3.508	0.564
1256.000	709.412	79.993	19.996	102.833	19.978	3.497	0.516
1256.499	709.711	79.994	19.996	102.834	19.980	3.405	0.498
1256.999	709.990	79.995	19.995	102.832	19.979	3.414	0.550
1257.499	710.240	79.993	19.996	102.831	19.978	3.508	0.553
1257.999	710.494	79.995	19.995	102.829	19.978	3.532	0.517
1258.499	710.767	79.994	19.995	102.828	19.979	3.452	0.516
1258.999	711.030	79.994	19.994	102.831	19.979	3.446	0.532
1259.499	711.335	79.994	19.995	102.836	19.977	3.598	0.552
1259.999	711.572	79.992	19.996	102.836	19.979	3.480	0.555
1260.499	711.830	79.993	19.995	102.835	19.976	3.667	0.518
1260.999	712.121	79.994	19.996	102.836	19.980	3.371	0.522
1261.499	712.351	79.993	19.995	102.833	19.979	3.438	0.535
1261.999	712.632	79.993	19.996	102.828	19.978	3.527	0.516
1262.499	712.899	79.994	19.993	102.828	19.981	3.258	0.529
1262.999	713.189	79.993	19.997	102.831	19.979	3.453	0.553
1263.499	713.405	79.993	19.996	102.835	19.977	3.587	0.532
1264.000	713.701	79.993	19.995	102.836	19.980	3.345	0.509
1264.500	713.979	79.994	19.996	102.837	19.976	3.666	0.543
1264.999	714.232	79.993	19.996	102.838	19.978	3.538	0.553
1265.499	714.490	79.994	19.995	102.836	19.978	3.514	0.521
1265.999	714.778	79.994	19.994	102.832	19.978	3.557	0.528
1266.499	715.039	79.993	19.996	102.832	19.979	3.454	0.547
1266.999	715.347	79.994	19.996	102.832	19.980	3.334	0.559
1267.499	715.573	79.994	19.995	102.830	19.978	3.568	0.552
1267.999	715.839	79.994	19.996	102.832	19.978	3.516	0.513
1268.499	716.130	79.996	19.995	102.837	19.979	3.465	0.524
1268.999	716.366	79.994	19.996	102.836	19.979	3.452	0.542
1269.500	716.660	79.995	19.996	102.837	19.980	3.354	0.529
1270.000	716.902	79.995	19.996	102.839	19.981	3.332	0.533
1270.499	717.209	79.996	19.997	102.838	19.979	3.416	0.542
1270.999	717.454	79.995	19.996	102.837	19.976	3.669	0.550
1271.499	717.775	79.996	19.995	102.837	19.979	3.455	0.559
1271.999	717.978	79.995	19.994	102.839	19.978	3.528	0.545
1272.499	718.259	79.996	19.996	102.840	19.978	3.502	0.504
1272.999	718.532	79.995	19.995	102.838	19.977	3.575	0.519
1273.499	718.781	79.995	19.994	102.835	19.980	3.352	0.538
1273.999	719.043	79.995	19.995	102.837	19.974	3.866	0.516
1274.499	719.315	79.993	19.997	102.835	19.975	3.737	0.522
1274.999	719.606	79.997	19.993	102.831	19.974	3.806	0.549
1275.499	719.836	79.996	19.995	102.832	19.976	3.714	0.542
1275.999	720.120	79.995	19.996	102.832	19.975	3.799	0.517
1276.499	720.361	79.995	19.994	102.828	19.975	3.793	0.520
1276.999	720.633	79.994	19.998	102.828	19.973	3.882	0.519
1277.499	720.902	79.994	19.996	102.827	19.975	3.786	0.526
1277.999	721.192	79.995	19.996	102.827	19.977	3.589	0.550
1278.499	721.454	79.996	19.993	102.826	19.978	3.549	0.556
1278.999	721.708	79.994	19.994	102.827	19.980	3.405	0.534
1279.499	721.952	79.993	19.995	102.828	19.975	3.773	0.507
1279.999	722.259	79.996	19.994	102.828	19.976	3.653	0.525
1280.499	722.479	79.995	19.994	102.828	19.978	3.525	0.539
1280.999	722.773	79.994	19.996	102.828	19.981	3.319	0.520
1281.499	723.007	79.995	19.993	102.830	19.978	3.555	0.521
1281.999	723.258	79.993	19.994	102.835	19.975	3.750	0.506
1282.499	723.548	79.994	19.995	102.840	19.976	3.722	0.513
1282.999	723.779	79.995	19.994	102.843	19.978	3.491	0.531
1283.499	724.087	79.994	19.994	102.844	19.976	3.683	0.530
1283.999	724.343	79.995	19.994	102.845	19.977	3.640	0.551
1284.499	724.581	79.994	19.994	102.841	19.976	3.679	0.529
1284.999	724.861	79.993	19.995	102.837	19.976	3.675	0.506
1285.499	725.058	79.995	19.994	102.838	19.975	3.731	0.497
1285.999	725.347	79.994	19.995	102.837	19.975	3.797	0.482
1286.499	725.590	79.994	19.994	102.834	19.975	3.776	0.509
1286.999	725.882	79.994	19.994	102.833	19.975	3.789	0.533
1287.499	726.113	79.995	19.994	102.832	19.975	3.787	0.529
1287.999	726.372	79.995	19.995	102.830	19.975	3.782	0.507
1288.499	726.627	79.994	19.995	102.829	19.977	3.598	0.502
1288.999	726.929	79.995	19.995	102.829	19.977	3.575	0.535
1289.499	727.174	79.995	19.993	102.828	19.976	3.705	0.552
1289.999	727.412	79.994	19.995	102.827	19.973	3.918	0.515
1290.499	727.676	79.995	19.994	102.826	19.973	3.888	0.492
1290.999	727.941	79.995	19.994	102.826	19.972	4.029	0.516
1291.499	728.206	79.994	19.994	102.825	19.972	3.992	0.529
1291.999	728.432	79.995	19.994	102.825	19.970	4.189	0.510
1292.499	728.756	79.996	19.994	102.826	19.974	3.853	0.521
1292.999	729.014	79.994	19.996	102.825	19.976	3.694	0.567
1293.499	729.249	79.995	19.995	102.825	19.972	4.039	0.538
1293.999	729.501	79.996	19.995	102.825	19.976	3.683	0.490
1294.499	729.752	79.994	19.993	102.826	19.974	3.812	0.495
1294.999	730.003	79.996	19.995	102.826	19.972	3.972	0.503
1295.499	730.254	79.995	19.995	102.827	19.977	3.636	0.502
1295.999	730.542	79.996	19.994	102.830	19.973	3.953	0.521
1296.499	730.805	79.995	19.995	102.834	19.975	3.784	0.545
1296.999	731.047	79.995	19.995	102.838	19.975	3.760	0.528
1297.499	731.348	79.997	19.995	102.843	19.973	3.906	0.524
1297.999	731.552	79.997	19.996	102.848	19.975	3.782	0.524
1298.499	731.827	79.994	19.995	102.848	19.974	3.805	0.492
1298.999	732.106	79.996	19.995	102.846	19.973	3.923	0.516
1299.499	732.364	79.996	19.994	102.847	19.972	4.017	0.546
1299.999	732.602	79.997	19.996	102.848	19.974	3.844	0.517
1300.499	732.846	79.996	19.996	102.848	19.975	3.803	0.489
1300.999	733.131	79.996	19.994	102.852	19.973	3.882	0.506
1301.499	733.369	79.996	19.995	102.853	19.975	3.792	0.526
1301.999	733.648	79.995	19.995	102.851	19.976	3.707	0.519
1302.499	733.929	79.996	19.995	102.847	19.977	3.578	0.538
1302.999	734.179	79.995	19.995	102.844	19.976	3.679	0.546
1303.499	734.411	79.996	19.996	102.839	19.976	3.694	0.507
1303.999	734.680	79.994	19.997	102.835	19.975	3.748	0.492
1304.499	734.927	79.997	19.995	102.831	19.976	3.671	0.508
1304.999	735.194	79.994	19.995	102.828	19.976	3.681	0.515
1305.499	735.409	79.995	19.996	102.825	19.977	3.608	0.498
1306.000	735.672	79.996	19.996	102.825	19.975	3.760	0.480
1306.500	735.926	79.993	19.995	102.826	19.974	3.865	0.498
1306.999	736.187	79.994	19.995	102.827	19.976	3.713	0.516
1307.499	736.455	79.993	19.996	102.828	19.976	3.649	0.522
1307.999	736.690	79.996	19.997	102.827	19.976	3.679	0.516
1308.499	736.970	79.995	19.995	102.825	19.975	3.760	0.509
1308.999	737.242	79.993	19.995	102.824	19.975	3.769	0.534
1309.499	737.519	79.994	19.996	102.823	19.976	3.720	0.550
1309.999	737.758	79.996	19.996	102.823	19.977	3.643	0.532
1310.499	737.984	79.994	19.997	102.824	19.974	3.844	0.490
1311.000	738.234	79.994	19.997	102.824	19.976	3.690	0.471
1311.500	738.518	79.994	19.996	102.825	19.975	3.735	0.505
1311.999	738.753	79.996	19.997	102.825	19.975	3.780	0.527
1312.499	739.012	79.994	19.997	102.827	19.977	3.632	0.507
1312.999	739.274	79.995	19.997	102.827	19.973	3.940	0.507
1313.499	739.509	79.994	19.996	102.827	19.975	3.797	0.509
1313.999	739.774	79.994	19.997	102.828	19.975	3.784	0.498
1314.499	740.030	79.994	19.994	102.829	19.970	4.158	0.510
1314.999	740.269	79.995	19.995	102.829	19.973	3.936	0.508
1315.499	740.574	79.992	19.997	102.829	19.974	3.844	0.520
1315.999	740.795	79.995	19.995	102.830	19.974	3.854	0.535
1316.499	741.104	79.994	19.995	102.827	19.973	3.889	0.528
1316.999	741.327	79.994	19.995	102.826	19.976	3.679	0.531
1317.499	741.601	79.994	19.995	102.825	19.974	3.822	0.515
1317.999	741.832	79.993	19.996	102.825	19.975	3.726	0.501
1318.499	742.132	79.995	19.995	102.824	19.976	3.688	0.518
1318.999	742.365	79.995	19.995	102.826	19.975	3.745	0.532
1319.499	742.611	79.993	19.997	102.827	19.975	3.730	0.506
1319.999	742.869	79.995	19.995	102.827	19.975	3.786	0.491
1320.499	743.114	79.994	19.996	102.827	19.974	3.820	0.503
1320.999	743.386	79.995	19.996	102.827	19.975	3.758	0.510
1321.499	743.604	79.993	19.996	102.826	19.977	3.606	0.504
