Sample ID:	C:\MCC\MCC Cal\Test\PMMA_R06_MCC_30K_min_211015_R1.txt
Sample Weight (mg):	4.25
Heating Rate (C/s):	0.5
Combustor Temp (C):	900
N2 Flow Rate (cc/min):	80
O2 Flow Rate (cc/min):	20
Calibration File:	C:\MCC\MCC Cal\Coeff1 JN10440_30_210304.txt.txt
T Correction Coefficients:	0	1.024463	0
Time Shift (s):	14
*
Time (s)	Temperature (C)	N2 flow rate (cc/min)	O2 flow rate (cc/min)	Flow Rate (cc/min)	Oxygen (%)	HRR (W/g)	Heating rate (C/s)
0.000	106.265	79.994	19.996	102.730	20.068	-0.093	0.009
0.500	106.255	79.993	19.995	102.738	20.067	-0.014	0.045
1.000	106.266	79.994	19.994	102.744	20.066	0.008	0.021
1.500	106.273	79.994	19.994	102.742	20.066	0.008	0.010
2.000	106.235	79.994	19.995	102.747	20.063	0.243	-0.006
2.500	106.248	79.993	19.995	102.745	20.066	0.047	-0.028
3.000	106.222	79.993	19.994	102.743	20.066	0.021	-0.019
3.500	106.262	79.993	19.994	102.743	20.069	-0.216	0.001
4.000	106.266	79.993	19.996	102.742	20.069	-0.214	0.029
4.500	106.247	79.994	19.995	102.740	20.070	-0.278	0.015
5.000	106.221	79.994	19.995	102.746	20.066	0.039	-0.030
5.500	106.287	79.992	19.995	102.747	20.065	0.103	-0.002
6.000	106.228	79.993	19.996	102.747	20.065	0.091	0.024
6.500	106.267	79.993	19.995	102.751	20.064	0.154	-0.007
7.000	106.264	79.994	19.994	102.753	20.066	0.016	0.008
7.500	106.253	79.994	19.995	102.752	20.066	0.064	0.011
8.000	106.238	79.993	19.996	102.747	20.067	-0.014	-0.019
8.500	106.214	79.993	19.996	102.746	20.065	0.103	-0.032
9.000	106.252	79.993	19.995	102.744	20.064	0.202	-0.013
9.500	106.230	79.993	19.996	102.743	20.063	0.231	0.015
10.000	106.251	79.992	19.996	102.741	20.064	0.167	0.007
10.500	106.247	79.992	19.996	102.744	20.063	0.268	0.008
11.000	106.242	79.993	19.995	102.743	20.065	0.142	0.004
11.500	106.275	79.993	19.995	102.741	20.063	0.274	0.010
12.000	106.252	79.993	19.996	102.737	20.066	0.062	0.019
12.500	106.298	79.994	19.996	102.738	20.063	0.253	0.016
13.000	106.324	79.992	19.996	102.739	20.062	0.313	0.048
13.500	106.297	79.992	19.996	102.737	20.064	0.157	0.036
14.000	106.288	79.992	19.996	102.741	20.063	0.293	-0.018
14.500	106.277	79.991	19.997	102.744	20.062	0.317	-0.028
15.000	106.283	79.992	19.996	102.747	20.060	0.509	-0.013
15.500	106.301	79.992	19.996	102.748	20.062	0.342	0.010
16.000	106.283	79.991	19.996	102.751	20.064	0.146	0.012
16.500	106.324	79.992	19.997	102.754	20.062	0.332	0.011
17.000	106.298	79.991	19.996	102.761	20.063	0.258	0.019
17.500	106.334	79.992	19.995	102.766	20.063	0.286	0.013
18.000	106.349	79.992	19.995	102.773	20.065	0.120	0.031
18.500	106.357	79.992	19.995	102.778	20.063	0.233	0.037
19.000	106.375	79.993	19.997	102.782	20.061	0.414	0.024
19.500	106.371	79.992	19.996	102.784	20.058	0.604	0.020
20.000	106.341	79.992	19.996	102.785	20.058	0.603	-0.009
20.500	106.370	79.992	19.997	102.785	20.061	0.379	-0.017
21.000	106.365	79.992	19.995	102.786	20.059	0.568	0.011
21.500	106.348	79.993	19.996	102.787	20.057	0.713	0.001
22.000	106.337	79.992	19.995	102.792	20.055	0.884	-0.025
22.500	106.400	79.994	19.995	102.800	20.055	0.843	0.012
23.000	106.381	79.993	19.995	102.811	20.056	0.821	0.048
23.500	106.406	79.993	19.996	102.821	20.055	0.874	0.025
24.000	106.380	79.994	19.996	102.835	20.053	1.015	0.003
24.500	106.471	79.994	19.996	102.842	20.050	1.235	0.032
25.000	106.448	79.994	19.996	102.844	20.049	1.280	0.067
25.500	106.472	79.994	19.997	102.846	20.050	1.230	0.034
26.000	106.496	79.995	19.995	102.853	20.048	1.368	0.024
26.500	106.519	79.994	19.996	102.855	20.046	1.546	0.048
27.000	106.551	79.994	19.995	102.858	20.047	1.498	0.052
27.500	106.522	79.995	19.994	102.864	20.044	1.692	0.029
28.000	106.615	79.995	19.995	102.869	20.041	1.886	0.033
28.500	106.645	79.995	19.995	102.870	20.043	1.771	0.094
29.000	106.649	79.994	19.995	102.870	20.041	1.952	0.078
29.500	106.685	79.995	19.996	102.875	20.038	2.148	0.037
30.000	106.724	79.995	19.996	102.857	20.036	2.298	0.058
30.500	106.796	79.994	19.995	102.839	20.037	2.237	0.093
31.000	106.780	79.994	19.995	102.826	20.035	2.385	0.083
31.500	106.837	79.994	19.995	102.820	20.036	2.336	0.048
32.000	106.875	79.994	19.995	102.816	20.038	2.152	0.068
32.500	106.941	79.995	19.995	102.834	20.039	2.059	0.099
33.000	107.011	79.995	19.996	102.874	20.037	2.230	0.120
33.500	107.028	79.995	19.996	102.930	20.038	2.175	0.111
34.000	107.098	79.994	19.997	102.954	20.039	2.084	0.087
34.500	107.142	79.994	19.996	102.963	20.036	2.311	0.101
35.000	107.166	79.993	19.995	102.968	20.038	2.179	0.091
35.500	107.237	79.994	19.996	102.947	20.037	2.191	0.081
36.000	107.297	79.994	19.996	102.906	20.037	2.191	0.113
36.500	107.340	79.993	19.996	102.892	20.036	2.286	0.118
37.000	107.419	79.993	19.996	102.886	20.037	2.210	0.112
37.501	107.479	79.993	19.996	102.887	20.035	2.373	0.130
38.001	107.516	79.993	19.995	102.893	20.033	2.542	0.118
38.500	107.564	79.992	19.995	102.898	20.034	2.416	0.091
39.000	107.630	79.993	19.997	102.900	20.033	2.546	0.099
39.500	107.682	79.993	19.997	102.905	20.032	2.612	0.116
40.000	107.771	79.992	19.996	102.907	20.031	2.705	0.129
40.500	107.821	79.993	19.996	102.907	20.031	2.643	0.140
41.000	107.881	79.993	19.998	102.912	20.029	2.828	0.125
41.500	107.966	79.993	19.996	102.918	20.030	2.744	0.127
42.000	108.046	79.992	19.996	102.920	20.032	2.591	0.155
42.500	108.069	79.993	19.996	102.922	20.032	2.637	0.134
43.000	108.161	79.993	19.996	102.923	20.027	2.960	0.109
43.500	108.223	79.993	19.996	102.918	20.028	2.923	0.134
44.000	108.303	79.994	19.996	102.916	20.028	2.876	0.148
44.500	108.389	79.993	19.996	102.915	20.029	2.847	0.155
45.000	108.437	79.992	19.995	102.914	20.027	2.977	0.150
45.500	108.537	79.992	19.996	102.914	20.029	2.854	0.141
46.000	108.648	79.992	19.996	102.914	20.031	2.660	0.179
46.501	108.697	79.993	19.996	102.912	20.029	2.841	0.186
47.001	108.779	79.994	19.995	102.912	20.029	2.825	0.146
47.501	108.880	79.992	19.996	102.912	20.028	2.879	0.157
48.001	108.950	79.994	19.996	102.913	20.030	2.753	0.177
48.500	109.027	79.993	19.995	102.917	20.025	3.147	0.159
49.001	109.137	79.994	19.995	102.922	20.029	2.829	0.167
49.501	109.307	79.995	19.995	102.922	20.025	3.110	0.233
50.001	109.359	79.995	19.994	102.921	20.027	3.015	0.251
50.501	109.448	79.995	19.995	102.921	20.026	3.083	0.181
51.000	109.542	79.996	19.995	102.917	20.027	2.986	0.162
51.500	109.605	79.994	19.995	102.914	20.027	2.998	0.171
52.000	109.686	79.994	19.995	102.915	20.026	3.077	0.151
52.500	109.803	79.996	19.995	102.916	20.026	3.033	0.171
53.000	109.895	79.996	19.995	102.917	20.025	3.101	0.203
53.500	109.956	79.995	19.994	102.919	20.026	3.073	0.181
54.000	110.077	79.996	19.995	102.920	20.026	3.071	0.167
54.500	110.179	79.993	19.995	102.925	20.027	2.945	0.202
55.000	110.276	79.996	19.994	102.932	20.021	3.415	0.211
55.500	110.352	79.994	19.994	102.936	20.019	3.563	0.186
56.000	110.460	79.995	19.995	102.940	20.021	3.399	0.179
56.500	110.591	79.996	19.994	102.942	20.019	3.584	0.212
57.000	110.676	79.995	19.994	102.941	20.023	3.267	0.227
57.500	110.763	79.994	19.994	102.941	20.021	3.428	0.194
58.000	110.907	79.995	19.994	102.941	20.022	3.362	0.202
58.500	110.984	79.995	19.995	102.944	20.024	3.193	0.226
59.000	111.127	79.993	19.995	102.946	20.024	3.238	0.221
59.500	111.204	79.995	19.994	102.949	20.021	3.432	0.220
60.000	111.318	79.993	19.995	102.949	20.021	3.448	0.205
60.500	111.461	79.994	19.994	102.949	20.024	3.228	0.224
61.000	111.557	79.993	19.995	102.949	20.021	3.452	0.249
61.500	111.672	79.993	19.995	102.950	20.021	3.471	0.225
62.000	111.818	79.992	19.995	102.950	20.020	3.522	0.236
62.501	111.879	79.993	19.995	102.950	20.021	3.459	0.234
63.001	112.047	79.992	19.995	102.950	20.020	3.525	0.218
63.500	112.131	79.990	19.995	102.950	20.020	3.485	0.241
64.000	112.276	79.992	19.995	102.950	20.021	3.409	0.241
64.500	112.338	79.992	19.995	102.950	20.017	3.708	0.218
65.000	112.481	79.992	19.995	102.952	20.022	3.395	0.206
65.500	112.596	79.993	19.995	102.954	20.015	3.851	0.231
66.000	112.750	79.992	19.995	102.955	20.017	3.719	0.263
66.500	112.858	79.993	19.995	102.955	20.019	3.593	0.266
67.000	112.980	79.992	19.994	102.957	20.018	3.663	0.246
67.500	113.150	79.992	19.996	102.961	20.018	3.684	0.261
68.000	113.240	79.992	19.995	102.964	20.017	3.709	0.276
68.500	113.366	79.993	19.995	102.964	20.015	3.857	0.238
69.000	113.511	79.993	19.995	102.970	20.017	3.703	0.244
69.500	113.648	79.993	19.994	102.976	20.018	3.663	0.277
70.000	113.774	79.992	19.995	102.974	20.018	3.680	0.272
70.500	113.916	79.993	19.994	102.969	20.019	3.556	0.266
71.000	114.072	79.993	19.994	102.968	20.019	3.552	0.283
71.500	114.208	79.992	19.995	102.963	20.019	3.606	0.295
72.000	114.336	79.992	19.996	102.957	20.020	3.523	0.278
72.500	114.487	79.993	19.995	102.959	20.018	3.629	0.271
73.000	114.615	79.992	19.995	102.963	20.018	3.653	0.279
73.500	114.754	79.993	19.996	102.963	20.018	3.658	0.273
74.000	114.920	79.993	19.996	102.964	20.018	3.664	0.286
74.500	115.027	79.993	19.996	102.962	20.021	3.416	0.289
75.000	115.212	79.993	19.995	102.957	20.019	3.552	0.283
75.500	115.324	79.993	19.995	102.958	20.016	3.808	0.294
76.000	115.452	79.993	19.994	102.963	20.018	3.631	0.269
76.500	115.628	79.994	19.995	102.967	20.017	3.720	0.272
77.000	115.775	79.993	19.996	102.970	20.018	3.629	0.314
77.500	115.924	79.993	19.996	102.974	20.017	3.767	0.310
78.000	116.080	79.994	19.995	102.976	20.019	3.552	0.300
78.500	116.192	79.995	19.994	102.976	20.015	3.893	0.287
79.000	116.364	79.993	19.995	102.979	20.015	3.852	0.276
79.500	116.457	79.993	19.995	102.984	20.015	3.852	0.274
80.000	116.667	79.994	19.995	102.984	20.015	3.893	0.283
80.500	116.790	79.993	19.995	102.984	20.013	4.023	0.318
81.000	116.985	79.994	19.995	102.983	20.012	4.149	0.326
81.500	117.080	79.993	19.995	102.983	20.015	3.862	0.304
82.000	117.282	79.993	19.994	102.985	20.016	3.818	0.293
82.500	117.446	79.993	19.995	102.987	20.016	3.839	0.331
83.000	117.599	79.994	19.995	102.988	20.017	3.742	0.341
83.500	117.745	79.994	19.994	102.989	20.014	3.944	0.308
84.000	117.905	79.994	19.995	102.990	20.012	4.095	0.303
84.500	118.112	79.994	19.995	102.990	20.013	4.039	0.336
85.000	118.270	79.993	19.995	102.990	20.012	4.099	0.366
85.500	118.453	79.994	19.995	102.991	20.014	3.961	0.354
86.000	118.607	79.992	19.995	102.995	20.013	4.054	0.339
86.500	118.815	79.992	19.995	102.995	20.015	3.922	0.349
87.000	118.948	79.992	19.996	102.993	20.015	3.859	0.351
87.500	119.132	79.994	19.995	102.993	20.015	3.923	0.329
88.000	119.336	79.993	19.995	102.994	20.013	4.057	0.353
88.500	119.476	79.993	19.995	102.991	20.011	4.217	0.365
89.000	119.635	79.993	19.995	102.992	20.012	4.122	0.321
89.500	119.846	79.994	19.994	102.998	20.011	4.176	0.335
90.000	119.988	79.993	19.995	102.999	20.012	4.132	0.362
90.500	120.148	79.993	19.995	103.001	20.011	4.196	0.328
91.000	120.334	79.992	19.995	103.000	20.011	4.181	0.324
91.500	120.516	79.992	19.996	103.000	20.012	4.097	0.357
92.000	120.680	79.991	19.995	102.993	20.011	4.157	0.356
92.500	120.866	79.993	19.995	102.991	20.013	4.068	0.348
93.000	121.047	79.993	19.995	102.991	20.014	3.969	0.359
93.500	121.245	79.992	19.995	102.994	20.014	3.998	0.373
94.000	121.408	79.992	19.994	102.994	20.011	4.219	0.370
94.500	121.584	79.992	19.995	102.996	20.012	4.103	0.350
95.000	121.774	79.991	19.995	103.000	20.012	4.113	0.352
95.500	121.975	79.992	19.996	102.999	20.011	4.225	0.379
96.000	122.209	79.991	19.996	103.001	20.015	3.909	0.413
96.500	122.375	79.991	19.995	103.006	20.011	4.223	0.417
97.001	122.538	79.992	19.996	103.010	20.009	4.349	0.364
97.501	122.727	79.993	19.997	103.014	20.011	4.176	0.340
98.000	122.926	79.992	19.996	103.015	20.012	4.108	0.370
98.500	123.151	79.992	19.996	103.015	20.011	4.165	0.406
99.000	123.328	79.992	19.995	103.014	20.011	4.176	0.413
99.500	123.539	79.992	19.996	103.008	20.010	4.236	0.395
100.000	123.702	79.992	19.996	103.001	20.008	4.446	0.381
100.500	123.924	79.993	19.996	102.999	20.013	4.074	0.379
101.000	124.109	79.994	19.996	102.995	20.011	4.176	0.395
101.500	124.360	79.992	19.995	102.990	20.010	4.291	0.421
102.000	124.522	79.993	19.996	102.989	20.012	4.102	0.425
102.500	124.717	79.993	19.996	102.991	20.011	4.228	0.385
103.000	124.906	79.993	19.995	102.992	20.011	4.199	0.371
103.500	125.128	79.993	19.996	102.993	20.012	4.123	0.398
104.000	125.305	79.993	19.996	102.992	20.011	4.172	0.404
104.500	125.549	79.993	19.995	102.992	20.012	4.079	0.410
105.000	125.706	79.995	19.995	102.992	20.010	4.252	0.411
105.500	125.929	79.994	19.996	102.990	20.011	4.176	0.390
106.000	126.131	79.994	19.996	102.989	20.013	4.075	0.402
106.500	126.327	79.994	19.996	102.989	20.010	4.289	0.411
107.000	126.535	79.995	19.996	102.990	20.011	4.207	0.401
107.500	126.735	79.994	19.995	102.990	20.011	4.205	0.406
108.000	126.923	79.993	19.996	102.991	20.009	4.353	0.399
108.500	127.155	79.996	19.996	102.995	20.011	4.221	0.404
109.000	127.376	79.993	19.997	102.998	20.009	4.362	0.436
109.500	127.567	79.994	19.996	102.999	20.011	4.209	0.432
110.000	127.770	79.995	19.995	102.999	20.012	4.145	0.403
110.500	127.961	79.994	19.995	103.000	20.009	4.339	0.394
111.000	128.189	79.995	19.995	102.998	20.010	4.292	0.407
111.501	128.413	79.994	19.996	102.996	20.010	4.289	0.435
112.001	128.599	79.994	19.995	102.997	20.013	4.060	0.430
112.500	128.826	79.994	19.995	103.002	20.011	4.186	0.411
113.000	129.045	79.995	19.995	103.007	20.008	4.394	0.430
113.500	129.221	79.994	19.995	103.012	20.010	4.289	0.421
114.000	129.455	79.994	19.996	103.014	20.011	4.209	0.402
114.500	129.678	79.993	19.995	103.015	20.011	4.192	0.433
115.000	129.891	79.994	19.996	103.010	20.012	4.131	0.447
115.500	130.091	79.995	19.995	103.006	20.011	4.164	0.425
116.000	130.320	79.993	19.995	103.004	20.013	4.048	0.421
116.500	130.538	79.993	19.994	103.003	20.009	4.335	0.438
117.000	130.738	79.992	19.995	103.001	20.011	4.227	0.433
117.500	130.953	79.993	19.996	103.002	20.012	4.110	0.416
118.000	131.184	79.993	19.994	103.000	20.009	4.353	0.430
118.500	131.404	79.992	19.995	102.998	20.008	4.452	0.448
119.000	131.594	79.993	19.995	103.000	20.010	4.302	0.431
119.500	131.832	79.992	19.995	103.001	20.013	4.067	0.419
120.001	132.075	79.992	19.996	103.006	20.009	4.355	0.454
120.501	132.275	79.993	19.995	103.009	20.011	4.192	0.462
121.000	132.514	79.993	19.994	103.011	20.010	4.263	0.441
121.500	132.726	79.992	19.995	103.010	20.011	4.155	0.445
122.000	132.943	79.993	19.995	103.010	20.009	4.308	0.440
122.500	133.155	79.993	19.995	103.003	20.011	4.221	0.429
123.000	133.388	79.992	19.995	103.001	20.008	4.401	0.437
123.500	133.620	79.993	19.995	102.999	20.007	4.508	0.455
124.000	133.852	79.995	19.994	102.997	20.008	4.421	0.464
124.500	134.059	79.992	19.996	102.998	20.008	4.452	0.452
125.000	134.305	79.994	19.996	103.001	20.008	4.413	0.446
125.500	134.480	79.992	19.995	103.003	20.011	4.221	0.437
126.000	134.743	79.993	19.995	103.007	20.010	4.275	0.429
126.500	134.944	79.994	19.995	103.008	20.009	4.312	0.451
127.000	135.177	79.993	19.995	103.004	20.009	4.318	0.450
127.500	135.390	79.993	19.994	103.001	20.012	4.105	0.440
128.000	135.639	79.992	19.996	103.002	20.008	4.407	0.453
128.500	135.884	79.993	19.996	102.996	20.010	4.242	0.477
129.000	136.119	79.994	19.996	102.995	20.007	4.491	0.487
129.500	136.349	79.993	19.996	102.999	20.012	4.145	0.473
130.000	136.595	79.994	19.996	103.003	20.008	4.434	0.471
130.500	136.809	79.994	19.996	103.003	20.009	4.378	0.468
131.000	137.006	79.995	19.997	103.005	20.009	4.343	0.435
131.500	137.249	79.994	19.996	103.007	20.010	4.252	0.426
132.000	137.495	79.994	19.997	103.005	20.009	4.305	0.465
132.500	137.709	79.995	19.997	103.007	20.012	4.081	0.474
133.000	137.940	79.995	19.995	103.006	20.011	4.204	0.453
133.500	138.220	79.996	19.996	103.007	20.009	4.312	0.478
134.000	138.437	79.995	19.996	103.006	20.010	4.244	0.504
134.500	138.638	79.995	19.996	103.007	20.013	4.048	0.457
135.000	138.903	79.996	19.996	103.002	20.012	4.106	0.442
135.500	139.140	79.994	19.996	102.999	20.011	4.215	0.484
136.000	139.352	79.995	19.995	102.999	20.011	4.166	0.475
136.500	139.600	79.994	19.996	102.998	20.013	4.056	0.454
137.000	139.819	79.994	19.995	102.999	20.013	4.032	0.463
137.500	140.053	79.995	19.995	102.998	20.015	3.875	0.460
138.000	140.304	79.994	19.995	102.997	20.012	4.083	0.469
138.500	140.531	79.993	19.994	102.995	20.012	4.102	0.481
139.000	140.762	79.994	19.997	102.996	20.012	4.116	0.468
139.500	141.027	79.994	19.995	102.995	20.015	3.924	0.477
140.000	141.273	79.994	19.996	102.998	20.013	4.002	0.503
140.500	141.473	79.994	19.995	103.005	20.013	4.027	0.478
141.000	141.744	79.992	19.994	103.006	20.013	4.062	0.459
141.500	141.955	79.992	19.995	103.003	20.014	3.977	0.477
142.000	142.198	79.992	19.995	103.002	20.014	3.990	0.468
142.500	142.460	79.993	19.995	102.999	20.013	4.058	0.479
143.000	142.714	79.992	19.995	102.994	20.016	3.814	0.511
143.500	142.959	79.992	19.995	102.992	20.014	3.946	0.508
144.000	143.192	79.993	19.994	102.992	20.014	4.000	0.488
144.500	143.406	79.992	19.995	102.993	20.014	3.977	0.462
145.000	143.685	79.994	19.996	102.995	20.013	4.023	0.470
145.500	143.903	79.993	19.995	102.999	20.013	4.017	0.495
146.000	144.210	79.992	19.995	103.004	20.014	3.946	0.511
146.500	144.424	79.992	19.994	103.010	20.014	3.998	0.523
147.000	144.668	79.992	19.996	103.010	20.013	4.068	0.490
147.500	144.928	79.992	19.995	103.008	20.014	3.946	0.481
148.000	145.170	79.993	19.995	103.006	20.012	4.120	0.503
148.500	145.448	79.993	19.994	103.006	20.011	4.157	0.510
149.000	145.661	79.992	19.995	103.006	20.013	4.045	0.506
149.500	145.912	79.992	19.996	103.006	20.013	4.047	0.478
150.000	146.139	79.992	19.995	103.005	20.011	4.161	0.471
150.500	146.395	79.993	19.994	103.003	20.013	4.072	0.481
151.000	146.675	79.991	19.995	102.997	20.013	4.049	0.510
151.500	146.927	79.993	19.995	102.992	20.011	4.202	0.534
152.000	147.170	79.991	19.995	102.989	20.015	3.860	0.513
152.500	147.385	79.991	19.995	102.989	20.015	3.926	0.477
153.000	147.646	79.992	19.995	102.988	20.015	3.913	0.467
153.500	147.873	79.992	19.995	102.987	20.014	3.973	0.482
154.000	148.125	79.992	19.995	102.986	20.016	3.781	0.483
154.500	148.401	79.993	19.995	102.988	20.017	3.765	0.504
155.000	148.615	79.993	19.994	102.988	20.017	3.760	0.509
155.500	148.910	79.993	19.994	102.989	20.018	3.628	0.499
156.000	149.131	79.993	19.995	102.991	20.018	3.649	0.512
156.500	149.393	79.993	19.995	102.992	20.017	3.752	0.500
157.000	149.627	79.992	19.995	102.991	20.014	3.998	0.490
157.500	149.891	79.992	19.995	102.993	20.019	3.620	0.497
158.000	150.152	79.993	19.995	102.995	20.017	3.756	0.511
158.500	150.379	79.991	19.995	102.994	20.015	3.868	0.507
159.000	150.632	79.993	19.996	102.993	20.015	3.897	0.484
159.500	150.881	79.991	19.995	102.991	20.014	3.979	0.491
160.000	151.129	79.992	19.995	102.989	20.016	3.798	0.499
160.500	151.348	79.992	19.996	102.986	20.017	3.705	0.482
161.000	151.611	79.993	19.995	102.985	20.012	4.089	0.474
161.500	151.878	79.994	19.994	102.985	20.014	3.965	0.506
162.000	152.142	79.992	19.996	102.987	20.013	4.031	0.531
162.500	152.409	79.993	19.996	102.989	20.016	3.837	0.531
163.000	152.628	79.994	19.995	102.989	20.011	4.167	0.508
163.500	152.866	79.993	19.996	102.990	20.014	3.936	0.471
164.000	153.111	79.993	19.995	102.989	20.014	3.959	0.470
164.500	153.332	79.991	19.995	102.987	20.015	3.887	0.475
165.000	153.618	79.992	19.994	102.986	20.015	3.882	0.487
165.500	153.886	79.992	19.995	102.986	20.016	3.790	0.531
166.000	154.145	79.992	19.994	102.985	20.015	3.870	0.540
166.500	154.387	79.992	19.995	102.985	20.017	3.732	0.514
167.001	154.653	79.992	19.995	102.986	20.015	3.926	0.505
167.500	154.885	79.993	19.996	102.986	20.015	3.853	0.503
168.000	155.100	79.992	19.995	102.987	20.013	4.014	0.473
168.500	155.408	79.992	19.995	102.986	20.016	3.808	0.485
169.000	155.628	79.992	19.995	102.987	20.013	4.076	0.525
169.500	155.894	79.991	19.995	102.987	20.014	3.948	0.507
170.000	156.115	79.992	19.995	102.987	20.016	3.798	0.486
170.500	156.368	79.994	19.996	102.987	20.013	4.035	0.481
171.000	156.615	79.990	19.995	102.987	20.015	3.853	0.487
171.500	156.880	79.992	19.995	102.988	20.016	3.791	0.506
172.000	157.119	79.992	19.996	102.988	20.018	3.678	0.508
172.500	157.360	79.993	19.995	102.989	20.014	3.962	0.492
173.000	157.613	79.991	19.995	102.989	20.013	4.004	0.487
173.500	157.865	79.992	19.995	102.989	20.014	3.977	0.499
174.000	158.126	79.992	19.995	102.989	20.015	3.857	0.509
174.500	158.378	79.991	19.995	102.989	20.017	3.762	0.513
175.000	158.588	79.992	19.995	102.990	20.015	3.884	0.487
175.500	158.844	79.992	19.995	102.991	20.014	3.946	0.464
176.000	159.074	79.993	19.995	102.990	20.016	3.828	0.476
176.500	159.366	79.992	19.995	102.990	20.013	4.010	0.504
177.000	159.613	79.993	19.995	102.989	20.016	3.793	0.530
177.500	159.865	79.992	19.995	102.987	20.014	3.954	0.518
178.000	160.111	79.991	19.996	102.986	20.014	3.933	0.499
178.500	160.355	79.992	19.995	102.987	20.015	3.905	0.494
179.000	160.627	79.992	19.994	102.987	20.014	3.996	0.503
179.500	160.862	79.994	19.995	102.988	20.013	4.029	0.511
180.000	161.132	79.992	19.995	102.988	20.013	4.027	0.506
180.500	161.368	79.992	19.995	102.988	20.012	4.138	0.506
181.000	161.636	79.992	19.996	102.986	20.016	3.847	0.505
181.500	161.852	79.993	19.995	102.986	20.018	3.672	0.493
182.000	162.066	79.993	19.995	102.984	20.017	3.756	0.457
182.500	162.370	79.994	19.996	102.983	20.017	3.729	0.474
183.000	162.622	79.993	19.995	102.982	20.016	3.789	0.537
183.500	162.843	79.994	19.995	102.979	20.017	3.762	0.514
184.000	163.131	79.995	19.996	102.976	20.016	3.818	0.491
184.500	163.380	79.995	19.996	102.978	20.018	3.679	0.523
185.000	163.613	79.994	19.995	102.979	20.015	3.923	0.510
185.500	163.861	79.994	19.997	102.981	20.015	3.907	0.482
186.000	164.094	79.995	19.996	102.986	20.017	3.750	0.481
186.500	164.356	79.994	19.995	102.986	20.017	3.727	0.488
187.000	164.608	79.994	19.995	102.981	20.016	3.781	0.504
187.500	164.874	79.994	19.994	102.978	20.017	3.764	0.516
188.000	165.165	79.995	19.996	102.977	20.019	3.615	0.537
188.500	165.378	79.994	19.996	102.976	20.017	3.739	0.531
189.000	165.597	79.994	19.996	102.978	20.017	3.751	0.468
189.500	165.843	79.993	19.995	102.983	20.017	3.765	0.448
190.000	166.134	79.994	19.995	102.984	20.016	3.794	0.501
190.500	166.411	79.994	19.995	102.982	20.017	3.700	0.553
191.000	166.650	79.993	19.996	102.983	20.016	3.805	0.542
191.500	166.913	79.994	19.995	102.982	20.011	4.172	0.508
192.000	167.157	79.995	19.996	102.982	20.014	3.985	0.504
192.500	167.403	79.993	19.995	102.982	20.013	4.024	0.499
193.000	167.650	79.994	19.995	102.981	20.016	3.819	0.492
193.500	167.875	79.994	19.996	102.979	20.015	3.861	0.483
194.000	168.126	79.994	19.996	102.974	20.016	3.790	0.474
194.500	168.366	79.994	19.996	102.975	20.017	3.751	0.484
195.000	168.639	79.994	19.996	102.972	20.015	3.914	0.502
195.500	168.865	79.993	19.995	102.969	20.017	3.741	0.506
196.000	169.130	79.993	19.996	102.971	20.019	3.598	0.495
196.500	169.396	79.994	19.995	102.976	20.018	3.642	0.511
197.000	169.652	79.995	19.995	102.976	20.017	3.724	0.526
197.500	169.879	79.993	19.996	102.979	20.015	3.865	0.503
198.000	170.182	79.995	19.996	102.979	20.016	3.821	0.507
198.500	170.416	79.993	19.994	102.972	20.017	3.725	0.534
199.000	170.660	79.994	19.996	102.964	20.019	3.603	0.507
199.500	170.879	79.994	19.996	102.960	20.016	3.844	0.470
200.000	171.157	79.993	19.997	102.954	20.014	3.986	0.480
200.500	171.395	79.994	19.995	102.952	20.016	3.825	0.507
201.000	171.643	79.994	19.995	102.954	20.016	3.846	0.501
201.500	171.909	79.994	19.995	102.957	20.015	3.862	0.500
202.000	172.170	79.994	19.996	102.960	20.016	3.780	0.521
202.500	172.442	79.993	19.995	102.963	20.017	3.736	0.530
203.000	172.688	79.993	19.996	102.964	20.017	3.734	0.525
203.500	172.939	79.994	19.996	102.962	20.016	3.798	0.507
204.000	173.179	79.994	19.996	102.961	20.014	3.947	0.494
204.500	173.443	79.994	19.996	102.958	20.014	3.930	0.497
205.000	173.712	79.994	19.995	102.956	20.015	3.883	0.518
205.500	173.904	79.994	19.996	102.955	20.017	3.759	0.497
206.000	174.190	79.995	19.996	102.954	20.015	3.893	0.470
206.500	174.407	79.993	19.996	102.953	20.014	3.976	0.491
207.000	174.696	79.996	19.996	102.951	20.015	3.854	0.505
207.500	174.925	79.995	19.996	102.952	20.016	3.805	0.512
208.000	175.189	79.994	19.995	102.958	20.018	3.679	0.505
208.500	175.438	79.995	19.996	102.960	20.018	3.696	0.503
209.000	175.676	79.995	19.996	102.960	20.015	3.891	0.500
209.500	175.913	79.994	19.996	102.962	20.017	3.772	0.481
210.000	176.204	79.995	19.996	102.964	20.014	3.943	0.502
210.500	176.439	79.996	19.995	102.958	20.016	3.808	0.528
211.000	176.709	79.995	19.996	102.955	20.018	3.635	0.516
211.500	176.908	79.997	19.996	102.956	20.019	3.621	0.487
212.000	177.166	79.995	19.996	102.955	20.016	3.798	0.463
212.500	177.402	79.995	19.996	102.950	20.014	3.932	0.475
213.000	177.679	79.994	19.997	102.949	20.014	3.980	0.504
213.500	177.904	79.994	19.997	102.948	20.016	3.844	0.507
214.000	178.133	79.996	19.995	102.948	20.015	3.870	0.478
214.500	178.386	79.993	19.996	102.945	20.013	4.013	0.468
215.000	178.636	79.995	19.996	102.946	20.015	3.852	0.493
215.500	178.926	79.995	19.996	102.945	20.010	4.277	0.521
216.000	179.174	79.996	19.996	102.946	20.012	4.077	0.539
216.500	179.406	79.993	19.995	102.945	20.014	3.926	0.509
217.000	179.665	79.995	19.995	102.947	20.015	3.862	0.485
217.500	179.920	79.994	19.996	102.949	20.014	3.996	0.502
218.000	180.127	79.994	19.997	102.953	20.014	3.988	0.488
218.500	180.401	79.994	19.997	102.956	20.011	4.182	0.472
219.000	180.610	79.994	19.995	102.961	20.016	3.788	0.482
219.500	180.920	79.992	19.997	102.960	20.015	3.918	0.501
220.000	181.165	79.992	19.996	102.957	20.014	3.967	0.537
220.500	181.380	79.991	19.997	102.953	20.014	3.965	0.508
221.000	181.654	79.992	19.997	102.950	20.014	3.930	0.474
221.500	181.921	79.991	19.997	102.945	20.014	3.959	0.515
222.000	182.140	79.993	19.997	102.945	20.015	3.887	0.514
222.500	182.389	79.993	19.997	102.946	20.015	3.875	0.477
223.000	182.653	79.991	19.997	102.946	20.016	3.827	0.490
223.500	182.936	79.990	19.996	102.946	20.017	3.747	0.530
224.000	183.140	79.992	19.997	102.947	20.017	3.767	0.517
224.500	183.413	79.993	19.998	102.946	20.014	3.945	0.482
225.000	183.643	79.992	19.997	102.945	20.015	3.866	0.490
225.500	183.884	79.991	19.996	102.946	20.015	3.901	0.487
226.000	184.138	79.992	19.996	102.947	20.015	3.891	0.483
226.500	184.370	79.991	19.997	102.951	20.013	4.029	0.491
227.000	184.612	79.992	19.995	102.952	20.015	3.891	0.480
227.500	184.880	79.992	19.997	102.951	20.016	3.784	0.492
228.000	185.099	79.992	19.997	102.952	20.016	3.817	0.498
228.500	185.384	79.992	19.996	102.950	20.014	3.937	0.495
229.000	185.595	79.993	19.995	102.946	20.016	3.809	0.500
229.500	185.903	79.991	19.995	102.945	20.017	3.716	0.508
230.000	186.094	79.993	19.996	102.946	20.016	3.840	0.509
230.500	186.434	79.993	19.994	102.946	20.014	3.961	0.515
231.000	186.658	79.993	19.996	102.946	20.015	3.897	0.548
231.500	186.921	79.992	19.996	102.947	20.013	4.029	0.525
232.000	187.177	79.993	19.995	102.947	20.016	3.846	0.503
232.500	187.404	79.993	19.995	102.948	20.014	3.988	0.501
233.000	187.684	79.992	19.996	102.948	20.013	4.013	0.494
233.500	187.934	79.993	19.995	102.948	20.013	4.056	0.519
234.000	188.126	79.993	19.996	102.948	20.014	3.965	0.487
234.500	188.362	79.993	19.996	102.948	20.015	3.916	0.435
235.000	188.655	79.993	19.996	102.948	20.018	3.697	0.478
235.500	188.879	79.991	19.996	102.948	20.012	4.114	0.523
236.000	189.147	79.992	19.996	102.948	20.014	3.976	0.505
236.500	189.416	79.992	19.994	102.949	20.015	3.858	0.514
237.000	189.646	79.994	19.995	102.949	20.014	3.986	0.518
237.500	189.885	79.994	19.995	102.950	20.013	4.054	0.484
238.000	190.141	79.994	19.995	102.950	20.013	4.015	0.482
238.500	190.411	79.993	19.995	102.951	20.014	3.996	0.510
239.000	190.666	79.993	19.995	102.951	20.014	3.949	0.525
239.500	190.894	79.993	19.995	102.951	20.015	3.889	0.504
240.000	191.156	79.994	19.995	102.951	20.016	3.794	0.486
240.500	191.411	79.992	19.995	102.951	20.015	3.901	0.503
241.000	191.652	79.994	19.996	102.951	20.014	3.943	0.507
241.500	191.899	79.994	19.995	102.952	20.016	3.788	0.492
242.000	192.165	79.993	19.996	102.953	20.018	3.675	0.500
242.500	192.402	79.992	19.995	102.952	20.015	3.918	0.508
243.000	192.654	79.992	19.995	102.950	20.014	3.988	0.496
243.500	192.872	79.993	19.995	102.949	20.012	4.112	0.480
244.000	193.115	79.992	19.996	102.948	20.015	3.891	0.466
244.500	193.353	79.993	19.995	102.947	20.014	3.939	0.471
245.000	193.616	79.991	19.995	102.948	20.012	4.095	0.491
245.500	193.889	79.992	19.996	102.950	20.011	4.159	0.518
246.000	194.113	79.992	19.995	102.949	20.014	3.980	0.516
246.500	194.347	79.991	19.996	102.949	20.012	4.093	0.478
247.000	194.622	79.992	19.995	102.950	20.014	3.994	0.484
247.500	194.872	79.993	19.995	102.950	20.013	4.017	0.517
248.000	195.103	79.992	19.995	102.949	20.012	4.132	0.503
248.500	195.356	79.992	19.996	102.946	20.012	4.106	0.482
249.000	195.601	79.991	19.995	102.946	20.013	4.031	0.491
249.500	195.887	79.992	19.995	102.946	20.014	3.972	0.514
250.000	196.107	79.991	19.996	102.946	20.013	4.054	0.518
250.500	196.359	79.992	19.995	102.946	20.016	3.817	0.489
251.000	196.596	79.991	19.996	102.949	20.017	3.701	0.480
251.500	196.810	79.991	19.995	102.950	20.016	3.846	0.470
252.000	197.076	79.991	19.996	102.949	20.016	3.790	0.466
252.500	197.324	79.991	19.995	102.949	20.016	3.784	0.497
253.000	197.589	79.991	19.995	102.949	20.017	3.732	0.513
253.500	197.850	79.992	19.996	102.949	20.018	3.650	0.519
254.000	198.054	79.992	19.996	102.948	20.017	3.749	0.496
254.500	198.301	79.991	19.995	102.949	20.015	3.885	0.458
255.000	198.574	79.991	19.996	102.949	20.014	3.957	0.486
255.500	198.820	79.990	19.995	102.951	20.017	3.701	0.519
256.000	199.061	79.990	19.996	102.951	20.015	3.916	0.503
256.500	199.339	79.992	19.995	102.952	20.015	3.874	0.503
257.000	199.525	79.990	19.995	102.952	20.014	3.940	0.492
257.500	199.791	79.991	19.996	102.952	20.013	4.025	0.458
258.000	200.034	79.992	19.996	102.952	20.015	3.924	0.481
258.500	200.280	79.991	19.995	102.951	20.015	3.849	0.499
259.000	200.523	79.992	19.997	102.951	20.013	4.016	0.489
259.500	200.787	79.992	19.996	102.950	20.012	4.101	0.498
260.000	201.043	79.992	19.995	102.950	20.017	3.701	0.513
260.500	201.275	79.992	19.996	102.950	20.013	4.008	0.504
261.000	201.505	79.993	19.995	102.949	20.013	4.048	0.475
261.500	201.779	79.991	19.996	102.948	20.012	4.077	0.483
262.000	201.989	79.993	19.995	102.947	20.013	4.033	0.494
262.500	202.249	79.993	19.996	102.947	20.015	3.889	0.477
263.000	202.507	79.994	19.996	102.946	20.013	4.002	0.494
263.500	202.764	79.994	19.996	102.946	20.014	3.955	0.516
264.000	203.029	79.994	19.996	102.946	20.012	4.105	0.518
264.500	203.292	79.994	19.995	102.946	20.015	3.901	0.526
265.000	203.517	79.995	19.996	102.947	20.012	4.099	0.508
265.500	203.811	79.994	19.995	102.946	20.013	4.064	0.503
266.000	204.034	79.993	19.996	102.945	20.015	3.876	0.518
266.500	204.294	79.994	19.995	102.942	20.015	3.893	0.500
267.000	204.526	79.995	19.995	102.941	20.012	4.097	0.488
267.500	204.737	79.993	19.994	102.940	20.013	4.064	0.468
268.000	204.999	79.994	19.995	102.940	20.011	4.157	0.458
268.500	205.261	79.994	19.997	102.938	20.011	4.167	0.498
269.000	205.519	79.993	19.995	102.940	20.017	3.767	0.522
269.500	205.737	79.994	19.995	102.936	20.018	3.676	0.498
270.000	205.988	79.994	19.995	102.936	20.012	4.140	0.473
270.500	206.242	79.994	19.996	102.936	20.014	3.990	0.487
271.000	206.481	79.993	19.996	102.938	20.014	3.955	0.499
271.500	206.753	79.994	19.995	102.940	20.014	3.973	0.502
272.001	206.974	79.994	19.996	102.944	20.013	4.002	0.502
272.500	207.233	79.994	19.996	102.944	20.013	4.006	0.487
273.000	207.485	79.994	19.994	102.945	20.012	4.132	0.496
273.500	207.736	79.994	19.996	102.944	20.011	4.171	0.507
274.000	207.967	79.993	19.995	102.943	20.010	4.283	0.493
274.500	208.207	79.993	19.995	102.942	20.011	4.180	0.477
275.000	208.450	79.993	19.995	102.942	20.015	3.864	0.477
275.500	208.700	79.993	19.996	102.942	20.014	3.963	0.488
276.000	208.951	79.993	19.997	102.943	20.012	4.144	0.497
276.500	209.199	79.993	19.996	102.942	20.012	4.076	0.499
277.000	209.448	79.993	19.996	102.943	20.010	4.233	0.498
277.500	209.683	79.992	19.996	102.944	20.012	4.120	0.491
278.000	209.923	79.992	19.996	102.940	20.011	4.217	0.480
278.500	210.205	79.994	19.995	102.939	20.011	4.159	0.498
279.000	210.455	79.992	19.996	102.940	20.014	3.977	0.527
279.500	210.670	79.993	19.996	102.936	20.010	4.245	0.499
280.000	210.927	79.993	19.996	102.935	20.012	4.150	0.468
280.500	211.203	79.993	19.996	102.938	20.011	4.214	0.502
281.000	211.437	79.994	19.995	102.939	20.013	4.018	0.522
281.500	211.638	79.994	19.996	102.941	20.015	3.872	0.473
282.000	211.958	79.994	19.996	102.943	20.013	4.031	0.478
282.500	212.164	79.993	19.996	102.942	20.013	4.014	0.523
283.000	212.419	79.994	19.996	102.943	20.011	4.152	0.493
283.500	212.652	79.995	19.996	102.942	20.012	4.135	0.474
284.000	212.881	79.994	19.996	102.942	20.012	4.098	0.475
284.500	213.124	79.993	19.996	102.942	20.014	3.970	0.467
285.000	213.371	79.994	19.995	102.943	20.013	4.040	0.481
285.500	213.613	79.996	19.996	102.942	20.010	4.238	0.489
286.000	213.894	79.994	19.996	102.942	20.013	4.040	0.506
286.500	214.108	79.994	19.996	102.942	20.012	4.075	0.510
287.000	214.309	79.995	19.996	102.942	20.014	3.941	0.455
287.500	214.584	79.996	19.997	102.941	20.013	4.055	0.445
288.000	214.844	79.996	19.996	102.940	20.012	4.123	0.506
288.500	215.078	79.996	19.996	102.939	20.011	4.156	0.515
289.000	215.311	79.995	19.996	102.938	20.012	4.123	0.480
289.500	215.602	79.996	19.996	102.939	20.012	4.113	0.495
290.000	215.824	79.994	19.995	102.941	20.011	4.206	0.518
290.500	216.060	79.996	19.995	102.937	20.013	4.005	0.485
291.000	216.284	79.995	19.996	102.935	20.009	4.343	0.459
291.500	216.533	79.995	19.996	102.931	20.010	4.230	0.467
292.000	216.798	79.996	19.996	102.930	20.012	4.123	0.493
292.500	217.040	79.996	19.994	102.926	20.012	4.088	0.510
293.000	217.267	79.995	19.996	102.928	20.010	4.234	0.488
293.500	217.523	79.994	19.996	102.924	20.009	4.356	0.476
294.000	217.774	79.994	19.996	102.924	20.011	4.170	0.495
294.500	218.010	79.994	19.995	102.922	20.009	4.335	0.497
295.000	218.299	79.995	19.996	102.922	20.010	4.261	0.506
295.500	218.520	79.995	19.995	102.919	20.009	4.356	0.518
296.000	218.738	79.994	19.995	102.919	20.010	4.288	0.475
296.500	218.997	79.995	19.994	102.917	20.012	4.127	0.458
297.000	219.215	79.993	19.994	102.914	20.011	4.166	0.477
297.500	219.468	79.993	19.996	102.913	20.009	4.321	0.474
298.000	219.756	79.994	19.995	102.914	20.009	4.375	0.506
298.500	219.937	79.992	19.996	102.914	20.009	4.323	0.505
299.000	220.219	79.993	19.996	102.918	20.010	4.272	0.466
299.500	220.402	79.993	19.996	102.920	20.011	4.187	0.464
300.000	220.647	79.993	19.995	102.920	20.009	4.360	0.446
300.500	220.908	79.992	19.996	102.919	20.009	4.348	0.466
301.000	221.189	79.993	19.996	102.923	20.007	4.492	0.524
301.500	221.426	79.993	19.995	102.919	20.009	4.342	0.530
302.000	221.639	79.992	19.997	102.917	20.008	4.432	0.484
302.500	221.919	79.993	19.996	102.917	20.010	4.250	0.472
303.000	222.122	79.992	19.995	102.916	20.010	4.290	0.488
303.500	222.365	79.993	19.996	102.913	20.009	4.358	0.464
304.000	222.640	79.991	19.995	102.914	20.011	4.197	0.482
304.500	222.888	79.992	19.997	102.916	20.008	4.413	0.521
305.000	223.114	79.991	19.997	102.917	20.008	4.436	0.499
305.500	223.365	79.991	19.995	102.917	20.008	4.415	0.475
306.000	223.583	79.990	19.998	102.916	20.004	4.753	0.473
306.500	223.843	79.991	19.997	102.915	20.008	4.411	0.474
307.000	224.103	79.991	19.996	102.915	20.008	4.438	0.499
307.500	224.320	79.990	19.996	102.915	20.010	4.257	0.499
308.000	224.577	79.991	19.997	102.916	20.008	4.378	0.476
308.500	224.833	79.991	19.996	102.919	20.007	4.523	0.493
309.000	225.057	79.991	19.996	102.920	20.007	4.516	0.496
309.500	225.335	79.990	19.996	102.921	20.007	4.512	0.491
310.000	225.527	79.992	19.997	102.923	20.009	4.343	0.486
310.500	225.818	79.991	19.996	102.928	20.007	4.475	0.476
311.000	226.021	79.990	19.996	102.930	20.004	4.710	0.489
311.500	226.240	79.991	19.996	102.929	20.006	4.601	0.458
312.000	226.472	79.991	19.995	102.926	20.007	4.455	0.436
312.500	226.755	79.991	19.997	102.922	20.010	4.290	0.483
313.000	226.999	79.991	19.997	102.915	20.009	4.314	0.521
313.500	227.196	79.992	19.997	102.910	20.007	4.455	0.485
314.000	227.436	79.992	19.996	102.909	20.006	4.560	0.439
314.500	227.668	79.992	19.996	102.911	20.006	4.545	0.454
315.000	227.960	79.993	19.996	102.911	20.004	4.729	0.498
315.500	228.182	79.992	19.997	102.912	20.009	4.353	0.519
316.000	228.414	79.993	19.995	102.912	20.006	4.584	0.484
316.500	228.685	79.992	19.995	102.912	20.008	4.421	0.479
317.000	228.925	79.992	19.996	102.911	20.007	4.489	0.507
317.500	229.170	79.992	19.996	102.914	20.007	4.502	0.498
318.000	229.410	79.992	19.996	102.914	20.011	4.191	0.485
318.500	229.660	79.991	19.995	102.914	20.006	4.582	0.488
319.000	229.854	79.992	19.996	102.915	20.006	4.551	0.467
319.500	230.089	79.991	19.997	102.914	20.006	4.553	0.437
320.000	230.356	79.992	19.996	102.914	20.008	4.446	0.466
320.500	230.576	79.992	19.996	102.914	20.007	4.494	0.495
321.000	230.839	79.993	19.995	102.914	20.009	4.374	0.485
321.500	231.062	79.991	19.995	102.913	20.007	4.506	0.484
322.000	231.307	79.993	19.996	102.912	20.008	4.419	0.477
322.500	231.564	79.991	19.995	102.910	20.009	4.353	0.485
323.000	231.784	79.991	19.996	102.911	20.010	4.277	0.490
323.500	232.004	79.991	19.995	102.911	20.010	4.271	0.459
324.000	232.274	79.992	19.994	102.912	20.009	4.370	0.465
324.500	232.513	79.992	19.995	102.912	20.009	4.339	0.499
325.000	232.705	79.993	19.996	102.912	20.008	4.397	0.470
325.500	232.946	79.992	19.994	102.910	20.005	4.650	0.432
326.000	233.194	79.992	19.996	102.910	20.007	4.527	0.462
326.500	233.458	79.995	19.995	102.909	20.010	4.265	0.500
327.000	233.687	79.993	19.995	102.908	20.007	4.483	0.502
327.500	233.942	79.993	19.995	102.908	20.008	4.446	0.489
328.000	234.141	79.991	19.996	102.908	20.007	4.492	0.469
328.500	234.378	79.992	19.995	102.909	20.007	4.469	0.445
329.000	234.631	79.992	19.995	102.910	20.009	4.354	0.463
329.500	234.909	79.994	19.996	102.910	20.005	4.644	0.511
330.000	235.102	79.993	19.994	102.910	20.006	4.537	0.501
330.500	235.337	79.993	19.996	102.911	20.008	4.380	0.449
331.000	235.577	79.992	19.995	102.909	20.008	4.440	0.451
331.500	235.803	79.992	19.995	102.908	20.007	4.518	0.471
332.000	236.029	79.992	19.996	102.908	20.008	4.380	0.459
332.500	236.278	79.992	19.996	102.909	20.005	4.669	0.463
333.000	236.529	79.992	19.996	102.909	20.008	4.450	0.487
333.500	236.773	79.992	19.995	102.910	20.004	4.683	0.497
334.000	236.978	79.992	19.996	102.910	20.005	4.605	0.472
334.500	237.247	79.993	19.996	102.910	20.008	4.440	0.462
335.000	237.463	79.993	19.996	102.909	20.006	4.545	0.479
335.500	237.726	79.992	19.996	102.910	20.007	4.527	0.482
336.000	237.957	79.992	19.995	102.910	20.004	4.694	0.487
336.500	238.183	79.993	19.995	102.910	20.003	4.755	0.476
337.000	238.428	79.992	19.995	102.911	20.007	4.516	0.464
337.500	238.688	79.993	19.996	102.911	20.008	4.405	0.488
338.000	238.930	79.992	19.995	102.911	20.005	4.615	0.503
338.500	239.138	79.992	19.996	102.909	20.006	4.543	0.476
339.000	239.329	79.992	19.995	102.909	20.005	4.665	0.425
339.500	239.586	79.992	19.995	102.910	20.006	4.539	0.423
340.000	239.790	79.992	19.995	102.911	20.005	4.611	0.454
340.500	240.071	79.993	19.995	102.911	20.003	4.809	0.473
341.000	240.280	79.992	19.995	102.912	20.005	4.644	0.488
341.500	240.492	79.992	19.996	102.911	20.004	4.741	0.456
342.000	240.760	79.993	19.996	102.911	20.005	4.648	0.451
342.500	240.975	79.994	19.996	102.908	20.001	4.947	0.481
343.000	241.245	79.993	19.995	102.907	20.003	4.792	0.484
343.500	241.468	79.994	19.995	102.908	20.002	4.887	0.489
344.000	241.691	79.993	19.996	102.908	20.003	4.813	0.469
344.500	241.939	79.993	19.995	102.907	20.001	4.949	0.458
345.000	242.170	79.994	19.996	102.907	19.999	5.083	0.475
345.500	242.439	79.994	19.995	102.908	20.003	4.795	0.490
346.000	242.684	79.993	19.996	102.910	20.001	4.951	0.507
346.500	242.927	79.993	19.996	102.911	20.001	4.939	0.501
347.000	243.107	79.994	19.995	102.911	19.998	5.147	0.455
347.500	243.375	79.994	19.994	102.911	20.000	5.032	0.435
348.000	243.623	79.995	19.995	102.911	19.998	5.174	0.482
348.500	243.847	79.993	19.995	102.908	20.000	4.982	0.494
349.000	244.088	79.994	19.996	102.909	19.998	5.151	0.468
349.500	244.350	79.995	19.995	102.910	20.000	5.034	0.484
350.000	244.559	79.995	19.996	102.909	19.995	5.386	0.487
350.500	244.802	79.995	19.996	102.910	19.998	5.205	0.461
351.000	245.046	79.994	19.995	102.913	19.998	5.174	0.469
351.500	245.290	79.994	19.996	102.916	19.996	5.331	0.488
352.000	245.517	79.994	19.995	102.917	19.997	5.238	0.479
352.500	245.756	79.994	19.996	102.916	19.995	5.432	0.469
353.000	245.989	79.994	19.996	102.915	19.994	5.467	0.469
353.500	246.267	79.994	19.994	102.912	19.996	5.326	0.492
354.000	246.502	79.995	19.995	102.909	19.996	5.351	0.512
354.500	246.708	79.994	19.995	102.908	19.991	5.685	0.476
355.000	246.955	79.994	19.995	102.908	19.993	5.516	0.447
355.500	247.215	79.994	19.995	102.909	19.991	5.665	0.480
356.000	247.468	79.993	19.995	102.912	19.994	5.461	0.510
356.500	247.651	79.993	19.994	102.911	19.992	5.591	0.474
357.000	247.921	79.993	19.995	102.911	19.993	5.518	0.445
357.500	248.151	79.995	19.995	102.912	19.994	5.487	0.476
358.000	248.387	79.993	19.995	102.912	19.990	5.778	0.483
358.500	248.628	79.992	19.995	102.909	19.991	5.681	0.472
359.000	248.865	79.995	19.995	102.909	19.993	5.520	0.478
359.500	249.108	79.993	19.994	102.909	19.991	5.675	0.479
360.000	249.396	79.993	19.995	102.911	19.987	5.970	0.506
360.500	249.624	79.995	19.994	102.912	19.991	5.673	0.524
361.000	249.853	79.994	19.996	102.912	19.991	5.685	0.486
361.500	250.099	79.993	19.995	102.912	19.992	5.640	0.466
362.000	250.364	79.994	19.995	102.912	19.990	5.786	0.493
362.500	250.561	79.993	19.995	102.910	19.991	5.662	0.487
363.000	250.811	79.993	19.994	102.910	19.989	5.813	0.454
363.500	251.086	79.994	19.994	102.910	19.989	5.877	0.486
364.000	251.317	79.993	19.996	102.911	19.990	5.751	0.515
364.500	251.582	79.993	19.994	102.911	19.986	6.094	0.501
365.000	251.848	79.994	19.995	102.912	19.988	5.898	0.514
365.500	252.082	79.993	19.995	102.916	19.986	6.097	0.516
366.000	252.313	79.995	19.995	102.918	19.988	5.939	0.482
366.500	252.553	79.994	19.996	102.920	19.987	6.013	0.468
367.000	252.770	79.994	19.994	102.920	19.984	6.250	0.464
367.500	253.018	79.995	19.995	102.919	19.984	6.192	0.461
368.000	253.264	79.994	19.995	102.915	19.984	6.204	0.480
368.500	253.520	79.995	19.995	102.913	19.980	6.510	0.498
369.000	253.783	79.995	19.995	102.911	19.983	6.337	0.510
369.500	253.998	79.994	19.995	102.909	19.981	6.452	0.498
370.000	254.236	79.995	19.996	102.910	19.982	6.407	0.465
370.500	254.467	79.995	19.996	102.910	19.980	6.551	0.461
371.000	254.700	79.996	19.995	102.910	19.979	6.607	0.467
371.500	254.982	79.994	19.996	102.910	19.979	6.592	0.490
372.000	255.257	79.995	19.995	102.911	19.976	6.798	0.536
372.500	255.481	79.996	19.996	102.910	19.977	6.774	0.528
373.000	255.719	79.995	19.995	102.910	19.975	6.899	0.481
373.501	255.983	79.994	19.996	102.912	19.977	6.728	0.482
374.000	256.213	79.994	19.995	102.913	19.978	6.716	0.498
374.500	256.449	79.992	19.995	102.915	19.973	7.091	0.480
375.000	256.700	79.993	19.995	102.916	19.974	6.999	0.476
375.500	256.938	79.994	19.995	102.916	19.975	6.883	0.488
376.000	257.195	79.992	19.995	102.914	19.969	7.324	0.493
376.500	257.463	79.993	19.995	102.910	19.970	7.275	0.510
377.000	257.690	79.993	19.995	102.909	19.968	7.402	0.510
377.500	257.931	79.993	19.995	102.909	19.973	7.042	0.482
378.000	258.201	79.993	19.995	102.908	19.970	7.301	0.490
378.500	258.414	79.995	19.995	102.908	19.968	7.431	0.497
379.000	258.691	79.993	19.996	102.910	19.967	7.478	0.486
379.500	258.969	79.992	19.997	102.911	19.969	7.351	0.522
380.000	259.173	79.993	19.995	102.913	19.965	7.647	0.519
380.500	259.436	79.992	19.995	102.915	19.965	7.633	0.475
381.000	259.668	79.992	19.996	102.917	19.963	7.802	0.481
381.500	259.907	79.992	19.996	102.918	19.965	7.635	0.483
382.000	260.138	79.991	19.995	102.917	19.962	7.880	0.471
382.500	260.399	79.993	19.995	102.915	19.961	7.960	0.481
383.000	260.630	79.993	19.995	102.914	19.958	8.206	0.492
383.500	260.878	79.991	19.995	102.913	19.959	8.103	0.485
384.000	261.081	79.992	19.996	102.912	19.957	8.303	0.466
384.500	261.409	79.993	19.995	102.916	19.956	8.311	0.491
385.000	261.591	79.992	19.996	102.916	19.957	8.301	0.520
385.500	261.836	79.991	19.996	102.915	19.955	8.455	0.468
386.000	262.071	79.994	19.996	102.917	19.953	8.606	0.454
386.500	262.347	79.992	19.996	102.918	19.953	8.534	0.496
387.000	262.606	79.992	19.996	102.915	19.951	8.728	0.523
387.500	262.815	79.993	19.996	102.915	19.948	8.977	0.502
388.000	263.074	79.993	19.996	102.915	19.949	8.839	0.467
388.500	263.315	79.992	19.995	102.912	19.947	8.994	0.484
389.000	263.584	79.993	19.995	102.911	19.947	9.020	0.505
389.500	263.845	79.993	19.996	102.910	19.947	9.000	0.520
390.000	264.045	79.992	19.996	102.910	19.946	9.072	0.495
390.500	264.325	79.993	19.996	102.910	19.946	9.131	0.471
391.000	264.546	79.992	19.995	102.910	19.945	9.167	0.491
391.500	264.800	79.993	19.996	102.910	19.944	9.265	0.488
392.000	265.061	79.993	19.996	102.908	19.942	9.383	0.495
392.500	265.319	79.993	19.995	102.907	19.942	9.408	0.517
393.000	265.576	79.992	19.996	102.906	19.939	9.655	0.517
393.500	265.822	79.992	19.996	102.906	19.934	9.989	0.509
394.000	266.051	79.993	19.996	102.907	19.936	9.888	0.489
394.500	266.298	79.991	19.996	102.908	19.935	9.957	0.476
395.000	266.548	79.993	19.996	102.908	19.935	9.922	0.486
395.500	266.796	79.992	19.997	102.908	19.933	10.114	0.497
396.000	267.009	79.992	19.996	102.911	19.931	10.199	0.480
396.500	267.267	79.992	19.996	102.911	19.928	10.466	0.466
397.000	267.542	79.993	19.996	102.911	19.928	10.468	0.502
397.500	267.791	79.993	19.996	102.913	19.927	10.509	0.529
398.000	268.037	79.993	19.997	102.914	19.926	10.578	0.510
398.500	268.265	79.993	19.996	102.912	19.920	11.059	0.484
399.000	268.526	79.992	19.996	102.913	19.920	11.051	0.481
399.500	268.764	79.992	19.996	102.913	19.922	10.914	0.494
400.000	269.015	79.993	19.998	102.912	19.919	11.164	0.494
400.500	269.285	79.993	19.997	102.910	19.915	11.430	0.505
401.000	269.495	79.993	19.997	102.910	19.913	11.599	0.501
401.500	269.746	79.994	19.997	102.909	19.914	11.482	0.471
402.000	270.003	79.992	19.996	102.909	19.911	11.737	0.485
402.500	270.237	79.992	19.997	102.909	19.910	11.856	0.499
403.000	270.518	79.994	19.997	102.909	19.911	11.761	0.503
403.500	270.786	79.993	19.997	102.910	19.906	12.103	0.532
404.000	271.044	79.993	19.996	102.908	19.904	12.243	0.537
404.500	271.291	79.994	19.997	102.910	19.904	12.278	0.515
405.000	271.540	79.992	19.997	102.913	19.905	12.228	0.501
405.500	271.814	79.994	19.996	102.916	19.902	12.419	0.510
406.000	272.042	79.993	19.996	102.923	19.897	12.768	0.513
406.500	272.249	79.993	19.996	102.926	19.898	12.727	0.468
407.000	272.549	79.993	19.997	102.924	19.895	12.924	0.471
407.500	272.768	79.992	19.996	102.923	19.892	13.167	0.513
408.000	273.020	79.991	19.995	102.920	19.894	13.068	0.495
408.500	273.273	79.992	19.996	102.913	19.889	13.431	0.488
409.000	273.534	79.994	19.995	102.909	19.888	13.464	0.509
409.500	273.763	79.993	19.997	102.910	19.884	13.760	0.502
410.000	274.015	79.992	19.995	102.916	19.884	13.763	0.486
410.500	274.278	79.993	19.996	102.923	19.883	13.891	0.498
411.000	274.541	79.993	19.997	102.929	19.880	14.095	0.520
411.500	274.782	79.993	19.995	102.932	19.879	14.145	0.515
412.000	275.011	79.994	19.996	102.933	19.877	14.289	0.487
412.500	275.270	79.994	19.996	102.930	19.873	14.652	0.479
413.000	275.509	79.994	19.995	102.926	19.868	14.970	0.493
413.500	275.762	79.994	19.996	102.924	19.869	14.921	0.494
414.000	275.999	79.992	19.996	102.922	19.864	15.281	0.491
414.500	276.252	79.993	19.995	102.921	19.862	15.421	0.490
415.000	276.494	79.994	19.995	102.918	19.863	15.370	0.493
415.500	276.759	79.994	19.996	102.917	19.861	15.496	0.501
416.000	277.014	79.992	19.995	102.915	19.857	15.851	0.513
416.500	277.244	79.994	19.996	102.921	19.856	15.879	0.502
417.000	277.493	79.993	19.995	102.926	19.851	16.263	0.482
417.500	277.742	79.993	19.995	102.932	19.849	16.445	0.489
418.000	278.013	79.992	19.996	102.937	19.846	16.645	0.509
418.500	278.271	79.994	19.995	102.940	19.850	16.349	0.524
419.000	278.508	79.994	19.995	102.940	19.847	16.611	0.512
419.500	278.755	79.994	19.995	102.940	19.842	16.997	0.489
420.000	279.002	79.993	19.995	102.937	19.840	17.136	0.489
420.500	279.240	79.992	19.995	102.934	19.839	17.188	0.489
421.000	279.526	79.994	19.995	102.938	19.837	17.373	0.504
421.500	279.769	79.995	19.995	102.939	19.835	17.523	0.527
422.000	280.007	79.994	19.994	102.939	19.831	17.804	0.506
422.500	280.280	79.993	19.995	102.942	19.826	18.195	0.496
423.000	280.548	79.995	19.995	102.943	19.825	18.232	0.526
423.500	280.755	79.994	19.995	102.939	19.825	18.240	0.508
424.000	280.998	79.995	19.995	102.932	19.822	18.487	0.462
424.500	281.304	79.994	19.995	102.930	19.822	18.473	0.499
425.000	281.530	79.994	19.994	102.930	19.820	18.617	0.540
425.500	281.790	79.994	19.995	102.927	19.816	18.953	0.510
426.000	282.017	79.995	19.995	102.929	19.816	18.906	0.487
426.500	282.259	79.994	19.995	102.933	19.812	19.197	0.478
427.000	282.530	79.994	19.995	102.933	19.811	19.285	0.491
427.500	282.771	79.994	19.995	102.932	19.807	19.594	0.512
428.000	283.012	79.995	19.995	102.935	19.806	19.711	0.496
428.500	283.292	79.993	19.995	102.933	19.803	19.936	0.501
429.000	283.516	79.994	19.995	102.937	19.799	20.202	0.513
429.500	283.790	79.993	19.994	102.940	19.798	20.293	0.502
430.000	284.061	79.993	19.995	102.942	19.797	20.370	0.521
430.500	284.270	79.995	19.994	102.943	19.792	20.756	0.512
431.000	284.547	79.993	19.995	102.940	19.791	20.831	0.483
431.500	284.780	79.993	19.995	102.937	19.786	21.196	0.498
432.000	285.031	79.995	19.995	102.936	19.784	21.355	0.497
432.500	285.298	79.994	19.995	102.936	19.785	21.303	0.501
433.000	285.532	79.993	19.995	102.938	19.780	21.643	0.510
433.500	285.781	79.994	19.995	102.943	19.779	21.686	0.492
434.000	286.066	79.994	19.994	102.946	19.776	21.919	0.509
434.500	286.305	79.993	19.994	102.944	19.776	21.925	0.529
435.000	286.553	79.993	19.995	102.942	19.771	22.348	0.506
435.500	286.806	79.993	19.995	102.941	19.769	22.448	0.494
436.000	287.095	79.994	19.995	102.940	19.769	22.508	0.521
436.500	287.331	79.993	19.996	102.939	19.764	22.881	0.533
437.000	287.564	79.993	19.995	102.942	19.761	23.048	0.497
437.500	287.826	79.994	19.995	102.943	19.763	22.919	0.483
438.000	288.087	79.993	19.995	102.943	19.757	23.357	0.509
438.500	288.380	79.994	19.994	102.939	19.756	23.474	0.538
439.000	288.597	79.995	19.996	102.938	19.753	23.721	0.532
439.500	288.865	79.994	19.996	102.938	19.754	23.634	0.497
440.000	289.127	79.994	19.995	102.939	19.748	24.075	0.507
440.500	289.354	79.993	19.995	102.940	19.745	24.255	0.510
441.000	289.571	79.993	19.996	102.944	19.743	24.459	0.467
441.500	289.863	79.993	19.996	102.947	19.743	24.430	0.477
442.000	290.100	79.993	19.995	102.947	19.742	24.488	0.518
442.500	290.375	79.993	19.995	102.948	19.743	24.461	0.520
443.000	290.609	79.995	19.996	102.948	19.739	24.777	0.511
443.500	290.871	79.994	19.993	102.948	19.734	25.097	0.503
444.000	291.161	79.995	19.994	102.946	19.732	25.278	0.524
444.500	291.402	79.994	19.994	102.946	19.730	25.458	0.542
445.000	291.692	79.994	19.994	102.946	19.730	25.437	0.531
445.500	291.921	79.994	19.995	102.946	19.725	25.802	0.525
446.000	292.158	79.995	19.995	102.943	19.729	25.491	0.492
446.500	292.423	79.996	19.995	102.941	19.723	25.920	0.484
447.000	292.685	79.995	19.994	102.941	19.722	26.022	0.515
447.500	292.908	79.994	19.994	102.940	19.719	26.271	0.506
448.000	293.174	79.996	19.996	102.940	19.719	26.220	0.486
448.500	293.408	79.995	19.995	102.944	19.718	26.329	0.494
449.000	293.696	79.995	19.995	102.947	19.714	26.635	0.511
449.500	293.930	79.996	19.995	102.946	19.713	26.713	0.522
450.000	294.184	79.996	19.995	102.944	19.711	26.881	0.505
450.500	294.415	79.996	19.995	102.941	19.710	26.958	0.487
451.000	294.695	79.995	19.994	102.933	19.707	27.192	0.499
451.500	294.963	79.996	19.994	102.926	19.703	27.452	0.529
452.000	295.224	79.995	19.995	102.925	19.705	27.322	0.538
452.500	295.452	79.996	19.995	102.927	19.704	27.400	0.509
453.000	295.687	79.996	19.995	102.928	19.702	27.512	0.476
453.500	295.986	79.996	19.995	102.934	19.702	27.531	0.499
454.000	296.214	79.994	19.995	102.938	19.701	27.612	0.531
454.500	296.456	79.993	19.995	102.939	19.701	27.581	0.499
455.000	296.749	79.995	19.994	102.937	19.699	27.773	0.503
455.500	296.970	79.995	19.996	102.937	19.698	27.862	0.524
456.000	297.256	79.995	19.994	102.938	19.697	27.919	0.510
456.500	297.525	79.994	19.995	102.940	19.697	27.921	0.531
457.000	297.777	79.995	19.995	102.940	19.695	28.047	0.538
457.500	298.023	79.993	19.995	102.940	19.693	28.236	0.509
458.000	298.315	79.994	19.996	102.936	19.695	28.085	0.518
458.500	298.526	79.993	19.996	102.934	19.692	28.276	0.521
459.000	298.811	79.993	19.996	102.934	19.690	28.431	0.500
459.500	299.051	79.993	19.996	102.934	19.692	28.318	0.511
460.000	299.304	79.993	19.996	102.929	19.696	28.015	0.509
460.500	299.542	79.992	19.996	102.927	19.690	28.409	0.492
461.000	299.822	79.992	19.996	102.923	19.694	28.161	0.505
461.500	300.040	79.992	19.996	102.921	19.693	28.203	0.508
462.000	300.282	79.993	19.995	102.916	19.690	28.403	0.478
462.500	300.578	79.992	19.997	102.915	19.692	28.248	0.499
463.000	300.832	79.991	19.996	102.916	19.690	28.469	0.544
463.500	301.083	79.992	19.996	102.916	19.690	28.407	0.528
464.000	301.301	79.992	19.996	102.911	19.691	28.383	0.487
464.500	301.566	79.992	19.996	102.911	19.688	28.595	0.475
465.000	301.770	79.992	19.995	102.912	19.686	28.718	0.476
465.500	302.083	79.993	19.996	102.912	19.687	28.702	0.493
466.000	302.296	79.992	19.996	102.915	19.685	28.820	0.522
466.500	302.578	79.992	19.996	102.922	19.681	29.146	0.511
467.000	302.887	79.992	19.995	102.928	19.681	29.085	0.543
467.500	303.102	79.992	19.995	102.934	19.682	29.076	0.557
468.000	303.348	79.993	19.996	102.944	19.676	29.464	0.492
468.500	303.584	79.993	19.995	102.947	19.681	29.120	0.471
469.000	303.874	79.994	19.995	102.946	19.682	29.082	0.504
469.500	304.150	79.992	19.996	102.946	19.681	29.106	0.546
470.000	304.340	79.993	19.995	102.944	19.681	29.156	0.516
470.500	304.596	79.993	19.995	102.939	19.684	28.934	0.456
471.000	304.846	79.993	19.995	102.932	19.682	29.084	0.476
471.500	305.093	79.994	19.995	102.925	19.682	29.012	0.502
472.000	305.342	79.992	19.995	102.916	19.685	28.839	0.496
472.500	305.594	79.994	19.995	102.910	19.683	28.987	0.498
473.000	305.863	79.992	19.995	102.905	19.686	28.759	0.511
473.500	306.120	79.993	19.995	102.904	19.688	28.582	0.523
474.000	306.384	79.993	19.996	102.904	19.689	28.555	0.523
474.500	306.656	79.993	19.996	102.905	19.686	28.778	0.529
475.000	306.895	79.993	19.994	102.905	19.689	28.480	0.524
475.500	307.161	79.993	19.995	102.906	19.691	28.375	0.508
476.000	307.389	79.992	19.995	102.911	19.691	28.343	0.499
476.500	307.646	79.993	19.995	102.912	19.693	28.231	0.490
477.000	307.881	79.992	19.995	102.913	19.696	27.998	0.489
477.500	308.158	79.993	19.996	102.914	19.696	27.993	0.502
478.000	308.404	79.994	19.995	102.916	19.695	28.092	0.518
478.500	308.640	79.994	19.995	102.916	19.697	27.882	0.502
479.000	308.889	79.994	19.995	102.922	19.697	27.920	0.483
479.500	309.120	79.993	19.996	102.926	19.696	27.990	0.483
480.000	309.402	79.993	19.996	102.929	19.698	27.819	0.496
480.500	309.666	79.993	19.996	102.933	19.698	27.817	0.529
481.000	309.908	79.993	19.996	102.935	19.698	27.840	0.526
481.500	310.183	79.995	19.996	102.931	19.699	27.739	0.512
482.000	310.419	79.993	19.996	102.928	19.697	27.905	0.515
482.500	310.668	79.992	19.996	102.930	19.697	27.897	0.498
483.000	310.934	79.992	19.996	102.930	19.696	28.013	0.500
483.500	311.187	79.992	19.995	102.928	19.700	27.687	0.518
484.000	311.467	79.993	19.995	102.932	19.699	27.795	0.526
484.500	311.680	79.992	19.995	102.934	19.697	27.934	0.513
485.000	311.948	79.993	19.996	102.931	19.699	27.744	0.487
485.500	312.184	79.992	19.995	102.925	19.700	27.657	0.493
486.000	312.444	79.991	19.995	102.921	19.699	27.736	0.500
486.500	312.683	79.990	19.996	102.916	19.699	27.730	0.498
487.000	312.958	79.993	19.995	102.919	19.698	27.853	0.506
487.500	313.201	79.990	19.996	102.922	19.700	27.680	0.516
488.000	313.462	79.992	19.997	102.922	19.702	27.544	0.511
488.500	313.666	79.992	19.997	102.921	19.702	27.543	0.484
489.000	313.987	79.991	19.996	102.919	19.700	27.651	0.495
489.500	314.238	79.991	19.997	102.915	19.702	27.529	0.549
490.000	314.440	79.991	19.996	102.909	19.700	27.657	0.512
490.500	314.709	79.991	19.996	102.910	19.701	27.586	0.462
491.000	314.994	79.991	19.996	102.910	19.702	27.561	0.512
491.500	315.179	79.991	19.997	102.911	19.701	27.627	0.512
492.000	315.466	79.991	19.997	102.909	19.700	27.689	0.471
492.500	315.698	79.991	19.996	102.909	19.703	27.476	0.496
493.000	315.969	79.991	19.997	102.914	19.700	27.660	0.511
493.500	316.211	79.992	19.995	102.921	19.701	27.605	0.508
494.000	316.433	79.991	19.995	102.926	19.701	27.634	0.488
494.500	316.693	79.991	19.996	102.930	19.701	27.594	0.473
495.000	316.953	79.991	19.996	102.936	19.704	27.413	0.502
495.500	317.190	79.991	19.996	102.939	19.702	27.499	0.508
496.000	317.451	79.992	19.996	102.937	19.702	27.547	0.497
496.500	317.716	79.992	19.996	102.934	19.699	27.778	0.512
497.000	317.961	79.991	19.995	102.930	19.700	27.718	0.518
497.500	318.204	79.993	19.996	102.925	19.699	27.793	0.499
498.000	318.475	79.992	19.996	102.919	19.700	27.664	0.500
498.500	318.710	79.992	19.996	102.915	19.697	27.878	0.510
499.000	318.960	79.993	19.996	102.913	19.696	27.980	0.496
499.500	319.229	79.993	19.995	102.919	19.696	28.015	0.502
500.000	319.485	79.993	19.996	102.919	19.691	28.341	0.523
500.500	319.725	79.993	19.995	102.918	19.691	28.364	0.511
501.000	319.943	79.994	19.995	102.919	19.692	28.256	0.476
501.500	320.228	79.993	19.995	102.926	19.689	28.519	0.480
502.000	320.488	79.994	19.995	102.923	19.689	28.502	0.524
502.500	320.737	79.994	19.995	102.923	19.689	28.524	0.528
503.000	320.978	79.994	19.994	102.922	19.687	28.702	0.500
503.500	321.220	79.993	19.994	102.921	19.684	28.915	0.486
504.000	321.488	79.995	19.994	102.916	19.683	28.990	0.496
504.500	321.722	79.993	19.995	102.916	19.682	29.027	0.506
505.000	322.018	79.993	19.994	102.918	19.682	29.040	0.516
505.500	322.216	79.994	19.995	102.921	19.684	28.884	0.512
506.000	322.443	79.994	19.995	102.924	19.680	29.176	0.460
506.500	322.721	79.993	19.995	102.922	19.681	29.143	0.465
507.000	322.960	79.993	19.995	102.919	19.678	29.362	0.511
507.500	323.264	79.993	19.995	102.919	19.674	29.653	0.530
508.000	323.489	79.994	19.994	102.917	19.675	29.596	0.536
508.500	323.771	79.994	19.995	102.918	19.672	29.813	0.518
509.000	324.038	79.994	19.995	102.922	19.670	29.970	0.528
509.500	324.249	79.993	19.995	102.930	19.667	30.190	0.513
510.000	324.495	79.994	19.996	102.933	19.662	30.564	0.467
510.500	324.738	79.993	19.995	102.933	19.659	30.817	0.473
511.000	325.013	79.995	19.994	102.934	19.659	30.816	0.504
511.500	325.259	79.994	19.995	102.936	19.654	31.165	0.519
512.000	325.518	79.994	19.994	102.930	19.655	31.061	0.513
512.500	325.766	79.993	19.994	102.930	19.652	31.351	0.506
513.000	326.007	79.993	19.996	102.927	19.648	31.588	0.498
513.500	326.247	79.993	19.995	102.924	19.646	31.771	0.486
514.000	326.482	79.993	19.997	102.917	19.644	31.889	0.478
514.500	326.766	79.994	19.995	102.916	19.641	32.143	0.497
515.000	326.982	79.993	19.996	102.917	19.636	32.545	0.509
515.500	327.255	79.993	19.995	102.924	19.636	32.543	0.494
516.000	327.493	79.994	19.996	102.926	19.631	32.941	0.500
516.500	327.804	79.993	19.995	102.930	19.630	32.977	0.530
517.000	328.030	79.993	19.994	102.933	19.623	33.503	0.543
517.500	328.256	79.994	19.995	102.933	19.626	33.297	0.494
518.000	328.559	79.994	19.995	102.929	19.622	33.614	0.491
518.500	328.800	79.993	19.995	102.927	19.617	33.951	0.537
519.000	329.055	79.994	19.996	102.924	19.613	34.299	0.520
519.500	329.294	79.994	19.995	102.924	19.608	34.628	0.495
520.000	329.572	79.993	19.996	102.927	19.600	35.240	0.505
520.500	329.807	79.994	19.995	102.931	19.595	35.664	0.515
521.000	330.093	79.993	19.996	102.941	19.585	36.357	0.517
521.500	330.323	79.993	19.995	102.953	19.582	36.576	0.518
522.000	330.576	79.994	19.995	102.958	19.578	36.892	0.499
522.500	330.836	79.994	19.995	102.957	19.573	37.318	0.498
523.000	331.049	79.995	19.995	102.956	19.570	37.507	0.493
523.500	331.334	79.994	19.994	102.952	19.564	37.985	0.485
524.000	331.565	79.993	19.996	102.945	19.560	38.265	0.507
524.500	331.829	79.994	19.995	102.944	19.555	38.656	0.506
525.000	332.058	79.994	19.995	102.940	19.551	38.966	0.495
525.500	332.311	79.994	19.996	102.935	19.544	39.480	0.487
526.000	332.577	79.994	19.996	102.934	19.539	39.847	0.500
526.500	332.829	79.994	19.995	102.934	19.532	40.383	0.519
527.000	333.083	79.994	19.994	102.933	19.529	40.669	0.512
527.500	333.350	79.995	19.995	102.938	19.524	41.020	0.513
528.000	333.588	79.995	19.994	102.945	19.521	41.259	0.513
528.500	333.878	79.995	19.995	102.944	19.511	42.061	0.517
529.000	334.079	79.995	19.995	102.944	19.510	42.109	0.509
529.500	334.349	79.996	19.995	102.944	19.506	42.461	0.481
530.000	334.564	79.997	19.995	102.946	19.500	42.899	0.478
530.500	334.838	79.995	19.994	102.946	19.494	43.363	0.487
531.000	335.107	79.996	19.995	102.948	19.488	43.763	0.516
531.500	335.383	79.996	19.995	102.951	19.481	44.328	0.544
532.000	335.616	79.995	19.995	102.951	19.479	44.462	0.527
532.500	335.874	79.996	19.994	102.952	19.474	44.781	0.500
533.000	336.115	79.995	19.994	102.952	19.467	45.272	0.495
533.500	336.403	79.995	19.994	102.952	19.463	45.607	0.514
534.000	336.600	79.996	19.995	102.949	19.458	45.921	0.507
534.500	336.874	79.994	19.995	102.948	19.453	46.300	0.477
535.000	337.119	79.996	19.994	102.945	19.443	47.100	0.495
535.500	337.333	79.995	19.993	102.944	19.431	48.002	0.489
536.000	337.624	79.993	19.995	102.945	19.415	49.211	0.482
536.500	337.829	79.993	19.995	102.948	19.391	50.982	0.500
537.000	338.058	79.994	19.994	102.959	19.367	52.852	0.465
537.500	338.334	79.993	19.994	102.979	19.342	54.756	0.470
538.000	338.583	79.992	19.995	103.008	19.315	56.791	0.515
538.500	338.842	79.994	19.994	103.055	19.287	58.921	0.516
539.000	339.104	79.992	19.995	103.107	19.262	60.835	0.515
539.500	339.339	79.993	19.995	103.144	19.237	62.726	0.509
540.000	339.561	79.994	19.995	103.171	19.214	64.441	0.477
540.500	339.806	79.992	19.995	103.181	19.197	65.777	0.462
541.000	340.074	79.993	19.995	103.172	19.176	67.403	0.489
541.500	340.287	79.993	19.995	103.145	19.161	68.499	0.497
542.000	340.566	79.993	19.994	103.113	19.147	69.553	0.487
542.500	340.820	79.993	19.995	103.072	19.134	70.579	0.512
543.000	341.062	79.992	19.996	103.029	19.125	71.208	0.515
543.500	341.332	79.992	19.995	102.984	19.115	72.008	0.505
544.000	341.554	79.993	19.995	102.947	19.104	72.820	0.502
544.500	341.795	79.993	19.996	102.916	19.095	73.490	0.478
545.000	342.032	79.992	19.995	102.891	19.092	73.733	0.470
545.500	342.261	79.993	19.995	102.871	19.081	74.487	0.472
546.000	342.529	79.993	19.996	102.854	19.078	74.769	0.482
546.500	342.761	79.993	19.996	102.846	19.071	75.251	0.499
547.000	342.993	79.992	19.995	102.848	19.065	75.701	0.482
547.500	343.229	79.993	19.996	102.860	19.058	76.246	0.465
548.000	343.481	79.992	19.995	102.883	19.050	76.830	0.478
548.500	343.698	79.992	19.996	102.910	19.046	77.146	0.478
549.000	343.947	79.992	19.996	102.937	19.039	77.665	0.468
549.500	344.209	79.992	19.996	102.965	19.028	78.537	0.489
550.000	344.442	79.993	19.995	102.991	19.024	78.861	0.503
550.500	344.693	79.992	19.996	103.013	19.016	79.487	0.489
551.000	344.948	79.991	19.995	103.033	19.002	80.488	0.494
551.500	345.190	79.992	19.996	103.048	18.997	80.909	0.501
552.000	345.445	79.992	19.995	103.056	18.991	81.404	0.497
552.500	345.720	79.993	19.996	103.062	18.984	81.931	0.514
553.000	345.956	79.994	19.996	103.064	18.973	82.808	0.521
553.500	346.219	79.993	19.996	103.063	18.968	83.171	0.505
554.000	346.465	79.993	19.996	103.062	18.961	83.709	0.503
554.500	346.703	79.993	19.996	103.055	18.956	84.067	0.496
555.000	346.941	79.994	19.995	103.048	18.951	84.503	0.480
555.500	347.161	79.993	19.996	103.040	18.948	84.731	0.467
556.000	347.431	79.993	19.995	103.025	18.940	85.329	0.474
556.500	347.609	79.993	19.995	103.010	18.933	85.807	0.469
557.000	347.908	79.992	19.996	103.000	18.932	85.885	0.463
557.500	348.153	79.994	19.996	102.991	18.924	86.433	0.510
558.000	348.399	79.993	19.995	102.983	18.920	86.761	0.517
558.500	348.636	79.993	19.995	102.983	18.914	87.205	0.487
559.000	348.892	79.994	19.996	102.986	18.903	88.013	0.488
559.500	349.149	79.994	19.995	102.995	18.896	88.502	0.503
560.000	349.404	79.991	19.996	103.003	18.887	89.168	0.512
560.500	349.666	79.993	19.995	103.013	18.874	90.199	0.514
561.000	349.910	79.994	19.996	103.026	18.861	91.129	0.512
561.500	350.130	79.994	19.996	103.039	18.850	91.995	0.485
562.000	350.393	79.993	19.996	103.048	18.830	93.483	0.473
562.500	350.624	79.993	19.996	103.059	18.806	95.301	0.488
563.000	350.843	79.992	19.995	103.077	18.785	96.892	0.472
563.500	351.134	79.992	19.996	103.089	18.769	98.169	0.480
564.000	351.375	79.993	19.996	103.115	18.745	100.001	0.521
564.500	351.635	79.992	19.995	103.147	18.723	101.668	0.516
565.000	351.853	79.992	19.996	103.169	18.702	103.284	0.489
565.500	352.137	79.992	19.996	103.172	18.681	104.888	0.490
566.000	352.354	79.990	19.995	103.175	18.662	106.305	0.502
566.500	352.637	79.993	19.995	103.165	18.643	107.722	0.500
567.000	352.861	79.993	19.997	103.143	18.623	109.245	0.503
567.500	353.115	79.991	19.995	103.127	18.604	110.767	0.493
568.000	353.377	79.990	19.996	103.112	18.588	112.000	0.497
568.500	353.596	79.992	19.996	103.095	18.568	113.495	0.498
569.000	353.905	79.992	19.995	103.075	18.554	114.620	0.504
569.500	354.101	79.992	19.995	103.060	18.536	115.966	0.517
570.000	354.412	79.993	19.995	103.045	18.525	116.776	0.506
570.500	354.623	79.991	19.995	103.032	18.514	117.626	0.514
571.000	354.901	79.993	19.997	103.020	18.500	118.647	0.505
571.500	355.138	79.990	19.996	103.005	18.487	119.656	0.502
572.000	355.365	79.990	19.997	102.995	18.476	120.526	0.490
572.500	355.621	79.992	19.997	102.994	18.461	121.678	0.473
573.000	355.894	79.992	19.997	102.998	18.449	122.655	0.506
573.500	356.103	79.992	19.996	103.011	18.439	123.394	0.506
574.000	356.397	79.991	19.995	103.027	18.427	124.270	0.492
574.500	356.620	79.991	19.996	103.042	18.412	125.352	0.509
575.000	356.886	79.993	19.996	103.055	18.400	126.187	0.503
575.500	357.133	79.992	19.995	103.071	18.384	127.367	0.501
576.000	357.386	79.991	19.995	103.079	18.366	128.672	0.507
576.500	357.652	79.990	19.996	103.091	18.348	130.112	0.510
577.000	357.898	79.991	19.995	103.101	18.325	131.869	0.515
577.500	358.161	79.992	19.997	103.112	18.305	133.409	0.510
578.000	358.401	79.993	19.996	103.127	18.281	135.299	0.506
578.500	358.677	79.992	19.996	103.145	18.258	137.068	0.509
579.000	358.917	79.994	19.998	103.164	18.235	138.828	0.516
579.500	359.122	79.993	19.997	103.189	18.208	140.871	0.481
580.000	359.407	79.992	19.997	103.201	18.180	142.978	0.467
580.500	359.692	79.994	19.997	103.199	18.150	145.270	0.530
581.000	359.911	79.993	19.996	103.203	18.115	147.942	0.537
581.500	360.127	79.994	19.996	103.207	18.083	150.456	0.469
582.000	360.397	79.993	19.995	103.205	18.046	153.195	0.461
582.500	360.656	79.995	19.996	103.208	18.016	155.501	0.508
583.000	360.870	79.993	19.996	103.226	17.988	157.540	0.501
583.500	361.160	79.993	19.996	103.249	17.958	159.764	0.488
584.000	361.407	79.995	19.996	103.267	17.939	161.175	0.521
584.500	361.624	79.995	19.996	103.263	17.914	163.091	0.501
585.000	361.885	79.993	19.995	103.242	17.882	165.486	0.471
585.500	362.133	79.994	19.996	103.209	17.851	167.817	0.493
586.000	362.363	79.994	19.996	103.154	17.815	170.523	0.493
586.500	362.637	79.995	19.996	103.098	17.773	173.715	0.491
587.000	362.848	79.995	19.995	103.085	17.731	176.843	0.495
587.500	363.139	79.995	19.996	103.112	17.693	179.797	0.494
588.000	363.362	79.995	19.995	103.145	17.655	182.746	0.508
588.500	363.624	79.994	19.996	103.194	17.617	185.670	0.499
589.000	363.895	79.994	19.996	103.242	17.580	188.425	0.509
589.500	364.123	79.995	19.995	103.264	17.541	191.421	0.516
590.000	364.346	79.994	19.996	103.265	17.498	194.609	0.475
590.500	364.632	79.995	19.996	103.268	17.460	197.521	0.480
591.000	364.913	79.995	19.995	103.270	17.420	200.524	0.538
591.500	365.116	79.994	19.995	103.275	17.382	203.417	0.526
592.000	365.372	79.994	19.995	103.294	17.344	206.343	0.471
592.500	365.638	79.994	19.995	103.309	17.305	209.258	0.491
593.000	365.894	79.994	19.995	103.307	17.264	212.361	0.522
593.500	366.125	79.993	19.996	103.295	17.227	215.156	0.505
594.000	366.405	79.993	19.995	103.273	17.189	218.001	0.499
594.500	366.609	79.994	19.996	103.242	17.155	220.547	0.498
595.000	366.853	79.992	19.994	103.219	17.124	222.842	0.466
595.500	367.102	79.994	19.995	103.214	17.090	225.354	0.470
596.000	367.362	79.994	19.995	103.218	17.064	227.277	0.500
596.500	367.618	79.993	19.995	103.198	17.027	230.062	0.512
597.000	367.828	79.995	19.996	103.168	16.994	232.466	0.491
597.500	368.153	79.993	19.995	103.159	16.962	234.915	0.501
598.000	368.314	79.993	19.995	103.164	16.930	237.331	0.511
598.500	368.614	79.993	19.995	103.183	16.894	240.062	0.474
599.000	368.818	79.993	19.996	103.224	16.863	242.379	0.483
599.500	369.091	79.994	19.995	103.245	16.839	244.256	0.491
600.000	369.356	79.995	19.996	103.240	16.812	246.266	0.507
600.500	369.582	79.993	19.995	103.232	16.773	249.241	0.514
601.000	369.804	79.995	19.995	103.227	16.742	251.585	0.469
601.500	370.099	79.994	19.996	103.220	16.722	253.114	0.483
602.000	370.316	79.994	19.995	103.230	16.705	254.331	0.515
602.500	370.559	79.994	19.996	103.240	16.680	256.282	0.486
603.000	370.790	79.995	19.996	103.238	16.660	257.788	0.467
603.500	371.063	79.994	19.994	103.221	16.651	258.466	0.489
604.000	371.328	79.995	19.995	103.224	16.630	260.044	0.521
604.500	371.568	79.995	19.995	103.219	16.620	260.778	0.522
605.000	371.828	79.994	19.995	103.196	16.614	261.263	0.502
605.500	372.075	79.995	19.995	103.179	16.606	261.844	0.504
606.000	372.306	79.995	19.994	103.156	16.602	262.126	0.492
606.500	372.596	79.995	19.995	103.118	16.595	262.633	0.499
607.000	372.804	79.995	19.995	103.105	16.600	262.232	0.510
607.500	373.087	79.995	19.994	103.103	16.600	262.186	0.494
608.000	373.328	79.995	19.995	103.082	16.601	262.064	0.507
608.500	373.605	79.995	19.995	103.066	16.605	261.817	0.521
609.000	373.908	79.996	19.995	103.066	16.609	261.500	0.549
609.500	374.183	79.995	19.995	103.068	16.619	260.810	0.579
610.000	374.324	79.995	19.995	103.069	16.630	259.993	0.497
610.500	374.690	79.997	19.996	103.083	16.640	259.310	0.462
611.000	374.898	79.995	19.994	103.083	16.654	258.289	0.541
611.500	375.208	79.994	19.995	103.078	16.667	257.344	0.546
612.000	375.478	79.996	19.994	103.074	16.683	256.137	0.549
612.500	375.782	79.994	19.995	103.079	16.702	254.765	0.577
613.000	375.806	79.995	19.995	103.074	16.721	253.372	0.451
613.500	376.478	79.994	19.995	103.076	16.740	251.913	0.512
614.000	376.394	79.993	19.994	103.084	16.770	249.729	0.642
614.500	376.406	79.992	19.995	103.083	16.790	248.215	0.258
615.000	376.664	79.993	19.995	103.078	16.820	245.931	0.099
615.500	376.912	79.992	19.995	103.078	16.843	244.167	0.388
616.000	377.502	79.993	19.994	103.078	16.879	241.473	0.671
616.500	378.057	79.993	19.994	103.071	16.910	239.100	0.992
617.000	377.775	79.992	19.995	103.055	16.943	236.603	0.709
617.500	378.584	79.992	19.995	103.046	16.973	234.271	0.400
618.000	378.647	79.991	19.994	103.039	17.010	231.409	0.700
618.500	378.824	79.994	19.994	103.032	17.045	228.736	0.556
619.000	379.110	79.992	19.995	103.026	17.074	226.557	0.351
619.500	379.466	79.992	19.995	103.028	17.106	224.082	0.553
620.000	379.753	79.991	19.995	103.036	17.139	221.567	0.642
620.500	379.879	79.992	19.995	103.047	17.170	219.262	0.527
621.000	380.192	79.993	19.995	103.062	17.197	217.212	0.426
621.500	380.559	79.992	19.996	103.076	17.224	215.162	0.560
622.000	380.788	79.993	19.995	103.093	17.251	213.079	0.638
622.500	381.019	79.993	19.996	103.109	17.275	211.253	0.528
623.000	381.290	79.992	19.996	103.125	17.300	209.371	0.481
623.500	381.543	79.992	19.995	103.141	17.326	207.355	0.513
624.000	381.883	79.994	19.994	103.160	17.349	205.646	0.559
624.500	382.051	79.994	19.994	103.174	17.372	203.863	0.551
625.000	382.321	79.992	19.994	103.186	17.394	202.198	0.473
625.500	382.612	79.993	19.995	103.195	17.413	200.771	0.500
626.000	382.892	79.992	19.996	103.199	17.437	198.987	0.566
626.500	383.121	79.994	19.995	103.197	17.455	197.612	0.540
627.000	383.414	79.994	19.994	103.194	17.475	196.082	0.516
627.500	383.696	79.993	19.995	103.184	17.495	194.555	0.549
628.000	383.959	79.992	19.995	103.171	17.514	193.118	0.560
628.500	384.259	79.993	19.994	103.156	17.533	191.657	0.554
629.000	384.546	79.992	19.994	103.141	17.554	190.079	0.575
629.500	384.759	79.991	19.995	103.127	17.571	188.725	0.543
630.000	384.967	79.993	19.995	103.118	17.590	187.313	0.461
630.500	385.326	79.993	19.995	103.110	17.609	185.865	0.494
631.000	385.540	79.992	19.995	103.106	17.625	184.620	0.570
631.500	385.805	79.992	19.995	103.105	17.642	183.396	0.526
632.000	386.068	79.994	19.994	103.103	17.660	181.994	0.504
632.500	386.357	79.992	19.995	103.096	17.676	180.807	0.540
633.000	386.592	79.993	19.995	103.093	17.695	179.391	0.538
633.500	386.849	79.992	19.995	103.091	17.712	178.049	0.508
634.000	387.093	79.992	19.995	103.086	17.725	177.078	0.496
634.500	387.419	79.993	19.995	103.082	17.745	175.550	0.535
635.000	387.639	79.993	19.996	103.083	17.763	174.211	0.558
635.500	387.924	79.993	19.995	103.079	17.777	173.108	0.526
636.000	388.134	79.991	19.995	103.072	17.797	171.612	0.500
636.500	388.483	79.993	19.995	103.071	17.815	170.229	0.527
637.000	388.692	79.992	19.995	103.069	17.833	168.905	0.559
637.500	388.984	79.992	19.995	103.065	17.850	167.560	0.529
638.000	389.228	79.992	19.995	103.064	17.871	165.998	0.518
638.500	389.527	79.993	19.996	103.060	17.887	164.751	0.539
639.000	389.770	79.992	19.995	103.056	17.904	163.482	0.543
639.500	390.010	79.993	19.995	103.049	17.926	161.834	0.512
640.000	390.282	79.993	19.995	103.042	17.946	160.323	0.498
640.500	390.529	79.994	19.995	103.037	17.964	158.921	0.516
641.000	390.844	79.991	19.995	103.033	17.983	157.531	0.540
641.500	391.100	79.993	19.995	103.029	18.001	156.141	0.566
642.000	391.347	79.994	19.996	103.027	18.024	154.394	0.537
642.500	391.613	79.992	19.995	103.027	18.039	153.226	0.508
643.000	391.909	79.993	19.996	103.025	18.060	151.631	0.538
643.500	392.157	79.994	19.996	103.025	18.079	150.238	0.553
644.000	392.427	79.991	19.996	103.025	18.096	148.937	0.531
644.500	392.665	79.993	19.996	103.024	18.120	147.094	0.512
645.000	392.942	79.994	19.996	103.021	18.141	145.555	0.511
645.500	393.182	79.991	19.996	103.016	18.163	143.861	0.516
646.000	393.476	79.993	19.995	103.012	18.178	142.740	0.526
646.500	393.734	79.993	19.997	103.007	18.197	141.256	0.543
647.000	394.010	79.992	19.996	103.000	18.220	139.542	0.543
647.500	394.277	79.991	19.997	102.995	18.237	138.258	0.538
648.000	394.530	79.992	19.997	102.995	18.260	136.484	0.531
648.500	394.764	79.993	19.996	102.993	18.283	134.760	0.504
649.000	395.038	79.992	19.996	102.991	18.302	133.317	0.497
649.500	395.305	79.993	19.997	102.991	18.325	131.629	0.524
650.000	395.542	79.992	19.995	102.991	18.345	130.105	0.523
650.500	395.849	79.991	19.996	102.988	18.363	128.752	0.524
651.000	396.094	79.993	19.996	102.987	18.381	127.334	0.548
651.500	396.408	79.991	19.996	102.984	18.403	125.664	0.556
652.000	396.639	79.993	19.997	102.983	18.424	124.084	0.552
652.500	396.915	79.992	19.996	102.982	18.445	122.482	0.526
653.000	397.122	79.992	19.996	102.979	18.465	120.990	0.495
653.500	397.396	79.993	19.997	102.973	18.487	119.294	0.482
654.000	397.661	79.994	19.996	102.969	18.509	117.685	0.510
654.500	397.928	79.992	19.995	102.967	18.530	116.101	0.536
655.000	398.174	79.991	19.996	102.964	18.550	114.586	0.523
655.500	398.467	79.993	19.995	102.961	18.572	112.892	0.526
656.000	398.715	79.993	19.995	102.962	18.592	111.386	0.539
656.500	398.978	79.993	19.996	102.961	18.613	109.811	0.526
657.000	399.206	79.993	19.996	102.957	18.634	108.243	0.502
657.500	399.493	79.993	19.996	102.953	18.650	106.989	0.503
658.000	399.793	79.993	19.996	102.951	18.674	105.167	0.550
658.500	400.031	79.994	19.995	102.948	18.695	103.566	0.562
659.000	400.250	79.994	19.996	102.947	18.711	102.412	0.498
659.500	400.533	79.992	19.995	102.946	18.733	100.762	0.479
660.000	400.786	79.994	19.996	102.942	18.753	99.201	0.519
660.500	401.051	79.992	19.995	102.938	18.774	97.621	0.527
661.000	401.269	79.994	19.996	102.937	18.792	96.268	0.501
661.500	401.533	79.995	19.996	102.933	18.811	94.853	0.482
662.000	401.810	79.993	19.995	102.929	18.834	93.094	0.512
662.500	402.075	79.994	19.996	102.927	18.852	91.771	0.541
663.001	402.333	79.994	19.996	102.928	18.868	90.528	0.532
663.500	402.588	79.995	19.996	102.922	18.889	88.939	0.518
664.000	402.858	79.994	19.996	102.919	18.911	87.259	0.519
664.500	403.124	79.994	19.996	102.914	18.929	85.907	0.530
665.000	403.407	79.994	19.996	102.911	18.945	84.716	0.543
665.500	403.666	79.993	19.997	102.907	18.967	83.041	0.546
666.000	403.894	79.994	19.996	102.905	18.985	81.718	0.515
666.500	404.181	79.993	19.996	102.905	19.002	80.397	0.501
667.000	404.409	79.995	19.996	102.906	19.023	78.851	0.515
667.500	404.655	79.994	19.996	102.906	19.040	77.511	0.495
668.000	404.914	79.994	19.996	102.906	19.057	76.221	0.490
668.500	405.205	79.993	19.996	102.906	19.073	75.033	0.527
669.000	405.437	79.993	19.996	102.905	19.092	73.602	0.536
669.500	405.666	79.994	19.996	102.904	19.107	72.424	0.492
670.000	405.937	79.993	19.997	102.904	19.125	71.087	0.480
670.500	406.196	79.993	19.996	102.904	19.141	69.862	0.515
671.000	406.426	79.993	19.997	102.903	19.159	68.563	0.510
671.500	406.690	79.993	19.997	102.903	19.175	67.358	0.491
672.000	406.946	79.993	19.997	102.900	19.194	65.909	0.507
672.500	407.195	79.993	19.997	102.900	19.207	64.910	0.513
673.000	407.491	79.993	19.997	102.900	19.222	63.775	0.525
673.500	407.707	79.993	19.997	102.898	19.239	62.485	0.529
674.000	407.983	79.993	19.997	102.894	19.255	61.269	0.502
674.500	408.222	79.992	19.996	102.896	19.267	60.397	0.504
675.000	408.497	79.993	19.997	102.895	19.286	58.917	0.514
675.500	408.729	79.992	19.996	102.891	19.301	57.789	0.510
676.000	409.015	79.993	19.996	102.891	19.315	56.771	0.512
676.500	409.283	79.993	19.996	102.896	19.330	55.646	0.536
677.000	409.527	79.994	19.996	102.895	19.346	54.422	0.533
677.500	409.776	79.993	19.996	102.892	19.358	53.468	0.503
678.000	410.071	79.993	19.996	102.892	19.371	52.481	0.518
678.500	410.305	79.993	19.996	102.888	19.387	51.281	0.536
679.000	410.574	79.994	19.997	102.880	19.397	50.560	0.516
679.500	410.850	79.994	19.997	102.876	19.413	49.346	0.524
680.000	411.089	79.995	19.995	102.874	19.428	48.236	0.530
680.500	411.365	79.994	19.996	102.875	19.442	47.163	0.515
681.000	411.618	79.994	19.996	102.879	19.453	46.357	0.522
681.500	411.882	79.993	19.995	102.880	19.466	45.374	0.523
682.000	412.076	79.993	19.996	102.883	19.477	44.504	0.488
682.500	412.369	79.994	19.996	102.883	19.488	43.682	0.473
683.000	412.615	79.994	19.995	102.880	19.502	42.647	0.513
683.500	412.885	79.993	19.996	102.878	19.513	41.761	0.527
684.000	413.121	79.994	19.995	102.877	19.523	41.003	0.511
684.500	413.417	79.995	19.995	102.875	19.535	40.121	0.519
685.000	413.642	79.993	19.996	102.874	19.548	39.159	0.526
685.500	413.876	79.995	19.994	102.873	19.558	38.403	0.490
686.000	414.114	79.995	19.995	102.872	19.570	37.511	0.465
686.500	414.398	79.995	19.995	102.871	19.579	36.790	0.497
687.000	414.651	79.995	19.994	102.870	19.594	35.659	0.530
687.500	414.875	79.995	19.995	102.870	19.601	35.159	0.507
688.000	415.129	79.996	19.995	102.871	19.611	34.392	0.477
688.500	415.371	79.995	19.995	102.870	19.620	33.708	0.487
689.000	415.616	79.995	19.994	102.870	19.632	32.804	0.492
689.500	415.890	79.996	19.995	102.869	19.643	31.980	0.503
690.000	416.135	79.994	19.994	102.868	19.651	31.333	0.519
690.500	416.404	79.995	19.994	102.869	19.662	30.543	0.516
691.000	416.677	79.995	19.994	102.869	19.674	29.640	0.528
691.500	416.913	79.995	19.995	102.870	19.679	29.266	0.525
692.000	417.143	79.995	19.995	102.870	19.689	28.516	0.487
692.500	417.409	79.995	19.995	102.869	19.697	27.880	0.481
693.000	417.638	79.994	19.994	102.869	19.705	27.290	0.496
693.500	417.925	79.995	19.994	102.868	19.713	26.721	0.505
694.000	418.173	79.995	19.994	102.867	19.724	25.840	0.525
694.500	418.422	79.994	19.995	102.867	19.731	25.333	0.516
695.000	418.696	79.993	19.995	102.867	19.738	24.820	0.510
695.500	418.930	79.994	19.996	102.867	19.747	24.154	0.515
696.000	419.203	79.993	19.995	102.867	19.755	23.526	0.508
696.500	419.454	79.993	19.994	102.868	19.764	22.822	0.516
697.000	419.686	79.993	19.995	102.869	19.769	22.460	0.504
697.500	419.939	79.991	19.995	102.870	19.776	21.928	0.484
698.000	420.209	79.992	19.994	102.871	19.783	21.410	0.504
698.500	420.468	79.992	19.995	102.872	19.790	20.882	0.526
699.000	420.738	79.992	19.995	102.872	19.799	20.197	0.529
699.500	420.972	79.993	19.995	102.870	19.802	19.984	0.517
700.000	421.206	79.992	19.995	102.866	19.809	19.425	0.486
700.500	421.502	79.991	19.995	102.860	19.817	18.864	0.499
701.000	421.751	79.993	19.995	102.858	19.820	18.627	0.537
701.500	422.007	79.992	19.994	102.856	19.826	18.176	0.525
702.000	422.241	79.993	19.996	102.854	19.832	17.671	0.498
702.500	422.496	79.992	19.995	102.857	19.841	17.023	0.490
703.000	422.724	79.993	19.996	102.864	19.845	16.749	0.486
703.500	423.016	79.993	19.996	102.862	19.850	16.327	0.501
704.000	423.255	79.992	19.996	102.863	19.853	16.086	0.525
704.500	423.552	79.993	19.996	102.864	19.862	15.447	0.533
705.000	423.766	79.993	19.996	102.861	19.865	15.205	0.523
705.500	424.041	79.994	19.996	102.859	19.870	14.811	0.500
706.000	424.280	79.993	19.996	102.858	19.878	14.214	0.502
706.500	424.503	79.993	19.995	102.857	19.882	13.961	0.488
707.000	424.809	79.994	19.996	102.860	19.883	13.862	0.495
707.500	425.043	79.992	19.996	102.862	19.888	13.470	0.534
708.000	425.341	79.992	19.994	102.861	19.894	13.010	0.536
708.500	425.559	79.993	19.995	102.859	19.900	12.561	0.524
709.000	425.827	79.994	19.996	102.857	19.904	12.226	0.501
709.500	426.068	79.992	19.995	102.853	19.903	12.312	0.498
710.000	426.355	79.993	19.995	102.848	19.911	11.721	0.519
710.500	426.623	79.992	19.996	102.844	19.914	11.526	0.541
711.000	426.835	79.994	19.995	102.842	19.919	11.132	0.517
711.500	427.113	79.993	19.996	102.838	19.921	10.970	0.485
712.000	427.358	79.994	19.996	102.835	19.924	10.725	0.507
712.500	427.612	79.993	19.995	102.836	19.928	10.453	0.511
713.000	427.895	79.993	19.995	102.837	19.931	10.245	0.518
713.500	428.149	79.993	19.996	102.841	19.935	9.940	0.536
714.000	428.391	79.995	19.994	102.841	19.937	9.792	0.516
714.500	428.626	79.993	19.996	102.840	19.940	9.540	0.487
715.000	428.858	79.994	19.995	102.839	19.945	9.150	0.472
715.500	429.123	79.993	19.995	102.841	19.945	9.193	0.482
716.000	429.384	79.993	19.995	102.843	19.950	8.763	0.512
716.500	429.630	79.993	19.995	102.845	19.951	8.704	0.516
717.001	429.906	79.993	19.995	102.847	19.953	8.593	0.514
717.500	430.152	79.992	19.996	102.845	19.955	8.410	0.522
718.000	430.389	79.994	19.995	102.844	19.959	8.113	0.503
718.500	430.662	79.993	19.994	102.841	19.959	8.108	0.497
719.000	430.902	79.992	19.994	102.839	19.963	7.807	0.512
719.500	431.200	79.994	19.995	102.839	19.966	7.548	0.525
720.000	431.445	79.994	19.995	102.842	19.970	7.255	0.540
720.500	431.652	79.992	19.995	102.844	19.964	7.727	0.498
721.000	431.956	79.992	19.996	102.844	19.971	7.191	0.482
721.500	432.203	79.992	19.995	102.846	19.973	7.024	0.531
722.000	432.429	79.993	19.995	102.846	19.975	6.915	0.512
722.500	432.705	79.993	19.995	102.850	19.979	6.620	0.487
723.000	432.939	79.993	19.995	102.852	19.983	6.325	0.506
723.500	433.193	79.994	19.994	102.854	19.982	6.338	0.499
724.000	433.483	79.993	19.996	102.855	19.984	6.219	0.516
724.500	433.706	79.992	19.995	102.855	19.985	6.180	0.529
725.000	433.987	79.991	19.996	102.849	19.984	6.191	0.508
725.500	434.232	79.994	19.995	102.843	19.988	5.936	0.515
726.000	434.490	79.992	19.996	102.839	19.990	5.757	0.515
726.500	434.786	79.992	19.996	102.839	19.992	5.634	0.528
727.000	435.003	79.992	19.996	102.842	19.992	5.653	0.533
727.500	435.256	79.992	19.996	102.848	19.993	5.508	0.491
728.000	435.489	79.993	19.996	102.852	19.997	5.253	0.478
728.500	435.758	79.993	19.995	102.853	19.997	5.212	0.494
729.000	436.046	79.993	19.996	102.851	19.996	5.302	0.530
729.500	436.266	79.994	19.998	102.845	19.997	5.254	0.533
730.000	436.520	79.992	19.997	102.844	19.998	5.199	0.491
730.500	436.763	79.993	19.996	102.842	19.999	5.124	0.485
731.000	437.021	79.992	19.996	102.843	19.999	5.069	0.499
731.500	437.270	79.992	19.996	102.845	19.999	5.126	0.504
732.000	437.529	79.992	19.996	102.845	19.999	5.098	0.508
732.500	437.769	79.992	19.997	102.840	19.998	5.157	0.503
733.000	438.048	79.992	19.996	102.837	20.001	4.964	0.509
733.500	438.308	79.990	19.995	102.833	20.003	4.805	0.529
734.000	438.550	79.990	19.997	102.833	20.005	4.655	0.520
734.500	438.793	80.001	20.001	102.839	20.005	4.605	0.493
735.000	439.071	80.010	20.002	102.845	20.006	4.539	0.503
735.500	439.288	80.010	20.003	102.853	20.010	4.290	0.508
736.000	439.559	80.010	20.003	102.861	20.010	4.253	0.491
736.500	439.807	80.011	20.002	102.867	20.013	4.024	0.503
737.000	440.041	80.010	20.003	102.869	20.010	4.269	0.501
737.500	440.313	80.010	20.003	102.876	20.014	3.995	0.494
738.000	440.601	80.012	20.004	102.882	20.012	4.109	0.533
738.500	440.802	80.012	20.004	102.882	20.013	4.030	0.524
739.000	441.053	80.011	20.004	102.885	20.015	3.898	0.470
739.500	441.322	80.012	20.004	102.884	20.017	3.713	0.486
740.000	441.576	80.013	20.004	102.877	20.017	3.707	0.522
740.500	441.808	80.013	20.004	102.871	20.018	3.672	0.505
741.000	442.105	80.012	20.003	102.870	20.016	3.779	0.507
741.500	442.346	80.013	20.003	102.867	20.014	3.975	0.534
742.000	442.589	80.013	20.004	102.867	20.019	3.606	0.511
742.500	442.848	80.012	20.003	102.867	20.019	3.614	0.493
743.000	443.059	80.011	20.003	102.867	20.016	3.771	0.486
743.500	443.310	80.012	20.003	102.868	20.019	3.600	0.466
744.000	443.538	80.012	20.002	102.868	20.017	3.736	0.471
744.500	443.791	80.012	20.002	102.869	20.019	3.618	0.480
745.000	444.077	80.012	20.003	102.869	20.019	3.596	0.510
745.500	444.294	80.012	20.003	102.869	20.023	3.303	0.521
746.000	444.528	80.011	20.003	102.868	20.020	3.478	0.477
746.500	444.736	80.012	20.003	102.869	20.021	3.447	0.447
747.000	445.019	80.012	20.003	102.869	20.020	3.486	0.466
747.500	445.313	80.013	20.003	102.869	20.020	3.488	0.533
748.000	445.560	80.012	20.003	102.869	20.019	3.610	0.559
748.500	445.805	80.012	20.003	102.870	20.018	3.659	0.517
749.000	446.062	80.013	20.003	102.870	20.020	3.544	0.497
749.500	446.318	80.012	20.003	102.869	20.022	3.354	0.507
750.000	446.555	80.012	20.004	102.869	20.022	3.385	0.503
750.500	446.832	80.012	20.003	102.869	20.021	3.402	0.504
751.000	447.076	80.012	20.003	102.869	20.019	3.579	0.518
751.500	447.322	80.012	20.003	102.869	20.021	3.453	0.505
752.000	447.570	80.012	20.003	102.869	20.021	3.441	0.492
752.500	447.845	80.012	20.004	102.869	20.022	3.369	0.509
753.000	448.106	80.011	20.002	102.869	20.018	3.643	0.529
753.500	448.339	80.011	20.004	102.869	20.020	3.507	0.515
754.000	448.605	80.010	20.004	102.870	20.020	3.478	0.496
754.500	448.845	80.010	20.003	102.870	20.021	3.462	0.502
755.000	449.072	80.012	20.003	102.871	20.022	3.332	0.486
755.500	449.334	80.010	20.003	102.871	20.022	3.344	0.478
756.000	449.557	80.013	20.003	102.871	20.021	3.394	0.488
756.500	449.829	80.010	20.004	102.871	20.022	3.379	0.490
757.000	450.113	80.010	20.003	102.871	20.023	3.311	0.525
757.500	450.351	80.011	20.003	102.871	20.021	3.398	0.539
758.000	450.595	80.010	20.003	102.871	20.023	3.262	0.502
758.500	450.862	80.011	20.004	102.871	20.022	3.379	0.496
759.000	451.127	80.011	20.003	102.870	20.020	3.472	0.521
759.500	451.379	80.011	20.003	102.870	20.021	3.425	0.525
760.000	451.624	80.011	20.004	102.871	20.022	3.357	0.507
760.500	451.834	80.012	20.004	102.870	20.018	3.666	0.476
761.000	452.089	80.012	20.004	102.871	20.020	3.501	0.460
761.500	452.317	80.012	20.004	102.871	20.020	3.544	0.474
762.000	452.576	80.012	20.003	102.870	20.018	3.663	0.484
762.500	452.829	80.011	20.004	102.870	20.016	3.772	0.499
763.000	453.090	80.012	20.004	102.871	20.021	3.430	0.513
763.500	453.335	80.010	20.004	102.870	20.020	3.478	0.510
764.000	453.594	80.012	20.004	102.870	20.017	3.700	0.506
764.500	453.846	80.012	20.004	102.870	20.021	3.396	0.508
765.000	454.084	80.010	20.004	102.870	20.019	3.569	0.500
765.500	454.364	80.012	20.003	102.869	20.020	3.538	0.504
766.000	454.580	80.012	20.003	102.869	20.020	3.499	0.507
766.500	454.845	80.013	20.003	102.869	20.022	3.381	0.488
767.000	455.099	80.013	20.003	102.869	20.020	3.478	0.500
767.500	455.341	80.013	20.003	102.869	20.023	3.264	0.507
768.000	455.597	80.013	20.003	102.868	20.021	3.420	0.497
768.500	455.865	80.014	20.003	102.867	20.026	3.062	0.512
769.000	456.105	80.013	20.003	102.867	20.020	3.497	0.516
769.500	456.376	80.015	20.003	102.867	20.023	3.260	0.509
770.000	456.604	80.014	20.002	102.869	20.021	3.400	0.505
770.500	456.845	80.014	20.003	102.871	20.022	3.340	0.484
771.000	457.138	80.015	20.002	102.871	20.020	3.486	0.501
771.500	457.354	80.015	20.003	102.871	20.021	3.441	0.522
772.000	457.633	80.014	20.003	102.871	20.023	3.270	0.502
772.500	457.861	80.014	20.003	102.867	20.023	3.303	0.501
773.000	458.124	80.015	20.002	102.861	20.020	3.499	0.499
773.500	458.366	80.013	20.003	102.861	20.022	3.350	0.498
774.000	458.591	80.012	20.002	102.861	20.026	3.039	0.486
774.500	458.860	80.012	20.003	102.862	20.025	3.138	0.481
775.000	459.117	80.012	20.003	102.863	20.022	3.344	0.510
775.500	459.382	80.011	20.003	102.869	20.022	3.344	0.524
776.000	459.622	80.011	20.003	102.869	20.022	3.362	0.514
776.500	459.833	80.011	20.003	102.870	20.023	3.247	0.478
777.000	460.119	80.011	20.003	102.866	20.023	3.255	0.474
777.500	460.361	80.011	20.002	102.864	20.027	2.977	0.512
778.000	460.641	80.011	20.003	102.864	20.026	3.074	0.525
778.500	460.896	80.012	20.002	102.863	20.024	3.183	0.528
779.000	461.105	80.011	20.003	102.864	20.025	3.113	0.500
779.500	461.352	80.011	20.003	102.867	20.025	3.115	0.460
780.000	461.636	80.011	20.003	102.868	20.023	3.274	0.493
780.500	461.872	80.011	20.003	102.868	20.025	3.126	0.525
781.000	462.117	80.012	20.003	102.868	20.026	3.039	0.500
781.500	462.404	80.011	20.003	102.867	20.026	3.033	0.506
782.000	462.634	80.011	20.002	102.867	20.024	3.175	0.525
782.500	462.895	80.010	20.003	102.867	20.025	3.136	0.504
783.000	463.128	80.010	20.003	102.867	20.026	3.054	0.492
783.500	463.409	80.012	20.003	102.867	20.027	2.977	0.504
784.000	463.674	80.011	20.003	102.868	20.026	3.089	0.530
784.500	463.896	80.012	20.003	102.868	20.023	3.256	0.517
785.000	464.167	80.011	20.003	102.867	20.025	3.148	0.490
785.500	464.399	80.011	20.003	102.867	20.027	2.942	0.497
786.000	464.665	80.011	20.002	102.865	20.027	2.959	0.500
786.500	464.902	80.011	20.002	102.863	20.028	2.924	0.501
787.000	465.129	80.011	20.003	102.862	20.025	3.128	0.484
787.500	465.398	80.011	20.002	102.862	20.028	2.938	0.480
788.000	465.660	80.012	20.004	102.863	20.026	3.029	0.513
788.500	465.915	80.009	20.002	102.864	20.026	3.060	0.524
789.000	466.144	80.011	20.003	102.867	20.029	2.803	0.501
789.500	466.421	80.010	20.003	102.868	20.027	2.957	0.495
790.000	466.675	80.011	20.002	102.868	20.028	2.883	0.519
790.500	466.947	80.010	20.004	102.869	20.029	2.860	0.529
791.000	467.198	80.012	20.003	102.870	20.026	3.072	0.525
791.500	467.447	80.010	20.003	102.870	20.025	3.107	0.512
792.000	467.700	80.012	20.003	102.870	20.026	3.060	0.501
792.500	467.932	80.011	20.002	102.869	20.026	3.054	0.493
793.000	468.184	80.011	20.003	102.868	20.023	3.286	0.485
793.500	468.480	80.012	20.003	102.867	20.025	3.128	0.516
794.000	468.701	80.011	20.003	102.867	20.025	3.111	0.533
794.500	468.964	80.012	20.004	102.867	20.028	2.922	0.501
795.000	469.207	80.011	20.003	102.868	20.030	2.772	0.495
795.500	469.498	80.012	20.003	102.868	20.025	3.099	0.520
796.000	469.710	80.012	20.003	102.868	20.026	3.072	0.518
796.500	469.984	80.011	20.003	102.868	20.025	3.136	0.495
797.000	470.244	80.011	20.003	102.869	20.027	2.973	0.510
797.500	470.461	80.012	20.003	102.869	20.024	3.214	0.506
798.000	470.727	80.012	20.003	102.870	20.029	2.856	0.480
798.500	470.972	80.011	20.003	102.870	20.027	2.969	0.497
799.000	471.282	80.012	20.003	102.873	20.026	3.076	0.533
799.500	471.483	80.011	20.002	102.877	20.027	2.949	0.533
800.000	471.764	80.012	20.003	102.878	20.025	3.155	0.496
800.500	471.999	80.014	20.004	102.877	20.025	3.101	0.499
801.000	472.250	80.013	20.003	102.876	20.028	2.891	0.501
801.500	472.509	80.012	20.002	102.874	20.029	2.848	0.498
802.000	472.780	80.011	20.003	102.870	20.027	2.961	0.520
802.500	473.042	80.012	20.003	102.869	20.026	3.038	0.532
803.000	473.288	80.011	20.003	102.868	20.027	2.961	0.521
803.500	473.545	80.011	20.002	102.868	20.027	2.978	0.506
804.000	473.831	80.012	20.002	102.867	20.027	3.004	0.523
804.500	474.055	80.011	20.003	102.868	20.030	2.747	0.527
805.000	474.314	80.012	20.003	102.869	20.028	2.934	0.497
805.500	474.587	80.011	20.002	102.871	20.027	2.965	0.508
806.000	474.811	80.010	20.002	102.875	20.027	2.969	0.514
806.500	475.097	80.011	20.002	102.878	20.029	2.858	0.503
807.000	475.355	80.011	20.002	102.878	20.025	3.097	0.527
807.500	475.579	80.011	20.002	102.877	20.026	3.037	0.513
808.000	475.862	80.012	20.003	102.877	20.028	2.895	0.495
808.500	476.092	80.011	20.002	102.874	20.029	2.825	0.510
809.000	476.340	80.011	20.002	102.871	20.026	3.025	0.495
809.500	476.610	80.011	20.003	102.871	20.028	2.891	0.498
810.000	476.821	80.010	20.003	102.869	20.025	3.093	0.500
810.500	477.080	80.010	20.003	102.869	20.029	2.813	0.475
811.000	477.379	80.011	20.003	102.869	20.031	2.683	0.514
811.500	477.623	80.011	20.003	102.872	20.029	2.792	0.551
812.000	477.904	80.010	20.003	102.872	20.029	2.794	0.535
812.500	478.150	80.011	20.003	102.877	20.030	2.730	0.526
813.000	478.385	80.009	20.003	102.885	20.028	2.881	0.503
813.500	478.635	80.012	20.003	102.885	20.029	2.852	0.483
814.000	478.902	80.011	20.003	102.883	20.029	2.819	0.501
814.500	479.133	80.010	20.003	102.882	20.028	2.938	0.507
815.000	479.393	80.011	20.003	102.879	20.027	2.955	0.494
815.500	479.660	80.011	20.002	102.871	20.029	2.862	0.509
816.000	479.899	80.011	20.004	102.874	20.026	3.054	0.516
816.500	480.190	80.010	20.003	102.875	20.029	2.809	0.518
817.000	480.410	80.011	20.003	102.876	20.024	3.179	0.521
817.500	480.658	80.012	20.003	102.875	20.027	3.008	0.490
818.000	480.930	80.011	20.004	102.873	20.026	3.027	0.494
818.500	481.179	80.012	20.004	102.868	20.024	3.188	0.520
819.000	481.444	80.013	20.002	102.868	20.026	3.031	0.517
819.500	481.700	80.012	20.003	102.867	20.028	2.893	0.518
820.000	481.950	80.011	20.003	102.868	20.025	3.105	0.514
820.500	482.195	80.011	20.004	102.874	20.025	3.097	0.500
821.000	482.423	80.010	20.002	102.874	20.026	3.062	0.484
821.500	482.714	80.011	20.003	102.871	20.026	3.031	0.497
822.000	482.931	80.011	20.002	102.870	20.026	3.083	0.514
822.500	483.222	80.012	20.003	102.870	20.023	3.313	0.508
823.000	483.461	80.013	20.003	102.867	20.028	2.918	0.519
823.500	483.695	80.012	20.003	102.869	20.026	3.048	0.501
824.000	483.913	80.013	20.003	102.873	20.026	3.045	0.462
824.500	484.222	80.011	20.003	102.874	20.024	3.200	0.490
825.000	484.457	80.012	20.003	102.874	20.026	3.031	0.535
825.500	484.733	80.012	20.003	102.875	20.029	2.815	0.528
826.000	484.965	80.012	20.003	102.874	20.027	2.953	0.510
826.500	485.256	80.011	20.003	102.874	20.026	3.017	0.516
827.000	485.449	80.012	20.002	102.873	20.024	3.204	0.504
827.500	485.743	80.012	20.004	102.873	20.027	2.959	0.485
828.000	485.975	80.012	20.003	102.872	20.028	2.938	0.506
828.500	486.222	80.013	20.003	102.874	20.028	2.897	0.503
829.000	486.496	80.011	20.002	102.875	20.027	2.965	0.500
829.500	486.719	80.012	20.002	102.877	20.026	3.029	0.509
830.000	486.972	80.014	20.003	102.877	20.028	2.889	0.486
830.500	487.234	80.013	20.002	102.876	20.028	2.916	0.496
831.000	487.466	80.013	20.002	102.874	20.025	3.122	0.505
831.500	487.716	80.012	20.002	102.873	20.031	2.707	0.488
832.000	487.990	80.013	20.002	102.871	20.027	2.996	0.503
832.500	488.257	80.011	20.003	102.870	20.028	2.930	0.533
833.000	488.490	80.012	20.003	102.871	20.029	2.839	0.520
833.500	488.761	80.011	20.002	102.871	20.027	2.988	0.502
834.000	488.993	80.012	20.003	102.871	20.029	2.821	0.504
834.500	489.213	80.011	20.002	102.872	20.026	3.084	0.478
835.000	489.493	80.012	20.002	102.873	20.029	2.794	0.476
835.500	489.714	80.012	20.002	102.871	20.028	2.905	0.500
836.000	489.990	80.012	20.003	102.871	20.026	3.049	0.499
836.500	490.265	80.014	20.003	102.870	20.029	2.817	0.524
837.000	490.543	80.012	20.004	102.869	20.029	2.854	0.552
837.500	490.771	80.012	20.003	102.868	20.026	3.074	0.530
838.000	491.023	80.011	20.004	102.869	20.028	2.874	0.494
838.500	491.266	80.012	20.003	102.870	20.025	3.161	0.487
839.000	491.538	80.012	20.003	102.871	20.031	2.689	0.505
839.500	491.778	80.011	20.003	102.871	20.030	2.769	0.514
840.000	492.066	80.011	20.003	102.873	20.027	2.979	0.520
840.500	492.280	80.010	20.003	102.873	20.028	2.930	0.515
841.000	492.533	80.012	20.003	102.871	20.029	2.812	0.485
841.500	492.776	80.013	20.003	102.870	20.028	2.920	0.482
842.000	493.071	80.012	20.003	102.869	20.029	2.825	0.517
842.500	493.322	80.012	20.003	102.866	20.029	2.810	0.542
843.000	493.595	80.013	20.004	102.865	20.028	2.887	0.535
843.500	493.833	80.011	20.004	102.865	20.029	2.850	0.518
844.000	494.108	80.012	20.004	102.864	20.030	2.744	0.512
844.500	494.343	80.013	20.002	102.865	20.028	2.887	0.511
845.000	494.605	80.011	20.003	102.865	20.031	2.691	0.503
845.500	494.883	80.014	20.003	102.866	20.030	2.742	0.518
846.000	495.116	80.013	20.004	102.865	20.031	2.707	0.526
846.500	495.372	80.013	20.004	102.866	20.030	2.784	0.500
847.000	495.638	80.013	20.005	102.865	20.033	2.501	0.505
847.500	495.890	80.012	20.004	102.866	20.028	2.867	0.520
848.000	496.114	80.014	20.004	102.866	20.028	2.895	0.497
848.500	496.373	80.014	20.004	102.866	20.026	3.039	0.480
849.000	496.622	80.014	20.004	102.865	20.030	2.757	0.495
849.500	496.859	80.012	20.003	102.865	20.029	2.825	0.497
850.000	497.120	80.013	20.005	102.864	20.028	2.891	0.492
850.500	497.393	80.013	20.004	102.864	20.028	2.933	0.516
851.000	497.704	80.013	20.004	102.864	20.030	2.781	0.559
851.500	497.906	80.012	20.003	102.864	20.026	3.049	0.548
852.000	498.144	80.011	20.003	102.864	20.025	3.137	0.477
852.500	498.417	80.013	20.004	102.864	20.030	2.716	0.476
853.000	498.638	80.013	20.004	102.864	20.029	2.817	0.503
853.500	498.963	80.012	20.004	102.866	20.027	2.963	0.520
854.000	499.184	80.011	20.004	102.866	20.027	2.983	0.546
854.500	499.411	80.012	20.003	102.865	20.032	2.573	0.497
855.000	499.659	80.011	20.003	102.865	20.025	3.101	0.462
855.500	499.908	80.012	20.003	102.866	20.029	2.833	0.486
856.000	500.199	80.011	20.004	102.864	20.028	2.915	0.518
856.500	500.437	80.011	20.003	102.864	20.028	2.918	0.534
857.000	500.715	80.011	20.003	102.863	20.026	3.080	0.522
857.500	500.978	80.011	20.004	102.864	20.026	3.033	0.529
858.000	501.221	80.011	20.003	102.863	20.029	2.843	0.523
858.500	501.480	80.012	20.002	102.835	20.025	3.115	0.504
859.000	501.714	80.011	20.004	102.813	20.024	3.229	0.498
859.500	502.022	80.010	20.003	102.800	20.027	2.986	0.518
860.000	502.288	80.010	20.003	102.792	20.022	3.350	0.558
860.500	502.519	80.010	20.004	102.807	20.027	3.012	0.535
861.000	502.755	80.012	20.003	102.867	20.026	3.056	0.482
861.500	503.000	80.012	20.002	102.900	20.026	3.023	0.474
862.000	503.251	80.012	20.003	102.918	20.028	2.936	0.488
862.500	503.504	80.012	20.003	102.925	20.026	3.084	0.500
863.000	503.751	80.012	20.002	102.911	20.026	3.029	0.503
863.500	503.984	80.010	20.002	102.880	20.024	3.220	0.490
864.000	504.285	80.011	20.002	102.866	20.022	3.334	0.507
864.500	504.517	80.012	20.003	102.862	20.027	2.957	0.533
865.000	504.781	80.009	20.003	102.860	20.027	2.971	0.515
865.500	505.046	80.011	20.002	102.859	20.026	3.027	0.513
866.000	505.329	80.011	20.002	102.860	20.029	2.847	0.538
866.500	505.556	80.012	20.002	102.864	20.029	2.794	0.529
867.000	505.789	80.011	20.003	102.865	20.028	2.930	0.486
867.500	506.046	80.010	20.003	102.867	20.029	2.856	0.475
868.000	506.309	80.011	20.002	102.868	20.026	3.033	0.505
868.500	506.526	80.012	20.003	102.869	20.025	3.107	0.500
869.000	506.798	80.012	20.003	102.866	20.027	2.992	0.485
869.500	507.040	80.011	20.002	102.866	20.026	3.041	0.501
870.000	507.310	80.012	20.003	102.867	20.027	2.977	0.513
870.500	507.581	80.012	20.003	102.867	20.026	3.029	0.527
871.000	507.856	80.011	20.002	102.866	20.027	2.967	0.544
871.500	508.096	80.011	20.002	102.867	20.026	3.058	0.530
872.000	508.330	80.010	20.002	102.868	20.025	3.161	0.494
872.500	508.584	80.010	20.003	102.865	20.028	2.924	0.481
873.000	508.865	80.011	20.002	102.866	20.028	2.938	0.511
873.500	509.081	80.011	20.003	102.866	20.025	3.130	0.516
874.000	509.333	80.011	20.003	102.866	20.026	3.054	0.483
874.500	509.589	80.011	20.003	102.867	20.027	2.940	0.488
875.000	509.873	80.011	20.002	102.869	20.027	3.014	0.524
875.500	510.122	80.012	20.002	102.866	20.025	3.115	0.537
876.000	510.374	80.011	20.002	102.862	20.031	2.697	0.517
876.500	510.646	80.010	20.004	102.861	20.027	2.984	0.513
877.000	510.864	80.011	20.002	102.860	20.030	2.780	0.507
877.500	511.093	80.011	20.003	102.861	20.028	2.866	0.469
878.000	511.370	80.011	20.003	102.863	20.025	3.142	0.476
878.500	511.639	80.011	20.003	102.866	20.025	3.134	0.526
879.000	511.882	80.011	20.004	102.866	20.024	3.196	0.529
879.500	512.136	80.012	20.002	102.866	20.025	3.146	0.504
880.000	512.381	80.011	20.003	102.866	20.026	3.060	0.498
880.500	512.649	80.012	20.002	102.866	20.027	2.984	0.506
881.000	512.903	80.011	20.003	102.868	20.026	3.085	0.517
881.500	513.167	80.011	20.003	102.869	20.027	3.012	0.520
882.000	513.407	80.011	20.003	102.865	20.027	3.008	0.511
882.500	513.669	80.011	20.003	102.862	20.027	2.969	0.503
883.000	513.930	80.012	20.003	102.862	20.027	3.000	0.512
883.500	514.182	80.010	20.003	102.862	20.027	2.988	0.518
884.000	514.392	80.012	20.003	102.861	20.027	2.947	0.488
884.500	514.695	80.011	20.003	102.865	20.026	3.064	0.487
885.000	514.970	80.010	20.002	102.868	20.026	3.074	0.545
885.500	515.211	80.011	20.003	102.868	20.025	3.120	0.547
886.000	515.453	80.010	20.003	102.868	20.028	2.928	0.500
886.500	515.714	80.010	20.003	102.866	20.031	2.707	0.493
887.000	515.999	80.010	20.002	102.866	20.030	2.751	0.524
887.500	516.220	80.011	20.002	102.867	20.029	2.829	0.526
888.000	516.474	80.010	20.002	102.868	20.030	2.761	0.491
888.500	516.745	80.008	20.002	102.869	20.029	2.856	0.500
889.000	517.013	80.010	20.002	102.871	20.030	2.763	0.532
889.500	517.234	80.010	20.003	102.871	20.030	2.736	0.514
890.000	517.515	80.011	20.002	102.871	20.032	2.577	0.495
890.500	517.773	80.011	20.003	102.870	20.032	2.604	0.520
891.000	518.056	80.010	20.003	102.869	20.031	2.666	0.541
891.500	518.265	80.009	20.003	102.868	20.031	2.652	0.517
892.000	518.569	80.010	20.003	102.868	20.029	2.825	0.503
892.500	518.765	80.009	20.003	102.867	20.033	2.553	0.507
893.000	519.001	80.010	20.003	102.869	20.031	2.642	0.466
893.500	519.256	80.011	20.002	102.868	20.030	2.759	0.461
894.000	519.528	80.011	20.003	102.870	20.030	2.761	0.509
894.500	519.768	80.011	20.003	102.871	20.029	2.804	0.520
895.000	520.018	80.011	20.003	102.872	20.030	2.757	0.501
895.500	520.292	80.011	20.002	102.872	20.030	2.780	0.507
896.000	520.540	80.012	20.002	102.872	20.031	2.664	0.523
896.500	520.831	80.011	20.003	102.871	20.029	2.858	0.530
897.000	521.069	80.011	20.003	102.870	20.027	2.961	0.534
897.500	521.356	80.011	20.003	102.870	20.027	2.971	0.527
898.000	521.563	80.011	20.002	102.869	20.027	2.946	0.510
898.500	521.827	80.012	20.003	102.868	20.027	2.961	0.482
899.000	522.086	80.012	20.002	102.866	20.028	2.932	0.496
899.500	522.325	80.012	20.002	102.864	20.030	2.788	0.510
900.000	522.574	80.011	20.002	102.863	20.031	2.687	0.493
900.500	522.842	80.012	20.002	102.860	20.028	2.887	0.503
901.000	523.079	80.013	20.003	102.860	20.031	2.691	0.511
901.500	523.357	80.012	20.002	102.862	20.026	3.058	0.510
902.000	523.649	80.012	20.002	102.864	20.028	2.936	0.543
902.500	523.868	80.013	20.002	102.865	20.031	2.668	0.540
903.000	524.112	80.013	20.004	102.868	20.029	2.808	0.487
903.500	524.414	80.012	20.003	102.868	20.030	2.775	0.505
904.000	524.674	80.012	20.004	102.869	20.028	2.886	0.554
904.500	524.903	80.013	20.004	102.869	20.029	2.793	0.525
905.000	525.129	80.012	20.003	102.869	20.033	2.497	0.472
905.500	525.397	80.012	20.005	102.869	20.028	2.868	0.475
906.000	525.644	80.013	20.005	102.869	20.028	2.880	0.504
906.500	525.902	80.012	20.005	102.868	20.030	2.757	0.510
907.000	526.155	80.011	20.003	102.868	20.030	2.777	0.508
907.500	526.400	80.014	20.003	102.868	20.029	2.790	0.505
908.000	526.652	80.013	20.003	102.867	20.032	2.584	0.497
908.500	526.912	80.012	20.004	102.866	20.029	2.800	0.504
909.000	527.117	80.013	20.003	102.865	20.031	2.666	0.489
909.500	527.364	80.013	20.003	102.865	20.029	2.816	0.459
910.000	527.655	80.012	20.003	102.864	20.032	2.602	0.495
910.500	527.892	80.012	20.004	102.863	20.032	2.627	0.533
911.000	528.122	80.011	20.003	102.863	20.028	2.928	0.498
911.500	528.380	80.014	20.004	102.863	20.033	2.546	0.477
912.000	528.637	80.013	20.003	102.862	20.029	2.851	0.502
912.500	528.916	80.012	20.004	102.863	20.029	2.853	0.525
913.000	529.145	80.013	20.004	102.865	20.030	2.773	0.522
913.500	529.391	80.012	20.004	102.862	20.033	2.526	0.491
914.000	529.637	80.011	20.004	102.860	20.031	2.678	0.483
914.500	529.866	80.012	20.003	102.856	20.030	2.783	0.483
915.000	530.121	80.013	20.003	102.851	20.028	2.905	0.480
915.500	530.385	80.012	20.004	102.850	20.027	2.989	0.502
916.000	530.605	80.012	20.004	102.848	20.025	3.158	0.502
916.500	530.873	80.013	20.003	102.850	20.029	2.851	0.486
917.000	531.157	80.012	20.003	102.855	20.027	2.957	0.520
917.500	531.387	80.013	20.002	102.857	20.026	3.025	0.533
918.000	531.627	80.011	20.003	102.858	20.025	3.146	0.492
918.500	531.918	80.011	20.003	102.861	20.027	2.965	0.500
919.000	532.166	80.012	20.004	102.860	20.028	2.922	0.535
919.500	532.427	80.012	20.003	102.858	20.028	2.891	0.524
920.000	532.682	80.013	20.004	102.858	20.027	2.946	0.512
920.500	532.932	80.013	20.004	102.854	20.027	3.004	0.511
921.000	533.169	80.013	20.003	102.852	20.024	3.177	0.496
921.500	533.447	80.013	20.004	102.852	20.026	3.066	0.501
922.000	533.697	80.012	20.004	102.854	20.028	2.901	0.521
922.500	533.929	80.013	20.003	102.855	20.024	3.225	0.505
923.000	534.185	80.013	20.003	102.858	20.025	3.113	0.485
923.500	534.453	80.013	20.004	102.855	20.026	3.066	0.506
924.000	534.661	80.014	20.003	102.854	20.025	3.136	0.500
924.500	534.957	80.013	20.003	102.850	20.028	2.897	0.490
925.000	535.245	80.013	20.002	102.850	20.029	2.829	0.544
925.500	535.452	80.013	20.003	102.848	20.026	3.076	0.540
926.000	535.701	80.014	20.003	102.851	20.029	2.820	0.476
926.500	535.956	80.013	20.003	102.854	20.028	2.884	0.480
927.000	536.215	80.013	20.003	102.857	20.027	3.012	0.509
927.500	536.474	80.013	20.003	102.858	20.030	2.713	0.516
928.000	536.728	80.015	20.002	102.861	20.031	2.695	0.516
928.500	536.941	80.014	20.002	102.863	20.031	2.647	0.490
929.000	537.160	80.014	20.002	102.863	20.030	2.750	0.449
929.500	537.422	80.015	20.003	102.863	20.030	2.715	0.457
930.000	537.661	80.013	20.002	102.863	20.027	2.942	0.491
930.500	537.932	80.012	20.002	102.865	20.031	2.664	0.506
931.000	538.160	80.013	20.004	102.868	20.032	2.563	0.504
931.500	538.442	80.012	20.004	102.869	20.030	2.720	0.504
932.000	538.680	80.014	20.004	102.869	20.030	2.734	0.515
932.500	538.947	80.012	20.003	102.868	20.033	2.524	0.513
933.000	539.179	80.012	20.002	102.867	20.030	2.756	0.502
933.500	539.380	80.012	20.006	102.865	20.030	2.781	0.466
934.000	539.645	80.012	20.006	102.866	20.032	2.593	0.450
934.500	539.939	80.013	20.005	102.866	20.031	2.701	0.512
935.000	540.176	80.012	20.004	102.862	20.027	2.944	0.544
935.500	540.421	80.012	20.004	102.859	20.030	2.779	0.507
936.000	540.655	80.011	20.004	102.860	20.030	2.740	0.481
936.500	540.893	80.011	20.003	102.855	20.031	2.674	0.476
937.000	541.118	80.010	20.004	102.853	20.031	2.639	0.468
937.500	541.389	80.010	20.003	102.851	20.029	2.864	0.479
938.000	541.648	80.011	20.003	102.854	20.029	2.860	0.513
938.500	541.886	80.010	20.004	102.853	20.030	2.720	0.513
939.000	542.184	80.012	20.004	102.853	20.029	2.833	0.516
939.500	542.418	80.010	20.004	102.856	20.028	2.878	0.534
940.000	542.638	80.011	20.004	102.860	20.031	2.660	0.493
940.500	542.918	80.011	20.004	102.855	20.032	2.565	0.477
941.000	543.176	80.011	20.004	102.855	20.028	2.917	0.519
941.500	543.425	80.010	20.005	102.859	20.029	2.804	0.523
942.000	543.647	80.011	20.005	102.858	20.028	2.905	0.489
942.500	543.886	80.011	20.003	102.859	20.026	3.041	0.466
943.000	544.127	80.011	20.004	102.860	20.031	2.693	0.471
943.500	544.358	80.009	20.004	102.853	20.029	2.856	0.476
944.000	544.616	80.011	20.005	102.849	20.030	2.742	0.481
944.500	544.886	80.011	20.004	102.842	20.032	2.627	0.509
945.000	545.119	80.010	20.004	102.840	20.028	2.897	0.515
945.500	545.352	80.011	20.004	102.841	20.027	2.957	0.484
946.000	545.558	80.011	20.004	102.845	20.027	2.965	0.452
946.500	545.834	80.011	20.003	102.850	20.027	2.963	0.460
947.000	546.046	80.011	20.003	102.857	20.031	2.689	0.485
947.500	546.329	80.011	20.005	102.860	20.029	2.847	0.492
948.000	546.569	80.011	20.003	102.863	20.029	2.841	0.509
948.500	546.799	80.010	20.003	102.865	20.028	2.887	0.497
949.000	547.079	80.010	20.003	102.864	20.027	2.998	0.490
949.500	547.340	80.011	20.003	102.860	20.030	2.759	0.526
950.000	547.542	80.011	20.003	102.856	20.031	2.709	0.502
950.500	547.838	80.012	20.003	102.853	20.031	2.655	0.480
951.000	548.046	80.011	20.002	102.853	20.033	2.542	0.501
951.500	548.330	80.012	20.003	102.855	20.031	2.693	0.498
952.000	548.537	80.011	20.003	102.859	20.033	2.501	0.491
952.500	548.802	80.010	20.002	102.864	20.030	2.724	0.482
953.000	549.034	80.010	20.002	102.868	20.032	2.569	0.485
953.500	549.266	80.012	20.002	102.868	20.032	2.600	0.480
954.000	549.540	80.012	20.002	102.868	20.031	2.648	0.485
954.500	549.768	80.012	20.002	102.868	20.029	2.808	0.504
955.000	550.022	80.011	20.003	102.868	20.030	2.726	0.492
955.500	550.262	80.011	20.002	102.869	20.031	2.652	0.488
956.000	550.541	80.013	20.002	102.870	20.032	2.563	0.507
956.500	550.745	80.011	20.002	102.867	20.032	2.606	0.501
957.000	551.006	80.010	20.003	102.867	20.032	2.620	0.474
957.500	551.260	80.013	20.002	102.867	20.030	2.754	0.490
958.000	551.490	80.011	20.003	102.866	20.029	2.804	0.499
958.500	551.735	80.011	20.003	102.865	20.030	2.760	0.479
959.000	551.950	80.013	20.002	102.868	20.030	2.760	0.467
959.500	552.211	80.011	20.003	102.867	20.029	2.793	0.468
960.000	552.463	80.011	20.002	102.865	20.030	2.736	0.495
960.500	552.720	80.012	20.003	102.862	20.028	2.884	0.511
961.000	552.953	80.012	20.003	102.855	20.026	3.077	0.500
961.500	553.195	80.012	20.003	102.850	20.029	2.826	0.483
962.000	553.472	80.011	20.002	102.848	20.032	2.577	0.497
962.500	553.702	80.012	20.003	102.850	20.029	2.797	0.513
963.000	553.957	80.013	20.002	102.852	20.028	2.888	0.496
963.500	554.219	80.011	20.003	102.858	20.030	2.740	0.501
964.000	554.444	80.013	20.003	102.863	20.026	3.048	0.502
964.500	554.728	80.011	20.003	102.863	20.027	2.977	0.498
965.000	554.971	80.012	20.003	102.863	20.029	2.802	0.518
965.500	555.257	80.011	20.003	102.864	20.027	2.954	0.528
966.000	555.445	80.011	20.002	102.862	20.024	3.166	0.502
966.500	555.692	80.012	20.003	102.863	20.028	2.935	0.454
967.000	555.949	80.012	20.005	102.861	20.028	2.867	0.470
967.500	556.181	80.011	20.004	102.858	20.032	2.634	0.497
968.000	556.418	80.012	20.003	102.852	20.031	2.688	0.479
968.500	556.681	80.007	20.003	102.846	20.027	2.958	0.484
969.000	556.894	79.997	20.001	102.840	20.026	3.032	0.488
969.500	557.146	79.993	20.001	102.839	20.029	2.845	0.471
970.000	557.368	79.992	19.999	102.840	20.026	3.034	0.469
970.500	557.625	79.992	19.997	102.841	20.025	3.106	0.477
971.000	557.870	79.992	19.996	102.841	20.026	3.079	0.491
971.500	558.139	79.992	19.996	102.840	20.025	3.110	0.508
972.000	558.392	79.994	19.996	102.839	20.026	3.075	0.518
972.500	558.604	79.992	19.996	102.840	20.026	3.085	0.494
973.000	558.843	79.992	19.997	102.838	20.024	3.199	0.458
973.501	559.117	79.993	19.997	102.839	20.027	2.964	0.482
974.000	559.342	79.992	19.997	102.841	20.023	3.283	0.506
974.500	559.611	79.992	19.996	102.839	20.023	3.271	0.496
975.000	559.838	79.994	19.996	102.835	20.027	3.007	0.495
975.500	560.118	79.994	19.997	102.840	20.023	3.259	0.502
976.000	560.353	79.994	19.997	102.844	20.024	3.195	0.511
976.500	560.584	79.992	19.997	102.844	20.022	3.341	0.491
977.000	560.834	79.993	19.996	102.846	20.026	3.084	0.473
977.500	561.074	79.994	19.997	102.844	20.027	2.964	0.485
978.000	561.313	79.994	19.997	102.838	20.024	3.236	0.485
978.500	561.553	79.992	19.997	102.833	20.026	3.044	0.479
979.000	561.838	79.995	19.998	102.832	20.027	2.954	0.502
979.500	562.090	79.995	19.998	102.830	20.025	3.127	0.531
980.000	562.317	79.994	19.996	102.834	20.025	3.120	0.508
980.500	562.568	79.994	19.997	102.837	20.024	3.190	0.479
981.000	562.818	79.995	19.995	102.839	20.025	3.123	0.489
981.500	563.078	79.994	19.995	102.838	20.027	2.958	0.505
982.000	563.324	79.996	19.996	102.838	20.025	3.119	0.508
982.500	563.566	79.995	19.995	102.834	20.027	2.968	0.497
983.000	563.804	79.994	19.995	102.830	20.024	3.234	0.484
983.500	564.063	79.996	19.997	102.828	20.024	3.187	0.488
984.000	564.282	79.995	19.997	102.828	20.024	3.193	0.488
984.500	564.517	79.994	19.996	102.828	20.023	3.298	0.466
985.000	564.767	79.996	19.995	102.827	20.026	3.061	0.469
985.500	564.999	79.995	19.997	102.831	20.023	3.263	0.483
986.000	565.263	79.995	19.996	102.834	20.025	3.125	0.489
986.500	565.523	79.995	19.996	102.835	20.027	3.014	0.510
987.000	565.752	79.995	19.996	102.836	20.025	3.133	0.506
987.500	566.013	79.995	19.995	102.838	20.025	3.141	0.490
988.000	566.223	79.996	19.996	102.837	20.026	3.084	0.481
988.500	566.466	79.996	19.995	102.835	20.024	3.201	0.462
989.000	566.755	79.996	19.995	102.836	20.025	3.129	0.493
989.500	566.982	79.995	19.996	102.835	20.022	3.375	0.524
990.000	567.243	79.994	19.995	102.832	20.021	3.449	0.502
990.500	567.462	79.996	19.995	102.829	20.020	3.517	0.484
991.000	567.757	79.995	19.996	102.829	20.024	3.179	0.498
991.500	568.005	79.994	19.996	102.830	20.021	3.457	0.529
992.000	568.232	79.996	19.995	102.833	20.020	3.500	0.509
992.500	568.491	79.994	19.994	102.835	20.020	3.473	0.480
993.000	568.774	79.995	19.995	102.838	20.021	3.444	0.514
993.500	569.005	79.995	19.995	102.839	20.023	3.312	0.528
994.000	569.218	79.995	19.995	102.841	20.020	3.479	0.479
994.500	569.504	79.994	19.994	102.839	20.023	3.271	0.471
995.000	569.751	79.994	19.996	102.840	20.024	3.193	0.516
995.500	570.012	79.994	19.995	102.838	20.020	3.487	0.521
996.000	570.294	79.993	19.995	102.837	20.022	3.329	0.526
996.500	570.526	79.994	19.996	102.836	20.022	3.350	0.529
997.000	570.771	79.994	19.995	102.838	20.020	3.535	0.496
997.500	571.012	79.995	19.995	102.836	20.022	3.327	0.481
998.000	571.285	79.993	19.995	102.838	20.022	3.339	0.499
998.500	571.524	79.992	19.996	102.839	20.022	3.347	0.513
999.000	571.810	79.993	19.998	102.845	20.023	3.298	0.519
999.500	572.064	80.005	20.002	102.850	20.028	2.906	0.533
1000.000	572.309	80.012	20.003	102.856	20.024	3.224	0.520
1000.500	572.594	80.004	20.002	102.863	20.023	3.280	0.514
1001.000	572.865	79.993	20.000	102.863	20.026	3.074	0.543
1001.500	573.136	79.993	20.000	102.860	20.025	3.131	0.549
1002.000	573.345	79.994	19.998	102.857	20.024	3.176	0.511
1002.500	573.647	79.995	19.998	102.854	20.024	3.218	0.495
1003.000	573.918	79.994	19.998	102.850	20.022	3.368	0.542
1003.500	574.180	79.996	19.997	102.851	20.023	3.298	0.553
1004.000	574.427	79.995	19.996	102.848	20.023	3.280	0.521
1004.500	574.690	79.994	19.996	102.843	20.021	3.395	0.509
1005.000	574.999	79.995	19.997	102.840	20.026	3.055	0.541
1005.500	575.267	79.995	19.996	102.838	20.023	3.257	0.574
1006.000	575.489	79.994	19.996	102.836	20.023	3.279	0.533
1006.500	575.767	79.995	19.996	102.838	20.022	3.329	0.495
1007.000	576.086	79.994	19.996	102.842	20.024	3.211	0.549
1007.500	576.319	79.994	19.996	102.846	20.023	3.263	0.575
1008.000	576.555	79.994	19.995	102.846	20.021	3.427	0.511
1008.500	576.819	79.995	19.996	102.846	20.024	3.228	0.484
1009.000	577.056	79.995	19.995	102.844	20.021	3.440	0.500
1009.500	577.340	79.995	19.996	102.840	20.023	3.304	0.511
1010.000	577.588	79.994	19.995	102.837	20.022	3.320	0.527
1010.500	577.865	79.995	19.996	102.839	20.026	3.061	0.529
1011.000	578.108	79.996	19.996	102.842	20.023	3.304	0.522
1011.500	578.381	79.994	19.995	102.846	20.024	3.241	0.517
1012.000	578.668	79.996	19.995	102.848	20.027	2.995	0.538
1012.500	578.935	79.995	19.995	102.846	20.027	2.979	0.558
1013.000	579.218	79.994	19.996	102.843	20.023	3.257	0.552
1013.500	579.458	79.995	19.996	102.842	20.025	3.121	0.536
1014.000	579.718	79.994	19.995	102.842	20.026	3.036	0.512
1014.500	580.007	79.994	19.996	102.847	20.025	3.131	0.525
1015.000	580.232	79.993	19.996	102.852	20.023	3.263	0.531
1015.500	580.542	79.992	19.996	102.855	20.021	3.422	0.524
1016.000	580.767	79.993	19.996	102.853	20.026	3.018	0.535
1016.500	581.053	79.993	19.995	102.849	20.025	3.100	0.523
1017.000	581.318	79.991	19.996	102.844	20.024	3.178	0.531
1017.500	581.555	79.992	19.996	102.838	20.027	2.960	0.526
1018.000	581.860	79.993	19.996	102.834	20.023	3.281	0.522
1018.500	582.101	79.993	19.996	102.833	20.024	3.209	0.544
1019.000	582.356	79.994	19.995	102.833	20.024	3.209	0.520
1019.500	582.602	79.993	19.995	102.832	20.023	3.248	0.498
1020.000	582.871	79.993	19.996	102.833	20.022	3.329	0.508
1020.500	583.128	79.993	19.995	102.833	20.021	3.442	0.520
1021.000	583.372	79.993	19.996	102.837	20.023	3.258	0.514
1021.500	583.642	79.992	19.996	102.841	20.024	3.236	0.508
1022.000	583.931	79.992	19.997	102.848	20.021	3.401	0.536
1022.501	584.154	79.991	19.996	102.852	20.024	3.199	0.535
1023.000	584.428	79.991	19.996	102.854	20.021	3.467	0.505
1023.500	584.700	79.991	19.997	102.850	20.022	3.378	0.522
1024.001	584.962	79.991	19.995	102.847	20.023	3.310	0.540
1024.500	585.247	79.992	19.995	102.841	20.021	3.436	0.540
1025.000	585.525	79.993	19.996	102.837	20.022	3.335	0.555
1025.500	585.770	79.992	19.995	102.836	20.022	3.330	0.543
1026.000	586.031	79.992	19.996	102.837	20.025	3.147	0.515
1026.500	586.297	79.993	19.996	102.843	20.027	2.980	0.516
1027.000	586.578	79.992	19.996	102.844	20.026	3.057	0.537
1027.500	586.832	79.992	19.997	102.842	20.024	3.174	0.541
1028.000	587.132	79.992	19.997	102.841	20.025	3.149	0.545
1028.500	587.361	79.992	19.996	102.839	20.023	3.248	0.542
1029.000	587.611	79.992	19.996	102.835	20.024	3.222	0.504
1029.500	587.881	79.992	19.997	102.835	20.027	3.003	0.499
1030.000	588.117	79.991	19.997	102.835	20.026	3.059	0.513
1030.500	588.406	79.993	19.998	102.836	20.021	3.397	0.516
1031.000	588.662	79.992	19.997	102.834	20.023	3.273	0.535
1031.500	588.912	79.992	19.997	102.831	20.020	3.502	0.526
1032.000	589.172	79.993	19.996	102.829	20.025	3.152	0.508
1032.500	589.414	79.992	19.997	102.830	20.026	3.057	0.506
1033.000	589.673	79.991	19.996	102.831	20.021	3.399	0.501
1033.500	589.964	79.993	19.997	102.835	20.024	3.166	0.525
1034.000	590.185	79.992	19.998	102.838	20.025	3.154	0.531
1034.500	590.458	79.992	19.996	102.838	20.022	3.390	0.503
1035.000	590.699	79.992	19.996	102.836	20.021	3.423	0.504
1035.500	591.011	79.993	19.997	102.834	20.021	3.397	0.533
1036.000	591.251	79.993	19.996	102.830	20.021	3.456	0.552
1036.500	591.503	79.992	19.996	102.827	20.024	3.195	0.522
1037.000	591.748	79.993	19.997	102.828	20.021	3.466	0.495
1037.500	591.978	79.992	19.996	102.828	20.022	3.351	0.486
1038.000	592.295	79.992	19.996	102.830	20.021	3.411	0.511
1038.500	592.518	79.992	19.995	102.830	20.023	3.285	0.543
1039.000	592.799	79.993	19.997	102.834	20.020	3.532	0.522
1039.500	593.092	79.992	19.997	102.833	20.025	3.137	0.539
1040.000	593.307	79.992	19.997	102.835	20.020	3.487	0.541
1040.500	593.578	79.992	19.996	102.835	20.021	3.454	0.497
1041.000	593.855	79.993	19.997	102.838	20.020	3.483	0.517
1041.500	594.127	79.993	19.996	102.836	20.023	3.293	0.548
1042.000	594.401	79.992	19.995	102.842	20.022	3.349	0.547
1042.500	594.665	79.993	19.996	102.841	20.021	3.440	0.543
1043.000	594.898	79.993	19.995	102.844	20.019	3.567	0.518
1043.500	595.195	79.993	19.995	102.843	20.023	3.316	0.513
1044.000	595.442	79.994	19.995	102.842	20.022	3.345	0.537
1044.500	595.713	79.994	19.996	102.836	20.023	3.263	0.531
1045.000	595.940	79.994	19.995	102.838	20.021	3.403	0.509
1045.500	596.203	79.993	19.995	102.834	20.024	3.181	0.494
1046.000	596.491	79.993	19.995	102.833	20.022	3.352	0.520
1046.500	596.716	79.993	19.995	102.832	20.024	3.167	0.532
1047.000	597.024	79.993	19.995	102.832	20.024	3.169	0.523
1047.500	597.245	79.994	19.996	102.828	20.023	3.303	0.531
1048.000	597.490	79.994	19.996	102.827	20.023	3.245	0.497
1048.500	597.763	79.992	19.996	102.828	20.024	3.192	0.492
1049.000	597.997	79.993	19.996	102.828	20.024	3.185	0.513
1049.500	598.253	79.993	19.995	102.828	20.023	3.243	0.498
1050.000	598.528	79.993	19.995	102.828	20.021	3.424	0.510
1050.501	598.807	79.993	19.996	102.828	20.021	3.395	0.543
1051.001	599.037	79.992	19.996	102.827	20.023	3.298	0.531
1051.500	599.330	79.993	19.996	102.829	20.021	3.429	0.515
1052.000	599.553	79.994	19.995	102.829	20.022	3.349	0.520
1052.500	599.831	79.993	19.996	102.829	20.021	3.395	0.509
1053.000	600.085	79.994	19.996	102.830	20.023	3.292	0.516
1053.500	600.380	79.992	19.996	102.830	20.023	3.267	0.540
1054.000	600.621	79.991	19.997	102.830	20.022	3.347	0.543
1054.500	600.875	79.992	19.995	102.829	20.025	3.100	0.516
1055.000	601.152	79.992	19.995	102.829	20.025	3.164	0.513
1055.501	601.398	79.991	19.996	102.831	20.022	3.368	0.527
1056.001	601.602	79.991	19.999	102.835	20.026	3.028	0.486
1056.500	601.885	79.991	20.001	102.841	20.027	2.991	0.469
1057.001	602.173	80.002	20.001	102.849	20.026	3.028	0.529
1057.501	602.435	80.009	20.002	102.856	20.023	3.316	0.561
1058.000	602.652	80.010	20.002	102.862	20.025	3.094	0.515
1058.500	602.952	80.012	20.004	102.865	20.026	3.036	0.497
1059.000	603.231	80.013	20.004	102.866	20.026	3.065	0.548
1059.500	603.487	80.005	20.003	102.863	20.028	2.915	0.558
1060.000	603.695	79.993	20.002	102.857	20.026	3.065	0.500
1060.500	604.008	79.993	19.999	102.850	20.029	2.826	0.492
1061.000	604.258	79.995	19.998	102.843	20.025	3.123	0.542
1061.500	604.511	79.992	19.996	102.836	20.027	2.941	0.533
1062.000	604.762	79.994	19.997	102.831	20.026	3.036	0.504
1062.500	605.045	79.993	19.995	102.831	20.023	3.316	0.519
1063.000	605.339	79.995	19.997	102.832	20.025	3.149	0.556
1063.500	605.552	79.994	19.996	102.834	20.024	3.201	0.542
1064.000	605.794	79.993	19.996	102.835	20.024	3.238	0.480
1064.500	606.089	79.995	19.996	102.837	20.021	3.405	0.496
1065.000	606.361	79.993	19.996	102.838	20.024	3.230	0.552
1065.501	606.596	79.993	19.996	102.842	20.021	3.399	0.537
1066.001	606.861	79.993	19.995	102.844	20.025	3.143	0.504
1066.500	607.108	79.995	19.995	102.845	20.024	3.238	0.506
1067.000	607.402	79.994	19.995	102.847	20.022	3.327	0.526
1067.500	607.653	79.994	19.995	102.845	20.022	3.360	0.543
1068.001	607.922	79.993	19.996	102.840	20.022	3.358	0.533
1068.501	608.223	79.994	19.995	102.837	20.023	3.248	0.545
1069.000	608.443	79.994	19.996	102.834	20.023	3.298	0.545
1069.500	608.727	79.994	19.995	102.834	20.023	3.306	0.512
1070.000	608.989	79.994	19.995	102.834	20.024	3.238	0.525
1070.500	609.248	79.993	19.995	102.836	20.023	3.316	0.534
1071.000	609.536	79.995	19.995	102.838	20.023	3.300	0.534
1071.500	609.788	79.994	19.994	102.839	20.027	2.974	0.543
1072.000	610.054	79.992	19.995	102.838	20.021	3.399	0.529
1072.500	610.348	79.994	19.995	102.837	20.025	3.162	0.539
1073.000	610.577	79.993	19.996	102.835	20.023	3.314	0.542
1073.500	610.836	79.994	19.995	102.833	20.023	3.279	0.505
1074.000	611.109	79.994	19.995	102.832	20.027	2.980	0.510
1074.500	611.377	79.993	19.994	102.830	20.024	3.189	0.537
1075.000	611.635	79.993	19.995	102.832	20.023	3.300	0.534
1075.500	611.940	79.995	19.994	102.833	20.022	3.355	0.544
1076.000	612.187	79.994	19.995	102.833	20.022	3.327	0.557
1076.500	612.459	79.994	19.994	102.833	20.021	3.423	0.535
1077.000	612.713	79.993	19.995	102.834	20.023	3.283	0.523
1077.500	612.992	79.994	19.995	102.836	20.019	3.598	0.530
1078.000	613.250	79.995	19.995	102.840	20.021	3.409	0.535
1078.500	613.524	79.993	19.995	102.840	20.021	3.458	0.534
1079.000	613.785	79.993	19.995	102.840	20.021	3.424	0.533
1079.500	614.047	79.994	19.994	102.838	20.021	3.395	0.529
1080.000	614.329	79.993	19.996	102.835	20.021	3.418	0.533
1080.500	614.576	79.994	19.995	102.832	20.022	3.331	0.536
1081.000	614.845	79.992	19.995	102.832	20.023	3.271	0.523
1081.500	615.139	79.993	19.995	102.832	20.022	3.378	0.540
1082.001	615.390	79.993	19.994	102.832	20.020	3.487	0.554
1082.501	615.686	79.992	19.995	102.832	20.024	3.217	0.546
1083.000	615.957	79.993	19.994	102.832	20.022	3.370	0.557
1083.500	616.213	79.994	19.994	102.831	20.021	3.400	0.547
1084.000	616.496	79.995	19.995	102.832	20.022	3.370	0.533
1084.500	616.754	79.994	19.995	102.833	20.024	3.226	0.540
1085.000	617.031	79.995	19.995	102.834	20.023	3.304	0.538
1085.500	617.294	79.993	19.995	102.833	20.024	3.201	0.537
1086.000	617.567	79.994	19.995	102.833	20.024	3.205	0.538
1086.500	617.833	79.993	19.995	102.834	20.021	3.463	0.538
1087.000	618.095	79.994	19.994	102.834	20.024	3.201	0.534
1087.500	618.360	79.995	19.994	102.834	20.024	3.238	0.528
1088.000	618.623	79.995	19.995	102.835	20.024	3.166	0.527
1088.500	618.914	79.997	19.995	102.835	20.025	3.157	0.540
1089.000	619.165	79.996	19.994	102.835	20.022	3.363	0.548
1089.501	619.434	79.996	19.995	102.835	20.022	3.357	0.531
1090.001	619.708	79.995	19.995	102.841	20.023	3.277	0.531
1090.500	619.948	79.995	19.995	102.846	20.024	3.211	0.528
1091.000	620.243	79.996	19.996	102.847	20.024	3.219	0.525
1091.500	620.498	79.995	19.995	102.846	20.022	3.329	0.543
1092.000	620.764	79.994	19.995	102.844	20.023	3.302	0.536
1092.500	621.048	79.995	19.995	102.836	20.022	3.335	0.535
1093.000	621.288	79.994	19.996	102.830	20.023	3.277	0.537
1093.500	621.583	79.995	19.995	102.827	20.025	3.139	0.530
1094.000	621.835	79.996	19.996	102.826	20.025	3.145	0.541
1094.500	622.107	79.995	19.995	102.828	20.025	3.123	0.535
1095.000	622.372	79.995	19.996	102.829	20.023	3.316	0.530
1095.500	622.648	79.993	19.996	102.833	20.022	3.361	0.539
1096.000	622.909	79.994	19.996	102.839	20.023	3.256	0.539
1096.500	623.184	79.995	19.996	102.841	20.025	3.145	0.536
1097.000	623.467	79.994	19.995	102.839	20.026	3.079	0.547
1097.500	623.717	79.993	19.996	102.837	20.025	3.129	0.546
1098.000	623.979	79.995	19.996	102.834	20.020	3.498	0.523
1098.500	624.240	79.993	19.995	102.828	20.020	3.489	0.518
1099.000	624.514	79.992	19.997	102.825	20.027	2.956	0.529
1099.500	624.771	79.992	19.997	102.825	20.024	3.205	0.533
1100.000	625.034	79.991	19.997	102.825	20.023	3.310	0.526
1100.500	625.298	79.993	19.997	102.825	20.023	3.295	0.524
1101.000	625.566	79.993	19.996	102.826	20.025	3.122	0.529
1101.500	625.810	79.992	19.996	102.830	20.025	3.160	0.522
1102.000	626.137	79.992	19.997	102.835	20.025	3.145	0.541
1102.500	626.390	79.992	19.996	102.840	20.021	3.425	0.575
1103.000	626.650	79.992	19.996	102.841	20.023	3.289	0.547
1103.500	626.911	79.992	19.996	102.842	20.025	3.139	0.517
1104.000	627.186	79.991	19.996	102.840	20.024	3.213	0.528
1104.500	627.449	79.990	19.996	102.837	20.028	2.869	0.537
1105.000	627.687	79.992	19.996	102.833	20.027	2.947	0.519
1105.500	627.992	79.991	19.995	102.832	20.026	3.032	0.522
1106.000	628.247	79.994	19.996	102.832	20.020	3.528	0.552
1106.500	628.521	79.993	19.996	102.831	20.024	3.166	0.544
1107.000	628.791	79.993	19.996	102.832	20.027	2.978	0.536
1107.500	629.028	79.993	19.996	102.833	20.023	3.277	0.526
1108.000	629.276	79.993	19.995	102.835	20.025	3.160	0.496
1108.500	629.535	79.992	19.995	102.836	20.027	3.007	0.496
1109.000	629.790	79.992	19.997	102.835	20.028	2.925	0.511
1109.500	630.096	79.992	19.996	102.834	20.025	3.143	0.538
1110.000	630.347	79.993	19.997	102.832	20.022	3.326	0.559
1110.500	630.603	79.993	19.997	102.829	20.026	3.079	0.532
1111.000	630.886	79.993	19.997	102.828	20.023	3.289	0.523
1111.500	631.140	79.993	19.996	102.827	20.021	3.456	0.538
1112.000	631.399	79.992	19.996	102.827	20.024	3.184	0.525
1112.500	631.617	79.992	19.996	102.828	20.024	3.203	0.495
1113.000	631.976	79.993	19.995	102.829	20.023	3.244	0.527
1113.500	632.193	79.992	19.996	102.829	20.024	3.230	0.577
1114.000	632.430	79.992	19.996	102.831	20.025	3.141	0.515
1114.500	632.723	79.992	19.996	102.831	20.024	3.232	0.492
1115.000	632.977	79.992	19.996	102.830	20.024	3.174	0.538
1115.500	633.237	79.992	19.996	102.829	20.021	3.425	0.531
1116.000	633.489	79.993	19.996	102.829	20.019	3.576	0.513
1116.501	633.773	79.993	19.996	102.828	20.021	3.456	0.524
1117.001	633.981	79.993	19.996	102.827	20.021	3.452	0.514
1117.500	634.286	79.992	19.996	102.828	20.019	3.607	0.502
1118.000	634.522	79.992	19.996	102.828	20.021	3.430	0.527
1118.500	634.830	79.994	19.996	102.828	20.022	3.327	0.543
1119.000	635.069	79.992	19.995	102.828	20.022	3.333	0.545
1119.500	635.333	79.993	19.995	102.828	20.021	3.421	0.525
1120.000	635.589	79.992	19.997	102.828	20.021	3.411	0.512
1120.500	635.828	79.992	19.996	102.828	20.018	3.621	0.508
1121.000	636.109	79.992	19.996	102.828	20.022	3.376	0.508
1121.500	636.352	79.993	19.996	102.828	20.020	3.528	0.522
1122.000	636.631	79.992	19.997	102.828	20.020	3.499	0.523
1122.500	636.909	79.993	19.995	102.827	20.022	3.370	0.540
1123.000	637.166	79.992	19.995	102.827	20.022	3.359	0.546
1123.500	637.362	79.992	19.995	102.827	20.023	3.293	0.494
1124.000	637.610	79.991	19.997	102.827	20.021	3.464	0.448
1124.500	637.858	79.992	19.996	102.827	20.024	3.209	0.469
1125.001	638.176	79.992	19.997	102.827	20.019	3.580	0.531
1125.501	638.408	79.993	19.996	102.828	20.024	3.225	0.558
1126.000	638.653	79.991	19.998	102.828	20.023	3.298	0.513
1126.500	638.915	79.992	19.996	102.828	20.022	3.333	0.492
1127.000	639.157	79.990	19.997	102.829	20.019	3.615	0.506
1127.500	639.385	79.991	19.996	102.834	20.023	3.283	0.487
1128.000	639.682	79.991	19.996	102.835	20.024	3.201	0.497
1128.500	639.923	79.992	19.996	102.835	20.023	3.310	0.532
1129.000	640.159	79.991	19.997	102.835	20.023	3.281	0.508
1129.500	640.410	79.990	19.996	102.835	20.025	3.094	0.482
1130.000	640.640	79.991	19.996	102.830	20.023	3.279	0.484
1130.500	640.883	79.991	19.997	102.828	20.021	3.452	0.477
1131.000	641.102	79.991	19.996	102.829	20.023	3.300	0.468
1131.500	641.421	79.990	19.996	102.829	20.023	3.263	0.500
1132.001	641.638	79.991	19.996	102.829	20.022	3.324	0.536
1132.501	641.923	79.991	19.995	102.829	20.020	3.477	0.519
1133.000	642.154	79.991	19.996	102.829	20.021	3.411	0.509
1133.500	642.404	79.991	19.997	102.829	20.019	3.584	0.499
1134.000	642.679	79.993	19.996	102.829	20.023	3.279	0.503
1134.500	642.918	79.992	19.996	102.829	20.024	3.174	0.520
1135.000	643.182	79.992	19.995	102.829	20.021	3.448	0.509
1135.500	643.409	79.991	19.996	102.830	20.018	3.621	0.497
1136.000	643.663	79.992	19.996	102.830	20.019	3.572	0.486
1136.500	643.911	79.992	19.995	102.830	20.021	3.440	0.492
1137.000	644.153	79.993	19.995	102.831	20.019	3.600	0.496
1137.500	644.393	79.993	19.995	102.832	20.018	3.619	0.486
1138.000	644.671	79.991	19.996	102.832	20.019	3.609	0.500
1138.500	644.944	79.992	19.994	102.832	20.020	3.497	0.534
1139.000	645.182	79.993	19.995	102.832	20.020	3.518	0.531
1139.501	645.445	79.993	19.995	102.831	20.017	3.705	0.506
1140.001	645.650	79.993	19.995	102.831	20.020	3.487	0.485
1140.500	645.927	79.992	19.995	102.831	20.021	3.460	0.475
1141.000	646.162	79.992	19.995	102.831	20.018	3.679	0.497
1141.500	646.394	79.993	19.996	102.831	20.023	3.312	0.490
1142.000	646.642	79.993	19.996	102.831	20.018	3.669	0.473
1142.500	646.936	79.993	19.995	102.831	20.020	3.524	0.510
1143.000	647.184	79.991	19.995	102.831	20.019	3.588	0.542
1143.500	647.444	79.994	19.995	102.830	20.021	3.442	0.525
1144.000	647.665	79.993	19.994	102.831	20.022	3.361	0.495
1144.501	647.935	79.993	19.995	102.831	20.016	3.769	0.486
1145.001	648.166	79.993	19.995	102.831	20.018	3.635	0.495
1145.500	648.437	79.993	19.995	102.832	20.021	3.429	0.501
1146.000	648.694	79.993	19.995	102.833	20.021	3.392	0.515
1146.500	648.938	79.994	19.995	102.832	20.020	3.475	0.514
1147.000	649.209	79.993	19.994	102.832	20.019	3.600	0.508
1147.500	649.416	79.995	19.994	102.833	20.021	3.429	0.497
1148.000	649.698	79.993	19.994	102.833	20.019	3.572	0.484
1148.500	649.957	79.993	19.994	102.832	20.019	3.561	0.516
1149.000	650.203	79.994	19.994	102.832	20.019	3.557	0.523
1149.500	650.444	79.993	19.995	102.833	20.021	3.415	0.496
1150.000	650.701	79.993	19.995	102.833	20.020	3.491	0.492
1150.500	650.929	79.994	19.996	102.832	20.018	3.687	0.491
1151.000	651.200	79.992	19.995	102.832	20.018	3.652	0.492
1151.500	651.433	79.994	19.995	102.833	20.018	3.640	0.501
1152.000	651.726	79.992	19.994	102.833	20.019	3.553	0.515
1152.500	651.947	79.994	19.995	102.836	20.020	3.473	0.520
1153.000	652.179	79.993	19.995	102.838	20.021	3.440	0.483
1153.500	652.426	79.993	19.996	102.838	20.016	3.786	0.466
1154.000	652.679	79.994	19.995	102.836	20.016	3.773	0.490
1154.500	652.977	79.993	19.996	102.835	20.018	3.674	0.525
1155.000	653.194	79.994	19.995	102.832	20.020	3.516	0.533
1155.500	653.473	79.994	19.995	102.830	20.019	3.580	0.506
1156.000	653.706	79.993	19.996	102.830	20.019	3.615	0.504
1156.500	653.986	79.993	19.995	102.829	20.019	3.563	0.512
1157.000	654.217	79.992	19.995	102.828	20.021	3.452	0.512
1157.500	654.478	79.993	19.996	102.827	20.020	3.471	0.502
1158.000	654.748	79.992	19.996	102.829	20.021	3.440	0.511
1158.500	654.956	79.993	19.995	102.832	20.020	3.483	0.504
1159.000	655.238	79.993	19.996	102.832	20.022	3.349	0.484
1159.500	655.529	79.994	19.996	102.832	20.018	3.641	0.532
1160.000	655.747	79.992	19.996	102.835	20.022	3.380	0.541
1160.500	656.031	79.994	19.995	102.837	20.024	3.225	0.505
1161.000	656.285	79.993	19.995	102.834	20.023	3.293	0.520
1161.500	656.516	79.994	19.995	102.834	20.019	3.553	0.512
1162.000	656.720	79.994	19.995	102.834	20.023	3.304	0.460
1162.500	657.026	79.994	19.995	102.834	20.022	3.343	0.472
1163.000	657.282	79.994	19.995	102.830	20.021	3.405	0.536
1163.501	657.511	79.994	19.996	102.829	20.017	3.726	0.524
1164.001	657.755	79.994	19.996	102.829	20.020	3.481	0.480
1164.500	658.044	79.993	19.995	102.829	20.023	3.300	0.503
1165.000	658.265	79.995	19.994	102.826	20.021	3.407	0.521
1165.500	658.543	79.994	19.995	102.825	20.021	3.421	0.505
1166.000	658.735	79.994	19.995	102.826	20.020	3.501	0.484
1166.500	659.032	79.993	19.995	102.826	20.018	3.646	0.479
1167.000	659.254	79.995	19.995	102.827	20.020	3.487	0.504
1167.501	659.550	79.994	19.996	102.828	20.019	3.584	0.519
1168.001	659.770	79.993	19.995	102.828	20.021	3.448	0.517
1168.500	660.005	79.994	19.994	102.828	20.020	3.504	0.485
1169.001	660.306	79.994	19.995	102.828	20.022	3.359	0.496
1169.501	660.529	79.996	19.995	102.828	20.023	3.281	0.530
1170.000	660.786	79.996	19.994	102.828	20.026	3.075	0.502
1170.500	661.036	79.995	19.994	102.829	20.022	3.372	0.494
1171.000	661.334	79.996	19.994	102.828	20.023	3.248	0.528
1171.500	661.558	79.996	19.995	102.830	20.022	3.374	0.535
1172.000	661.810	79.996	19.995	102.830	20.022	3.364	0.499
1172.501	662.089	79.995	19.994	102.829	20.020	3.489	0.504
1173.001	662.355	79.996	19.994	102.829	20.021	3.396	0.538
1173.500	662.582	79.995	19.994	102.829	20.021	3.409	0.519
1174.000	662.849	79.996	19.995	102.827	20.020	3.541	0.493
1174.500	663.103	79.996	19.995	102.826	20.024	3.217	0.508
1175.000	663.336	79.996	19.995	102.826	20.022	3.337	0.504
1175.500	663.597	79.996	19.994	102.826	20.020	3.475	0.491
1176.000	663.852	79.995	19.995	102.826	20.020	3.520	0.505
1176.500	664.111	79.994	19.993	102.826	20.021	3.400	0.515
1177.000	664.325	79.994	19.995	102.826	20.023	3.246	0.493
1177.500	664.596	79.995	19.995	102.826	20.019	3.567	0.479
1178.000	664.818	79.994	19.994	102.828	20.025	3.120	0.489
1178.500	665.091	79.994	19.995	102.830	20.019	3.588	0.494
1179.000	665.331	79.993	19.994	102.830	20.022	3.330	0.504
1179.500	665.593	79.993	19.995	102.831	20.020	3.487	0.507
1180.000	665.834	79.994	19.995	102.832	20.021	3.400	0.502
1180.500	666.100	79.992	19.995	102.831	20.023	3.299	0.505
1181.000	666.377	79.992	19.995	102.829	20.018	3.676	0.525
1181.500	666.629	79.992	19.995	102.830	20.016	3.806	0.536
1182.000	666.895	79.992	19.996	102.830	20.020	3.487	0.524
1182.500	667.146	79.993	19.996	102.830	20.021	3.400	0.518
1183.000	667.376	79.992	19.996	102.831	20.019	3.559	0.499
1183.500	667.606	79.992	19.996	102.833	20.020	3.485	0.471
1184.000	667.889	79.993	19.996	102.832	20.020	3.520	0.487
1184.500	668.134	79.992	19.996	102.832	20.018	3.674	0.520
1185.000	668.394	79.992	19.997	102.831	20.019	3.615	0.517
1185.500	668.629	79.992	19.996	102.830	20.016	3.771	0.500
1186.000	668.867	79.992	19.996	102.828	20.019	3.563	0.484
1186.500	669.156	79.993	19.996	102.828	20.021	3.401	0.500
1187.000	669.395	79.993	19.995	102.828	20.018	3.683	0.528
1187.500	669.644	79.991	19.996	102.828	20.017	3.755	0.508
1188.000	669.902	79.993	19.996	102.828	20.019	3.551	0.497
1188.500	670.168	79.992	19.996	102.828	20.019	3.596	0.515
1189.000	670.410	79.992	19.995	102.828	20.023	3.296	0.516
1189.500	670.679	79.992	19.996	102.828	20.017	3.740	0.509
1190.000	670.897	79.994	19.996	102.828	20.019	3.598	0.499
1190.500	671.153	79.992	19.996	102.828	20.018	3.685	0.481
1191.000	671.416	79.993	19.996	102.828	20.015	3.909	0.497
1191.500	671.660	79.992	19.996	102.826	20.019	3.578	0.513
1192.000	671.929	79.992	19.996	102.827	20.017	3.695	0.509
1192.500	672.182	79.994	19.996	102.827	20.017	3.697	0.517
1193.000	672.429	79.993	19.995	102.827	20.017	3.763	0.511
1193.500	672.701	79.994	19.996	102.827	20.016	3.815	0.510
1194.000	672.967	79.993	19.996	102.829	20.021	3.452	0.528
1194.501	673.160	79.994	19.996	102.829	20.016	3.786	0.498
1195.001	673.432	79.994	19.996	102.828	20.014	3.957	0.462
1195.500	673.697	79.992	19.995	102.828	20.016	3.819	0.501
1196.000	673.956	79.993	19.996	102.829	20.018	3.667	0.531
1196.500	674.242	79.991	19.996	102.829	20.019	3.559	0.534
1197.000	674.512	79.992	19.995	102.829	20.019	3.559	0.550
1197.500	674.776	79.993	19.995	102.832	20.013	3.996	0.545
1198.000	675.022	79.994	19.996	102.835	20.017	3.728	0.522
1198.500	675.264	79.992	19.996	102.836	20.016	3.792	0.499
1199.000	675.538	79.991	19.995	102.836	20.014	3.926	0.502
1199.500	675.778	79.993	19.995	102.836	20.015	3.858	0.515
1200.000	676.060	79.993	19.995	102.834	20.017	3.707	0.518
1200.500	676.303	79.993	19.995	102.830	20.013	4.004	0.524
1201.000	676.552	79.994	19.995	102.830	20.014	3.924	0.509
1201.500	676.779	79.993	19.995	102.829	20.014	3.938	0.484
1202.000	677.047	79.993	19.995	102.829	20.021	3.436	0.485
1202.500	677.335	79.992	19.995	102.829	20.020	3.497	0.525
1203.000	677.559	79.993	19.996	102.830	20.016	3.780	0.534
1203.500	677.834	79.992	19.995	102.830	20.013	4.056	0.506
1204.000	678.100	79.993	19.996	102.831	20.012	4.085	0.520
1204.501	678.364	79.993	19.996	102.831	20.014	3.932	0.535
1205.001	678.616	79.991	19.996	102.831	20.015	3.858	0.523
1205.500	678.865	79.992	19.996	102.830	20.012	4.099	0.508
1206.000	679.111	79.991	19.996	102.834	20.016	3.825	0.498
1206.500	679.364	79.992	19.996	102.838	20.011	4.153	0.497
1207.000	679.590	79.993	19.994	102.838	20.021	3.419	0.489
1207.500	679.860	79.992	19.996	102.838	20.024	3.230	0.488
1208.000	680.090	79.992	19.996	102.838	20.016	3.773	0.498
1208.500	680.358	79.992	19.995	102.834	20.017	3.742	0.499
1209.000	680.607	79.991	19.996	102.830	20.019	3.555	0.508
1209.500	680.862	79.992	19.997	102.829	20.018	3.660	0.511
1210.000	681.123	79.991	19.995	102.829	20.016	3.782	0.510
1210.500	681.393	79.990	19.996	102.829	20.016	3.798	0.524
1211.000	681.573	79.991	19.995	102.829	20.019	3.594	0.491
1211.500	681.991	79.991	19.996	102.829	20.019	3.604	0.524
1212.000	682.141	79.992	19.995	102.830	20.019	3.604	0.583
1212.500	682.384	79.990	19.997	102.832	20.016	3.825	0.481
1213.000	682.696	79.990	19.996	102.832	20.013	4.049	0.474
1213.500	682.911	79.990	19.997	102.831	20.012	4.097	0.541
1214.000	683.199	79.991	19.997	102.831	20.015	3.913	0.515
1214.500	683.440	79.992	19.996	102.831	20.014	3.930	0.516
1215.000	683.684	79.990	19.996	102.834	20.015	3.905	0.507
1215.500	683.925	79.990	19.996	102.841	20.020	3.541	0.485
1216.000	684.196	79.991	19.997	102.843	20.018	3.676	0.498
1216.500	684.418	79.990	19.996	102.843	20.019	3.553	0.503
1217.000	684.677	79.992	19.996	102.843	20.012	4.119	0.487
1217.500	684.972	79.992	19.997	102.840	20.015	3.864	0.517
1218.000	685.237	79.992	19.996	102.833	20.013	4.022	0.557
1218.500	685.445	79.991	19.996	102.831	20.014	3.977	0.517
1219.000	685.710	79.992	19.997	102.830	20.012	4.105	0.473
1219.500	685.997	79.993	19.998	102.829	20.016	3.773	0.512
1220.001	686.212	79.993	19.998	102.828	20.016	3.777	0.527
1220.501	686.471	79.993	19.997	102.828	20.013	4.037	0.488
1221.000	686.739	79.992	19.996	102.828	20.015	3.901	0.501
1221.500	686.969	79.993	19.998	102.828	20.014	3.932	0.513
1222.000	687.282	79.993	19.997	102.829	20.014	3.944	0.521
1222.501	687.549	79.993	19.996	102.831	20.017	3.707	0.561
1223.001	687.783	79.994	19.996	102.830	20.010	4.266	0.540
1223.501	688.060	79.993	19.996	102.831	20.013	4.062	0.506
1224.001	688.326	79.995	19.996	102.830	20.014	3.938	0.527
1224.500	688.561	79.994	19.997	102.830	20.015	3.881	0.522
1225.000	688.833	79.994	19.996	102.828	20.013	4.056	0.504
1225.500	689.081	79.994	19.997	102.827	20.014	3.988	0.514
1226.000	689.334	79.993	19.996	102.828	20.012	4.103	0.511
1226.500	689.563	79.995	19.996	102.828	20.012	4.103	0.491
1227.000	689.814	79.996	19.996	102.827	20.014	3.985	0.481
1227.500	690.019	79.993	19.995	102.826	20.012	4.125	0.468
1228.000	690.277	79.994	19.995	102.826	20.015	3.884	0.460
1228.500	690.525	79.994	19.996	102.825	20.014	3.959	0.484
1229.000	690.825	79.994	19.995	102.825	20.012	4.115	0.527
1229.500	691.076	79.995	19.996	102.827	20.010	4.229	0.549
1230.000	691.281	79.996	19.995	102.828	20.010	4.276	0.504
1230.500	691.553	79.994	19.996	102.828	20.011	4.175	0.467
1231.000	691.827	79.996	19.995	102.829	20.012	4.128	0.512
1231.500	692.084	79.994	19.996	102.829	20.013	4.004	0.538
1232.000	692.341	79.993	19.996	102.827	20.012	4.107	0.522
1232.500	692.584	79.994	19.995	102.827	20.013	4.066	0.507
1233.000	692.837	79.994	19.995	102.827	20.016	3.835	0.498
1233.501	693.094	79.994	19.995	102.829	20.013	4.062	0.503
1234.001	693.328	79.994	19.996	102.829	20.011	4.163	0.501
1234.500	693.593	79.994	19.995	102.831	20.012	4.088	0.495
1235.000	693.829	79.996	19.995	102.835	20.012	4.097	0.500
1235.501	694.086	79.995	19.994	102.836	20.010	4.223	0.497
1236.001	694.345	79.994	19.996	102.834	20.013	4.043	0.505
1236.500	694.597	79.994	19.995	102.833	20.013	4.066	0.514
1237.000	694.853	79.994	19.995	102.829	20.011	4.181	0.510
1237.501	695.077	79.994	19.995	102.824	20.011	4.187	0.494
1238.001	695.317	79.995	19.995	102.823	20.013	4.033	0.472
1238.500	695.586	79.994	19.995	102.823	20.011	4.156	0.486
1239.000	695.838	79.995	19.995	102.824	20.012	4.123	0.515
1239.500	696.118	79.993	19.996	102.826	20.012	4.101	0.526
1240.000	696.370	79.994	19.995	102.831	20.013	4.002	0.532
1240.500	696.606	79.994	19.995	102.833	20.015	3.899	0.510
1241.000	696.861	79.994	19.995	102.833	20.011	4.202	0.490
1241.500	697.117	79.995	19.996	102.835	20.011	4.152	0.501
1242.000	697.361	79.993	19.995	102.835	20.007	4.486	0.505
1242.500	697.615	79.995	19.995	102.833	20.014	3.928	0.499
1243.001	697.864	79.994	19.996	102.830	20.011	4.167	0.501
1243.501	698.123	79.994	19.995	102.830	20.013	4.018	0.505
1244.000	698.359	79.994	19.994	102.829	20.012	4.138	0.502
1244.500	698.608	79.994	19.995	102.828	20.013	4.020	0.490
1245.000	698.850	79.994	19.995	102.829	20.011	4.171	0.488
1245.500	699.135	79.995	19.995	102.828	20.009	4.336	0.509
1246.000	699.334	79.995	19.996	102.832	20.015	3.858	0.505
1246.500	699.612	79.994	19.995	102.834	20.008	4.411	0.481
1247.000	699.857	79.995	19.995	102.834	20.009	4.363	0.500
1247.500	700.108	79.995	19.995	102.834	20.010	4.237	0.510
1248.000	700.390	79.996	19.994	102.834	20.011	4.185	0.514
1248.500	700.634	79.996	19.996	102.830	20.010	4.282	0.529
1249.000	700.889	79.995	19.996	102.829	20.008	4.388	0.512
1249.500	701.106	79.995	19.996	102.828	20.014	3.952	0.486
1250.000	701.359	79.996	19.996	102.828	20.012	4.115	0.472
1250.500	701.612	79.996	19.995	102.829	20.013	4.058	0.488
1251.000	701.843	79.996	19.996	102.828	20.016	3.798	0.494
1251.500	702.129	79.996	19.995	102.827	20.014	3.965	0.500
1252.000	702.376	79.996	19.995	102.827	20.014	3.959	0.525
1252.500	702.618	79.996	19.994	102.827	20.016	3.786	0.511
1253.000	702.873	79.995	19.994	102.827	20.015	3.866	0.493
1253.500	703.114	79.996	19.994	102.829	20.012	4.074	0.496
1254.000	703.369	79.995	19.994	102.829	20.017	3.751	0.496
1254.500	703.650	79.995	19.996	102.829	20.014	3.992	0.516
1255.000	703.875	79.996	19.995	102.829	20.015	3.887	0.521
1255.500	704.113	79.996	19.995	102.828	20.014	3.961	0.484
1256.000	704.383	79.994	19.994	102.827	20.015	3.909	0.485
1256.500	704.625	79.995	19.996	102.833	20.012	4.144	0.510
1257.000	704.831	79.994	19.995	102.826	20.015	3.907	0.481
1257.500	705.139	79.996	19.995	102.803	20.013	4.056	0.481
1258.000	705.356	79.993	19.994	102.789	20.017	3.751	0.519
1258.500	705.601	79.994	19.995	102.780	20.014	3.988	0.494
1259.000	705.842	79.995	19.995	102.767	20.020	3.510	0.474
1259.500	706.088	79.994	19.995	102.771	20.011	4.165	0.486
1260.000	706.341	79.995	19.994	102.809	20.013	3.998	0.493
1260.500	706.592	79.992	19.994	102.857	20.014	3.959	0.502
1261.000	706.849	79.991	19.996	102.877	20.016	3.835	0.506
1261.500	707.087	79.994	19.995	102.886	20.015	3.870	0.502
1262.000	707.350	79.994	19.995	102.889	20.017	3.759	0.498
1262.500	707.565	79.993	19.995	102.874	20.015	3.854	0.489
1263.000	707.825	79.994	19.995	102.839	20.016	3.806	0.477
1263.500	708.117	79.992	19.994	102.828	20.019	3.551	0.514
1264.000	708.350	79.993	19.995	102.827	20.017	3.724	0.539
1264.500	708.581	79.994	19.995	102.827	20.014	3.946	0.494
1265.000	708.839	79.993	19.995	102.827	20.017	3.699	0.476
1265.500	709.085	79.993	19.995	102.829	20.014	3.982	0.497
1266.001	709.345	79.994	19.995	102.830	20.012	4.082	0.505
1266.501	709.596	79.993	19.994	102.832	20.017	3.747	0.508
1267.000	709.843	79.994	19.995	102.832	20.014	3.924	0.504
1267.500	710.085	79.993	19.994	102.833	20.016	3.839	0.494
1268.000	710.328	79.994	19.995	102.833	20.016	3.780	0.487
1268.500	710.578	79.993	19.994	102.833	20.016	3.798	0.489
1269.000	710.828	79.993	19.996	102.832	20.016	3.825	0.497
1269.500	711.062	79.993	19.995	102.833	20.017	3.724	0.492
1270.000	711.318	79.994	19.995	102.833	20.016	3.778	0.487
1270.501	711.597	79.993	19.995	102.833	20.014	3.955	0.513
1271.001	711.822	79.992	19.995	102.832	20.013	4.017	0.519
1271.500	712.116	79.993	19.995	102.832	20.015	3.916	0.511
1272.000	712.327	79.993	19.994	102.831	20.012	4.115	0.512
1272.500	712.626	79.993	19.996	102.831	20.012	4.097	0.508
1273.001	712.843	79.993	19.996	102.831	20.013	4.049	0.513
1273.501	713.090	79.994	19.995	102.831	20.012	4.093	0.490
1274.000	713.335	79.994	19.994	102.831	20.013	4.064	0.478
1274.500	713.603	79.993	19.995	102.832	20.013	4.002	0.502
1275.000	713.873	79.994	19.995	102.832	20.014	3.994	0.525
1275.500	714.116	79.992	19.995	102.832	20.013	4.006	0.526
1276.000	714.315	79.993	19.995	102.832	20.012	4.119	0.477
1276.500	714.632	79.993	19.995	102.833	20.012	4.119	0.479
1277.000	714.897	79.993	19.996	102.832	20.011	4.173	0.549
1277.500	715.173	79.993	19.995	102.832	20.014	3.977	0.562
1278.000	715.377	79.994	19.995	102.833	20.012	4.103	0.510
1278.500	715.652	79.993	19.996	102.833	20.014	3.928	0.480
1279.000	715.906	79.994	19.996	102.832	20.017	3.724	0.504
1279.500	716.179	79.993	19.995	102.832	20.013	4.012	0.527
1280.000	716.436	79.993	19.996	102.833	20.011	4.158	0.528
1280.500	716.690	79.995	19.996	102.832	20.013	4.064	0.521
1281.000	716.979	79.994	19.996	102.833	20.012	4.086	0.528
1281.500	717.223	79.995	19.996	102.835	20.015	3.876	0.538
1282.000	717.489	79.994	19.994	102.835	20.015	3.860	0.521
1282.500	717.726	79.993	19.996	102.834	20.011	4.187	0.507
1283.000	718.018	79.994	19.995	102.834	20.013	4.066	0.516
1283.500	718.242	79.994	19.996	102.833	20.014	3.990	0.522
1284.000	718.486	79.993	19.996	102.831	20.013	4.025	0.492
1284.500	718.749	79.994	19.997	102.829	20.011	4.206	0.487
1285.000	719.004	79.994	19.996	102.829	20.008	4.431	0.512
1285.500	719.317	79.993	19.995	102.828	20.007	4.505	0.543
1286.000	719.530	79.993	19.995	102.825	20.010	4.292	0.547
1286.500	719.815	79.993	19.996	102.825	20.012	4.093	0.512
1287.001	720.062	79.993	19.996	102.826	20.009	4.360	0.516
1287.501	720.305	79.994	19.996	102.827	20.010	4.231	0.512
1288.000	720.606	79.994	19.996	102.830	20.013	4.062	0.517
1288.501	720.823	79.994	19.996	102.833	20.011	4.183	0.531
1289.001	721.106	79.995	19.995	102.835	20.011	4.181	0.509
1289.500	721.375	79.995	19.996	102.834	20.006	4.531	0.526
1290.000	721.620	79.993	19.996	102.832	20.009	4.309	0.533
1290.500	721.893	79.993	19.996	102.829	20.008	4.439	0.516
1291.000	722.162	79.992	19.995	102.828	20.010	4.272	0.530
1291.500	722.398	79.993	19.996	102.827	20.007	4.496	0.523
1292.000	722.681	79.993	19.996	102.827	20.008	4.435	0.512
1292.500	722.951	79.994	19.997	102.827	20.009	4.336	0.536
1293.000	723.218	79.994	19.995	102.827	20.010	4.270	0.545
1293.500	723.466	79.993	19.995	102.828	20.009	4.334	0.526
1294.000	723.727	79.992	19.995	102.832	20.008	4.389	0.512
1294.500	723.987	79.991	19.995	102.833	20.010	4.282	0.515
1295.000	724.277	79.993	19.996	102.835	20.007	4.465	0.536
1295.500	724.528	79.992	19.996	102.835	20.009	4.348	0.545
1296.000	724.800	79.992	19.996	102.836	20.008	4.434	0.532
1296.500	725.002	79.993	19.996	102.833	20.011	4.216	0.499
1297.000	725.311	79.992	19.995	102.831	20.005	4.642	0.492
1297.500	725.529	79.992	19.996	102.829	20.007	4.492	0.519
1298.000	725.821	79.992	19.996	102.831	20.010	4.261	0.519
1298.500	726.049	79.991	19.995	102.832	20.014	3.936	0.515
1299.000	726.343	79.993	19.996	102.832	20.012	4.140	0.521
1299.500	726.592	79.993	19.995	102.832	20.009	4.319	0.533
1300.000	726.854	79.992	19.996	102.832	20.009	4.342	0.527
1300.500	727.126	79.994	19.996	102.831	20.011	4.204	0.522
1301.000	727.385	79.993	19.996	102.832	20.013	4.029	0.532
1301.500	727.624	79.993	19.996	102.834	20.013	4.068	0.515
1302.000	727.899	79.994	19.996	102.834	20.009	4.303	0.506
1302.500	728.167	79.994	19.996	102.833	20.013	4.051	0.528
1303.000	728.449	79.994	19.996	102.834	20.011	4.171	0.546
1303.500	728.703	79.995	19.995	102.831	20.009	4.309	0.542
1304.000	728.964	79.993	19.996	102.828	20.008	4.375	0.526
1304.500	729.227	79.993	19.995	102.829	20.006	4.558	0.520
1305.000	729.513	79.995	19.996	102.830	20.012	4.127	0.537
1305.500	729.769	79.994	19.996	102.830	20.010	4.274	0.545
1306.000	730.004	79.994	19.996	102.830	20.006	4.527	0.516
1306.500	730.292	79.994	19.996	102.830	20.006	4.550	0.507
1307.000	730.573	79.994	19.996	102.829	20.008	4.430	0.546
1307.500	730.820	79.995	19.996	102.828	20.008	4.385	0.548
1308.001	731.091	79.994	19.996	102.828	20.010	4.249	0.524
1308.501	731.350	79.994	19.996	102.828	20.008	4.434	0.524
1309.000	731.591	79.994	19.996	102.828	20.011	4.197	0.515
1309.500	731.888	79.994	19.995	102.827	20.009	4.356	0.519
1310.000	732.126	79.993	19.997	102.827	20.009	4.327	0.536
1310.500	732.377	79.996	19.995	102.828	20.009	4.358	0.512
1311.000	732.668	79.993	19.995	102.828	20.011	4.159	0.516
1311.500	732.957	79.993	19.996	102.827	20.007	4.490	0.561
1312.000	733.231	79.993	19.996	102.827	20.011	4.181	0.571
1312.500	733.484	79.994	19.996	102.827	20.010	4.282	0.545
1313.000	733.741	79.995	19.997	102.826	20.010	4.294	0.518
1313.500	734.015	79.996	19.996	102.826	20.007	4.455	0.520
1314.000	734.266	79.994	19.996	102.826	20.009	4.325	0.528
1314.500	734.569	79.995	19.996	102.825	20.007	4.482	0.540
1315.000	734.828	79.994	19.996	102.824	20.010	4.243	0.558
1315.500	735.103	79.995	19.996	102.824	20.009	4.323	0.547
1316.000	735.327	79.995	19.996	102.825	20.009	4.327	0.516
1316.500	735.604	79.994	19.996	102.825	20.010	4.292	0.501
1317.000	735.835	79.993	19.996	102.826	20.010	4.292	0.505
1317.500	736.105	79.994	19.995	102.826	20.009	4.334	0.505
1318.000	736.385	79.994	19.995	102.826	20.006	4.539	0.526
1318.500	736.600	79.995	19.996	102.827	20.009	4.350	0.522
1319.000	736.860	79.995	19.995	102.826	20.009	4.321	0.485
1319.500	737.165	79.995	19.996	102.826	20.009	4.348	0.520
1320.000	737.430	79.994	19.995	102.826	20.010	4.241	0.567
1320.500	737.660	79.995	19.995	102.826	20.010	4.288	0.532
1321.000	737.939	79.994	19.995	102.827	20.011	4.206	0.502
1321.500	738.208	79.995	19.994	102.829	20.010	4.288	0.529
1322.000	738.465	79.994	19.995	102.830	20.010	4.245	0.537
1322.500	738.714	79.994	19.994	102.830	20.008	4.387	0.516
1323.001	738.979	79.994	19.994	102.830	20.009	4.327	0.510
1323.501	739.261	79.995	19.994	102.830	20.006	4.550	0.530
1324.000	739.496	79.994	19.995	102.830	20.008	4.391	0.532
1324.500	739.756	79.994	19.994	102.829	20.006	4.525	0.506
1325.000	740.016	79.995	19.995	102.830	20.010	4.222	0.507
1325.500	740.276	79.994	19.995	102.831	20.007	4.496	0.520
1326.000	740.532	79.995	19.995	102.831	20.006	4.539	0.518
1326.500	740.809	79.994	19.994	102.831	20.007	4.509	0.525
1327.000	741.058	79.996	19.994	102.831	20.002	4.828	0.530
1327.501	741.296	79.994	19.995	102.831	20.004	4.725	0.507
1328.001	741.581	79.995	19.994	102.828	20.007	4.511	0.505
1328.500	741.819	79.994	19.994	102.828	20.006	4.566	0.523
1329.000	742.081	79.994	19.995	102.828	20.004	4.721	0.511
1329.500	742.320	79.995	19.995	102.828	20.005	4.638	0.500
1330.000	742.587	79.995	19.993	102.828	20.003	4.787	0.503
1330.500	742.823	79.995	19.994	102.830	20.006	4.575	0.505
1331.000	743.124	79.995	19.994	102.830	20.004	4.676	0.521
1331.500	743.384	79.994	19.994	102.830	20.006	4.575	0.549
