Sample ID:	C:\MCC\MCC Cal\Test\Bean_Bag_Chair_Beads_MCC_30K_min_220315_R3.txt
Sample Weight (mg):	4.44
Heating Rate (C/s):	0.5
Combustor Temp (C):	900
N2 Flow Rate (cc/min):	80
O2 Flow Rate (cc/min):	20
Calibration File:	C:\MCC\MCC Cal\Coeff1 JN10440_30_210304.txt.txt
T Correction Coefficients:	0	1.024463	0
Time Shift (s):	14
*
Time (s)	Temperature (C)	N2 flow rate (cc/min)	O2 flow rate (cc/min)	Flow Rate (cc/min)	Oxygen (%)	HRR (W/g)	Heating rate (C/s)
0.000	108.205	80.013	19.994	103.746	19.926	0.020	-0.005
0.500	108.228	80.012	19.994	103.746	19.926	0.042	-0.013
1.000	108.242	80.011	19.993	103.746	19.928	-0.073	0.018
1.500	108.201	80.013	19.993	103.744	19.928	-0.065	0.005
2.000	108.188	80.011	19.994	103.743	19.926	0.071	-0.041
2.500	108.207	80.011	19.994	103.743	19.927	0.008	-0.024
3.000	108.180	80.011	19.993	103.743	19.927	-0.044	-0.001
3.500	108.188	80.012	19.993	103.744	19.923	0.304	-0.014
4.000	108.207	80.011	19.994	103.747	19.927	-0.024	0.004
4.500	108.194	80.010	19.994	103.748	19.927	0.004	0.017
5.000	108.192	80.010	19.993	103.749	19.927	-0.020	-0.005
5.500	108.203	80.010	19.994	103.757	19.926	0.067	-0.004
6.000	108.163	80.011	19.994	103.760	19.929	-0.159	-0.010
6.500	108.169	80.009	19.993	103.761	19.927	0.004	-0.031
7.000	108.171	80.011	19.993	103.762	19.928	-0.117	-0.013
7.500	108.183	80.010	19.993	103.760	19.926	0.079	0.012
8.000	108.156	80.011	19.992	103.752	19.930	-0.244	-0.000
8.500	108.153	80.011	19.992	103.749	19.928	-0.113	-0.023
9.000	108.149	80.011	19.993	103.749	19.928	-0.067	-0.019
9.500	108.148	80.011	19.993	103.749	19.926	0.071	-0.006
10.000	108.148	80.010	19.993	103.750	19.925	0.107	-0.003
10.500	108.167	80.010	19.992	103.748	19.928	-0.081	0.009
11.000	108.167	80.011	19.992	103.749	19.924	0.234	0.019
11.500	108.168	80.011	19.993	103.749	19.925	0.093	0.010
12.000	108.150	80.010	19.993	103.749	19.925	0.113	-0.008
12.500	108.188	80.011	19.993	103.749	19.924	0.230	0.001
13.000	108.138	80.010	19.993	103.753	19.923	0.298	0.003
13.500	108.156	80.010	19.993	103.752	19.921	0.403	-0.022
14.000	108.184	80.010	19.992	103.752	19.925	0.093	0.007
14.500	108.200	80.010	19.993	103.752	19.922	0.321	0.045
15.000	108.177	80.010	19.993	103.752	19.924	0.200	0.018
15.500	108.174	80.010	19.994	103.752	19.924	0.212	-0.016
16.000	108.198	80.012	19.994	103.753	19.922	0.315	-0.002
16.500	108.207	80.011	19.993	103.756	19.924	0.175	0.027
17.000	108.159	80.010	19.993	103.759	19.924	0.187	-0.003
17.500	108.179	80.010	19.993	103.762	19.922	0.333	-0.033
18.000	108.191	80.011	19.993	103.762	19.923	0.284	0.002
18.500	108.179	80.011	19.993	103.761	19.924	0.183	0.016
19.001	108.160	80.011	19.992	103.758	19.924	0.171	-0.016
19.500	108.156	80.011	19.992	103.755	19.923	0.242	-0.027
20.000	108.163	80.011	19.994	103.753	19.922	0.377	-0.010
20.500	108.182	80.011	19.993	103.753	19.920	0.490	0.015
21.000	108.161	80.011	19.993	103.760	19.923	0.282	0.012
21.500	108.172	80.011	19.993	103.763	19.921	0.445	-0.006
22.000	108.190	80.011	19.993	103.763	19.921	0.407	0.010
22.500	108.231	80.012	19.994	103.766	19.922	0.361	0.044
23.000	108.211	80.011	19.992	103.766	19.921	0.445	0.040
23.500	108.190	80.012	19.993	103.759	19.924	0.232	-0.010
24.000	108.201	80.012	19.993	103.756	19.921	0.447	-0.026
24.500	108.178	80.011	19.993	103.755	19.920	0.460	-0.011
25.000	108.181	80.011	19.993	103.752	19.922	0.373	-0.016
25.500	108.215	80.010	19.994	103.753	19.920	0.468	0.009
26.000	108.253	80.011	19.993	103.755	19.922	0.333	0.055
26.500	108.188	80.011	19.993	103.757	19.920	0.468	0.022
27.000	108.206	80.010	19.993	103.762	19.923	0.282	-0.037
27.500	108.219	80.011	19.994	103.765	19.918	0.651	-0.008
28.000	108.264	80.011	19.994	103.771	19.919	0.595	0.045
28.500	108.239	80.012	19.993	103.776	19.921	0.405	0.039
29.000	108.256	80.011	19.994	103.782	19.920	0.470	0.006
29.500	108.240	80.012	19.992	103.784	19.920	0.480	-0.004
30.000	108.277	80.009	19.993	103.785	19.921	0.437	0.011
30.500	108.278	80.010	19.993	103.785	19.918	0.605	0.029
31.000	108.271	80.011	19.994	103.784	19.920	0.498	0.016
31.500	108.238	80.010	19.993	103.783	19.917	0.703	-0.023
32.000	108.308	80.009	19.993	103.784	19.920	0.498	-0.001
32.500	108.276	80.010	19.993	103.785	19.915	0.828	0.037
33.000	108.274	80.010	19.993	103.785	19.917	0.683	0.001
33.500	108.308	80.010	19.993	103.784	19.916	0.802	-0.001
34.000	108.285	80.011	19.994	103.785	19.915	0.864	0.022
34.500	108.344	80.011	19.994	103.785	19.912	1.042	0.023
35.000	108.341	80.009	19.994	103.784	19.916	0.764	0.046
35.500	108.374	80.010	19.994	103.784	19.913	0.989	0.043
36.000	108.405	80.009	19.994	103.786	19.915	0.880	0.047
36.500	108.397	80.008	19.994	103.786	19.914	0.931	0.043
37.000	108.398	80.009	19.994	103.786	19.914	0.957	0.009
37.500	108.451	80.011	19.994	103.785	19.913	0.981	0.024
38.000	108.433	80.009	19.994	103.783	19.911	1.166	0.044
38.500	108.439	80.010	19.995	103.782	19.914	0.943	0.011
39.000	108.460	80.010	19.995	103.780	19.914	0.930	0.008
39.500	108.495	80.009	19.993	103.780	19.911	1.162	0.042
40.000	108.488	80.011	19.994	103.786	19.910	1.212	0.042
40.501	108.521	80.010	19.995	103.791	19.911	1.162	0.027
41.001	108.526	80.010	19.994	103.796	19.909	1.279	0.032
41.500	108.544	80.009	19.994	103.800	19.912	1.075	0.030
42.000	108.585	80.010	19.994	103.802	19.910	1.248	0.041
42.500	108.611	80.010	19.994	103.805	19.912	1.047	0.063
43.000	108.609	80.010	19.994	103.807	19.912	1.073	0.045
43.500	108.684	80.010	19.994	103.811	19.908	1.341	0.048
44.000	108.684	80.011	19.995	103.816	19.909	1.292	0.074
44.500	108.706	80.011	19.995	103.822	19.907	1.415	0.049
45.000	108.758	80.010	19.994	103.824	19.908	1.391	0.048
45.501	108.783	80.012	19.993	103.832	19.907	1.415	0.075
46.001	108.784	80.013	19.994	103.839	19.908	1.354	0.051
46.500	108.815	80.011	19.994	103.843	19.909	1.320	0.029
47.000	108.843	80.012	19.994	103.844	19.905	1.588	0.046
47.500	108.839	80.012	19.994	103.846	19.904	1.642	0.042
48.000	108.884	80.012	19.994	103.847	19.907	1.445	0.033
48.500	108.923	80.012	19.994	103.849	19.904	1.686	0.063
49.000	108.978	80.012	19.994	103.853	19.901	1.856	0.089
49.501	109.002	80.012	19.994	103.861	19.898	2.095	0.087
50.001	109.047	80.012	19.994	103.865	19.901	1.914	0.074
50.500	109.097	80.012	19.995	103.869	19.898	2.103	0.082
51.000	109.111	80.011	19.994	103.874	19.894	2.381	0.080
51.501	109.170	80.011	19.994	103.881	19.897	2.172	0.069
52.001	109.239	80.012	19.993	103.888	19.894	2.367	0.101
52.500	109.285	80.012	19.994	103.895	19.894	2.379	0.121
53.000	109.309	80.011	19.991	103.901	19.896	2.226	0.092
53.500	109.329	80.012	19.994	103.905	19.895	2.339	0.057
54.000	109.419	80.011	19.994	103.906	19.894	2.415	0.077
54.500	109.493	80.013	19.994	103.913	19.894	2.409	0.137
55.000	109.592	80.012	19.994	103.920	19.892	2.534	0.169
55.500	109.632	80.013	19.994	103.927	19.893	2.493	0.156
56.000	109.686	80.012	19.993	103.935	19.890	2.711	0.116
56.500	109.744	80.012	19.994	103.941	19.891	2.582	0.103
57.000	109.807	80.012	19.994	103.942	19.892	2.564	0.117
57.501	109.882	80.012	19.994	103.943	19.893	2.494	0.130
58.001	109.936	80.014	19.994	103.942	19.892	2.512	0.133
58.501	110.008	80.011	19.994	103.941	19.891	2.598	0.127
59.001	110.101	80.011	19.993	103.942	19.893	2.481	0.146
59.500	110.174	80.011	19.994	103.942	19.888	2.862	0.166
60.001	110.260	80.013	19.994	103.942	19.888	2.797	0.162
60.501	110.309	80.011	19.993	103.943	19.890	2.683	0.147
61.000	110.398	80.012	19.994	103.944	19.890	2.719	0.137
61.500	110.477	80.012	19.994	103.944	19.887	2.880	0.153
62.000	110.575	80.012	19.994	103.940	19.888	2.837	0.172
62.500	110.617	80.012	19.994	103.935	19.887	2.875	0.158
63.000	110.710	80.012	19.993	103.933	19.887	2.897	0.137
63.500	110.820	80.012	19.993	103.933	19.889	2.740	0.169
64.000	110.875	80.011	19.994	103.933	19.892	2.533	0.184
64.500	110.960	80.011	19.994	103.937	19.888	2.811	0.153
65.000	111.029	80.011	19.994	103.942	19.888	2.793	0.147
65.500	111.147	80.010	19.993	103.945	19.887	2.907	0.170
66.001	111.223	80.011	19.994	103.945	19.886	2.966	0.191
66.501	111.329	80.011	19.995	103.944	19.885	3.056	0.188
67.000	111.416	80.012	19.994	103.943	19.889	2.758	0.187
67.500	111.515	80.010	19.994	103.942	19.886	2.998	0.189
68.000	111.625	80.011	19.994	103.941	19.887	2.871	0.197
68.500	111.723	80.011	19.995	103.942	19.888	2.831	0.209
69.000	111.829	80.013	19.994	103.942	19.889	2.792	0.206
69.500	111.923	80.012	19.995	103.942	19.889	2.756	0.202
70.000	112.009	80.012	19.994	103.944	19.889	2.746	0.190
70.500	112.150	80.012	19.994	103.944	19.887	2.928	0.204
71.000	112.214	80.012	19.996	103.945	19.888	2.833	0.216
71.500	112.341	80.013	19.995	103.945	19.885	3.075	0.198
72.000	112.481	80.011	19.994	103.948	19.889	2.735	0.229
72.500	112.573	80.012	19.994	103.956	19.884	3.091	0.250
73.000	112.658	80.012	19.994	103.962	19.883	3.225	0.205
73.500	112.733	80.011	19.994	103.967	19.883	3.215	0.168
74.001	112.863	80.012	19.993	103.973	19.884	3.119	0.182
74.501	113.015	80.013	19.994	103.978	19.885	3.074	0.244
75.000	113.104	80.011	19.993	103.976	19.884	3.149	0.262
75.500	113.257	80.012	19.994	103.970	19.883	3.193	0.242
76.000	113.348	80.011	19.995	103.966	19.883	3.173	0.243
76.500	113.477	80.012	19.993	103.967	19.882	3.233	0.231
77.000	113.576	80.012	19.993	103.967	19.878	3.595	0.224
77.501	113.700	80.012	19.993	103.965	19.882	3.255	0.226
78.001	113.831	80.015	19.993	103.970	19.879	3.462	0.239
78.501	113.933	80.013	19.993	103.976	19.881	3.377	0.244
79.001	114.090	80.013	19.993	103.977	19.883	3.170	0.246
79.501	114.198	80.013	19.993	103.977	19.877	3.600	0.262
80.001	114.345	80.014	19.993	103.981	19.880	3.391	0.259
80.500	114.454	80.013	19.992	103.980	19.879	3.488	0.255
81.000	114.596	80.013	19.992	103.974	19.885	3.056	0.254
81.500	114.711	80.013	19.992	103.968	19.879	3.512	0.254
82.000	114.845	80.013	19.993	103.961	19.883	3.199	0.253
82.500	114.980	80.013	19.992	103.954	19.882	3.243	0.259
83.000	115.083	80.013	19.992	103.955	19.880	3.404	0.254
83.500	115.262	80.013	19.993	103.960	19.881	3.376	0.260
84.000	115.407	80.013	19.993	103.964	19.878	3.541	0.303
84.500	115.501	80.013	19.992	103.969	19.881	3.331	0.281
85.001	115.678	80.013	19.994	103.971	19.878	3.567	0.255
85.501	115.791	80.013	19.993	103.972	19.877	3.623	0.281
86.000	115.943	80.013	19.993	103.972	19.881	3.365	0.278
86.500	116.045	80.013	19.993	103.975	19.879	3.496	0.260
87.000	116.226	80.013	19.993	103.978	19.876	3.689	0.268
87.500	116.348	80.012	19.993	103.982	19.878	3.526	0.293
88.000	116.497	80.012	19.993	103.983	19.877	3.627	0.287
88.500	116.637	80.011	19.993	103.983	19.876	3.707	0.280
89.001	116.798	80.012	19.993	103.987	19.880	3.451	0.295
89.501	116.923	80.011	19.993	103.992	19.876	3.717	0.293
90.000	117.082	80.012	19.994	103.998	19.877	3.622	0.285
90.500	117.205	80.012	19.993	103.998	19.875	3.795	0.283
91.000	117.346	80.011	19.994	104.002	19.875	3.765	0.273
91.500	117.546	80.013	19.993	103.998	19.874	3.871	0.302
92.000	117.672	80.012	19.993	103.994	19.873	3.960	0.334
92.500	117.878	80.011	19.993	103.987	19.876	3.741	0.329
93.000	117.982	80.010	19.993	103.984	19.873	3.948	0.321
93.500	118.122	80.011	19.993	103.980	19.873	3.926	0.277
94.000	118.320	80.011	19.994	103.980	19.875	3.806	0.291
94.500	118.432	80.012	19.992	103.980	19.877	3.622	0.324
95.000	118.651	80.014	19.993	103.981	19.869	4.194	0.320
95.500	118.793	80.012	19.993	103.983	19.872	3.970	0.346
96.000	118.973	80.011	19.993	103.986	19.870	4.141	0.342
96.501	119.142	80.012	19.993	103.991	19.871	4.103	0.336
97.001	119.322	80.011	19.994	103.997	19.871	4.049	0.349
97.500	119.457	80.013	19.993	104.001	19.872	4.027	0.331
98.000	119.624	80.012	19.994	104.002	19.867	4.347	0.308
98.500	119.805	80.011	19.993	104.001	19.869	4.214	0.325
99.000	119.940	80.011	19.993	103.999	19.871	4.045	0.332
99.500	120.140	80.010	19.993	104.000	19.871	4.067	0.326
100.001	120.314	80.011	19.993	104.003	19.870	4.138	0.354
100.501	120.510	80.011	19.993	104.008	19.871	4.102	0.372
101.000	120.635	80.010	19.993	104.014	19.871	4.068	0.345
101.500	120.831	80.011	19.994	104.017	19.872	3.965	0.321
102.000	121.049	80.012	19.993	104.017	19.873	3.925	0.368
102.501	121.204	80.012	19.993	104.015	19.869	4.204	0.394
103.001	121.356	80.011	19.994	104.013	19.871	4.089	0.340
103.500	121.575	80.012	19.993	104.011	19.870	4.145	0.339
104.000	121.760	80.012	19.993	104.008	19.868	4.276	0.387
104.500	121.919	80.012	19.993	104.000	19.868	4.316	0.373
105.000	122.087	80.011	19.993	103.998	19.872	4.034	0.335
105.500	122.274	80.011	19.993	104.001	19.871	4.046	0.341
106.001	122.453	80.013	19.993	104.002	19.871	4.104	0.361
106.501	122.681	80.011	19.993	104.006	19.869	4.187	0.386
107.000	122.897	80.012	19.993	104.009	19.870	4.129	0.426
107.500	123.072	80.012	19.993	104.009	19.868	4.294	0.418
108.001	123.262	80.011	19.992	104.003	19.870	4.159	0.378
108.501	123.457	80.011	19.993	103.997	19.870	4.121	0.375
109.001	123.627	80.011	19.993	103.996	19.863	4.675	0.375
109.501	123.834	80.013	19.993	103.994	19.871	4.073	0.371
110.000	123.986	80.012	19.993	103.992	19.867	4.395	0.368
110.500	124.197	80.012	19.993	103.996	19.869	4.210	0.361
111.001	124.414	80.013	19.993	103.995	19.867	4.387	0.396
111.501	124.613	80.011	19.993	103.988	19.868	4.286	0.422
112.000	124.757	80.012	19.994	103.987	19.867	4.338	0.379
112.500	125.013	80.013	19.993	103.987	19.867	4.344	0.371
113.000	125.147	80.011	19.992	103.985	19.867	4.399	0.395
113.500	125.390	80.011	19.994	103.990	19.866	4.405	0.384
114.000	125.633	80.012	19.993	103.996	19.867	4.357	0.431
114.500	125.814	80.012	19.993	104.003	19.867	4.357	0.455
115.000	126.026	80.013	19.993	104.009	19.867	4.373	0.409
115.500	126.264	80.012	19.994	104.018	19.865	4.505	0.422
116.000	126.433	80.011	19.993	104.020	19.868	4.308	0.429
116.500	126.586	80.012	19.993	104.021	19.869	4.185	0.365
117.000	126.807	80.012	19.993	104.020	19.867	4.336	0.348
117.500	126.985	80.011	19.993	104.018	19.867	4.387	0.386
118.000	127.220	80.011	19.993	104.013	19.869	4.226	0.406
118.500	127.419	80.011	19.992	104.008	19.866	4.459	0.424
119.000	127.633	80.010	19.992	104.005	19.868	4.294	0.424
119.500	127.836	80.011	19.994	103.998	19.866	4.407	0.415
120.000	128.051	80.012	19.993	103.994	19.865	4.487	0.418
120.500	128.296	80.010	19.993	103.991	19.867	4.384	0.439
121.000	128.486	80.010	19.992	103.990	19.863	4.668	0.447
121.500	128.695	80.011	19.993	103.995	19.862	4.712	0.417
122.000	128.900	80.011	19.993	104.003	19.864	4.579	0.407
122.500	129.134	80.011	19.993	104.012	19.864	4.587	0.427
123.001	129.329	80.011	19.993	104.017	19.863	4.673	0.434
123.501	129.560	80.010	19.994	104.016	19.862	4.709	0.427
124.000	129.780	80.010	19.993	104.008	19.866	4.464	0.438
124.501	129.994	80.010	19.993	104.004	19.862	4.746	0.443
125.001	130.188	80.010	19.993	103.999	19.867	4.403	0.421
125.500	130.409	80.010	19.994	103.999	19.863	4.631	0.412
126.000	130.613	80.011	19.993	104.006	19.863	4.692	0.420
126.500	130.832	80.010	19.993	104.014	19.866	4.418	0.423
127.000	131.039	80.011	19.993	104.014	19.864	4.558	0.424
127.501	131.266	80.011	19.994	104.014	19.867	4.401	0.430
128.000	131.481	80.010	19.994	104.008	19.863	4.635	0.438
128.500	131.725	80.011	19.993	104.000	19.868	4.324	0.451
129.000	131.922	80.011	19.993	103.992	19.865	4.483	0.450
129.500	132.149	80.010	19.993	103.997	19.867	4.351	0.432
130.000	132.385	80.010	19.993	104.002	19.865	4.544	0.444
130.500	132.624	80.011	19.993	104.008	19.867	4.375	0.469
131.000	132.831	80.010	19.993	104.014	19.863	4.639	0.461
131.500	133.085	80.012	19.993	104.018	19.865	4.504	0.454
132.000	133.303	80.013	19.993	104.011	19.866	4.415	0.466
132.500	133.507	80.011	19.993	104.010	19.866	4.423	0.447
133.000	133.756	80.011	19.994	104.010	19.867	4.392	0.437
133.500	133.953	80.011	19.993	104.016	19.866	4.403	0.450
134.000	134.191	80.011	19.993	104.027	19.867	4.367	0.441
134.500	134.409	80.011	19.993	104.047	19.868	4.280	0.446
135.000	134.651	80.012	19.993	104.070	19.870	4.150	0.458
135.500	134.896	80.012	19.994	104.116	19.870	4.154	0.474
136.000	135.123	80.013	19.993	104.148	19.870	4.174	0.479
136.500	135.339	80.013	19.995	104.154	19.871	4.097	0.457
137.000	135.563	80.013	19.993	104.145	19.869	4.242	0.441
137.500	135.791	80.012	19.994	104.123	19.871	4.090	0.446
138.000	136.020	80.012	19.994	104.076	19.870	4.152	0.454
138.500	136.231	80.013	19.994	104.040	19.871	4.062	0.449
139.000	136.481	80.012	19.994	104.025	19.868	4.305	0.451
139.500	136.718	80.012	19.994	104.015	19.867	4.345	0.474
140.000	136.982	80.012	19.995	104.008	19.869	4.216	0.494
140.500	137.196	80.011	19.994	104.000	19.866	4.452	0.490
141.000	137.430	80.013	19.994	103.993	19.865	4.538	0.463
141.500	137.682	80.013	19.993	103.987	19.866	4.462	0.467
142.000	137.867	80.012	19.994	103.993	19.868	4.307	0.461
142.500	138.160	80.012	19.994	103.999	19.866	4.450	0.457
143.000	138.376	80.013	19.994	104.003	19.864	4.554	0.494
143.500	138.576	80.011	19.993	104.010	19.869	4.247	0.463
144.000	138.835	80.012	19.993	104.015	19.866	4.414	0.437
144.500	139.068	80.011	19.993	104.009	19.869	4.206	0.476
145.000	139.283	80.012	19.993	104.002	19.866	4.426	0.470
145.500	139.515	80.011	19.994	104.002	19.867	4.329	0.447
146.000	139.776	80.011	19.993	103.999	19.867	4.381	0.470
146.500	140.023	80.011	19.995	103.995	19.866	4.410	0.500
147.000	140.259	80.010	19.994	103.994	19.868	4.311	0.495
147.500	140.479	80.011	19.993	103.995	19.865	4.502	0.470
148.000	140.728	80.011	19.993	103.992	19.868	4.321	0.463
148.500	140.968	80.012	19.994	103.988	19.867	4.338	0.479
149.000	141.191	80.012	19.993	103.987	19.867	4.366	0.476
149.500	141.462	80.011	19.993	103.987	19.866	4.464	0.478
150.000	141.712	80.012	19.995	103.988	19.868	4.310	0.507
150.500	141.936	80.011	19.993	103.988	19.865	4.479	0.498
151.000	142.156	80.012	19.994	103.988	19.866	4.457	0.460
151.500	142.380	80.012	19.994	103.989	19.868	4.278	0.444
152.000	142.632	80.012	19.994	103.989	19.867	4.339	0.460
152.500	142.881	80.012	19.993	103.988	19.869	4.246	0.488
153.000	143.128	80.013	19.993	103.988	19.867	4.352	0.498
153.500	143.365	80.012	19.994	103.987	19.867	4.370	0.490
154.001	143.611	80.012	19.993	103.987	19.866	4.461	0.484
154.500	143.846	80.012	19.994	103.986	19.867	4.394	0.482
155.000	144.120	80.011	19.994	103.985	19.865	4.545	0.495
155.500	144.357	80.012	19.994	103.987	19.866	4.406	0.510
156.000	144.620	80.011	19.994	103.988	19.865	4.477	0.506
156.500	144.844	80.012	19.994	103.988	19.867	4.374	0.494
157.000	145.124	80.011	19.993	103.987	19.866	4.436	0.495
157.500	145.402	80.012	19.993	103.987	19.863	4.653	0.531
158.001	145.587	80.012	19.994	103.985	19.865	4.502	0.510
158.500	145.864	80.013	19.993	103.980	19.865	4.480	0.462
159.000	146.113	80.012	19.994	103.979	19.869	4.239	0.493
159.500	146.314	80.011	19.993	103.978	19.869	4.243	0.488
160.000	146.567	80.013	19.994	103.979	19.865	4.521	0.452
160.500	146.818	80.012	19.995	103.978	19.862	4.698	0.480
161.000	147.051	80.013	19.995	103.972	19.866	4.420	0.494
161.500	147.302	80.013	19.994	103.962	19.865	4.493	0.483
162.000	147.538	80.012	19.994	103.959	19.863	4.632	0.485
162.500	147.806	80.013	19.994	103.956	19.865	4.485	0.495
163.000	148.022	80.014	19.993	103.950	19.865	4.499	0.494
163.500	148.271	80.013	19.994	103.958	19.865	4.536	0.474
164.000	148.552	80.014	19.994	103.967	19.865	4.537	0.497
164.500	148.774	80.013	19.995	103.968	19.864	4.619	0.517
165.000	149.040	80.013	19.993	103.966	19.865	4.506	0.496
165.500	149.301	80.013	19.994	103.969	19.867	4.339	0.507
166.000	149.553	80.013	19.994	103.970	19.864	4.567	0.520
166.500	149.768	80.014	19.994	103.971	19.866	4.460	0.490
167.000	150.033	80.013	19.994	103.973	19.864	4.563	0.474
167.500	150.237	80.014	19.995	103.976	19.867	4.355	0.475
168.000	150.505	80.012	19.994	103.979	19.866	4.472	0.471
168.500	150.753	80.013	19.995	103.979	19.863	4.629	0.494
169.000	150.972	80.014	19.995	103.980	19.865	4.480	0.491
169.500	151.237	80.013	19.994	103.979	19.864	4.575	0.475
170.000	151.500	80.013	19.994	103.979	19.864	4.585	0.506
170.500	151.737	80.013	19.995	103.978	19.865	4.512	0.514
171.000	151.998	80.013	19.994	103.977	19.867	4.398	0.499
171.500	152.212	80.012	19.994	103.978	19.862	4.721	0.487
172.000	152.478	80.012	19.994	103.978	19.863	4.659	0.478
172.500	152.726	80.012	19.994	103.973	19.865	4.494	0.497
173.000	153.002	80.012	19.994	103.967	19.868	4.313	0.518
173.500	153.230	80.012	19.994	103.960	19.867	4.400	0.514
174.000	153.480	80.011	19.995	103.957	19.868	4.301	0.492
174.500	153.722	80.011	19.995	103.957	19.864	4.559	0.485
175.000	153.949	80.012	19.995	103.964	19.867	4.347	0.480
175.500	154.194	80.012	19.994	103.972	19.864	4.553	0.470
176.000	154.413	80.010	19.994	103.979	19.868	4.291	0.468
176.500	154.700	80.011	19.995	103.981	19.868	4.305	0.485
177.000	154.923	80.012	19.994	103.981	19.866	4.446	0.508
177.500	155.173	80.011	19.994	103.982	19.867	4.376	0.492
178.000	155.412	80.011	19.995	103.982	19.867	4.357	0.481
178.500	155.671	80.011	19.994	103.983	19.867	4.374	0.493
179.000	155.931	80.012	19.993	103.983	19.868	4.293	0.508
179.500	156.201	80.011	19.994	103.980	19.868	4.303	0.525
180.000	156.403	80.011	19.993	103.979	19.868	4.277	0.501
180.500	156.663	80.012	19.993	103.979	19.866	4.460	0.467
181.000	156.931	80.012	19.992	103.979	19.864	4.579	0.495
181.500	157.143	80.012	19.993	103.981	19.869	4.213	0.504
182.000	157.372	80.012	19.993	103.983	19.870	4.120	0.461
182.500	157.640	80.012	19.994	103.984	19.865	4.483	0.468
183.000	157.917	80.011	19.994	103.984	19.866	4.450	0.521
183.500	158.125	80.011	19.993	103.984	19.865	4.488	0.515
184.000	158.389	80.011	19.993	103.983	19.867	4.349	0.479
184.500	158.630	80.012	19.993	103.982	19.866	4.434	0.489
185.000	158.889	80.012	19.993	103.982	19.868	4.299	0.502
185.500	159.099	80.012	19.993	103.982	19.867	4.357	0.484
186.000	159.346	80.011	19.993	103.982	19.865	4.500	0.463
186.500	159.629	80.013	19.993	103.982	19.864	4.563	0.494
187.000	159.819	80.011	19.993	103.982	19.870	4.128	0.501
187.500	160.127	80.012	19.993	103.980	19.865	4.524	0.485
188.000	160.368	80.012	19.994	103.981	19.869	4.235	0.524
188.500	160.628	80.011	19.993	103.981	19.867	4.361	0.525
189.000	160.880	80.012	19.993	103.981	19.867	4.371	0.506
189.500	161.108	80.012	19.994	103.982	19.869	4.217	0.496
190.000	161.347	80.012	19.994	103.984	19.867	4.400	0.474
190.500	161.591	80.012	19.993	103.984	19.867	4.343	0.475
191.000	161.879	80.012	19.993	103.984	19.871	4.096	0.508
191.500	162.137	80.011	19.993	103.982	19.866	4.418	0.539
192.000	162.389	80.011	19.993	103.979	19.866	4.406	0.528
192.500	162.602	80.012	19.993	103.977	19.868	4.269	0.487
193.000	162.860	80.010	19.993	103.973	19.868	4.263	0.468
193.500	163.084	80.012	19.993	103.973	19.867	4.386	0.477
194.000	163.361	80.012	19.994	103.976	19.870	4.142	0.492
194.500	163.579	80.012	19.993	103.981	19.868	4.257	0.498
195.000	163.859	80.011	19.993	103.987	19.869	4.247	0.496
195.500	164.109	80.010	19.992	103.990	19.869	4.213	0.515
196.000	164.362	80.012	19.993	103.991	19.872	4.025	0.517
196.500	164.587	80.011	19.994	103.989	19.871	4.108	0.490
197.000	164.901	80.011	19.993	103.984	19.872	4.021	0.508
197.500	165.123	80.012	19.994	103.981	19.867	4.364	0.537
198.000	165.397	80.011	19.994	103.981	19.871	4.082	0.516
198.500	165.638	80.012	19.994	103.980	19.871	4.070	0.506
199.000	165.868	80.012	19.993	103.982	19.869	4.185	0.493
199.500	166.103	80.011	19.993	103.985	19.871	4.084	0.468
200.000	166.337	80.012	19.993	103.985	19.868	4.263	0.467
200.500	166.638	80.011	19.994	103.985	19.869	4.202	0.502
201.000	166.867	80.012	19.993	103.985	19.871	4.047	0.533
201.500	167.134	80.011	19.993	103.984	19.871	4.098	0.513
202.000	167.331	80.011	19.993	103.984	19.870	4.152	0.480
202.500	167.588	80.012	19.994	103.982	19.869	4.196	0.459
203.000	167.855	80.011	19.994	103.980	19.870	4.122	0.489
203.500	168.091	80.012	19.994	103.979	19.870	4.142	0.513
204.000	168.335	80.011	19.993	103.979	19.869	4.194	0.491
204.500	168.601	80.011	19.995	103.978	19.871	4.090	0.495
205.000	168.836	80.012	19.994	103.979	19.874	3.864	0.506
205.500	169.085	80.011	19.993	103.981	19.870	4.156	0.492
206.000	169.390	80.009	19.993	103.982	19.872	3.983	0.519
206.500	169.608	80.010	19.993	103.982	19.871	4.056	0.538
207.001	169.810	80.011	19.993	103.983	19.870	4.120	0.472
207.500	170.119	80.011	19.993	103.983	19.869	4.245	0.466
208.000	170.348	80.012	19.993	103.983	19.869	4.222	0.525
208.500	170.603	80.011	19.993	103.982	19.871	4.070	0.511
209.000	170.855	80.011	19.993	103.981	19.869	4.184	0.495
209.500	171.110	80.011	19.994	103.980	19.866	4.472	0.507
210.000	171.364	80.011	19.993	103.980	19.868	4.305	0.508
210.500	171.632	80.011	19.994	103.980	19.868	4.311	0.516
211.000	171.826	80.011	19.993	103.982	19.872	4.007	0.492
211.500	172.112	80.010	19.993	103.984	19.871	4.098	0.471
212.000	172.351	80.011	19.993	103.986	19.869	4.239	0.502
212.500	172.587	80.011	19.993	103.986	19.873	3.933	0.500
213.000	172.810	80.010	19.993	103.986	19.867	4.349	0.467
213.500	173.111	80.012	19.993	103.986	19.868	4.327	0.492
214.000	173.362	80.012	19.993	103.986	19.868	4.257	0.538
214.500	173.587	80.011	19.994	103.986	19.868	4.255	0.514
215.000	173.871	80.011	19.993	103.987	19.870	4.142	0.493
215.500	174.064	80.011	19.992	103.986	19.869	4.191	0.493
216.001	174.322	80.013	19.993	103.987	19.870	4.148	0.464
216.500	174.574	80.012	19.992	103.987	19.869	4.211	0.480
217.000	174.824	80.012	19.994	103.987	19.873	3.905	0.506
217.500	175.091	80.011	19.992	103.986	19.872	4.028	0.510
218.000	175.352	80.012	19.992	103.986	19.871	4.099	0.523
218.500	175.594	80.013	19.993	103.986	19.872	4.016	0.515
219.000	175.844	80.012	19.993	103.986	19.870	4.155	0.497
219.500	176.078	80.013	19.992	103.986	19.873	3.932	0.488
220.000	176.304	80.012	19.993	103.986	19.872	4.002	0.472
220.500	176.570	80.014	19.993	103.986	19.874	3.868	0.476
221.000	176.813	80.013	19.993	103.985	19.874	3.876	0.501
221.500	177.052	80.014	19.994	103.985	19.873	3.958	0.496
222.000	177.262	80.014	19.994	103.985	19.869	4.236	0.465
222.500	177.528	80.013	19.993	103.984	19.869	4.220	0.463
223.000	177.776	80.014	19.994	103.984	19.872	3.993	0.495
223.500	178.004	80.013	19.993	103.983	19.870	4.156	0.495
224.000	178.295	80.014	19.993	103.982	19.871	4.061	0.497
224.500	178.495	80.013	19.993	103.980	19.875	3.797	0.505
225.000	178.740	80.012	19.993	103.980	19.872	4.028	0.468
225.500	179.025	80.013	19.995	103.980	19.872	3.976	0.488
226.000	179.257	80.013	19.994	103.979	19.874	3.860	0.524
226.500	179.481	80.013	19.995	103.981	19.876	3.740	0.487
227.000	179.730	80.013	19.994	103.979	19.872	3.998	0.465
227.500	180.026	80.012	19.994	103.977	19.873	3.953	0.509
228.000	180.184	80.012	19.994	103.972	19.872	4.008	0.499
228.500	180.480	80.013	19.993	103.967	19.872	3.975	0.454
229.000	180.743	80.011	19.995	103.960	19.871	4.107	0.507
229.500	180.978	80.011	19.993	103.957	19.871	4.037	0.529
230.000	181.233	80.013	19.993	103.953	19.872	4.009	0.494
230.500	181.459	80.012	19.993	103.953	19.868	4.274	0.485
231.000	181.726	80.014	19.994	103.953	19.870	4.150	0.487
231.500	181.969	80.012	19.994	103.955	19.869	4.186	0.502
232.000	182.198	80.011	19.994	103.955	19.871	4.102	0.491
232.500	182.474	80.012	19.993	103.954	19.871	4.069	0.489
233.000	182.700	80.012	19.993	103.950	19.872	4.033	0.504
233.500	182.928	80.013	19.994	103.949	19.872	4.033	0.478
234.000	183.179	80.012	19.995	103.949	19.872	3.987	0.466
234.500	183.407	80.012	19.995	103.952	19.870	4.140	0.479
235.000	183.678	80.012	19.995	103.957	19.870	4.142	0.489
235.500	183.906	80.013	19.995	103.960	19.871	4.073	0.499
236.000	184.090	80.012	19.994	103.959	19.871	4.087	0.455
236.500	184.365	80.012	19.994	103.954	19.865	4.522	0.436
237.000	184.670	80.012	19.995	103.945	19.866	4.417	0.520
237.500	184.889	80.013	19.993	103.931	19.867	4.393	0.552
238.000	185.136	80.011	19.993	103.925	19.868	4.285	0.495
238.500	185.404	80.012	19.994	103.925	19.868	4.323	0.490
239.000	185.670	80.012	19.994	103.927	19.868	4.257	0.524
239.500	185.891	80.011	19.995	103.937	19.868	4.271	0.511
240.000	186.130	80.012	19.995	103.949	19.868	4.283	0.474
240.500	186.389	80.013	19.994	103.951	19.867	4.393	0.479
241.000	186.654	80.012	19.994	103.951	19.867	4.341	0.511
241.500	186.897	80.013	19.994	103.952	19.868	4.269	0.516
242.000	187.099	80.012	19.994	103.948	19.868	4.325	0.477
242.500	187.349	80.012	19.994	103.942	19.866	4.412	0.449
243.000	187.606	80.012	19.993	103.941	19.869	4.204	0.479
243.500	187.868	80.013	19.994	103.941	19.867	4.349	0.513
244.000	188.062	80.013	19.994	103.940	19.871	4.090	0.487
244.500	188.307	80.013	19.993	103.938	19.868	4.291	0.447
245.000	188.591	80.014	19.994	103.941	19.869	4.223	0.484
245.500	188.824	80.014	19.994	103.944	19.868	4.322	0.523
246.000	189.063	80.014	19.993	103.943	19.872	3.992	0.494
246.500	189.265	80.013	19.993	103.943	19.871	4.081	0.457
247.000	189.569	80.014	19.994	103.944	19.866	4.402	0.473
247.500	189.768	80.014	19.994	103.943	19.875	3.785	0.504
248.000	190.057	80.014	19.993	103.942	19.870	4.151	0.496
248.500	190.245	80.015	19.994	103.941	19.867	4.334	0.482
249.000	190.538	80.014	19.993	103.940	19.868	4.256	0.479
249.500	190.767	80.015	19.994	103.942	19.866	4.453	0.501
250.000	190.976	80.013	19.994	103.942	19.870	4.159	0.480
250.500	191.243	80.014	19.993	103.942	19.868	4.286	0.457
251.000	191.470	80.014	19.994	103.943	19.868	4.296	0.485
251.500	191.733	80.014	19.993	103.944	19.871	4.070	0.492
252.000	191.999	80.014	19.993	103.942	19.869	4.221	0.509
252.500	192.272	80.015	19.994	103.941	19.870	4.140	0.534
253.000	192.463	80.014	19.993	103.941	19.870	4.166	0.502
253.500	192.753	80.014	19.993	103.941	19.871	4.087	0.472
254.000	193.023	80.014	19.994	103.940	19.869	4.186	0.521
254.500	193.194	80.014	19.994	103.941	19.874	3.862	0.501
255.000	193.468	80.013	19.993	103.938	19.870	4.162	0.443
255.500	193.739	80.014	19.994	103.930	19.868	4.303	0.495
256.000	193.965	80.013	19.994	103.924	19.872	4.005	0.521
256.500	194.188	80.012	19.994	103.918	19.870	4.124	0.473
257.000	194.480	80.012	19.994	103.914	19.869	4.200	0.482
257.500	194.620	80.013	19.994	103.914	19.870	4.176	0.473
258.000	195.001	80.013	19.994	103.917	19.866	4.411	0.477
258.500	195.143	80.012	19.994	103.916	19.869	4.242	0.522
259.000	195.445	80.011	19.993	103.916	19.867	4.333	0.483
259.500	195.659	80.010	19.993	103.913	19.865	4.498	0.480
260.000	195.888	80.010	19.994	103.909	19.866	4.409	0.479
260.500	196.184	80.010	19.995	103.906	19.866	4.401	0.484
261.000	196.455	80.010	19.994	103.905	19.866	4.448	0.547
261.500	196.839	80.010	19.995	103.905	19.869	4.202	0.611
262.000	197.049	80.010	19.993	103.907	19.870	4.146	0.624
262.500	197.240	80.012	19.994	103.914	19.866	4.415	0.497
263.000	197.353	80.011	19.994	103.923	19.870	4.176	0.352
263.500	197.647	80.010	19.994	103.930	19.870	4.156	0.356
264.000	197.904	80.009	19.994	103.938	19.869	4.188	0.480
264.500	198.077	80.011	19.995	103.945	19.867	4.343	0.491
265.000	198.364	80.011	19.994	103.946	19.869	4.252	0.445
265.500	198.645	80.010	19.994	103.946	19.869	4.186	0.514
266.000	198.839	80.009	19.994	103.946	19.870	4.164	0.522
266.500	199.092	80.010	19.994	103.946	19.865	4.486	0.461
267.000	199.413	80.011	19.994	103.945	19.869	4.242	0.510
267.500	199.598	80.011	19.995	103.945	19.864	4.558	0.540
268.000	199.879	80.011	19.994	103.945	19.865	4.478	0.486
268.500	200.131	80.010	19.994	103.945	19.868	4.305	0.500
269.000	200.382	80.010	19.994	103.945	19.871	4.093	0.518
269.500	200.602	80.010	19.994	103.945	19.869	4.246	0.487
270.000	200.831	80.010	19.995	103.945	19.870	4.134	0.460
270.500	201.100	80.009	19.996	103.944	19.867	4.385	0.473
271.000	201.387	80.011	19.995	103.945	19.872	3.997	0.527
271.500	201.568	80.010	19.994	103.944	19.872	3.969	0.512
272.000	201.811	80.009	19.995	103.944	19.871	4.057	0.446
272.500	202.059	80.010	19.995	103.945	19.870	4.132	0.458
273.000	202.323	80.010	19.994	103.946	19.869	4.208	0.502
273.500	202.608	80.010	19.994	103.946	19.873	3.940	0.530
274.000	202.828	80.011	19.994	103.946	19.871	4.059	0.527
274.500	203.094	80.011	19.995	103.946	19.870	4.142	0.495
275.000	203.341	80.012	19.994	103.947	19.870	4.164	0.499
275.500	203.558	80.009	19.994	103.948	19.870	4.156	0.489
276.000	203.831	80.011	19.994	103.948	19.873	3.910	0.477
276.500	204.034	80.010	19.994	103.949	19.870	4.154	0.483
277.000	204.296	80.011	19.994	103.949	19.870	4.162	0.471
277.500	204.563	80.011	19.994	103.948	19.871	4.093	0.497
278.000	204.777	80.011	19.994	103.947	19.869	4.252	0.505
278.500	205.014	80.011	19.993	103.947	19.870	4.174	0.466
279.000	205.284	80.011	19.994	103.946	19.871	4.083	0.479
279.500	205.547	80.011	19.994	103.946	19.871	4.095	0.520
280.000	205.776	80.013	19.993	103.946	19.872	4.033	0.513
280.500	206.020	80.011	19.993	103.946	19.871	4.077	0.482
281.000	206.277	80.011	19.993	103.946	19.872	4.029	0.486
281.500	206.523	80.012	19.994	103.947	19.873	3.906	0.502
282.000	206.774	80.011	19.993	103.947	19.871	4.037	0.501
282.500	206.993	80.012	19.993	103.947	19.870	4.170	0.483
283.000	207.283	80.011	19.994	103.948	19.875	3.757	0.489
283.500	207.557	80.010	19.993	103.947	19.872	4.025	0.537
284.000	207.830	80.012	19.993	103.948	19.869	4.226	0.556
284.500	207.995	80.012	19.993	103.947	19.867	4.383	0.493
285.000	208.309	80.012	19.993	103.948	19.871	4.069	0.458
285.500	208.519	80.011	19.993	103.948	19.870	4.111	0.501
286.000	208.797	80.011	19.993	103.948	19.869	4.246	0.506
286.500	209.009	80.010	19.993	103.948	19.869	4.198	0.489
287.000	209.252	80.011	19.993	103.947	19.870	4.109	0.473
287.500	209.545	80.012	19.994	103.947	19.870	4.160	0.495
288.000	209.794	80.011	19.993	103.946	19.869	4.192	0.539
288.500	210.016	80.011	19.992	103.946	19.867	4.355	0.507
289.000	210.267	80.011	19.992	103.946	19.870	4.124	0.472
289.500	210.541	80.011	19.992	103.945	19.872	3.969	0.499
290.000	210.793	80.010	19.993	103.945	19.868	4.305	0.526
290.500	211.022	80.012	19.993	103.946	19.869	4.214	0.504
291.000	211.223	80.011	19.993	103.946	19.870	4.176	0.456
291.500	211.509	80.012	19.993	103.945	19.872	3.975	0.459
292.000	211.772	80.011	19.993	103.945	19.870	4.110	0.518
292.500	212.017	80.011	19.993	103.944	19.869	4.250	0.528
293.000	212.238	80.010	19.993	103.943	19.870	4.164	0.487
293.500	212.484	80.010	19.994	103.942	19.868	4.321	0.467
294.000	212.725	80.011	19.995	103.942	19.868	4.277	0.478
294.500	212.982	80.011	19.994	103.943	19.870	4.150	0.493
295.000	213.259	80.011	19.994	103.944	19.871	4.079	0.516
295.500	213.510	80.010	19.994	103.944	19.870	4.126	0.531
296.000	213.732	80.012	19.994	103.945	19.868	4.259	0.500
296.500	213.987	80.011	19.994	103.945	19.869	4.248	0.475
297.000	214.226	80.010	19.995	103.944	19.870	4.172	0.485
297.500	214.459	80.013	19.994	103.944	19.868	4.305	0.483
298.000	214.719	80.010	19.993	103.945	19.868	4.269	0.483
298.500	214.934	80.011	19.994	103.945	19.868	4.325	0.484
299.000	215.175	80.012	19.993	103.945	19.871	4.104	0.466
299.500	215.423	80.011	19.994	103.945	19.871	4.098	0.473
300.000	215.682	80.012	19.994	103.945	19.872	3.977	0.498
300.500	215.929	80.011	19.994	103.944	19.872	3.991	0.506
301.000	216.183	80.013	19.993	103.943	19.871	4.069	0.504
301.500	216.434	80.011	19.994	103.943	19.872	4.009	0.503
302.000	216.661	80.012	19.994	103.942	19.872	3.985	0.491
302.500	216.911	80.012	19.993	103.941	19.871	4.089	0.477
303.000	217.150	80.012	19.994	103.942	19.869	4.236	0.483
303.500	217.456	80.012	19.994	103.942	19.872	4.031	0.517
304.000	217.672	80.013	19.994	103.942	19.870	4.178	0.534
304.500	217.918	80.013	19.993	103.944	19.868	4.267	0.492
305.000	218.174	80.012	19.994	103.944	19.871	4.069	0.482
305.500	218.440	80.013	19.994	103.944	19.870	4.128	0.512
306.000	218.643	80.013	19.994	103.942	19.870	4.156	0.495
306.500	218.870	80.014	19.994	103.942	19.870	4.134	0.449
307.000	219.149	80.013	19.994	103.943	19.868	4.307	0.468
307.500	219.421	80.013	19.994	103.942	19.868	4.267	0.528
308.000	219.627	80.012	19.993	103.942	19.870	4.154	0.515
308.500	219.880	80.013	19.993	103.942	19.871	4.071	0.469
309.000	220.171	80.013	19.993	103.942	19.868	4.277	0.501
309.500	220.380	80.012	19.993	103.941	19.871	4.057	0.522
310.000	220.632	80.012	19.993	103.941	19.868	4.293	0.480
310.500	220.880	80.014	19.994	103.942	19.867	4.329	0.480
311.000	221.120	80.014	19.993	103.943	19.867	4.333	0.494
311.500	221.347	80.014	19.993	103.943	19.869	4.252	0.477
312.000	221.610	80.013	19.993	103.942	19.868	4.264	0.478
312.500	221.857	80.013	19.993	103.942	19.866	4.421	0.500
313.000	222.115	80.014	19.994	103.942	19.866	4.434	0.507
313.500	222.359	80.013	19.993	103.942	19.867	4.333	0.503
314.000	222.587	80.014	19.993	103.941	19.867	4.379	0.487
314.500	222.851	80.013	19.993	103.942	19.867	4.391	0.482
315.000	223.094	80.012	19.993	103.942	19.866	4.407	0.500
315.500	223.368	80.013	19.993	103.942	19.866	4.413	0.512
316.000	223.578	80.014	19.993	103.942	19.866	4.427	0.501
316.500	223.845	80.013	19.994	103.942	19.866	4.419	0.480
317.000	224.108	80.014	19.993	103.942	19.864	4.572	0.503
317.500	224.336	80.013	19.994	103.942	19.865	4.518	0.510
318.000	224.611	80.012	19.993	103.943	19.865	4.480	0.497
318.500	224.840	80.013	19.993	103.942	19.867	4.393	0.503
319.000	225.111	80.013	19.993	103.943	19.863	4.679	0.502
319.500	225.325	80.012	19.993	103.943	19.864	4.546	0.493
320.000	225.545	80.013	19.993	103.944	19.867	4.397	0.460
320.500	225.786	80.013	19.993	103.945	19.866	4.466	0.448
321.000	226.041	80.013	19.994	103.945	19.863	4.669	0.478
321.500	226.301	80.013	19.993	103.945	19.866	4.428	0.505
322.000	226.569	80.013	19.993	103.946	19.864	4.559	0.522
322.500	226.787	80.013	19.992	103.945	19.867	4.371	0.508
323.000	226.990	80.013	19.993	103.944	19.864	4.570	0.453
323.500	227.289	80.013	19.993	103.944	19.867	4.375	0.461
324.000	227.519	80.013	19.994	103.944	19.864	4.607	0.516
324.500	227.752	80.013	19.994	103.944	19.867	4.347	0.497
325.000	227.990	80.012	19.994	103.944	19.867	4.375	0.467
325.500	228.282	80.014	19.994	103.944	19.868	4.275	0.500
326.000	228.466	80.013	19.993	103.944	19.866	4.424	0.502
326.500	228.753	80.014	19.993	103.944	19.864	4.599	0.473
327.000	228.981	80.013	19.993	103.944	19.863	4.621	0.494
327.500	229.252	80.012	19.993	103.945	19.867	4.349	0.507
328.000	229.504	80.012	19.993	103.945	19.865	4.544	0.510
328.500	229.730	80.013	19.992	103.945	19.866	4.466	0.500
329.000	229.981	80.014	19.993	103.945	19.868	4.291	0.478
329.500	230.243	80.012	19.992	103.945	19.867	4.333	0.495
330.000	230.454	80.013	19.993	103.945	19.867	4.337	0.493
330.500	230.734	80.013	19.993	103.945	19.869	4.190	0.482
331.000	230.975	80.013	19.992	103.943	19.870	4.180	0.506
331.500	231.198	80.013	19.993	103.940	19.864	4.585	0.492
332.000	231.437	80.013	19.993	103.939	19.867	4.389	0.463
332.500	231.715	80.014	19.993	103.939	19.866	4.462	0.490
333.000	231.949	80.014	19.994	103.939	19.867	4.345	0.514
333.500	232.207	80.015	19.993	103.940	19.866	4.468	0.502
334.000	232.444	80.015	19.993	103.943	19.867	4.383	0.494
334.500	232.696	80.014	19.993	103.944	19.869	4.240	0.492
335.000	232.932	80.015	19.993	103.943	19.870	4.174	0.489
335.500	233.190	80.014	19.994	103.943	19.870	4.152	0.491
336.000	233.406	80.013	19.994	103.944	19.871	4.079	0.484
336.500	233.650	80.014	19.993	103.943	19.868	4.266	0.467
337.000	233.953	80.014	19.994	103.943	19.868	4.289	0.503
337.500	234.195	80.015	19.994	103.943	19.867	4.343	0.546
338.000	234.392	80.015	19.994	103.942	19.868	4.254	0.492
338.500	234.683	80.013	19.994	103.940	19.871	4.055	0.463
339.000	234.868	80.014	19.994	103.940	19.869	4.250	0.482
339.500	235.145	80.014	19.994	103.938	19.871	4.105	0.469
340.000	235.393	80.015	19.994	103.936	19.866	4.472	0.493
340.500	235.662	80.013	19.994	103.936	19.869	4.230	0.521
341.000	235.910	80.013	19.994	103.937	19.864	4.617	0.517
341.500	236.131	80.014	19.994	103.938	19.869	4.244	0.493
342.000	236.366	80.013	19.993	103.937	19.863	4.649	0.462
342.500	236.637	80.013	19.993	103.940	19.862	4.695	0.481
343.000	236.882	80.012	19.994	103.940	19.863	4.627	0.511
343.500	237.136	80.013	19.995	103.941	19.863	4.635	0.507
344.000	237.394	80.011	19.993	103.942	19.862	4.723	0.505
344.500	237.635	80.011	19.993	103.943	19.863	4.681	0.506
345.000	237.879	80.011	19.994	103.944	19.864	4.592	0.492
345.500	238.113	80.012	19.994	103.945	19.861	4.780	0.482
346.000	238.374	80.011	19.994	103.945	19.862	4.735	0.486
346.500	238.619	80.012	19.993	103.945	19.865	4.516	0.500
347.000	238.851	80.011	19.994	103.945	19.864	4.607	0.491
347.500	239.102	80.011	19.994	103.944	19.864	4.585	0.480
348.000	239.356	80.011	19.994	103.944	19.867	4.383	0.494
348.500	239.619	80.011	19.993	103.944	19.871	4.063	0.511
349.000	239.838	80.012	19.995	103.944	19.867	4.363	0.500
349.500	240.097	80.011	19.994	103.944	19.866	4.414	0.480
350.000	240.373	80.011	19.993	103.945	19.869	4.226	0.506
350.500	240.593	80.012	19.994	103.946	19.863	4.691	0.516
351.000	240.845	80.010	19.994	103.946	19.866	4.448	0.484
351.500	241.055	80.010	19.994	103.946	19.870	4.156	0.467
352.000	241.329	80.012	19.993	103.946	19.867	4.331	0.473
352.500	241.559	80.012	19.994	103.946	19.870	4.160	0.494
353.000	241.790	80.011	19.994	103.946	19.870	4.154	0.482
353.500	242.050	80.012	19.994	103.946	19.866	4.454	0.476
354.000	242.297	80.012	19.994	103.947	19.867	4.388	0.499
354.500	242.540	80.012	19.995	103.946	19.866	4.404	0.499
355.000	242.817	80.012	19.994	103.946	19.867	4.389	0.505
355.500	243.023	80.013	19.994	103.946	19.865	4.475	0.501
356.000	243.274	80.010	19.994	103.946	19.867	4.326	0.470
356.500	243.504	80.011	19.994	103.945	19.864	4.577	0.469
357.000	243.732	80.012	19.995	103.945	19.866	4.416	0.469
357.500	244.009	80.012	19.994	103.944	19.865	4.503	0.481
358.000	244.275	80.012	19.994	103.943	19.865	4.511	0.524
358.500	244.518	80.012	19.993	103.943	19.861	4.774	0.526
359.000	244.762	80.011	19.993	103.942	19.865	4.527	0.498
359.500	244.988	80.011	19.994	103.942	19.864	4.567	0.478
360.000	245.228	80.011	19.993	103.941	19.862	4.740	0.468
360.500	245.479	80.011	19.994	103.941	19.864	4.563	0.479
361.000	245.738	80.012	19.994	103.939	19.864	4.581	0.501
361.500	245.998	80.012	19.994	103.938	19.863	4.637	0.514
362.000	246.250	80.012	19.994	103.937	19.866	4.446	0.516
362.500	246.527	80.012	19.994	103.939	19.865	4.539	0.521
363.000	246.763	80.010	19.995	103.938	19.865	4.537	0.521
363.500	247.013	80.013	19.995	103.938	19.863	4.641	0.499
364.000	247.277	80.012	19.995	103.933	19.864	4.595	0.500
364.500	247.546	80.010	19.995	103.929	19.861	4.772	0.523
365.000	247.760	80.011	19.995	103.921	19.864	4.579	0.508
365.500	248.057	80.012	19.994	103.917	19.862	4.718	0.497
366.000	248.267	80.011	19.994	103.913	19.863	4.625	0.509
366.500	248.516	80.011	19.995	103.914	19.864	4.589	0.484
367.000	248.793	80.014	19.995	103.915	19.864	4.587	0.493
367.500	249.022	80.011	19.994	103.923	19.862	4.694	0.515
368.000	249.244	80.012	19.994	103.928	19.863	4.686	0.478
368.500	249.557	80.012	19.994	103.928	19.863	4.682	0.493
369.000	249.774	80.011	19.995	103.928	19.863	4.683	0.533
369.500	250.046	80.012	19.994	103.928	19.864	4.572	0.510
370.000	250.254	80.010	19.995	103.928	19.865	4.540	0.485
370.500	250.582	80.011	19.995	103.928	19.867	4.357	0.508
371.000	250.813	80.010	19.995	103.933	19.863	4.650	0.548
371.500	251.050	80.011	19.995	103.937	19.866	4.467	0.513
372.000	251.301	80.011	19.995	103.937	19.863	4.674	0.478
372.500	251.531	80.011	19.995	103.935	19.862	4.733	0.484
373.000	251.791	80.010	19.995	103.931	19.862	4.707	0.485
373.500	252.028	80.012	19.995	103.930	19.862	4.692	0.493
374.000	252.289	80.012	19.996	103.930	19.860	4.892	0.498
374.500	252.509	80.011	19.994	103.933	19.861	4.817	0.490
375.000	252.762	80.011	19.995	103.933	19.864	4.559	0.477
375.500	252.986	80.012	19.995	103.932	19.865	4.505	0.475
376.000	253.267	80.012	19.995	103.929	19.861	4.769	0.491
376.500	253.528	80.011	19.995	103.927	19.861	4.769	0.524
377.000	253.793	80.013	19.994	103.927	19.861	4.789	0.534
377.500	253.990	80.012	19.994	103.924	19.862	4.753	0.494
378.000	254.221	80.012	19.994	103.928	19.863	4.629	0.445
378.500	254.499	80.011	19.994	103.927	19.862	4.736	0.469
379.000	254.717	80.011	19.994	103.922	19.860	4.841	0.502
379.500	255.009	80.011	19.994	103.915	19.861	4.781	0.503
380.000	255.265	80.012	19.993	103.913	19.863	4.686	0.529
380.500	255.530	80.011	19.995	103.911	19.862	4.695	0.535
381.000	255.765	80.011	19.994	103.909	19.863	4.642	0.510
381.500	256.019	80.012	19.994	103.910	19.864	4.612	0.494
382.000	256.237	80.011	19.994	103.912	19.862	4.693	0.480
382.500	256.456	80.013	19.994	103.916	19.865	4.475	0.455
383.000	256.746	80.011	19.994	103.915	19.864	4.575	0.474
383.500	257.010	80.012	19.994	103.915	19.861	4.831	0.531
384.000	257.283	80.012	19.994	103.916	19.862	4.694	0.545
384.500	257.488	80.012	19.994	103.917	19.864	4.581	0.507
385.000	257.744	80.011	19.993	103.915	19.863	4.664	0.469
385.500	257.945	80.012	19.995	103.918	19.862	4.712	0.459
386.000	258.256	80.013	19.993	103.924	19.862	4.734	0.484
386.500	258.481	80.013	19.993	103.923	19.863	4.625	0.524
387.001	258.712	80.013	19.994	103.922	19.863	4.659	0.496
387.500	258.959	80.012	19.994	103.921	19.861	4.766	0.467
388.000	259.201	80.013	19.994	103.922	19.858	5.052	0.484
388.500	259.455	80.013	19.994	103.923	19.860	4.857	0.492
389.000	259.718	80.013	19.995	103.929	19.858	5.032	0.507
389.500	259.977	80.014	19.994	103.930	19.859	4.974	0.520
390.000	260.200	80.015	19.994	103.929	19.860	4.841	0.501
390.500	260.464	80.014	19.994	103.924	19.857	5.059	0.484
391.000	260.658	80.012	19.993	103.917	19.858	5.003	0.473
391.500	260.927	80.013	19.993	103.911	19.859	4.944	0.460
392.000	261.163	80.012	19.993	103.908	19.859	4.926	0.484
392.500	261.408	80.014	19.993	103.906	19.859	4.962	0.493
393.000	261.646	80.014	19.994	103.909	19.858	5.024	0.482
393.500	261.904	80.012	19.994	103.917	19.860	4.861	0.490
394.000	262.171	80.014	19.993	103.924	19.863	4.678	0.511
394.500	262.393	80.014	19.993	103.931	19.858	5.002	0.507
395.000	262.616	80.014	19.994	103.933	19.856	5.173	0.467
395.500	262.881	80.013	19.994	103.931	19.857	5.106	0.467
396.000	263.186	80.014	19.993	103.926	19.860	4.851	0.530
396.500	263.421	80.012	19.993	103.926	19.859	4.947	0.555
397.000	263.664	80.015	19.993	103.926	19.860	4.883	0.509
397.500	263.898	80.012	19.993	103.931	19.859	4.968	0.477
398.000	264.139	80.013	19.993	103.936	19.858	4.988	0.476
398.500	264.387	80.014	19.993	103.936	19.858	5.035	0.482
399.000	264.626	80.012	19.993	103.932	19.858	5.055	0.488
399.500	264.852	80.013	19.993	103.927	19.857	5.059	0.477
400.000	265.124	80.013	19.993	103.924	19.855	5.212	0.482
400.500	265.362	80.012	19.993	103.918	19.855	5.202	0.504
401.000	265.577	80.012	19.993	103.915	19.853	5.385	0.481
401.500	265.831	80.011	19.994	103.915	19.862	4.743	0.461
402.000	266.126	80.012	19.993	103.913	19.857	5.113	0.509
402.500	266.327	80.013	19.994	103.913	19.857	5.091	0.522
403.000	266.566	80.012	19.994	103.920	19.859	4.918	0.468
403.500	266.797	80.013	19.992	103.927	19.855	5.203	0.456
404.000	267.043	80.013	19.994	103.928	19.859	4.969	0.474
404.500	267.277	80.012	19.993	103.932	19.857	5.112	0.479
405.000	267.576	80.012	19.994	103.933	19.856	5.187	0.506
405.500	267.810	80.012	19.994	103.932	19.853	5.352	0.532
406.000	268.038	80.013	19.994	103.929	19.855	5.256	0.497
406.500	268.268	80.012	19.993	103.933	19.854	5.290	0.460
407.000	268.484	80.012	19.993	103.935	19.857	5.125	0.452
407.500	268.724	80.013	19.994	103.933	19.857	5.068	0.451
408.000	269.007	80.012	19.994	103.929	19.857	5.127	0.490
408.500	269.255	80.013	19.993	103.926	19.858	5.056	0.527
409.000	269.518	80.012	19.993	103.920	19.853	5.420	0.521
409.500	269.787	80.012	19.993	103.915	19.852	5.468	0.521
410.000	270.023	80.014	19.994	103.916	19.856	5.150	0.518
410.500	270.244	80.011	19.994	103.914	19.854	5.293	0.481
411.000	270.467	80.011	19.993	103.915	19.855	5.243	0.451
411.500	270.733	80.013	19.992	103.915	19.857	5.094	0.466
412.000	271.015	80.012	19.994	103.914	19.853	5.378	0.518
412.500	271.265	80.012	19.993	103.911	19.854	5.332	0.540
413.000	271.499	80.011	19.993	103.911	19.857	5.091	0.508
413.500	271.734	80.014	19.995	103.916	19.856	5.149	0.476
414.000	271.990	80.013	19.994	103.922	19.854	5.298	0.480
414.500	272.233	80.014	19.994	103.926	19.855	5.208	0.495
415.000	272.473	80.013	19.994	103.931	19.855	5.264	0.491
415.500	272.736	80.015	19.994	103.931	19.854	5.303	0.493
416.000	273.006	80.013	19.993	103.926	19.853	5.363	0.518
416.500	273.262	80.015	19.993	103.922	19.855	5.228	0.530
417.000	273.498	80.015	19.993	103.921	19.852	5.456	0.509
417.500	273.738	80.013	19.992	103.920	19.853	5.418	0.484
418.000	274.035	80.013	19.994	103.925	19.855	5.226	0.507
418.500	274.240	80.014	19.993	103.925	19.854	5.294	0.520
419.000	274.470	80.013	19.993	103.927	19.853	5.387	0.468
419.500	274.706	80.013	19.993	103.930	19.852	5.421	0.450
420.000	274.990	80.014	19.993	103.934	19.853	5.382	0.493
420.500	275.233	80.014	19.992	103.934	19.853	5.368	0.524
421.000	275.511	80.014	19.992	103.938	19.855	5.220	0.524
421.500	275.733	80.014	19.992	103.941	19.853	5.365	0.511
422.000	275.970	80.013	19.994	103.937	19.852	5.488	0.479
422.500	276.238	80.015	19.993	103.935	19.851	5.540	0.482
423.000	276.452	80.015	19.993	103.930	19.855	5.218	0.494
423.500	276.687	80.015	19.993	103.926	19.853	5.385	0.466
424.000	276.935	80.016	19.993	103.925	19.855	5.258	0.466
424.500	277.223	80.012	19.993	103.924	19.854	5.290	0.510
425.000	277.481	80.015	19.993	103.922	19.853	5.401	0.541
425.500	277.685	80.014	19.993	103.921	19.852	5.457	0.504
426.000	277.940	80.013	19.993	103.918	19.852	5.488	0.460
426.500	278.228	80.013	19.993	103.911	19.850	5.574	0.501
427.000	278.463	80.012	19.994	103.909	19.852	5.448	0.533
427.500	278.723	80.013	19.993	103.905	19.851	5.528	0.508
428.000	279.006	80.013	19.993	103.906	19.852	5.472	0.519
428.500	279.246	80.014	19.993	103.907	19.851	5.526	0.533
429.000	279.509	80.013	19.994	103.911	19.846	5.919	0.513
429.500	279.732	80.013	19.994	103.917	19.855	5.240	0.495
430.000	279.972	80.011	19.993	103.923	19.851	5.506	0.474
430.500	280.220	80.013	19.994	103.926	19.850	5.593	0.476
431.000	280.470	80.012	19.993	103.927	19.852	5.492	0.493
431.500	280.738	80.011	19.993	103.925	19.848	5.727	0.508
432.000	280.989	80.011	19.994	103.919	19.851	5.558	0.518
432.500	281.211	80.011	19.993	103.913	19.852	5.472	0.496
433.000	281.490	80.011	19.993	103.909	19.845	5.955	0.487
433.500	281.728	80.010	19.993	103.907	19.845	5.979	0.509
434.000	281.960	80.012	19.993	103.909	19.848	5.717	0.494
434.500	282.249	80.011	19.994	103.912	19.846	5.890	0.496
435.000	282.443	80.011	19.994	103.916	19.843	6.150	0.502
435.500	282.707	80.011	19.995	103.922	19.845	5.973	0.470
436.000	282.981	80.010	19.994	103.922	19.843	6.123	0.498
436.500	283.239	80.012	19.994	103.919	19.843	6.081	0.535
437.000	283.469	80.013	19.995	103.916	19.843	6.135	0.510
437.500	283.748	80.012	19.995	103.911	19.845	5.940	0.499
438.000	283.990	80.013	19.994	103.905	19.846	5.904	0.515
438.500	284.280	80.012	19.995	103.905	19.842	6.210	0.527
439.000	284.485	80.012	19.994	103.906	19.843	6.109	0.514
439.500	284.722	80.013	19.994	103.905	19.841	6.238	0.468
440.000	285.007	80.011	19.994	103.907	19.841	6.236	0.482
440.500	285.229	80.012	19.994	103.906	19.843	6.145	0.514
441.000	285.476	80.011	19.994	103.908	19.844	6.039	0.488
441.500	285.737	80.012	19.994	103.910	19.841	6.294	0.489
442.000	286.003	80.011	19.994	103.911	19.840	6.333	0.518
442.500	286.242	80.013	19.994	103.911	19.836	6.599	0.516
443.000	286.506	80.011	19.994	103.911	19.841	6.258	0.504
443.500	286.731	80.012	19.994	103.909	19.842	6.190	0.496
444.000	287.028	80.012	19.994	103.906	19.841	6.284	0.505
444.500	287.269	80.011	19.993	103.907	19.839	6.439	0.530
445.000	287.490	80.013	19.995	103.910	19.838	6.516	0.500
445.500	287.726	80.012	19.994	103.912	19.839	6.425	0.459
446.000	288.015	80.013	19.993	103.915	19.837	6.544	0.491
446.500	288.280	80.012	19.994	103.918	19.839	6.403	0.540
447.000	288.507	80.012	19.994	103.924	19.833	6.818	0.523
447.500	288.758	80.012	19.994	103.924	19.837	6.571	0.485
448.000	289.004	80.013	19.994	103.925	19.837	6.575	0.487
448.500	289.247	80.013	19.994	103.929	19.837	6.565	0.493
449.000	289.479	80.012	19.994	103.929	19.836	6.619	0.482
449.500	289.694	80.012	19.994	103.925	19.836	6.614	0.461
450.000	289.981	80.012	19.994	103.926	19.837	6.588	0.474
450.500	290.212	80.012	19.994	103.926	19.834	6.795	0.510
451.000	290.479	80.014	19.993	103.926	19.835	6.731	0.508
451.500	290.710	80.014	19.994	103.926	19.834	6.738	0.499
452.000	290.985	80.014	19.994	103.926	19.837	6.557	0.502
452.500	291.230	80.012	19.994	103.924	19.834	6.807	0.513
453.000	291.452	80.011	19.994	103.923	19.837	6.583	0.494
453.500	291.725	80.013	19.994	103.919	19.833	6.836	0.481
454.000	292.001	80.011	19.994	103.921	19.833	6.871	0.522
454.500	292.239	80.012	19.993	103.920	19.836	6.629	0.532
455.000	292.503	80.012	19.993	103.920	19.833	6.810	0.508
455.500	292.763	80.012	19.994	103.921	19.843	6.134	0.513
456.000	293.034	80.013	19.994	103.925	19.836	6.625	0.527
456.500	293.250	80.011	19.994	103.924	19.833	6.848	0.509
457.000	293.487	80.012	19.994	103.921	19.831	7.011	0.470
457.500	293.706	80.011	19.994	103.919	19.827	7.261	0.455
458.000	293.945	80.013	19.994	103.916	19.830	7.040	0.457
458.500	294.246	80.012	19.994	103.910	19.834	6.806	0.499
459.000	294.500	80.012	19.994	103.909	19.829	7.152	0.547
459.500	294.735	80.010	19.995	103.915	19.830	7.073	0.522
460.000	294.981	80.010	19.993	103.921	19.830	7.061	0.486
460.500	295.262	80.011	19.994	103.927	19.826	7.334	0.504
461.000	295.470	80.010	19.994	103.930	19.826	7.393	0.508
461.500	295.758	80.010	19.993	103.926	19.824	7.495	0.492
462.000	296.012	80.010	19.993	103.922	19.825	7.451	0.519
462.500	296.227	80.010	19.993	103.917	19.825	7.429	0.505
463.000	296.488	80.011	19.995	103.911	19.822	7.619	0.472
463.500	296.762	80.009	19.994	103.910	19.822	7.667	0.505
464.000	297.000	80.009	19.995	103.913	19.821	7.695	0.523
464.500	297.249	80.010	19.994	103.914	19.821	7.743	0.499
465.000	297.501	80.009	19.995	103.915	19.823	7.554	0.494
465.500	297.751	80.010	19.995	103.918	19.824	7.512	0.502
466.000	298.008	80.009	19.995	103.922	19.821	7.750	0.505
466.500	298.242	80.010	19.995	103.920	19.819	7.876	0.499
467.000	298.490	80.011	19.994	103.920	19.816	8.061	0.486
467.500	298.743	80.012	19.995	103.919	19.821	7.725	0.491
468.000	299.023	80.008	19.995	103.916	19.815	8.127	0.517
468.500	299.222	80.010	19.997	103.913	19.818	7.952	0.506
469.000	299.561	80.009	19.994	103.914	19.815	8.160	0.509
469.500	299.734	80.009	19.995	103.920	19.813	8.313	0.525
470.000	300.049	80.010	19.994	103.922	19.812	8.341	0.500
470.500	300.267	80.010	19.995	103.926	19.817	7.982	0.511
471.000	300.618	80.011	19.994	103.931	19.811	8.421	0.551
471.500	300.791	80.010	19.994	103.934	19.808	8.661	0.546
472.000	301.008	80.011	19.994	103.932	19.813	8.318	0.457
472.500	301.285	80.012	19.996	103.931	19.812	8.355	0.442
473.000	301.525	80.010	19.993	103.931	19.810	8.520	0.506
473.500	301.789	80.011	19.995	103.929	19.814	8.220	0.511
474.000	302.023	80.013	19.995	103.928	19.812	8.348	0.501
474.500	302.269	80.011	19.995	103.930	19.807	8.713	0.489
475.000	302.570	80.011	19.995	103.931	19.810	8.520	0.513
475.500	302.766	80.012	19.994	103.933	19.809	8.612	0.522
476.000	303.032	80.011	19.995	103.929	19.809	8.588	0.479
476.500	303.291	80.013	19.994	103.923	19.805	8.854	0.494
477.000	303.592	80.011	19.993	103.915	19.808	8.675	0.543
477.500	303.800	80.012	19.994	103.910	19.805	8.914	0.534
478.000	304.020	80.013	19.995	103.906	19.803	9.059	0.468
478.500	304.299	80.013	19.995	103.906	19.798	9.377	0.463
479.000	304.540	80.013	19.994	103.907	19.801	9.170	0.509
479.500	304.778	80.014	19.994	103.907	19.801	9.190	0.500
480.000	305.044	80.013	19.993	103.907	19.799	9.327	0.492
480.500	305.295	80.013	19.994	103.907	19.801	9.160	0.510
481.000	305.515	80.014	19.993	103.907	19.798	9.365	0.494
481.500	305.791	80.013	19.994	103.909	19.799	9.307	0.484
482.000	306.019	80.014	19.993	103.909	19.798	9.400	0.500
482.500	306.272	80.013	19.993	103.909	19.796	9.553	0.492
483.000	306.525	80.014	19.993	103.911	19.795	9.591	0.494
483.500	306.793	80.013	19.992	103.911	19.794	9.710	0.514
484.000	307.050	80.012	19.992	103.909	19.793	9.742	0.523
484.500	307.303	80.014	19.993	103.911	19.792	9.839	0.517
485.000	307.544	80.012	19.993	103.911	19.793	9.786	0.502
485.500	307.766	80.013	19.992	103.910	19.792	9.853	0.479
486.000	308.059	80.012	19.993	103.910	19.790	9.955	0.489
486.500	308.274	80.012	19.993	103.909	19.786	10.249	0.511
487.000	308.519	80.011	19.993	103.908	19.783	10.492	0.484
487.500	308.802	80.013	19.993	103.909	19.784	10.397	0.494
488.000	309.048	80.011	19.994	103.909	19.784	10.419	0.528
488.500	309.288	80.012	19.993	103.912	19.787	10.196	0.508
489.000	309.557	80.013	19.993	103.917	19.783	10.460	0.498
489.500	309.791	80.014	19.994	103.917	19.784	10.449	0.506
490.000	310.054	80.013	19.993	103.915	19.784	10.413	0.500
490.500	310.289	80.014	19.993	103.914	19.783	10.503	0.498
491.000	310.566	80.014	19.995	103.912	19.786	10.270	0.505
491.500	310.810	80.011	19.994	103.908	19.787	10.231	0.517
492.000	311.040	80.013	19.993	103.907	19.780	10.734	0.498
492.500	311.343	80.012	19.992	103.907	19.778	10.837	0.504
493.000	311.569	80.012	19.994	103.906	19.779	10.752	0.531
493.500	311.825	80.012	19.993	103.904	19.779	10.815	0.505
494.000	312.098	80.012	19.994	103.905	19.779	10.781	0.505
494.500	312.383	80.014	19.993	103.906	19.781	10.616	0.543
495.000	312.614	80.013	19.993	103.906	19.780	10.749	0.537
495.500	312.890	80.014	19.994	103.907	19.777	10.906	0.512
496.000	313.154	80.013	19.993	103.907	19.779	10.811	0.523
496.500	313.392	80.013	19.994	103.905	19.780	10.679	0.521
497.000	313.599	80.012	19.995	103.908	19.778	10.830	0.474
497.500	313.904	80.014	19.994	103.912	19.776	11.033	0.479
498.000	314.161	80.012	19.993	103.920	19.775	11.051	0.537
498.500	314.404	80.013	19.993	103.922	19.775	11.104	0.531
499.000	314.677	80.014	19.993	103.923	19.773	11.200	0.508
499.500	314.913	80.013	19.994	103.920	19.777	10.950	0.512
500.000	315.159	80.013	19.994	103.914	19.775	11.097	0.496
500.500	315.422	80.011	19.993	103.907	19.771	11.395	0.495
501.000	315.688	80.013	19.993	103.904	19.771	11.401	0.519
501.500	315.912	80.012	19.993	103.904	19.772	11.266	0.509
502.000	316.172	80.015	19.994	103.905	19.768	11.602	0.487
502.500	316.440	80.013	19.993	103.910	19.769	11.490	0.506
503.000	316.693	80.013	19.994	103.913	19.774	11.178	0.524
503.500	316.930	80.015	19.993	103.913	19.767	11.663	0.506
504.000	317.173	80.014	19.993	103.913	19.770	11.459	0.486
504.500	317.459	80.016	19.993	103.912	19.768	11.604	0.505
505.000	317.681	80.015	19.994	103.908	19.769	11.509	0.518
505.500	317.933	80.017	19.994	103.904	19.767	11.638	0.491
506.000	318.195	80.015	19.994	103.904	19.765	11.791	0.494
506.500	318.468	80.013	19.994	103.903	19.769	11.532	0.525
507.000	318.697	80.014	19.993	103.903	19.766	11.723	0.519
507.500	318.925	80.014	19.992	103.902	19.764	11.918	0.479
508.000	319.198	80.015	19.994	103.902	19.767	11.628	0.479
508.500	319.490	80.013	19.994	103.901	19.769	11.548	0.533
509.000	319.723	80.015	19.994	103.901	19.763	11.965	0.545
509.500	319.983	80.014	19.994	103.901	19.762	12.037	0.509
510.000	320.237	80.015	19.993	103.901	19.761	12.114	0.503
510.500	320.436	80.013	19.993	103.902	19.763	11.989	0.483
511.000	320.717	80.014	19.992	103.904	19.760	12.141	0.467
511.500	320.970	80.013	19.993	103.906	19.760	12.173	0.507
512.000	321.207	80.012	19.993	103.908	19.759	12.236	0.512
512.500	321.446	80.014	19.993	103.908	19.758	12.348	0.483
513.000	321.716	80.012	19.993	103.908	19.754	12.592	0.493
513.500	321.945	80.012	19.994	103.906	19.753	12.655	0.504
514.000	322.187	80.012	19.993	103.905	19.753	12.649	0.484
514.500	322.443	80.013	19.993	103.907	19.756	12.466	0.484
515.000	322.715	80.011	19.994	103.908	19.753	12.681	0.513
515.500	322.913	80.012	19.994	103.910	19.752	12.764	0.499
516.000	323.187	80.011	19.994	103.911	19.754	12.592	0.471
516.500	323.462	80.013	19.993	103.910	19.755	12.504	0.510
517.000	323.704	80.013	19.993	103.908	19.749	12.946	0.533
517.500	323.924	80.010	19.993	103.907	19.747	13.110	0.489
518.000	324.213	80.012	19.994	103.905	19.750	12.870	0.485
518.500	324.398	80.011	19.995	103.906	19.749	12.979	0.491
519.000	324.689	80.012	19.993	103.907	19.742	13.474	0.475
519.500	324.951	80.013	19.993	103.905	19.748	13.072	0.515
520.000	325.197	80.010	19.993	103.906	19.747	13.134	0.531
520.500	325.463	80.011	19.994	103.906	19.744	13.346	0.510
521.000	325.700	80.011	19.994	103.905	19.745	13.237	0.507
521.500	325.944	80.012	19.993	103.907	19.744	13.320	0.492
522.000	326.234	80.012	19.993	103.911	19.745	13.245	0.507
522.500	326.468	80.013	19.994	103.912	19.743	13.427	0.529
523.000	326.733	80.012	19.994	103.913	19.744	13.308	0.512
523.500	326.998	80.011	19.993	103.914	19.747	13.148	0.515
524.000	327.248	80.011	19.993	103.912	19.742	13.506	0.523
524.500	327.479	80.013	19.993	103.908	19.741	13.535	0.497
525.000	327.738	80.010	19.993	103.909	19.746	13.219	0.485
525.500	327.970	80.011	19.993	103.907	19.745	13.234	0.491
526.000	328.200	80.012	19.993	103.907	19.741	13.564	0.477
526.500	328.477	80.014	19.994	103.907	19.740	13.635	0.484
527.000	328.725	80.012	19.994	103.909	19.737	13.863	0.516
527.500	328.944	80.012	19.993	103.911	19.740	13.662	0.496
528.000	329.190	80.012	19.993	103.912	19.740	13.651	0.466
528.500	329.464	80.013	19.994	103.911	19.741	13.551	0.492
529.001	329.711	80.012	19.994	103.912	19.736	13.951	0.521
529.500	329.975	80.012	19.992	103.910	19.733	14.117	0.516
530.000	330.185	80.014	19.993	103.909	19.735	13.964	0.492
530.500	330.455	80.011	19.993	103.910	19.735	14.034	0.477
531.000	330.743	80.012	19.992	103.912	19.730	14.361	0.519
531.500	330.989	80.013	19.993	103.918	19.727	14.592	0.546
532.000	331.216	80.012	19.994	103.924	19.728	14.532	0.504
532.500	331.467	80.010	19.994	103.922	19.729	14.439	0.475
533.000	331.694	80.009	19.993	103.921	19.723	14.882	0.478
533.500	331.979	80.013	19.995	103.920	19.727	14.606	0.495
534.000	332.232	80.012	19.995	103.916	19.723	14.853	0.525
534.500	332.474	80.010	19.995	103.912	19.723	14.857	0.516
535.000	332.748	80.011	19.994	103.916	19.721	15.038	0.505
535.500	332.995	80.012	19.994	103.919	19.719	15.146	0.518
536.000	333.265	80.013	19.994	103.919	19.720	15.100	0.519
536.500	333.503	80.012	19.995	103.917	19.716	15.361	0.513
537.000	333.763	80.012	19.994	103.915	19.715	15.428	0.503
537.500	334.055	80.011	19.993	103.909	19.713	15.610	0.525
538.000	334.262	80.012	19.994	103.908	19.718	15.221	0.525
538.500	334.560	80.012	19.994	103.908	19.718	15.243	0.502
539.001	334.815	80.013	19.995	103.908	19.716	15.392	0.530
539.501	335.045	80.011	19.995	103.908	19.712	15.676	0.519
540.000	335.298	80.012	19.994	103.909	19.714	15.566	0.484
540.500	335.551	80.012	19.993	103.907	19.715	15.480	0.494
541.000	335.806	80.010	19.994	103.906	19.711	15.724	0.507
541.500	336.060	80.011	19.994	103.905	19.710	15.826	0.509
542.000	336.299	80.012	19.995	103.905	19.711	15.782	0.501
542.500	336.530	80.012	19.995	103.905	19.705	16.226	0.482
543.000	336.797	80.011	19.994	103.905	19.706	16.123	0.484
543.500	337.031	80.011	19.994	103.906	19.701	16.472	0.499
544.000	337.293	80.011	19.993	103.907	19.703	16.313	0.498
544.500	337.541	80.011	19.994	103.908	19.704	16.285	0.504
545.000	337.789	80.012	19.993	103.908	19.700	16.543	0.503
545.500	338.028	80.010	19.993	103.912	19.698	16.704	0.491
546.000	338.264	80.012	19.994	103.914	19.699	16.659	0.481
546.500	338.530	80.012	19.993	103.917	19.695	16.941	0.488
547.000	338.756	80.011	19.993	103.917	19.693	17.096	0.497
547.500	338.985	80.012	19.994	103.919	19.697	16.804	0.474
548.000	339.271	80.011	19.993	103.915	19.693	17.103	0.485
548.500	339.507	80.011	19.993	103.913	19.691	17.202	0.518
549.000	339.760	80.011	19.994	103.916	19.686	17.585	0.505
549.500	340.020	80.011	19.993	103.916	19.688	17.448	0.501
550.000	340.268	80.011	19.994	103.915	19.684	17.751	0.511
550.500	340.514	80.011	19.993	103.916	19.681	17.938	0.501
551.000	340.764	80.010	19.993	103.919	19.685	17.685	0.495
551.500	341.008	80.010	19.994	103.915	19.682	17.848	0.495
552.000	341.289	80.011	19.995	103.916	19.682	17.833	0.509
552.500	341.519	80.013	19.994	103.916	19.678	18.165	0.518
553.000	341.800	80.011	19.994	103.917	19.675	18.404	0.511
553.500	341.998	80.011	19.993	103.913	19.675	18.348	0.496
554.000	342.258	80.012	19.993	103.912	19.673	18.549	0.469
554.500	342.516	80.013	19.994	103.910	19.674	18.455	0.487
555.000	342.750	80.012	19.995	103.909	19.671	18.658	0.505
555.500	343.013	80.012	19.994	103.907	19.668	18.912	0.495
556.000	343.236	80.010	19.995	103.907	19.667	18.942	0.492
556.500	343.485	80.013	19.994	103.908	19.665	19.098	0.479
557.000	343.746	80.010	19.994	103.909	19.663	19.241	0.491
557.500	343.986	80.012	19.993	103.908	19.663	19.258	0.506
558.000	344.244	80.014	19.995	103.909	19.658	19.623	0.500
558.500	344.529	80.012	19.994	103.911	19.657	19.683	0.520
559.000	344.773	80.013	19.994	103.915	19.654	19.937	0.535
559.500	345.039	80.013	19.993	103.916	19.653	19.958	0.519
560.000	345.280	80.013	19.994	103.921	19.651	20.137	0.509
560.500	345.507	80.014	19.994	103.921	19.648	20.380	0.487
561.000	345.781	80.015	19.994	103.919	19.646	20.525	0.485
561.500	346.021	80.013	19.995	103.917	19.645	20.575	0.508
562.000	346.304	80.014	19.994	103.916	19.643	20.699	0.519
562.500	346.496	80.014	19.995	103.912	19.640	20.903	0.499
563.000	346.758	80.012	19.994	103.910	19.634	21.376	0.465
563.500	347.022	80.012	19.993	103.909	19.635	21.318	0.490
564.000	347.264	80.013	19.994	103.911	19.633	21.411	0.516
564.500	347.549	80.013	19.995	103.912	19.633	21.476	0.516
565.000	347.778	80.014	19.994	103.911	19.626	21.935	0.520
565.500	348.022	80.014	19.994	103.910	19.626	21.968	0.494
566.000	348.252	80.014	19.993	103.910	19.625	22.026	0.474
566.500	348.512	80.013	19.995	103.908	19.620	22.430	0.482
567.000	348.754	80.014	19.995	103.910	19.618	22.507	0.496
567.500	349.041	80.014	19.995	103.912	19.618	22.550	0.515
568.000	349.271	80.014	19.993	103.912	19.616	22.681	0.523
568.500	349.545	80.014	19.996	103.911	19.615	22.758	0.511
569.000	349.775	80.012	19.994	103.908	19.608	23.269	0.504
569.500	350.038	80.013	19.994	103.906	19.610	23.150	0.499
570.000	350.312	80.012	19.995	103.908	19.602	23.692	0.515
570.500	350.527	80.012	19.995	103.913	19.604	23.543	0.513
571.000	350.803	80.013	19.993	103.916	19.598	24.024	0.490
571.500	351.010	80.012	19.995	103.916	19.596	24.165	0.487
572.000	351.244	80.014	19.994	103.915	19.591	24.536	0.462
572.500	351.538	80.012	19.994	103.915	19.592	24.442	0.485
573.000	351.777	80.014	19.995	103.912	19.591	24.524	0.531
573.500	352.047	80.011	19.995	103.910	19.588	24.769	0.521
574.000	352.325	80.015	19.995	103.910	19.585	24.957	0.528
574.500	352.526	80.012	19.994	103.907	19.581	25.217	0.514
575.000	352.821	80.011	19.994	103.903	19.578	25.490	0.487
575.500	353.078	80.011	19.995	103.902	19.577	25.512	0.524
576.000	353.317	80.012	19.994	103.901	19.572	25.935	0.524
576.500	353.571	80.012	19.993	103.900	19.573	25.843	0.495
577.000	353.843	80.014	19.994	103.901	19.569	26.086	0.510
577.500	354.071	80.013	19.996	103.903	19.565	26.438	0.513
578.000	354.337	80.012	19.994	103.903	19.562	26.664	0.497
578.500	354.572	80.012	19.994	103.906	19.556	27.096	0.497
579.000	354.825	80.010	19.995	103.907	19.559	26.868	0.495
579.500	355.066	80.006	19.995	103.906	19.553	27.327	0.491
580.000	355.329	80.013	19.994	103.905	19.546	27.837	0.499
580.500	355.566	80.009	19.994	103.907	19.546	27.771	0.502
581.000	355.853	80.013	19.993	103.905	19.546	27.835	0.512
581.500	356.058	80.009	19.994	103.906	19.538	28.414	0.508
582.000	356.364	80.011	19.993	103.906	19.536	28.528	0.502
582.500	356.570	80.010	19.994	103.912	19.533	28.724	0.512
583.000	356.859	80.014	19.994	103.914	19.528	29.121	0.503
583.500	357.082	80.012	19.993	103.918	19.523	29.516	0.503
584.000	357.371	80.014	19.993	103.920	19.520	29.721	0.512
584.500	357.572	80.015	19.995	103.922	19.512	30.318	0.501
585.000	357.825	80.013	19.996	103.920	19.512	30.298	0.472
585.500	358.105	80.012	19.993	103.918	19.508	30.595	0.493
586.000	358.337	80.015	19.994	103.914	19.500	31.185	0.523
586.500	358.634	80.015	19.994	103.912	19.498	31.331	0.521
587.000	358.863	80.014	19.994	103.912	19.497	31.409	0.527
587.500	359.135	80.015	19.994	103.909	19.492	31.767	0.513
588.000	359.378	80.015	19.994	103.912	19.489	31.940	0.508
588.500	359.608	80.014	19.993	103.913	19.485	32.293	0.494
589.000	359.857	80.018	19.992	103.918	19.476	32.933	0.476
589.500	360.088	80.015	19.993	103.922	19.475	32.995	0.479
590.000	360.345	80.014	19.993	103.924	19.471	33.282	0.484
590.500	360.620	80.015	19.995	103.924	19.468	33.503	0.510
591.000	360.858	80.016	19.993	103.928	19.459	34.131	0.523
591.500	361.124	80.012	19.993	103.929	19.457	34.325	0.508
592.000	361.394	80.014	19.994	103.929	19.452	34.677	0.520
592.500	361.650	80.014	19.994	103.930	19.453	34.582	0.531
593.000	361.918	80.013	19.992	103.934	19.442	35.381	0.525
593.500	362.116	80.014	19.994	103.930	19.435	35.914	0.495
594.000	362.353	80.014	19.994	103.928	19.431	36.229	0.451
594.500	362.628	80.014	19.995	103.928	19.425	36.620	0.474
595.000	362.894	80.013	19.994	103.927	19.421	36.915	0.526
595.500	363.132	80.016	19.992	103.923	19.413	37.496	0.523
596.000	363.360	80.014	19.994	103.925	19.410	37.733	0.485
596.500	363.625	80.014	19.993	103.921	19.406	38.000	0.479
597.000	363.821	80.014	19.993	103.918	19.400	38.450	0.477
597.500	364.083	80.018	19.994	103.916	19.395	38.864	0.460
598.000	364.337	80.013	19.993	103.919	19.390	39.231	0.487
598.500	364.579	80.012	19.994	103.924	19.382	39.762	0.506
599.000	364.821	80.011	19.993	103.931	19.378	40.110	0.490
599.500	365.110	80.012	19.993	103.936	19.366	40.985	0.507
600.000	365.339	80.012	19.993	103.941	19.365	41.061	0.525
600.500	365.612	80.012	19.994	103.942	19.356	41.668	0.510
601.000	365.864	80.012	19.993	103.941	19.351	42.075	0.513
601.500	366.153	80.012	19.993	103.936	19.346	42.396	0.533
602.000	366.374	80.012	19.994	103.929	19.341	42.772	0.526
602.500	366.636	80.013	19.993	103.927	19.336	43.163	0.497
603.000	366.855	80.011	19.994	103.927	19.327	43.801	0.482
603.500	367.115	80.013	19.994	103.928	19.323	44.105	0.479
604.000	367.348	80.012	19.994	103.934	19.315	44.681	0.486
604.500	367.626	80.009	19.995	103.941	19.306	45.355	0.502
605.000	367.863	80.010	19.994	103.944	19.305	45.407	0.513
605.500	368.157	80.011	19.993	103.941	19.292	46.394	0.523
606.000	368.396	80.013	19.993	103.938	19.289	46.559	0.533
606.500	368.652	80.013	19.993	103.936	19.282	47.095	0.514
607.000	368.890	80.012	19.993	103.936	19.277	47.472	0.494
607.500	369.150	80.012	19.993	103.934	19.265	48.300	0.496
608.000	369.386	80.013	19.992	103.936	19.257	48.933	0.497
608.500	369.642	80.013	19.993	103.938	19.251	49.385	0.494
609.000	369.899	80.011	19.994	103.940	19.243	49.967	0.502
609.500	370.137	80.013	19.992	103.940	19.237	50.391	0.504
610.000	370.383	80.012	19.994	103.943	19.225	51.257	0.489
610.500	370.625	80.012	19.995	103.943	19.214	52.042	0.486
611.000	370.877	80.012	19.994	103.945	19.208	52.524	0.491
611.500	371.150	80.011	19.993	103.945	19.201	52.993	0.510
612.000	371.378	80.012	19.994	103.944	19.190	53.832	0.513
612.500	371.620	80.013	19.995	103.943	19.179	54.603	0.486
613.000	371.865	80.010	19.994	103.944	19.166	55.563	0.478
613.500	372.106	80.011	19.993	103.943	19.163	55.758	0.486
614.000	372.356	80.011	19.994	103.942	19.147	56.977	0.488
614.500	372.613	80.013	19.993	103.942	19.143	57.228	0.499
615.000	372.874	80.009	19.994	103.941	19.132	58.062	0.513
615.500	373.127	80.011	19.993	103.937	19.122	58.748	0.516
616.000	373.371	80.016	19.992	103.937	19.119	59.011	0.505
616.500	373.655	80.011	19.992	103.939	19.103	60.203	0.512
617.000	373.870	80.012	19.993	103.939	19.095	60.773	0.513
617.500	374.136	80.010	19.995	103.938	19.083	61.650	0.490
618.000	374.390	80.010	19.994	103.937	19.071	62.483	0.501
618.500	374.628	80.011	19.994	103.935	19.062	63.141	0.506
619.000	374.866	80.017	19.994	103.933	19.048	64.171	0.484
619.500	375.101	80.010	19.992	103.935	19.039	64.875	0.474
620.000	375.371	80.013	19.993	103.938	19.031	65.456	0.489
620.500	375.634	80.013	19.993	103.944	19.017	66.458	0.519
621.000	375.835	80.011	19.993	103.946	19.006	67.252	0.499
621.500	376.136	80.011	19.993	103.946	18.997	67.955	0.483
622.000	376.352	80.010	19.994	103.945	18.980	69.159	0.509
622.500	376.588	80.012	19.994	103.945	18.972	69.772	0.484
623.000	376.844	80.014	19.993	103.945	18.961	70.509	0.472
623.500	377.093	80.013	19.993	103.948	18.947	71.567	0.499
624.000	377.321	80.008	19.994	103.948	18.930	72.821	0.491
624.500	377.604	80.010	19.992	103.949	18.922	73.382	0.494
625.000	377.822	80.012	19.993	103.950	18.909	74.326	0.506
625.500	378.126	80.011	19.995	103.949	18.900	75.010	0.512
626.000	378.330	80.012	19.994	103.949	18.886	76.042	0.515
626.500	378.566	80.010	19.993	103.949	18.871	77.156	0.474
627.000	378.790	80.011	19.994	103.947	18.857	78.197	0.450
627.500	379.050	80.011	19.995	103.946	18.847	78.874	0.472
628.000	379.297	80.010	19.994	103.945	18.830	80.150	0.496
628.500	379.560	80.012	19.992	103.943	18.816	81.188	0.508
629.000	379.794	80.013	19.993	103.942	18.805	81.925	0.503
629.500	380.069	80.011	19.994	103.942	18.790	83.092	0.503
630.000	380.338	80.013	19.993	103.942	18.779	83.870	0.527
630.500	380.577	80.009	19.994	103.944	18.769	84.602	0.526
631.000	380.794	80.013	19.993	103.948	18.752	85.829	0.482
631.500	381.075	80.010	19.993	103.954	18.736	86.984	0.477
632.000	381.281	80.011	19.994	103.958	18.726	87.765	0.493
632.500	381.551	80.013	19.994	103.964	18.705	89.240	0.482
633.000	381.808	80.009	19.994	103.963	18.685	90.727	0.501
633.500	382.048	80.013	19.995	103.961	18.683	90.878	0.512
634.000	382.322	80.010	19.995	103.954	18.660	92.548	0.506
634.500	382.538	80.010	19.994	103.954	18.648	93.418	0.502
635.000	382.779	80.004	19.994	103.952	18.633	94.572	0.474
635.500	383.027	80.013	19.995	103.955	18.616	95.824	0.473
636.000	383.275	80.012	19.994	103.962	18.599	97.073	0.492
636.500	383.536	80.010	19.994	103.968	18.586	97.970	0.502
637.000	383.776	80.010	19.996	103.971	18.572	99.011	0.505
637.500	383.991	80.012	19.994	103.975	18.556	100.197	0.478
638.000	384.247	80.009	19.995	103.979	18.543	101.131	0.463
638.500	384.539	80.015	19.994	103.978	18.521	102.714	0.509
639.000	384.811	80.010	19.994	103.980	18.507	103.779	0.556
639.500	385.017	80.010	19.995	103.980	18.493	104.738	0.522
640.000	385.289	80.013	19.995	103.980	18.475	106.098	0.478
640.500	385.496	80.010	19.995	103.979	18.457	107.381	0.478
641.000	385.776	80.016	19.993	103.979	18.442	108.485	0.483
641.500	385.999	80.013	19.992	103.980	18.422	109.972	0.495
642.000	386.260	80.011	19.992	103.983	18.398	111.755	0.494
642.500	386.539	80.016	19.992	103.985	18.384	112.775	0.512
643.000	386.763	80.013	19.994	103.986	18.368	113.914	0.521
643.500	386.977	80.012	19.994	103.988	18.345	115.593	0.470
644.000	387.214	80.010	19.994	103.988	18.324	117.164	0.444
644.500	387.513	80.019	19.996	103.990	18.303	118.662	0.494
645.000	387.727	80.009	19.994	103.994	18.291	119.545	0.524
645.500	387.962	80.015	19.995	104.000	18.264	121.523	0.481
646.000	388.251	80.014	19.995	104.004	18.247	122.799	0.486
646.500	388.453	80.013	19.993	104.012	18.229	124.123	0.508
647.000	388.728	80.010	19.993	104.012	18.206	125.804	0.484
647.500	388.968	80.015	19.994	104.012	18.180	127.679	0.496
648.000	389.226	80.012	19.993	104.011	18.153	129.669	0.507
648.500	389.456	80.015	19.994	104.007	18.127	131.490	0.494
649.000	389.735	80.014	19.995	104.002	18.109	132.815	0.498
649.500	389.943	80.014	19.995	103.998	18.083	134.715	0.497
650.000	390.164	80.013	19.993	103.995	18.061	136.361	0.458
650.500	390.422	80.012	19.994	103.992	18.029	138.670	0.454
651.000	390.679	80.014	19.994	103.992	18.009	140.199	0.497
651.500	390.918	80.012	19.995	103.990	17.980	142.299	0.505
652.000	391.179	80.014	19.994	103.994	17.952	144.380	0.498
652.500	391.444	80.012	19.994	103.999	17.929	146.038	0.513
653.000	391.685	80.012	19.994	104.004	17.898	148.354	0.516
653.500	391.953	80.014	19.993	104.008	17.875	150.006	0.508
654.000	392.152	80.014	19.998	104.014	17.849	151.961	0.488
654.500	392.445	80.012	19.996	104.017	17.819	154.173	0.480
655.000	392.696	80.017	19.992	104.016	17.790	156.307	0.519
655.500	392.944	80.011	19.995	104.018	17.769	157.866	0.522
656.000	393.187	80.011	19.995	104.020	17.738	160.164	0.494
656.500	393.452	80.012	19.995	104.020	17.711	162.100	0.499
657.000	393.747	80.013	19.990	104.022	17.692	163.524	0.534
657.500	393.965	80.012	19.995	104.024	17.662	165.637	0.536
658.000	394.254	80.012	19.994	104.016	17.635	167.599	0.510
658.500	394.503	80.012	19.994	104.010	17.609	169.432	0.523
659.000	394.746	80.014	19.996	104.006	17.593	170.622	0.515
659.500	395.007	80.014	19.995	103.999	17.567	172.453	0.498
660.000	395.274	80.014	19.994	103.995	17.538	174.608	0.516
660.500	395.509	80.011	19.995	104.002	17.518	176.076	0.515
661.000	395.772	80.013	19.995	104.009	17.491	178.026	0.500
661.500	396.000	80.009	19.995	104.012	17.461	180.239	0.494
662.000	396.229	80.009	19.996	104.017	17.423	183.032	0.474
662.500	396.525	80.012	19.994	104.024	17.400	184.780	0.491
663.000	396.765	80.012	19.994	104.033	17.365	187.381	0.531
663.500	397.026	80.012	19.995	104.041	17.326	190.249	0.518
664.000	397.279	80.012	19.996	104.052	17.288	193.074	0.508
664.500	397.508	80.011	19.993	104.068	17.254	195.588	0.498
665.000	397.748	80.012	19.995	104.081	17.209	198.928	0.475
665.500	397.983	80.012	19.996	104.092	17.169	201.897	0.472
666.000	398.234	80.013	19.995	104.107	17.136	204.324	0.480
666.500	398.546	80.012	19.994	104.118	17.098	207.083	0.524
667.000	398.773	80.010	19.994	104.122	17.072	208.949	0.551
667.500	399.025	80.012	19.994	104.127	17.034	211.664	0.509
668.000	399.305	80.013	19.994	104.116	17.012	213.277	0.506
668.500	399.542	80.013	19.994	104.095	16.980	215.573	0.524
669.000	399.793	80.012	19.993	104.071	16.952	217.503	0.502
669.500	400.066	80.012	19.994	104.051	16.913	220.236	0.506
670.000	400.317	80.013	19.995	104.030	16.873	223.126	0.524
670.500	400.583	80.015	19.994	104.020	16.833	225.966	0.520
671.000	400.807	80.010	19.996	104.019	16.784	229.470	0.504
671.500	401.071	80.012	19.995	104.025	16.742	232.602	0.489
672.000	401.294	80.012	19.993	104.024	16.690	236.521	0.487
672.500	401.549	80.015	19.994	104.035	16.640	240.282	0.483
673.000	401.788	80.011	19.994	104.050	16.596	243.643	0.486
673.500	402.036	80.015	19.994	104.063	16.537	247.946	0.490
674.000	402.254	80.016	19.994	104.075	16.488	251.595	0.476
674.500	402.515	80.012	19.995	104.098	16.425	256.196	0.472
675.000	402.781	80.014	19.995	104.110	16.371	260.140	0.503
675.500	403.043	80.018	19.993	104.124	16.310	264.587	0.528
676.000	403.252	80.018	19.992	104.147	16.253	268.777	0.500
676.500	403.520	80.010	19.996	104.170	16.193	273.138	0.474
677.000	403.739	80.006	19.993	104.181	16.140	276.981	0.482
677.500	403.986	80.013	19.993	104.182	16.094	280.272	0.477
678.000	404.234	80.015	19.994	104.170	16.052	283.338	0.480
678.500	404.481	80.010	19.993	104.143	16.024	285.393	0.495
679.000	404.692	80.014	19.993	104.120	15.993	287.546	0.476
679.500	404.960	80.009	19.995	104.098	15.959	289.919	0.468
680.001	405.234	80.010	19.994	104.043	15.917	293.053	0.511
680.500	405.458	80.011	19.994	104.000	15.864	297.026	0.520
681.000	405.715	80.014	19.995	103.969	15.806	301.362	0.490
681.500	405.995	80.013	19.993	103.935	15.737	306.695	0.509
682.000	406.223	80.010	19.992	103.916	15.678	311.215	0.522
682.500	406.511	80.011	19.992	103.948	15.621	315.543	0.511
683.000	406.723	80.008	19.994	103.981	15.579	318.725	0.508
683.500	407.011	80.013	19.994	104.045	15.539	321.666	0.501
684.000	407.267	80.010	19.993	104.083	15.506	324.015	0.522
684.500	407.470	80.010	19.994	104.097	15.479	325.919	0.502
685.000	407.737	80.009	19.992	104.108	15.454	327.689	0.464
685.500	407.994	80.011	19.992	104.130	15.431	329.256	0.496
686.000	408.246	80.012	19.993	104.111	15.414	330.475	0.517
686.500	408.491	80.011	19.992	104.103	15.390	332.084	0.504
687.000	408.770	80.010	19.993	104.107	15.373	333.307	0.510
687.500	409.026	80.012	19.991	104.117	15.351	334.829	0.529
688.000	409.243	80.011	19.994	104.104	15.329	336.429	0.504
688.500	409.462	80.012	19.994	104.077	15.304	338.238	0.455
689.000	409.716	80.012	19.991	104.060	15.275	340.342	0.454
689.500	410.027	80.013	19.989	104.057	15.245	342.621	0.519
690.000	410.202	80.010	19.999	104.016	15.219	344.513	0.526
690.500	410.444	80.012	19.993	103.979	15.181	347.284	0.451
691.000	410.704	80.011	19.993	104.008	15.154	349.268	0.459
691.500	410.935	80.009	19.994	104.044	15.119	351.873	0.497
692.000	411.219	80.011	19.992	104.076	15.084	354.451	0.503
692.500	411.428	80.012	19.992	104.167	15.057	356.346	0.504
693.000	411.707	80.009	19.993	104.240	15.018	359.241	0.491
693.500	411.941	80.010	19.993	104.282	14.987	361.484	0.500
694.000	412.179	80.012	19.994	104.313	14.953	364.026	0.493
694.500	412.411	80.013	19.992	104.316	14.920	366.413	0.471
695.000	412.647	80.014	19.992	104.305	14.887	368.857	0.469
695.500	412.891	80.015	19.994	104.282	14.850	371.548	0.474
696.000	413.171	80.013	19.994	104.260	14.821	373.668	0.502
696.500	413.433	80.011	19.993	104.223	14.788	376.090	0.533
697.000	413.666	80.011	19.994	104.207	14.754	378.640	0.518
697.500	413.914	80.010	19.994	104.174	14.716	381.388	0.488
698.000	414.169	80.012	19.991	104.162	14.679	384.060	0.492
698.500	414.409	80.010	19.997	104.144	14.647	386.449	0.499
699.000	414.640	80.015	19.994	104.135	14.614	388.839	0.483
699.500	414.870	80.004	19.993	104.135	14.583	391.110	0.466
700.000	415.140	80.014	19.993	104.123	14.551	393.440	0.480
700.500	415.387	80.018	19.993	104.134	14.519	395.702	0.508
701.000	415.660	80.014	19.993	104.135	14.491	397.835	0.519
701.500	415.902	80.013	19.994	104.141	14.460	400.149	0.518
702.000	416.164	80.010	19.995	104.143	14.431	402.216	0.509
702.500	416.390	80.011	19.994	104.144	14.403	404.235	0.496
703.000	416.661	80.016	19.995	104.153	14.378	406.180	0.493
703.500	416.888	80.007	19.995	104.136	14.346	408.468	0.498
704.000	417.162	80.011	19.997	104.153	14.317	410.633	0.500
704.500	417.394	80.004	19.994	104.141	14.291	412.584	0.503
705.000	417.646	80.013	19.997	104.151	14.266	414.378	0.495
705.500	417.902	80.018	19.991	104.148	14.246	415.815	0.496
706.000	418.150	80.008	19.994	104.152	14.219	417.884	0.506
706.500	418.395	80.012	19.994	104.152	14.197	419.380	0.499
707.000	418.635	80.012	19.997	104.157	14.178	420.845	0.489
707.500	418.889	80.016	19.996	104.154	14.158	422.328	0.489
708.000	419.153	80.008	19.996	104.161	14.138	423.734	0.506
708.500	419.411	80.008	19.994	104.159	14.127	424.562	0.520
709.000	419.648	80.010	19.998	104.152	14.111	425.779	0.509
709.500	419.921	80.012	19.994	104.161	14.099	426.575	0.503
710.000	420.131	80.016	19.995	104.151	14.076	428.327	0.497
710.500	420.390	80.020	19.995	104.147	14.072	428.717	0.476
711.000	420.682	80.008	19.996	104.161	14.051	430.168	0.510
711.500	420.927	80.014	19.994	104.140	14.042	430.868	0.544
712.000	421.187	80.013	19.994	104.145	14.039	431.178	0.521
712.500	421.443	80.009	19.994	104.162	14.029	431.802	0.511
713.000	421.683	80.006	19.994	104.144	14.024	432.190	0.506
713.500	421.919	80.016	19.994	104.153	14.022	432.312	0.486
714.000	422.198	80.010	19.996	104.172	14.026	431.985	0.495
714.500	422.429	80.012	19.994	104.155	14.021	432.306	0.512
715.000	422.676	80.008	19.995	104.168	14.022	432.243	0.494
715.500	422.964	80.005	19.994	104.182	14.020	432.335	0.506
716.000	423.193	80.003	19.995	104.165	14.025	431.971	0.526
716.500	423.445	80.019	19.993	104.174	14.031	431.601	0.499
717.000	423.720	80.020	19.993	104.189	14.034	431.330	0.504
717.500	423.964	80.018	19.993	104.165	14.040	430.924	0.523
718.000	424.219	80.010	19.995	104.172	14.050	430.112	0.509
718.500	424.478	80.019	19.992	104.183	14.057	429.793	0.507
719.000	424.714	80.014	19.992	104.163	14.067	428.963	0.505
719.500	424.973	80.023	19.992	104.170	14.082	427.988	0.495
720.000	425.245	80.006	19.994	104.190	14.095	427.023	0.513
720.500	425.510	80.017	19.992	104.171	14.107	426.251	0.534
721.000	425.728	80.018	19.993	104.185	14.121	425.214	0.510
721.500	426.010	80.018	19.994	104.200	14.143	423.744	0.492
722.000	426.277	79.996	19.994	104.184	14.168	421.867	0.524
722.500	426.531	80.010	19.993	104.191	14.189	420.357	0.535
723.000	426.803	80.001	19.995	104.211	14.224	417.777	0.524
723.500	427.088	80.018	19.992	104.185	14.247	416.099	0.542
724.000	427.314	80.010	19.993	104.191	14.283	413.379	0.534
724.500	427.562	80.011	19.996	104.187	14.323	410.446	0.492
725.000	427.773	80.008	19.995	104.176	14.360	407.776	0.466
725.500	428.057	80.012	19.994	104.168	14.392	405.389	0.477
726.000	428.342	80.015	19.994	104.172	14.434	402.318	0.532
726.500	428.562	80.011	19.994	104.168	14.473	399.378	0.537
727.000	428.843	80.014	19.994	104.162	14.517	396.170	0.503
727.500	429.091	80.015	19.994	104.170	14.554	393.438	0.515
728.000	429.359	80.020	19.994	104.158	14.603	389.757	0.522
728.500	429.652	80.006	19.993	104.178	14.653	386.072	0.539
729.000	429.890	80.012	19.994	104.163	14.698	382.852	0.546
729.500	430.164	80.012	19.992	104.193	14.745	379.335	0.521
730.000	430.422	80.016	19.989	104.179	14.790	376.029	0.522
730.500	430.644	80.005	19.995	104.211	14.842	372.229	0.506
731.000	430.950	80.000	19.994	104.202	14.896	368.256	0.504
731.500	431.200	80.019	19.990	104.239	14.955	363.917	0.542
732.000	431.452	80.018	19.982	104.235	15.005	360.300	0.529
732.500	431.712	80.010	19.992	104.267	15.057	356.410	0.507
733.000	431.983	80.012	19.994	104.257	15.114	352.243	0.521
733.500	432.224	80.006	19.996	104.265	15.172	347.991	0.521
734.000	432.539	80.025	19.993	104.257	15.229	343.786	0.535
734.500	432.799	80.009	19.995	104.253	15.286	339.624	0.565
735.000	433.066	80.001	19.995	104.243	15.347	335.147	0.550
735.500	433.366	80.012	19.993	104.242	15.407	330.766	0.547
736.000	433.569	80.006	19.998	104.236	15.470	326.161	0.535
736.500	433.876	80.014	19.993	104.230	15.535	321.366	0.506
737.000	434.127	80.017	19.996	104.231	15.597	316.816	0.534
737.500	434.416	80.002	19.995	104.209	15.661	312.175	0.549
738.000	434.721	80.013	19.994	104.208	15.725	307.468	0.567
738.500	434.966	80.016	20.003	104.209	15.792	302.556	0.572
739.000	435.245	80.016	19.993	104.193	15.854	297.997	0.537
739.500	435.489	80.003	19.994	104.189	15.927	292.648	0.523
740.000	435.778	80.009	19.994	104.193	15.991	287.936	0.528
740.500	436.054	80.023	19.991	104.178	16.057	283.064	0.549
741.000	436.289	80.008	19.991	104.177	16.124	278.171	0.538
741.500	436.597	80.010	19.993	104.176	16.193	273.132	0.527
742.000	436.866	80.012	19.995	104.169	16.260	268.203	0.560
742.500	437.153	80.009	19.991	104.167	16.328	263.257	0.567
743.000	437.404	80.005	19.993	104.168	16.395	258.334	0.547
743.500	437.711	80.004	19.994	104.155	16.463	253.349	0.548
744.000	437.961	80.010	19.994	104.151	16.531	248.391	0.557
744.500	438.205	80.009	19.994	104.149	16.598	243.494	0.526
745.000	438.500	80.010	19.992	104.143	16.670	238.266	0.517
745.500	438.743	80.012	20.001	104.141	16.738	233.251	0.538
746.000	439.016	80.007	19.995	104.140	16.806	228.280	0.527
746.500	439.336	80.022	19.988	104.139	16.879	222.911	0.554
747.000	439.611	80.009	19.992	104.141	16.944	218.196	0.594
747.500	439.873	80.012	19.994	104.139	17.005	213.723	0.566
748.000	440.143	80.017	19.994	104.136	17.071	208.870	0.535
748.500	440.426	80.015	19.992	104.135	17.134	204.268	0.543
749.000	440.639	80.015	19.994	104.132	17.203	199.208	0.525
749.500	440.934	80.016	19.993	104.123	17.264	194.714	0.502
750.000	441.209	80.011	19.998	104.119	17.331	189.803	0.539
750.500	441.484	80.003	19.992	104.113	17.386	185.766	0.560
751.000	441.761	80.014	19.994	104.106	17.451	181.067	0.551
751.500	442.053	80.010	19.994	104.103	17.514	176.399	0.561
752.000	442.333	80.014	19.994	104.101	17.574	172.031	0.571
752.500	442.616	80.004	19.994	104.101	17.630	167.905	0.568
753.000	442.898	80.020	19.992	104.101	17.689	163.605	0.564
753.500	443.158	80.019	19.992	104.103	17.748	159.245	0.553
754.000	443.437	80.011	19.993	104.103	17.808	154.915	0.541
754.500	443.713	80.018	19.992	104.102	17.865	150.704	0.547
755.000	444.018	80.009	19.993	104.102	17.920	146.698	0.568
755.500	444.258	80.024	19.993	104.104	17.969	143.067	0.563
756.000	444.561	80.014	19.991	104.103	18.023	139.149	0.544
756.500	444.822	80.007	19.993	104.100	18.077	135.184	0.553
757.000	445.095	80.011	19.995	104.100	18.127	131.548	0.549
757.500	445.399	80.017	19.992	104.097	18.174	128.078	0.556
758.000	445.647	80.010	19.993	104.095	18.224	124.474	0.564
758.500	445.920	80.013	19.994	104.089	18.272	120.981	0.536
759.000	446.167	80.012	20.002	104.083	18.317	117.638	0.521
759.501	446.475	80.019	19.990	104.077	18.362	114.351	0.538
760.000	446.740	80.012	19.993	104.076	18.406	111.105	0.564
760.500	447.033	80.017	19.992	104.070	18.451	107.858	0.565
761.000	447.305	80.019	19.993	104.068	18.496	104.521	0.561
761.500	447.544	80.013	19.995	104.067	18.532	101.907	0.538
762.000	447.854	80.012	19.995	104.064	18.576	98.694	0.530
762.500	448.109	80.014	19.994	104.054	18.620	95.465	0.557
763.000	448.373	80.012	19.998	104.048	18.652	93.173	0.542
763.500	448.672	80.005	20.004	104.045	18.686	90.647	0.541
764.000	448.928	80.018	20.001	104.038	18.724	87.864	0.559
764.500	449.168	80.007	20.001	104.035	18.760	85.274	0.526
765.000	449.444	79.997	19.999	104.029	18.789	83.110	0.506
765.500	449.746	80.008	19.999	104.025	18.824	80.580	0.547
766.000	449.997	80.013	19.999	104.020	18.858	78.048	0.565
766.500	450.298	80.011	19.994	104.018	18.884	76.129	0.553
767.000	450.567	80.016	19.989	104.015	18.912	74.124	0.561
767.500	450.835	80.013	20.002	104.019	18.946	71.606	0.554
768.000	451.122	80.009	19.993	104.017	18.972	69.747	0.546
768.500	451.444	80.015	19.992	104.016	18.998	67.807	0.582
769.000	451.675	80.020	19.993	104.019	19.024	65.948	0.581
769.500	451.951	80.017	19.994	104.019	19.051	63.992	0.530
770.000	452.208	80.008	19.997	104.013	19.072	62.462	0.520
770.500	452.513	80.015	19.991	104.007	19.100	60.412	0.547
771.000	452.732	80.010	19.995	104.002	19.119	58.973	0.543
771.500	453.039	80.005	19.992	103.992	19.138	57.583	0.525
772.000	453.289	80.003	19.995	103.983	19.164	55.725	0.541
772.500	453.552	80.008	19.994	103.977	19.183	54.304	0.535
773.000	453.827	80.003	19.992	103.978	19.203	52.836	0.525
773.500	454.100	80.012	19.997	103.977	19.218	51.719	0.543
774.000	454.410	80.009	19.993	103.977	19.240	50.151	0.566
774.500	454.674	80.018	19.997	103.976	19.262	48.560	0.579
775.000	454.964	80.012	19.994	103.976	19.276	47.536	0.565
775.500	455.219	80.013	19.993	103.971	19.294	46.180	0.550
776.000	455.508	80.014	19.991	103.963	19.311	44.988	0.544
776.500	455.796	80.014	19.991	103.957	19.324	44.010	0.560
777.000	456.020	80.010	19.994	103.952	19.342	42.670	0.545
777.500	456.319	80.014	19.992	103.946	19.357	41.619	0.518
778.000	456.549	80.008	19.996	103.945	19.372	40.492	0.526
778.500	456.817	80.011	19.987	103.942	19.378	40.033	0.513
779.000	457.097	80.026	19.990	103.941	19.392	39.042	0.523
779.500	457.385	80.008	19.989	103.941	19.406	37.995	0.558
780.000	457.644	80.011	19.992	103.943	19.417	37.221	0.558
780.500	457.908	80.022	19.991	103.940	19.430	36.243	0.535
781.000	458.176	80.015	19.992	103.944	19.442	35.375	0.527
781.500	458.456	80.017	19.995	103.943	19.454	34.514	0.540
782.000	458.721	80.017	19.992	103.936	19.466	33.643	0.547
782.500	458.986	80.016	19.994	103.932	19.474	33.027	0.537
783.000	459.263	80.002	19.992	103.923	19.479	32.671	0.536
783.500	459.503	80.012	19.995	103.913	19.495	31.520	0.529
784.000	459.820	80.017	19.988	103.904	19.502	30.985	0.537
784.500	460.034	80.019	19.992	103.905	19.513	30.200	0.544
785.000	460.320	80.017	19.991	103.903	19.521	29.606	0.516
785.500	460.605	80.015	19.993	103.906	19.528	29.108	0.536
786.000	460.859	80.016	19.989	103.908	19.534	28.652	0.555
786.500	461.062	80.007	20.003	103.910	19.544	27.928	0.498
787.000	461.338	80.003	20.002	103.905	19.556	27.064	0.467
787.500	461.622	80.014	19.993	103.900	19.561	26.698	0.519
788.000	461.877	80.008	19.993	103.898	19.565	26.450	0.550
788.500	462.182	80.020	19.996	103.894	19.574	25.732	0.550
789.000	462.436	80.006	19.998	103.893	19.582	25.209	0.560
789.500	462.727	80.024	19.993	103.898	19.587	24.791	0.552
790.000	462.947	80.011	19.993	103.902	19.595	24.215	0.528
790.500	463.206	80.013	19.993	103.903	19.601	23.767	0.495
791.000	463.514	80.009	19.993	103.907	19.609	23.228	0.523
791.500	463.789	80.007	19.995	103.909	19.610	23.091	0.574
792.000	463.996	80.008	19.995	103.905	19.620	22.419	0.532
792.500	464.293	80.009	19.992	103.902	19.620	22.384	0.493
793.000	464.514	80.014	19.996	103.902	19.629	21.736	0.512
793.500	464.820	80.003	19.989	103.900	19.635	21.272	0.523
794.000	465.068	80.002	19.994	103.900	19.640	20.940	0.540
794.500	465.320	80.012	19.992	103.898	19.641	20.841	0.527
795.000	465.571	80.014	19.992	103.901	19.649	20.277	0.501
795.500	465.848	80.013	19.990	103.901	19.654	19.899	0.516
796.000	466.105	80.025	20.000	103.903	19.657	19.684	0.531
796.500	466.374	80.014	19.992	103.903	19.662	19.334	0.530
797.000	466.669	80.011	19.988	103.915	19.665	19.099	0.544
797.500	466.931	80.017	19.995	103.919	19.670	18.720	0.560
798.000	467.158	80.012	20.000	103.921	19.678	18.150	0.523
798.500	467.438	80.023	19.991	103.921	19.680	17.983	0.498
799.000	467.692	80.022	19.990	103.923	19.679	18.102	0.521
799.500	467.982	80.012	19.989	103.918	19.686	17.575	0.540
800.000	468.209	80.015	19.992	103.916	19.688	17.418	0.530
800.500	468.447	80.012	19.997	103.916	19.695	16.909	0.491
801.000	468.747	80.006	19.996	103.915	19.695	16.905	0.502
801.500	468.991	80.010	19.995	103.912	19.701	16.462	0.541
802.000	469.273	80.014	19.991	103.910	19.712	15.645	0.535
802.500	469.583	80.008	19.993	103.909	19.716	15.365	0.559
803.000	469.795	80.016	19.993	103.909	19.712	15.656	0.557
803.500	470.109	80.003	19.994	103.911	19.715	15.483	0.525
804.000	470.329	80.015	19.991	103.910	19.720	15.075	0.530
804.500	470.610	80.015	19.993	103.914	19.724	14.781	0.517
805.000	470.855	80.010	19.994	103.914	19.725	14.713	0.514
805.500	471.145	80.012	19.993	103.917	19.728	14.504	0.531
806.000	471.405	80.006	19.995	103.918	19.730	14.383	0.542
806.500	471.656	80.012	19.994	103.917	19.739	13.714	0.530
807.000	471.870	80.012	19.993	103.915	19.744	13.328	0.488
807.500	472.152	80.015	19.992	103.913	19.743	13.424	0.481
808.000	472.433	80.015	19.992	103.911	19.744	13.370	0.529
808.500	472.660	80.015	19.995	103.911	19.756	12.434	0.535
809.000	472.912	80.022	19.993	103.913	19.755	12.540	0.494
809.500	473.185	80.001	19.996	103.914	19.756	12.490	0.502
810.000	473.454	80.010	19.995	103.911	19.761	12.126	0.534
810.500	473.750	80.021	19.991	103.911	19.759	12.214	0.553
811.000	473.994	80.001	19.994	103.911	19.768	11.568	0.552
811.500	474.259	80.008	19.994	103.908	19.772	11.312	0.525
812.000	474.523	80.018	19.991	103.905	19.774	11.187	0.519
812.500	474.823	80.003	19.997	103.909	19.774	11.185	0.546
813.000	475.015	80.011	19.994	103.906	19.781	10.615	0.528
813.500	475.361	80.022	19.992	103.904	19.777	10.899	0.515
814.000	475.582	80.005	19.995	103.909	19.789	10.039	0.553
814.500	475.809	80.017	19.997	103.909	19.796	9.548	0.508
815.000	476.110	80.005	19.995	103.906	19.800	9.239	0.488
815.500	476.356	80.012	19.993	103.905	19.794	9.716	0.537
816.000	476.620	80.014	19.992	103.904	19.799	9.356	0.529
816.500	476.903	80.017	19.993	103.902	19.797	9.442	0.529
817.000	477.128	80.009	19.994	103.903	19.807	8.742	0.527
817.500	477.375	80.013	19.991	103.904	19.807	8.776	0.490
818.000	477.646	80.013	19.993	103.907	19.809	8.586	0.495
818.500	477.914	80.012	19.993	103.908	19.808	8.681	0.529
819.000	478.167	80.011	19.993	103.908	19.811	8.424	0.530
819.500	478.472	80.012	19.992	103.907	19.813	8.285	0.539
820.000	478.690	80.014	19.994	103.907	19.812	8.349	0.541
820.500	478.948	80.010	19.991	103.906	19.816	8.088	0.499
821.000	479.184	80.018	19.991	103.907	19.816	8.059	0.485
821.500	479.464	80.015	19.995	103.910	19.818	7.929	0.505
822.000	479.706	80.017	19.994	103.911	19.819	7.882	0.519
822.500	479.959	80.014	19.995	103.912	19.817	7.999	0.509
823.000	480.236	80.014	19.995	103.913	19.822	7.681	0.512
823.500	480.501	80.021	19.993	103.915	19.821	7.709	0.536
824.000	480.755	80.012	19.991	103.916	19.824	7.510	0.530
824.500	481.011	80.007	19.993	103.916	19.829	7.131	0.514
825.000	481.279	80.012	19.992	103.913	19.829	7.113	0.517
825.500	481.537	80.012	19.994	103.911	19.825	7.397	0.525
826.000	481.801	80.014	19.995	103.907	19.827	7.248	0.524
826.500	482.053	80.013	19.992	103.904	19.828	7.218	0.520
827.000	482.318	80.009	19.999	103.904	19.826	7.387	0.517
827.500	482.553	80.014	19.997	103.905	19.828	7.242	0.508
828.000	482.899	80.009	19.992	103.905	19.828	7.222	0.540
828.500	483.126	80.022	19.991	103.906	19.827	7.304	0.577
829.000	483.401	80.015	19.999	103.906	19.831	6.982	0.538
829.500	483.647	80.009	19.994	103.903	19.826	7.389	0.512
830.000	483.891	80.009	19.994	103.904	19.831	7.025	0.506
830.500	484.135	80.013	19.993	103.903	19.827	7.256	0.489
831.000	484.379	80.011	19.996	103.902	19.830	7.065	0.488
831.500	484.662	80.014	19.996	103.901	19.828	7.232	0.507
832.000	484.914	80.019	19.993	103.900	19.832	6.952	0.530
832.500	485.196	80.009	19.993	103.901	19.832	6.902	0.534
833.000	485.425	80.016	19.994	103.900	19.833	6.856	0.523
833.500	485.705	80.014	19.995	103.899	19.832	6.952	0.511
834.000	485.916	80.012	19.993	103.900	19.827	7.252	0.500
834.500	486.197	80.016	19.991	103.902	19.833	6.864	0.491
835.000	486.438	80.009	19.993	103.901	19.833	6.809	0.507
835.500	486.739	80.007	19.994	103.901	19.831	6.970	0.532
836.000	486.965	80.011	19.993	103.901	19.833	6.829	0.534
836.500	487.286	80.017	19.987	103.901	19.831	6.998	0.537
837.000	487.516	80.006	19.999	103.901	19.833	6.819	0.549
837.500	487.759	80.022	19.989	103.901	19.831	6.974	0.512
838.000	488.069	80.015	19.993	103.904	19.831	7.022	0.513
838.500	488.280	80.012	19.996	103.905	19.826	7.357	0.537
839.000	488.493	80.016	19.994	103.904	19.829	7.145	0.473
839.500	488.802	80.014	19.995	103.903	19.829	7.131	0.473
840.000	489.040	80.016	19.992	103.904	19.828	7.196	0.534
840.500	489.284	80.016	19.995	103.902	19.828	7.188	0.514
841.000	489.565	80.014	19.994	103.901	19.829	7.164	0.504
841.500	489.846	80.014	19.999	103.902	19.831	7.017	0.544
842.000	490.045	80.012	19.993	103.900	19.831	7.023	0.521
842.500	490.352	80.016	19.990	103.899	19.830	7.051	0.492
843.000	490.555	80.014	19.996	103.900	19.829	7.105	0.508
843.500	490.833	80.010	19.994	103.900	19.833	6.841	0.496
844.000	491.083	80.013	19.993	103.900	19.830	7.064	0.505
844.500	491.338	80.016	19.993	103.900	19.827	7.270	0.517
845.000	491.612	80.016	19.992	103.900	19.829	7.144	0.517
845.500	491.879	80.016	19.991	103.900	19.831	7.014	0.534
846.000	492.141	80.011	19.996	103.901	19.828	7.174	0.535
846.500	492.365	80.015	19.992	103.901	19.829	7.133	0.508
847.000	492.645	80.015	19.991	103.903	19.830	7.030	0.495
847.500	492.884	80.017	19.993	103.903	19.831	6.966	0.511
848.000	493.173	80.017	19.993	103.903	19.832	6.937	0.523
848.500	493.413	80.013	19.994	103.902	19.832	6.908	0.529
849.000	493.661	80.010	19.992	103.901	19.834	6.794	0.509
849.500	493.979	80.019	19.992	103.901	19.828	7.180	0.527
850.000	494.201	80.018	19.993	103.902	19.829	7.110	0.553
850.500	494.450	80.016	19.993	103.903	19.831	7.013	0.505
851.000	494.697	80.016	19.994	103.903	19.833	6.830	0.483
851.500	494.932	80.016	19.994	103.902	19.826	7.375	0.489
852.000	495.192	80.018	19.994	103.899	19.830	7.069	0.489
852.500	495.462	80.015	19.992	103.891	19.826	7.351	0.513
853.000	495.689	79.998	19.994	103.889	19.832	6.908	0.513
853.500	495.970	80.015	19.994	103.894	19.827	7.279	0.502
854.000	496.221	80.012	19.993	103.896	19.832	6.892	0.520
854.500	496.426	80.016	19.995	103.901	19.828	7.188	0.494
855.000	496.721	80.015	19.992	103.907	19.830	7.085	0.478
855.500	497.005	80.014	19.993	103.906	19.827	7.303	0.540
856.000	497.238	80.004	19.997	103.887	19.832	6.898	0.548
856.500	497.487	80.016	19.993	103.871	19.831	6.992	0.500
857.000	497.750	80.012	19.993	103.859	19.836	6.644	0.497
857.500	497.977	80.011	19.994	103.851	19.832	6.924	0.501
858.000	498.258	80.012	19.995	103.846	19.833	6.815	0.499
858.500	498.500	80.013	19.994	103.851	19.831	6.974	0.516
859.000	498.748	80.008	19.994	103.859	19.832	6.928	0.507
859.500	499.022	80.012	19.995	103.861	19.834	6.743	0.506
860.000	499.275	80.013	19.994	103.862	19.835	6.680	0.524
860.500	499.514	80.014	19.994	103.863	19.837	6.554	0.509
861.000	499.757	80.016	19.994	103.864	19.831	6.964	0.487
861.500	500.015	80.017	19.994	103.864	19.831	6.956	0.491
862.000	500.255	80.020	19.992	103.866	19.833	6.870	0.499
862.500	500.527	80.008	19.994	103.868	19.837	6.584	0.505
863.000	500.759	80.012	19.994	103.867	19.835	6.715	0.509
863.500	501.030	80.010	19.994	103.866	19.832	6.906	0.504
864.000	501.295	80.016	19.994	103.867	19.835	6.676	0.519
864.500	501.550	80.006	19.995	103.868	19.835	6.711	0.528
865.000	501.809	80.010	19.995	103.866	19.837	6.551	0.517
865.500	502.050	80.010	19.994	103.868	19.833	6.866	0.507
866.000	502.275	80.013	19.994	103.870	19.837	6.553	0.483
866.500	502.560	80.015	19.994	103.871	19.838	6.475	0.488
867.000	502.777	80.017	19.994	103.872	19.834	6.739	0.506
867.500	503.056	80.009	19.995	103.876	19.837	6.515	0.499
868.000	503.271	80.010	19.995	103.876	19.834	6.805	0.495
868.500	503.562	80.010	19.995	103.877	19.831	7.017	0.500
869.000	503.823	80.012	19.994	103.877	19.835	6.669	0.529
869.500	504.071	80.010	19.994	103.877	19.834	6.757	0.530
870.000	504.319	80.007	19.996	103.874	19.839	6.423	0.503
870.500	504.538	80.014	19.996	103.872	19.834	6.771	0.482
871.000	504.848	80.012	19.995	103.870	19.836	6.622	0.498
871.500	505.081	80.013	19.994	103.868	19.835	6.715	0.536
872.000	505.346	80.011	19.995	103.867	19.832	6.934	0.520
872.500	505.606	80.014	19.993	103.865	19.835	6.717	0.512
873.000	505.846	80.010	19.995	103.868	19.835	6.678	0.513
873.500	506.112	80.011	19.996	103.867	19.830	7.045	0.503
874.000	506.376	80.010	19.994	103.867	19.835	6.702	0.518
874.500	506.639	80.011	19.995	103.866	19.837	6.555	0.528
875.000	506.878	80.011	19.995	103.868	19.836	6.593	0.515
875.500	507.129	80.012	19.995	103.867	19.837	6.549	0.496
876.000	507.383	80.011	19.995	103.870	19.836	6.644	0.497
876.500	507.644	80.012	19.994	103.870	19.831	7.018	0.510
877.000	507.911	80.011	19.994	103.871	19.829	7.099	0.522
877.500	508.148	80.012	19.995	103.870	19.831	6.966	0.516
878.000	508.395	80.012	19.994	103.869	19.832	6.904	0.494
878.500	508.676	80.011	19.994	103.866	19.833	6.858	0.505
879.000	508.968	80.012	19.994	103.866	19.831	6.986	0.551
879.500	509.201	80.009	19.995	103.866	19.834	6.739	0.550
880.000	509.417	80.012	19.993	103.865	19.830	7.093	0.487
880.500	509.706	80.012	19.993	103.865	19.832	6.940	0.477
881.000	509.969	80.013	19.993	103.866	19.830	7.027	0.529
881.500	510.215	80.010	19.997	103.867	19.829	7.150	0.530
882.000	510.448	80.012	19.994	103.866	19.833	6.858	0.494
882.500	510.699	80.011	19.993	103.866	19.832	6.920	0.481
883.000	510.979	80.012	19.991	103.866	19.834	6.733	0.507
883.500	511.203	80.011	19.993	103.866	19.829	7.113	0.517
884.000	511.481	80.010	19.995	103.866	19.830	7.093	0.503
884.500	511.707	80.011	19.994	103.868	19.832	6.894	0.503
885.000	511.996	80.012	19.994	103.870	19.835	6.732	0.509
885.500	512.199	80.013	19.993	103.872	19.832	6.910	0.504
886.000	512.480	80.009	19.994	103.874	19.829	7.119	0.488
886.500	512.724	80.011	19.993	103.874	19.834	6.765	0.504
887.000	512.978	80.009	19.995	103.874	19.833	6.842	0.511
887.500	513.264	80.010	19.992	103.872	19.833	6.838	0.519
888.000	513.489	80.011	19.993	103.871	19.831	6.985	0.526
888.500	513.793	80.011	19.993	103.869	19.830	7.043	0.520
889.000	514.020	80.012	19.994	103.868	19.828	7.176	0.530
889.500	514.327	80.011	19.993	103.868	19.832	6.945	0.532
890.000	514.553	80.009	19.993	103.869	19.837	6.544	0.534
890.500	514.775	80.009	19.995	103.870	19.832	6.945	0.491
891.000	515.041	80.009	19.993	103.870	19.830	7.067	0.467
891.500	515.336	80.013	19.994	103.871	19.831	6.981	0.524
892.000	515.546	80.010	19.994	103.871	19.834	6.757	0.533
892.500	515.830	80.010	19.994	103.870	19.833	6.828	0.499
893.000	516.079	80.013	19.992	103.869	19.836	6.653	0.513
893.500	516.318	80.013	19.993	103.868	19.835	6.673	0.511
894.000	516.594	80.015	19.995	103.867	19.834	6.751	0.502
894.500	516.839	80.012	19.994	103.867	19.838	6.513	0.518
895.000	517.100	80.015	19.994	103.868	19.832	6.898	0.514
895.500	517.330	80.013	19.994	103.872	19.836	6.606	0.499
896.000	517.610	80.012	19.994	103.874	19.830	7.035	0.500
896.501	517.855	80.012	19.994	103.874	19.836	6.642	0.517
897.000	518.122	80.012	19.995	103.873	19.837	6.542	0.518
897.500	518.368	80.013	19.992	103.871	19.833	6.826	0.512
898.000	518.627	80.015	19.994	103.867	19.835	6.711	0.509
898.500	518.886	80.014	19.993	103.864	19.831	7.023	0.512
899.001	519.114	80.013	19.995	103.864	19.837	6.548	0.503
899.500	519.387	80.013	19.994	103.864	19.835	6.709	0.494
900.000	519.625	80.012	19.993	103.863	19.834	6.739	0.506
900.500	519.903	80.014	19.993	103.863	19.833	6.833	0.513
901.000	520.185	80.013	19.993	103.863	19.834	6.773	0.538
901.500	520.412	80.013	19.993	103.863	19.836	6.650	0.535
902.000	520.706	80.014	19.994	103.863	19.833	6.813	0.516
902.500	520.941	80.014	19.994	103.863	19.831	7.005	0.525
903.000	521.206	80.013	19.993	103.863	19.833	6.862	0.514
903.500	521.463	80.014	19.993	103.862	19.835	6.675	0.511
904.000	521.724	80.014	19.993	103.863	19.834	6.753	0.520
904.500	521.983	80.014	19.994	103.866	19.833	6.876	0.519
905.000	522.246	80.014	19.993	103.865	19.831	7.021	0.521
905.500	522.449	80.014	19.994	103.866	19.835	6.731	0.494
906.000	522.730	80.014	19.994	103.866	19.832	6.898	0.475
906.500	522.983	80.012	19.994	103.865	19.834	6.739	0.509
907.000	523.245	80.013	19.994	103.862	19.837	6.535	0.524
907.500	523.529	80.013	19.993	103.862	19.832	6.928	0.530
908.000	523.759	80.014	19.993	103.862	19.832	6.944	0.531
908.500	524.015	80.013	19.993	103.862	19.832	6.898	0.500
909.000	524.284	80.013	19.994	103.862	19.831	7.019	0.505
909.500	524.542	80.014	19.994	103.862	19.833	6.866	0.526
910.000	524.751	80.014	19.994	103.863	19.831	6.954	0.497
910.500	525.044	80.013	19.994	103.863	19.831	6.997	0.484
911.000	525.277	80.013	19.994	103.864	19.829	7.148	0.514
911.500	525.549	80.013	19.994	103.868	19.829	7.128	0.515
912.000	525.801	80.013	19.994	103.869	19.835	6.677	0.515
912.500	526.072	80.015	19.994	103.869	19.835	6.685	0.523
913.000	526.309	80.012	19.994	103.869	19.830	7.039	0.515
913.500	526.586	80.013	19.994	103.869	19.837	6.517	0.511
914.000	526.808	80.015	19.994	103.865	19.831	6.977	0.506
914.500	527.074	80.013	19.993	103.865	19.835	6.675	0.493
915.000	527.306	80.014	19.993	103.866	19.831	7.019	0.493
915.500	527.545	80.013	19.993	103.866	19.835	6.716	0.485
916.000	527.813	80.014	19.992	103.865	19.833	6.875	0.489
916.500	528.067	80.013	19.994	103.865	19.832	6.922	0.515
917.000	528.350	80.012	19.994	103.868	19.833	6.841	0.529
917.500	528.607	80.014	19.993	103.871	19.834	6.797	0.538
918.000	528.864	80.014	19.994	103.871	19.834	6.789	0.527
918.500	529.133	80.013	19.993	103.870	19.836	6.642	0.520
919.000	529.366	80.012	19.993	103.871	19.833	6.852	0.514
919.500	529.607	80.014	19.994	103.868	19.833	6.844	0.488
920.000	529.878	80.014	19.994	103.865	19.832	6.898	0.493
920.500	530.159	80.015	19.993	103.865	19.832	6.906	0.532
921.000	530.384	80.015	19.994	103.865	19.832	6.900	0.528
921.500	530.651	80.015	19.994	103.865	19.833	6.826	0.499
922.000	530.915	80.015	19.992	103.865	19.834	6.783	0.512
922.500	531.136	80.015	19.993	103.865	19.833	6.818	0.509
923.000	531.383	80.015	19.993	103.865	19.831	6.955	0.477
923.500	531.642	80.014	19.993	103.865	19.830	7.055	0.487
924.000	531.941	80.014	19.994	103.864	19.832	6.920	0.532
924.500	532.173	80.015	19.993	103.865	19.833	6.849	0.544
925.000	532.418	80.015	19.992	103.864	19.832	6.900	0.504
925.500	532.677	80.016	19.993	103.865	19.830	7.025	0.491
926.000	532.938	80.015	19.994	103.871	19.832	6.888	0.512
926.500	533.210	80.015	19.993	103.873	19.834	6.761	0.526
927.000	533.468	80.016	19.994	103.873	19.832	6.932	0.532
927.500	533.691	80.015	19.993	103.873	19.833	6.843	0.506
928.000	533.943	80.014	19.994	103.872	19.833	6.857	0.478
928.500	534.202	80.017	19.992	103.865	19.831	6.980	0.493
929.000	534.437	80.015	19.994	103.865	19.832	6.878	0.502
929.500	534.684	80.013	19.994	103.868	19.835	6.703	0.488
930.000	534.996	80.015	19.993	103.869	19.832	6.934	0.521
930.500	535.265	80.017	19.994	103.869	19.832	6.878	0.570
931.000	535.505	80.014	19.993	103.868	19.832	6.912	0.545
931.500	535.756	80.013	19.994	103.867	19.827	7.312	0.500
932.000	536.026	80.014	19.993	103.863	19.829	7.125	0.506
932.500	536.285	80.014	19.993	103.863	19.832	6.893	0.525
933.000	536.536	80.013	19.994	103.864	19.829	7.125	0.519
933.500	536.796	80.013	19.993	103.864	19.832	6.940	0.510
934.000	537.037	80.015	19.993	103.865	19.830	7.031	0.506
934.500	537.293	80.015	19.994	103.869	19.829	7.119	0.499
935.000	537.563	80.013	19.993	103.870	19.830	7.077	0.511
935.500	537.810	80.013	19.993	103.871	19.831	7.004	0.522
936.000	538.040	80.012	19.994	103.872	19.832	6.928	0.497
936.500	538.329	80.013	19.994	103.872	19.830	7.060	0.498
937.000	538.559	80.012	19.992	103.870	19.831	7.002	0.519
937.500	538.808	80.012	19.993	103.873	19.831	7.003	0.499
938.000	539.082	80.011	19.994	103.877	19.828	7.224	0.501
938.500	539.349	80.012	19.995	103.877	19.827	7.270	0.532
939.000	539.599	80.012	19.994	103.877	19.828	7.188	0.529
939.500	539.871	80.012	19.995	103.876	19.826	7.357	0.520
940.000	540.121	80.011	19.994	103.872	19.830	7.033	0.522
940.500	540.358	80.013	19.994	103.868	19.829	7.128	0.505
941.000	540.601	80.013	19.994	103.867	19.830	7.059	0.484
941.500	540.875	80.013	19.994	103.867	19.826	7.317	0.499
942.000	541.125	80.011	19.994	103.869	19.829	7.145	0.520
942.500	541.382	80.012	19.994	103.873	19.828	7.175	0.515
943.000	541.675	80.013	19.995	103.875	19.827	7.278	0.529
943.500	541.886	80.012	19.994	103.876	19.823	7.606	0.527
944.000	542.135	80.011	19.994	103.876	19.829	7.165	0.482
944.500	542.388	80.011	19.994	103.874	19.829	7.115	0.481
945.000	542.646	80.012	19.993	103.870	19.825	7.423	0.506
945.500	542.922	80.012	19.993	103.871	19.827	7.308	0.523
946.000	543.136	80.012	19.994	103.874	19.828	7.181	0.512
946.501	543.394	80.012	19.994	103.874	19.830	7.047	0.481
947.000	543.648	80.010	19.994	103.876	19.830	7.053	0.492
947.500	543.901	80.011	19.993	103.877	19.827	7.248	0.510
948.000	544.153	80.012	19.994	103.874	19.830	7.085	0.506
948.500	544.400	80.010	19.993	103.870	19.830	7.095	0.502
949.000	544.647	80.013	19.994	103.871	19.830	7.081	0.496
949.500	544.877	80.011	19.994	103.869	19.832	6.914	0.486
950.000	545.139	80.010	19.994	103.868	19.831	7.014	0.485
950.500	545.412	80.011	19.994	103.868	19.830	7.089	0.514
951.000	545.656	80.011	19.993	103.868	19.829	7.159	0.526
951.500	545.904	80.011	19.993	103.867	19.828	7.185	0.504
952.000	546.138	80.012	19.993	103.870	19.829	7.157	0.487
952.500	546.432	80.012	19.995	103.871	19.828	7.188	0.505
953.000	546.655	80.009	19.993	103.873	19.829	7.136	0.523
953.500	546.914	80.013	19.994	103.873	19.829	7.146	0.499
954.000	547.182	80.013	19.995	103.874	19.829	7.150	0.504
954.500	547.478	80.011	19.993	103.876	19.830	7.027	0.546
955.000	547.678	80.010	19.994	103.876	19.827	7.308	0.530
955.500	547.961	80.013	19.994	103.875	19.832	6.922	0.489
956.000	548.201	80.011	19.994	103.876	19.829	7.149	0.503
956.500	548.452	80.012	19.993	103.878	19.827	7.298	0.507
957.000	548.710	80.013	19.994	103.875	19.827	7.312	0.500
957.500	548.955	80.011	19.994	103.874	19.824	7.485	0.506
958.000	549.201	80.011	19.994	103.874	19.829	7.130	0.497
958.500	549.472	80.011	19.993	103.873	19.830	7.098	0.504
959.000	549.741	80.012	19.994	103.873	19.828	7.241	0.528
959.500	550.008	80.013	19.993	103.872	19.828	7.233	0.538
960.000	550.245	80.012	19.995	103.872	19.826	7.383	0.521
960.500	550.460	80.012	19.994	103.873	19.823	7.552	0.478
961.000	550.745	80.012	19.995	103.875	19.825	7.417	0.476
961.500	550.989	80.011	19.995	103.876	19.825	7.393	0.514
962.000	551.274	80.011	19.994	103.875	19.827	7.246	0.529
962.500	551.494	80.011	19.995	103.875	19.826	7.373	0.517
963.000	551.761	80.012	19.995	103.873	19.825	7.447	0.496
963.500	551.968	80.011	19.995	103.870	19.826	7.317	0.480
964.000	552.245	80.012	19.994	103.867	19.824	7.466	0.479
964.500	552.520	80.011	19.995	103.866	19.826	7.317	0.518
965.000	552.769	80.012	19.995	103.867	19.822	7.617	0.538
965.500	553.038	80.012	19.996	103.870	19.829	7.113	0.522
966.000	553.265	80.012	19.995	103.872	19.823	7.576	0.507
966.500	553.547	80.013	19.995	103.874	19.825	7.443	0.502
967.000	553.785	80.010	19.995	103.876	19.823	7.545	0.515
967.500	554.046	80.012	19.995	103.878	19.823	7.575	0.510
968.000	554.296	80.011	19.996	103.880	19.821	7.688	0.505
968.500	554.584	80.011	19.995	103.882	19.823	7.602	0.525
969.000	554.839	80.011	19.995	103.886	19.825	7.453	0.540
969.500	555.072	80.012	19.995	103.886	19.827	7.292	0.515
970.000	555.327	80.010	19.996	103.885	19.825	7.445	0.488
970.500	555.564	80.012	19.996	103.881	19.822	7.630	0.490
971.000	555.791	80.011	19.996	103.878	19.824	7.530	0.478
971.500	556.086	80.012	19.994	103.873	19.827	7.268	0.493
972.000	556.343	80.011	19.995	103.872	19.826	7.325	0.537
972.500	556.622	80.010	19.996	103.872	19.829	7.137	0.544
973.000	556.843	80.011	19.995	103.871	19.826	7.379	0.518
973.500	557.075	80.010	19.995	103.872	19.824	7.502	0.476
974.000	557.338	80.011	19.995	103.872	19.822	7.675	0.474
974.500	557.586	80.011	19.993	103.870	19.825	7.438	0.503
975.000	557.831	80.010	19.996	103.866	19.826	7.382	0.502
975.500	558.087	80.010	19.995	103.867	19.826	7.327	0.497
976.000	558.369	80.012	19.995	103.866	19.824	7.504	0.520
976.500	558.624	80.011	19.995	103.871	19.823	7.547	0.538
977.000	558.864	80.010	19.996	103.875	19.822	7.656	0.516
977.500	559.142	80.011	19.995	103.880	19.824	7.514	0.506
978.000	559.376	80.012	19.994	103.883	19.826	7.371	0.515
978.500	559.656	80.012	19.994	103.884	19.824	7.533	0.513
979.000	559.895	80.013	19.993	103.881	19.822	7.663	0.517
979.500	560.164	80.013	19.994	103.883	19.823	7.573	0.513
980.000	560.405	80.012	19.995	103.882	19.826	7.357	0.509
980.500	560.678	80.013	19.993	103.880	19.827	7.293	0.512
981.000	560.892	80.012	19.994	103.881	19.825	7.414	0.501
981.500	561.166	80.013	19.993	103.881	19.827	7.245	0.487
982.000	561.416	80.014	19.994	103.875	19.823	7.563	0.506
982.500	561.699	80.014	19.993	103.872	19.820	7.774	0.529
983.000	561.948	80.014	19.992	103.871	19.822	7.677	0.532
983.500	562.183	80.013	19.994	103.869	19.826	7.387	0.508
984.000	562.452	80.014	19.994	103.868	19.825	7.427	0.493
984.500	562.694	80.013	19.994	103.867	19.823	7.566	0.507
985.000	562.949	80.014	19.993	103.867	19.825	7.395	0.504
985.500	563.221	80.013	19.994	103.865	19.823	7.576	0.512
986.000	563.489	80.015	19.994	103.864	19.827	7.262	0.534
986.500	563.738	80.014	19.994	103.864	19.824	7.522	0.529
987.000	563.963	80.015	19.993	103.864	19.826	7.326	0.496
987.500	564.225	80.014	19.994	103.864	19.825	7.433	0.481
988.000	564.478	80.014	19.993	103.864	19.823	7.554	0.501
988.500	564.711	80.014	19.994	103.864	19.825	7.421	0.501
989.000	564.980	80.012	19.993	103.865	19.827	7.268	0.494
989.500	565.226	80.014	19.993	103.865	19.826	7.349	0.509
990.000	565.459	80.015	19.994	103.864	19.824	7.520	0.497
990.500	565.713	80.014	19.993	103.864	19.827	7.268	0.483
991.000	565.963	80.014	19.993	103.863	19.826	7.352	0.496
991.500	566.251	80.014	19.993	103.862	19.826	7.323	0.521
992.000	566.442	80.014	19.994	103.861	19.828	7.218	0.508
992.500	566.726	80.013	19.994	103.861	19.825	7.392	0.477
993.000	566.946	80.014	19.995	103.862	19.825	7.438	0.490
993.500	567.258	80.014	19.994	103.866	19.824	7.507	0.518
994.000	567.470	80.013	19.994	103.870	19.826	7.376	0.528
994.500	567.759	80.014	19.993	103.873	19.824	7.521	0.512
995.001	567.942	80.013	19.993	103.876	19.826	7.367	0.486
995.500	568.209	80.013	19.994	103.878	19.825	7.435	0.461
996.000	568.459	80.012	19.994	103.876	19.827	7.290	0.483
996.500	568.714	80.014	19.994	103.875	19.824	7.522	0.511
997.000	568.953	80.012	19.994	103.875	19.825	7.419	0.500
997.500	569.208	80.014	19.994	103.872	19.822	7.673	0.494
998.000	569.504	80.012	19.994	103.875	19.827	7.292	0.523
998.500	569.722	80.011	19.994	103.876	19.825	7.397	0.533
999.000	569.952	80.012	19.994	103.873	19.821	7.711	0.481
999.500	570.193	80.013	19.994	103.873	19.826	7.355	0.459
1000.000	570.474	80.013	19.994	103.873	19.826	7.364	0.496
1000.500	570.695	80.013	19.993	103.870	19.823	7.600	0.512
1001.000	570.968	80.012	19.993	103.875	19.822	7.650	0.498
1001.500	571.246	80.014	19.993	103.881	19.822	7.664	0.522
1002.000	571.478	80.013	19.994	103.883	19.823	7.600	0.530
1002.500	571.742	80.014	19.993	103.890	19.825	7.391	0.503
1003.000	572.002	80.012	19.994	103.895	19.824	7.492	0.510
1003.500	572.252	80.013	19.994	103.893	19.827	7.282	0.517
1004.000	572.497	80.013	19.993	103.888	19.825	7.423	0.502
1004.500	572.778	80.012	19.993	103.888	19.825	7.433	0.511
1005.001	573.037	80.013	19.994	103.882	19.826	7.364	0.533
1005.500	573.291	80.013	19.994	103.878	19.824	7.507	0.527
1006.000	573.514	80.015	19.994	103.873	19.827	7.279	0.495
1006.500	573.809	80.013	19.993	103.872	19.825	7.395	0.497
1007.000	574.054	80.014	19.993	103.872	19.827	7.260	0.529
1007.500	574.352	80.014	19.994	103.871	19.824	7.471	0.542
1008.000	574.588	80.013	19.993	103.869	19.826	7.379	0.538
1008.500	574.851	80.015	19.993	103.871	19.824	7.526	0.516
1009.000	575.122	80.013	19.993	103.874	19.823	7.537	0.517
1009.500	575.365	80.014	19.993	103.872	19.822	7.652	0.524
1010.000	575.630	80.015	19.994	103.872	19.828	7.171	0.511
1010.500	575.864	80.015	19.993	103.873	19.825	7.455	0.504
1011.000	576.157	80.014	19.994	103.877	19.826	7.356	0.513
1011.500	576.377	80.015	19.993	103.878	19.824	7.469	0.520
1012.000	576.625	80.014	19.993	103.879	19.828	7.239	0.490
1012.500	576.854	80.014	19.992	103.879	19.821	7.696	0.472
1013.000	577.106	80.013	19.992	103.879	19.823	7.583	0.479
1013.500	577.385	80.014	19.992	103.874	19.822	7.622	0.506
1014.000	577.629	80.016	19.994	103.872	19.819	7.837	0.527
1014.500	577.818	80.016	19.993	103.877	19.823	7.557	0.478
1015.000	578.149	80.015	19.993	103.881	19.819	7.845	0.476
1015.500	578.423	80.014	19.993	103.882	19.821	7.704	0.562
1016.000	578.597	80.017	19.993	103.884	19.823	7.571	0.526
1016.500	578.894	80.014	19.993	103.886	19.819	7.865	0.459
1017.000	579.208	80.015	19.993	103.884	19.822	7.662	0.541
1017.500	579.421	80.014	19.994	103.879	19.819	7.896	0.569
1018.000	579.628	80.014	19.992	103.881	19.818	7.912	0.473
1018.500	579.934	80.013	19.993	103.878	19.821	7.701	0.467
1019.000	580.170	80.012	19.993	103.876	19.821	7.683	0.528
1019.500	580.405	80.014	19.992	103.876	19.822	7.630	0.507
1020.000	580.681	80.012	19.993	103.881	19.822	7.618	0.491
1020.500	580.914	80.013	19.994	103.880	19.821	7.697	0.510
1021.000	581.190	80.013	19.993	103.882	19.822	7.642	0.509
1021.500	581.434	80.012	19.993	103.882	19.825	7.425	0.515
1022.000	581.659	80.012	19.993	103.881	19.821	7.699	0.495
1022.500	581.939	80.012	19.993	103.880	19.821	7.751	0.487
1023.000	582.183	80.012	19.993	103.879	19.821	7.709	0.515
1023.500	582.461	80.012	19.993	103.882	19.824	7.500	0.523
1024.001	582.719	80.013	19.993	103.885	19.821	7.705	0.529
1024.501	582.927	80.012	19.993	103.884	19.823	7.540	0.501
1025.001	583.213	80.011	19.993	103.885	19.824	7.519	0.480
1025.500	583.429	80.012	19.993	103.885	19.822	7.642	0.498
1026.000	583.722	80.011	19.993	103.884	19.820	7.809	0.506
1026.500	583.934	80.011	19.994	103.886	19.821	7.716	0.507
1027.001	584.204	80.013	19.993	103.891	19.818	7.940	0.493
1027.501	584.430	80.011	19.994	103.891	19.822	7.646	0.489
1028.000	584.705	80.012	19.994	103.889	19.822	7.649	0.498
1028.500	584.934	80.013	19.993	103.884	19.820	7.796	0.502
1029.000	585.229	80.012	19.994	103.879	19.819	7.832	0.514
1029.500	585.475	80.012	19.994	103.873	19.818	7.910	0.533
1030.001	585.702	80.012	19.995	103.871	19.821	7.732	0.507
1030.501	585.952	80.012	19.994	103.876	19.818	7.940	0.475
1031.000	586.187	80.011	19.994	103.877	19.816	8.072	0.481
1031.500	586.485	80.011	19.994	103.879	19.818	7.952	0.509
1032.000	586.716	80.011	19.994	103.881	19.818	7.954	0.531
1032.500	586.999	80.011	19.995	103.879	19.816	8.056	0.521
1033.000	587.241	80.012	19.994	103.876	19.819	7.865	0.519
1033.500	587.504	80.011	19.994	103.876	19.819	7.893	0.515
1034.001	587.780	80.012	19.995	103.875	19.818	7.973	0.522
1034.501	588.029	80.012	19.994	103.873	19.816	8.068	0.532
1035.001	588.297	80.012	19.994	103.873	19.817	7.984	0.521
1035.500	588.531	80.012	19.994	103.877	19.814	8.197	0.510
1036.000	588.795	80.012	19.994	103.881	19.816	8.081	0.500
1036.501	589.062	80.012	19.994	103.886	19.817	8.022	0.515
1037.001	589.363	80.011	19.994	103.889	19.813	8.300	0.549
1037.500	589.585	80.012	19.995	103.890	19.815	8.157	0.545
1038.000	589.824	80.011	19.994	103.886	19.814	8.199	0.492
1038.500	590.119	80.013	19.995	103.881	19.815	8.147	0.497
1039.000	590.389	80.013	19.995	103.876	19.818	7.911	0.549
1039.501	590.625	80.013	19.994	103.874	19.814	8.201	0.536
1040.001	590.868	80.012	19.994	103.877	19.814	8.216	0.493
1040.500	591.110	80.012	19.994	103.880	19.815	8.147	0.482
1041.000	591.403	80.012	19.994	103.886	19.814	8.242	0.510
1041.500	591.661	80.013	19.994	103.889	19.817	7.988	0.543
1042.000	591.925	80.011	19.994	103.888	19.819	7.840	0.536
1042.500	592.206	80.013	19.994	103.889	19.816	8.050	0.533
1043.000	592.425	80.014	19.993	103.889	19.819	7.850	0.522
1043.500	592.688	80.013	19.994	103.891	19.816	8.094	0.491
1044.000	592.966	80.013	19.994	103.893	19.818	7.919	0.512
1044.501	593.216	80.013	19.994	103.894	19.815	8.123	0.535
1045.001	593.513	80.014	19.994	103.895	19.819	7.863	0.537
1045.500	593.757	80.012	19.994	103.894	19.817	8.018	0.544
1046.000	594.000	80.012	19.994	103.891	19.816	8.055	0.515
1046.500	594.287	80.013	19.993	103.888	19.817	8.019	0.509
1047.000	594.520	80.012	19.994	103.886	19.816	8.047	0.525
1047.501	594.845	80.013	19.994	103.884	19.816	8.076	0.539
1048.001	595.048	80.013	19.994	103.883	19.818	7.943	0.543
1048.500	595.346	80.012	19.993	103.886	19.821	7.699	0.515
1049.000	595.625	80.012	19.995	103.888	19.817	7.994	0.539
1049.500	595.844	80.012	19.993	103.891	19.819	7.889	0.537
1050.000	596.122	80.013	19.994	103.890	19.817	7.983	0.498
1050.500	596.370	80.012	19.994	103.890	19.814	8.251	0.511
1051.000	596.658	80.012	19.993	103.885	19.816	8.104	0.531
1051.501	596.897	80.012	19.994	103.886	19.815	8.124	0.532
1052.001	597.197	80.012	19.994	103.887	19.816	8.068	0.533
1052.500	597.475	80.011	19.994	103.891	19.817	8.041	0.558
1053.000	597.695	80.013	19.994	103.894	19.818	7.954	0.538
1053.501	597.956	80.013	19.994	103.899	19.815	8.178	0.490
1054.001	598.238	80.012	19.994	103.899	19.817	8.033	0.512
1054.500	598.501	80.013	19.994	103.900	19.817	8.018	0.544
1055.000	598.748	80.011	19.994	103.894	19.815	8.163	0.527
1055.500	599.057	80.012	19.993	103.890	19.817	8.040	0.533
1056.000	599.290	80.012	19.995	103.886	19.819	7.867	0.549
1056.500	599.546	80.012	19.994	103.884	19.819	7.884	0.515
1057.000	599.899	80.010	19.995	103.880	19.814	8.226	0.549
1057.500	600.147	80.011	19.994	103.878	19.817	7.983	0.606
1058.000	600.408	80.012	19.994	103.874	19.818	7.930	0.556
1058.500	600.610	80.013	19.995	103.872	19.818	7.960	0.486
1059.000	600.874	80.011	19.995	103.874	19.816	8.071	0.464
1059.501	601.186	80.011	19.994	103.877	19.815	8.191	0.521
1060.001	601.391	80.011	19.994	103.881	19.815	8.165	0.547
1060.500	601.697	80.012	19.995	103.889	19.815	8.164	0.514
1061.000	601.942	80.011	19.995	103.896	19.816	8.097	0.531
1061.500	602.180	80.011	19.995	103.896	19.812	8.367	0.517
1062.000	602.482	80.012	19.995	103.896	19.815	8.158	0.512
1062.500	602.790	80.011	19.995	103.895	19.815	8.174	0.574
1063.000	603.012	80.013	19.995	103.890	19.816	8.107	0.569
1063.500	603.258	80.012	19.994	103.884	19.814	8.219	0.499
1064.000	603.545	80.013	19.995	103.879	19.814	8.250	0.501
1064.500	603.784	80.010	19.995	103.880	19.812	8.346	0.530
1065.000	604.053	80.012	19.995	103.882	19.815	8.187	0.517
1065.500	604.305	80.011	19.995	103.884	19.813	8.276	0.514
1066.000	604.586	80.012	19.994	103.886	19.814	8.206	0.526
1066.500	604.836	80.011	19.995	103.886	19.814	8.230	0.532
1067.000	605.095	80.013	19.995	103.883	19.817	8.003	0.520
1067.500	605.368	80.014	19.995	103.882	19.816	8.085	0.521
1068.000	605.634	80.013	19.995	103.880	19.815	8.141	0.536
1068.500	605.896	80.013	19.995	103.880	19.816	8.063	0.534
1069.000	606.182	80.012	19.994	103.884	19.813	8.330	0.538
1069.500	606.438	80.014	19.994	103.888	19.811	8.459	0.545
1070.000	606.698	80.014	19.995	103.887	19.816	8.094	0.529
1070.500	606.964	80.014	19.995	103.886	19.815	8.131	0.521
1071.001	607.254	80.013	19.994	103.888	19.815	8.177	0.541
1071.501	607.480	80.014	19.994	103.883	19.813	8.298	0.536
1072.000	607.762	80.013	19.995	103.880	19.814	8.226	0.512
1072.500	608.035	80.013	19.995	103.880	19.813	8.268	0.531
1073.000	608.275	80.012	19.993	103.883	19.812	8.353	0.534
1073.500	608.525	80.013	19.994	103.880	19.814	8.218	0.502
1074.000	608.791	80.014	19.995	103.887	19.815	8.139	0.503
1074.500	609.017	80.012	19.994	103.891	19.812	8.356	0.504
1075.000	609.287	80.013	19.995	103.890	19.815	8.193	0.494
1075.500	609.564	80.013	19.994	103.890	19.812	8.411	0.522
1076.000	609.815	80.013	19.994	103.890	19.813	8.312	0.538
1076.500	610.064	80.014	19.993	103.886	19.813	8.282	0.514
1077.000	610.343	80.014	19.993	103.882	19.814	8.236	0.514
1077.500	610.581	80.012	19.994	103.882	19.812	8.340	0.523
1078.001	610.862	80.012	19.995	103.882	19.813	8.268	0.518
1078.501	611.117	80.013	19.994	103.882	19.814	8.206	0.527
1079.000	611.375	80.013	19.993	103.884	19.813	8.307	0.525
1079.500	611.638	80.013	19.994	103.887	19.816	8.111	0.517
1080.000	611.901	80.013	19.993	103.890	19.815	8.159	0.524
1080.500	612.187	80.013	19.994	103.890	19.814	8.260	0.538
1081.000	612.445	80.013	19.993	103.890	19.814	8.253	0.546
1081.500	612.714	80.014	19.993	103.892	19.811	8.463	0.535
1082.000	612.967	80.012	19.993	103.890	19.812	8.362	0.525
1082.500	613.249	80.015	19.994	103.885	19.812	8.404	0.528
1083.000	613.475	80.013	19.993	103.884	19.812	8.354	0.521
1083.500	613.784	80.013	19.993	103.885	19.815	8.184	0.522
1084.000	614.027	80.012	19.993	103.880	19.813	8.333	0.544
1084.500	614.283	80.012	19.993	103.881	19.814	8.214	0.525
1085.000	614.589	80.012	19.993	103.887	19.812	8.358	0.530
1085.500	614.846	80.014	19.993	103.889	19.813	8.303	0.563
1086.000	615.085	80.013	19.993	103.887	19.811	8.479	0.530
1086.500	615.355	80.013	19.992	103.891	19.811	8.469	0.502
1087.000	615.598	80.013	19.994	103.888	19.812	8.394	0.511
1087.500	615.881	80.013	19.993	103.888	19.813	8.315	0.520
1088.000	616.168	80.014	19.994	103.889	19.811	8.462	0.548
1088.500	616.392	80.013	19.994	103.888	19.814	8.244	0.541
1089.000	616.645	80.013	19.994	103.883	19.815	8.188	0.494
1089.500	616.903	80.013	19.993	103.884	19.816	8.063	0.493
1090.000	617.189	80.014	19.993	103.882	19.811	8.438	0.528
1090.500	617.480	80.014	19.993	103.885	19.815	8.166	0.561
1091.000	617.693	80.015	19.993	103.887	19.813	8.328	0.540
1091.500	618.008	80.015	19.993	103.891	19.812	8.404	0.516
1092.000	618.247	80.015	19.993	103.894	19.812	8.357	0.542
1092.500	618.477	80.013	19.993	103.895	19.813	8.323	0.511
1093.001	618.726	80.015	19.993	103.894	19.814	8.259	0.474
1093.501	619.012	80.015	19.993	103.893	19.813	8.321	0.508
1094.000	619.309	80.017	19.993	103.889	19.814	8.193	0.559
1094.500	619.541	80.016	19.993	103.884	19.814	8.203	0.556
1095.000	619.779	80.015	19.993	103.879	19.815	8.166	0.499
1095.500	620.099	80.015	19.993	103.875	19.813	8.273	0.514
1096.000	620.369	80.014	19.993	103.873	19.813	8.295	0.575
1096.500	620.604	80.016	19.994	103.873	19.812	8.351	0.548
1097.000	620.847	80.015	19.993	103.871	19.814	8.215	0.491
1097.500	621.115	80.016	19.993	103.869	19.814	8.203	0.494
1098.000	621.377	80.015	19.993	103.868	19.818	7.946	0.520
1098.501	621.650	80.015	19.993	103.872	19.817	8.028	0.532
1099.001	621.890	80.016	19.992	103.879	19.814	8.229	0.524
1099.500	622.146	80.016	19.994	103.882	19.814	8.229	0.505
1100.000	622.446	80.015	19.993	103.882	19.813	8.276	0.526
1100.500	622.673	80.015	19.993	103.882	19.815	8.155	0.541
1101.000	622.942	80.016	19.993	103.877	19.815	8.162	0.512
1101.500	623.192	80.015	19.993	103.871	19.813	8.321	0.508
1102.000	623.475	80.014	19.993	103.869	19.814	8.241	0.526
1102.500	623.750	80.014	19.993	103.872	19.815	8.190	0.546
1103.000	624.005	80.013	19.994	103.875	19.813	8.291	0.544
1103.500	624.282	80.015	19.994	103.873	19.812	8.360	0.531
1104.000	624.528	80.015	19.993	103.872	19.811	8.434	0.527
1104.500	624.793	80.014	19.993	103.872	19.812	8.390	0.517
1105.000	625.041	80.014	19.994	103.869	19.812	8.390	0.512
1105.500	625.278	80.014	19.993	103.870	19.816	8.058	0.499
1106.000	625.586	80.013	19.993	103.876	19.814	8.201	0.515
1106.500	625.817	80.013	19.993	103.878	19.813	8.330	0.542
1107.000	626.072	80.013	19.994	103.877	19.814	8.251	0.513
1107.500	626.314	80.012	19.993	103.876	19.815	8.181	0.491
1108.000	626.604	80.013	19.994	103.871	19.814	8.219	0.514
1108.500	626.838	80.011	19.994	103.865	19.817	7.998	0.528
1109.001	627.100	80.012	19.993	103.864	19.813	8.280	0.511
1109.501	627.397	80.013	19.994	103.864	19.816	8.109	0.527
1110.000	627.620	80.012	19.993	103.865	19.815	8.190	0.539
1110.500	627.914	80.012	19.994	103.866	19.815	8.150	0.519
1111.000	628.167	80.014	19.994	103.866	19.815	8.144	0.532
1111.500	628.440	80.012	19.993	103.859	19.812	8.338	0.537
1112.000	628.679	80.012	19.993	103.851	19.815	8.127	0.519
1112.500	628.944	80.013	19.994	103.850	19.814	8.222	0.508
1113.000	629.187	80.012	19.994	103.849	19.815	8.159	0.506
1113.500	629.429	80.013	19.993	103.849	19.816	8.094	0.496
1114.000	629.693	80.012	19.994	103.855	19.815	8.142	0.496
1114.500	629.972	80.013	19.994	103.866	19.815	8.170	0.525
1115.000	630.242	80.011	19.994	103.871	19.817	8.019	0.546
1115.501	630.466	80.013	19.994	103.871	19.812	8.398	0.521
1116.001	630.763	80.012	19.993	103.868	19.818	7.951	0.507
1116.500	631.002	80.012	19.993	103.866	19.811	8.457	0.528
1117.000	631.297	80.013	19.993	103.864	19.814	8.201	0.535
1117.500	631.532	80.013	19.993	103.862	19.816	8.103	0.532
1118.000	631.758	80.012	19.993	103.867	19.815	8.143	0.495
1118.500	632.034	80.013	19.994	103.871	19.814	8.262	0.481
1119.000	632.306	80.013	19.993	103.867	19.817	7.996	0.525
1119.501	632.558	80.013	19.992	103.867	19.818	7.931	0.536
1120.001	632.812	80.013	19.994	103.863	19.815	8.189	0.515
1120.501	633.069	80.014	19.993	103.857	19.816	8.091	0.509
1121.000	633.343	80.013	19.994	103.858	19.816	8.104	0.521
1121.500	633.606	80.014	19.993	103.870	19.814	8.225	0.534
1122.001	633.869	80.015	19.994	103.872	19.816	8.112	0.532
1122.501	634.071	80.013	19.994	103.869	19.818	7.965	0.495
1123.000	634.346	80.014	19.994	103.862	19.815	8.183	0.471
1123.500	634.618	80.014	19.993	103.862	19.816	8.108	0.512
1124.000	634.875	80.014	19.994	103.861	19.812	8.341	0.537
1124.500	635.127	80.013	19.993	103.864	19.812	8.393	0.519
1125.000	635.404	80.014	19.992	103.870	19.815	8.142	0.520
1125.500	635.669	80.014	19.993	103.877	19.814	8.223	0.536
1126.000	635.934	80.013	19.993	103.877	19.813	8.298	0.536
1126.500	636.147	80.013	19.994	103.873	19.813	8.318	0.504
1127.000	636.450	80.013	19.993	103.866	19.813	8.316	0.497
1127.500	636.689	80.014	19.994	103.863	19.815	8.159	0.528
1128.000	636.921	80.014	19.995	103.862	19.812	8.379	0.506
1128.500	637.226	80.014	19.993	103.861	19.813	8.310	0.504
1129.000	637.471	80.013	19.994	103.861	19.813	8.290	0.543
1129.500	637.734	80.013	19.994	103.863	19.818	7.966	0.529
1130.000	637.945	80.014	19.993	103.868	19.812	8.383	0.491
1130.500	638.240	80.014	19.994	103.868	19.815	8.119	0.490
1131.001	638.489	80.012	19.994	103.872	19.813	8.268	0.525
1131.501	638.730	80.013	19.994	103.877	19.811	8.479	0.517
1132.001	638.991	80.013	19.994	103.875	19.814	8.243	0.497
1132.501	639.250	80.013	19.994	103.869	19.815	8.175	0.512
1133.000	639.527	80.012	19.993	103.870	19.814	8.199	0.528
1133.500	639.749	80.013	19.996	103.868	19.818	7.954	0.517
1134.000	640.032	80.015	19.995	103.872	19.813	8.318	0.502
1134.500	640.231	80.013	19.995	103.878	19.814	8.242	0.494
1135.000	640.534	80.012	19.995	103.880	19.816	8.117	0.492
1135.500	640.784	80.012	19.995	103.880	19.814	8.209	0.527
1136.000	641.052	80.012	19.994	103.879	19.815	8.183	0.535
1136.500	641.271	80.012	19.994	103.872	19.814	8.250	0.502
1137.000	641.536	80.013	19.995	103.867	19.814	8.213	0.486
1137.500	641.781	80.012	19.993	103.867	19.817	8.040	0.497
1138.000	642.063	80.012	19.994	103.867	19.817	8.008	0.518
1138.501	642.291	80.012	19.994	103.866	19.814	8.252	0.518
1139.001	642.545	80.012	19.994	103.863	19.815	8.183	0.496
1139.500	642.795	80.012	19.995	103.863	19.818	7.930	0.493
1140.000	643.056	80.011	19.994	103.862	19.816	8.097	0.508
1140.500	643.292	80.013	19.993	103.863	19.815	8.129	0.504
1141.000	643.566	80.012	19.994	103.863	19.819	7.872	0.504
1141.500	643.828	80.011	19.994	103.866	19.816	8.089	0.523
1142.000	644.038	80.013	19.994	103.866	19.815	8.125	0.504
1142.500	644.302	80.013	19.994	103.866	19.814	8.197	0.473
1143.000	644.592	80.012	19.994	103.866	19.817	7.990	0.515
1143.500	644.850	80.013	19.994	103.865	19.814	8.195	0.551
1144.000	645.065	80.013	19.994	103.865	19.814	8.225	0.510
1144.501	645.332	80.013	19.994	103.865	19.817	8.004	0.478
1145.001	645.558	80.013	19.994	103.865	19.816	8.113	0.488
1145.501	645.826	80.013	19.993	103.864	19.817	8.038	0.493
1146.001	646.072	80.012	19.994	103.865	19.816	8.109	0.503
1146.500	646.336	80.013	19.994	103.865	19.817	8.029	0.512
1147.000	646.559	80.013	19.994	103.865	19.814	8.220	0.499
1147.500	646.861	80.013	19.993	103.864	19.817	8.037	0.506
1148.000	647.066	80.014	19.993	103.865	19.818	7.955	0.516
1148.500	647.355	80.014	19.993	103.865	19.814	8.247	0.500
1149.000	647.613	80.014	19.994	103.865	19.816	8.096	0.521
1149.500	647.829	80.014	19.994	103.865	19.815	8.120	0.511
1150.000	648.095	80.013	19.993	103.863	19.813	8.317	0.478
1150.500	648.370	80.014	19.993	103.859	19.816	8.059	0.511
1151.000	648.592	80.014	19.994	103.855	19.817	8.035	0.519
1151.500	648.873	80.014	19.994	103.855	19.816	8.089	0.500
1152.001	649.134	80.014	19.994	103.856	19.816	8.067	0.523
1152.501	649.381	80.013	19.994	103.859	19.817	7.982	0.525
1153.001	649.636	80.013	19.993	103.862	19.817	7.990	0.505
1153.501	649.867	80.014	19.994	103.867	19.815	8.188	0.494
1154.000	650.137	80.014	19.993	103.866	19.815	8.152	0.493
1154.500	650.416	80.014	19.993	103.866	19.815	8.186	0.525
1155.000	650.664	80.015	19.994	103.866	19.814	8.240	0.538
1155.500	650.917	80.014	19.993	103.867	19.811	8.427	0.514
1156.000	651.182	80.014	19.994	103.864	19.814	8.198	0.509
1156.500	651.401	80.015	19.995	103.862	19.812	8.371	0.501
1157.000	651.657	80.015	19.994	103.859	19.812	8.375	0.480
1157.500	651.914	80.014	19.993	103.856	19.813	8.286	0.494
1158.000	652.169	80.014	19.993	103.853	19.813	8.278	0.512
1158.500	652.407	80.014	19.994	103.853	19.814	8.230	0.502
1159.000	652.629	80.013	19.994	103.850	19.811	8.451	0.476
1159.500	652.893	80.014	19.993	103.850	19.811	8.441	0.473
1160.000	653.183	80.014	19.994	103.850	19.813	8.324	0.520
1160.501	653.416	80.014	19.994	103.850	19.812	8.351	0.539
1161.001	653.684	80.013	19.995	103.852	19.812	8.338	0.512
1161.500	653.925	80.013	19.994	103.856	19.814	8.262	0.505
1162.001	654.170	80.013	19.995	103.859	19.815	8.173	0.498
1162.501	654.451	80.012	19.994	103.861	19.815	8.161	0.506
1163.000	654.684	80.014	19.994	103.861	19.814	8.236	0.520
1163.500	654.922	80.013	19.995	103.861	19.811	8.413	0.492
1164.000	655.180	80.013	19.995	103.859	19.814	8.216	0.483
1164.500	655.451	80.013	19.994	103.857	19.813	8.294	0.512
1165.000	655.716	80.013	19.994	103.856	19.810	8.518	0.532
1165.500	655.959	80.014	19.994	103.855	19.811	8.427	0.522
1166.001	656.181	80.013	19.994	103.854	19.810	8.512	0.487
1166.501	656.417	80.013	19.995	103.857	19.811	8.475	0.462
1167.000	656.706	80.014	19.995	103.858	19.808	8.655	0.491
1167.500	656.919	80.013	19.994	103.859	19.816	8.048	0.513
1168.000	657.184	80.013	19.995	103.861	19.813	8.306	0.490
1168.500	657.397	80.013	19.995	103.862	19.812	8.361	0.478
1169.001	657.656	80.013	19.995	103.862	19.816	8.117	0.475
1169.501	657.916	80.013	19.994	103.862	19.812	8.349	0.496
1170.000	658.185	80.013	19.995	103.861	19.813	8.288	0.524
1170.500	658.436	80.014	19.995	103.862	19.816	8.109	0.524
1171.000	658.678	80.014	19.994	103.861	19.815	8.143	0.506
1171.500	658.921	80.014	19.994	103.861	19.813	8.294	0.489
1172.000	659.212	80.014	19.995	103.861	19.813	8.280	0.510
1172.500	659.432	80.014	19.994	103.860	19.816	8.101	0.523
1173.000	659.675	80.015	19.995	103.860	19.812	8.391	0.487
1173.500	659.932	80.013	19.994	103.860	19.811	8.435	0.481
1174.000	660.167	80.014	19.994	103.860	19.815	8.172	0.496
1174.500	660.406	80.015	19.994	103.860	19.815	8.166	0.483
1175.000	660.681	80.014	19.994	103.861	19.816	8.097	0.494
1175.501	660.923	80.014	19.994	103.862	19.811	8.472	0.516
1176.001	661.178	80.014	19.995	103.862	19.812	8.355	0.507
1176.500	661.412	80.016	19.993	103.862	19.813	8.284	0.493
1177.000	661.744	80.015	19.993	103.862	19.814	8.248	0.528
1177.500	661.910	80.016	19.994	103.862	19.816	8.111	0.532
1178.000	662.191	80.017	19.994	103.862	19.816	8.083	0.472
1178.500	662.476	80.015	19.994	103.862	19.816	8.105	0.506
1179.000	662.664	80.016	19.993	103.861	19.811	8.473	0.520
1179.501	662.920	80.016	19.993	103.861	19.813	8.280	0.459
1180.001	663.194	80.017	19.993	103.860	19.814	8.193	0.487
1180.500	663.468	80.017	19.994	103.861	19.813	8.336	0.539
1181.000	663.713	80.016	19.993	103.861	19.813	8.282	0.533
1181.500	663.934	80.017	19.994	103.862	19.812	8.352	0.493
1182.000	664.220	80.016	19.993	103.862	19.811	8.483	0.487
1182.500	664.425	80.017	19.993	103.862	19.810	8.552	0.499
1183.000	664.675	80.017	19.992	103.863	19.812	8.379	0.473
1183.500	664.961	80.017	19.993	103.862	19.810	8.548	0.495
1184.000	665.207	80.017	19.993	103.862	19.810	8.507	0.534
1184.500	665.454	80.017	19.993	103.860	19.811	8.427	0.513
1185.000	665.704	80.015	19.993	103.858	19.813	8.274	0.495
1185.500	665.961	80.016	19.994	103.858	19.815	8.171	0.502
1186.000	666.198	80.015	19.993	103.858	19.813	8.304	0.500
1186.500	666.476	80.016	19.993	103.858	19.812	8.397	0.504
1187.000	666.707	80.015	19.993	103.859	19.813	8.328	0.512
1187.500	666.964	80.014	19.993	103.861	19.810	8.519	0.498
1188.000	667.200	80.015	19.994	103.862	19.810	8.491	0.490
1188.500	667.443	80.015	19.993	103.862	19.812	8.350	0.486
1189.000	667.746	80.015	19.995	103.862	19.810	8.501	0.513
1189.500	667.971	80.014	19.994	103.862	19.811	8.427	0.537
1190.001	668.242	80.014	19.994	103.861	19.814	8.237	0.512
1190.501	668.467	80.014	19.994	103.861	19.810	8.501	0.496
1191.000	668.730	80.014	19.994	103.861	19.813	8.296	0.492
1191.500	668.958	80.013	19.994	103.862	19.812	8.354	0.489
1192.000	669.190	80.014	19.994	103.862	19.810	8.497	0.475
1192.500	669.463	80.014	19.994	103.862	19.812	8.397	0.482
1193.000	669.734	80.013	19.993	103.863	19.811	8.425	0.525
1193.500	669.976	80.013	19.995	103.863	19.810	8.531	0.528
1194.000	670.222	80.014	19.994	103.864	19.813	8.326	0.500
1194.500	670.456	80.013	19.994	103.865	19.810	8.531	0.484
1195.000	670.726	80.012	19.994	103.865	19.811	8.481	0.492
1195.500	670.987	80.013	19.995	103.865	19.808	8.642	0.518
1196.000	671.191	80.013	19.994	103.865	19.812	8.352	0.498
1196.500	671.465	80.014	19.995	103.864	19.812	8.348	0.471
1197.000	671.692	80.014	19.994	103.864	19.813	8.324	0.489
1197.500	671.975	80.014	19.994	103.864	19.811	8.433	0.506
1198.000	672.225	80.013	19.994	103.865	19.812	8.386	0.522
1198.500	672.476	80.013	19.994	103.865	19.813	8.282	0.517
1199.000	672.756	80.014	19.994	103.865	19.812	8.338	0.516
1199.500	672.981	80.013	19.994	103.866	19.810	8.521	0.518
1200.000	673.252	80.013	19.995	103.866	19.810	8.548	0.500
1200.501	673.506	80.013	19.994	103.865	19.812	8.356	0.510
1201.001	673.742	80.013	19.993	103.866	19.811	8.457	0.507
1201.500	674.020	80.013	19.994	103.866	19.811	8.455	0.502
1202.001	674.234	80.013	19.994	103.866	19.811	8.461	0.503
1202.501	674.533	80.013	19.994	103.865	19.811	8.459	0.502
1203.000	674.773	80.013	19.994	103.865	19.809	8.608	0.526
1203.500	675.033	80.013	19.994	103.864	19.808	8.642	0.519
1204.000	675.275	80.013	19.994	103.865	19.808	8.676	0.501
1204.500	675.528	80.013	19.994	103.865	19.813	8.320	0.498
1205.000	675.787	80.014	19.994	103.866	19.808	8.662	0.504
1205.500	676.067	80.013	19.994	103.867	19.810	8.523	0.526
1206.000	676.314	80.014	19.994	103.867	19.809	8.568	0.533
1206.500	676.570	80.014	19.994	103.867	19.808	8.693	0.515
1207.000	676.817	80.013	19.994	103.867	19.809	8.574	0.503
1207.500	677.052	80.013	19.994	103.867	19.811	8.479	0.492
1208.000	677.310	80.014	19.994	103.867	19.812	8.352	0.487
1208.500	677.531	80.014	19.994	103.867	19.809	8.578	0.486
1209.000	677.787	80.014	19.993	103.867	19.809	8.568	0.478
1209.500	678.074	80.013	19.993	103.867	19.808	8.666	0.510
1210.000	678.343	80.013	19.993	103.867	19.808	8.694	0.550
1210.500	678.588	80.013	19.993	103.866	19.808	8.652	0.535
1211.000	678.837	80.013	19.993	103.865	19.807	8.707	0.504
1211.501	679.104	80.014	19.993	103.865	19.806	8.785	0.505
1212.001	679.355	80.014	19.993	103.865	19.808	8.678	0.517
1212.501	679.599	80.013	19.994	103.865	19.807	8.773	0.506
1213.000	679.864	80.013	19.994	103.865	19.810	8.517	0.502
1213.500	680.086	80.014	19.994	103.866	19.808	8.658	0.498
1214.000	680.389	80.014	19.993	103.867	19.808	8.640	0.506
1214.500	680.588	80.014	19.993	103.867	19.811	8.437	0.513
1215.000	680.844	80.013	19.993	103.867	19.806	8.833	0.479
1215.500	681.081	80.012	19.993	103.868	19.809	8.578	0.474
1216.000	681.353	80.014	19.993	103.868	19.811	8.459	0.501
1216.500	681.606	80.014	19.994	103.867	19.808	8.702	0.517
1217.000	681.876	80.014	19.994	103.867	19.808	8.670	0.524
1217.500	682.123	80.013	19.993	103.866	19.805	8.878	0.520
1218.000	682.377	80.013	19.994	103.866	19.812	8.380	0.509
1218.500	682.616	80.013	19.993	103.866	19.808	8.680	0.497
1219.000	682.868	80.012	19.994	103.866	19.807	8.704	0.492
1219.500	683.126	80.012	19.993	103.866	19.808	8.696	0.501
1220.001	683.373	80.012	19.993	103.867	19.808	8.636	0.507
1220.501	683.659	80.013	19.994	103.867	19.807	8.773	0.519
1221.000	683.871	80.012	19.993	103.867	19.807	8.771	0.516
1221.501	684.156	80.012	19.993	103.868	19.808	8.683	0.498
1222.001	684.377	80.013	19.994	103.868	19.807	8.727	0.501
1222.500	684.624	80.013	19.993	103.868	19.808	8.685	0.486
1223.001	684.884	80.013	19.993	103.868	19.809	8.608	0.488
1223.501	685.137	80.012	19.993	103.869	19.807	8.717	0.510
1224.000	685.378	80.012	19.994	103.869	19.807	8.773	0.503
1224.500	685.628	80.013	19.994	103.869	19.805	8.876	0.492
1225.000	685.871	80.011	19.993	103.870	19.806	8.785	0.492
1225.500	686.126	80.012	19.993	103.869	19.804	8.975	0.496
1226.000	686.378	80.011	19.994	103.869	19.807	8.757	0.502
1226.500	686.612	80.012	19.994	103.869	19.805	8.918	0.496
1227.000	686.893	80.011	19.993	103.868	19.806	8.796	0.500
1227.500	687.123	80.012	19.994	103.868	19.804	8.969	0.513
1228.000	687.385	80.011	19.994	103.868	19.805	8.870	0.502
1228.500	687.614	80.013	19.994	103.868	19.804	8.983	0.491
1229.001	687.846	80.013	19.994	103.871	19.804	8.951	0.475
1229.501	688.116	80.013	19.993	103.872	19.808	8.651	0.482
1230.000	688.356	80.012	19.994	103.872	19.806	8.808	0.507
1230.500	688.628	80.011	19.994	103.872	19.806	8.820	0.511
1231.000	688.873	80.013	19.995	103.872	19.804	8.951	0.514
1231.501	689.135	80.012	19.994	103.868	19.807	8.775	0.511
1232.001	689.378	80.014	19.995	103.866	19.805	8.884	0.506
1232.501	689.646	80.014	19.994	103.865	19.807	8.729	0.508
1233.000	689.876	80.013	19.994	103.865	19.805	8.890	0.504
1233.500	690.132	80.014	19.993	103.864	19.806	8.798	0.492
1234.000	690.372	80.013	19.994	103.864	19.807	8.773	0.492
1234.500	690.630	80.014	19.994	103.864	19.804	8.924	0.497
1235.000	690.906	80.014	19.995	103.864	19.804	8.941	0.516
1235.500	691.108	80.014	19.994	103.864	19.804	8.929	0.506
1236.000	691.369	80.013	19.995	103.863	19.804	8.969	0.470
1236.500	691.619	80.014	19.995	103.863	19.805	8.906	0.487
1237.000	691.865	80.014	19.994	103.864	19.804	8.950	0.504
1237.500	692.094	80.014	19.995	103.863	19.804	8.928	0.486
1238.000	692.351	80.014	19.994	103.863	19.802	9.111	0.481
1238.500	692.574	80.015	19.994	103.863	19.801	9.150	0.483
1239.001	692.846	80.015	19.995	103.863	19.806	8.797	0.487
1239.501	693.131	80.014	19.995	103.863	19.803	9.047	0.526
1240.000	693.374	80.015	19.994	103.863	19.801	9.188	0.542
1240.500	693.635	80.016	19.994	103.862	19.802	9.089	0.516
1241.000	693.883	80.015	19.994	103.862	19.800	9.260	0.506
1241.500	694.086	80.015	19.995	103.862	19.805	8.906	0.480
1242.000	694.353	80.014	19.994	103.862	19.803	9.038	0.460
1242.500	694.580	80.014	19.994	103.862	19.806	8.815	0.481
1243.000	694.857	80.014	19.994	103.862	19.802	9.109	0.499
1243.501	695.123	80.015	19.995	103.862	19.804	8.940	0.524
1244.001	695.367	80.015	19.994	103.863	19.806	8.848	0.527
1244.500	695.614	80.015	19.993	103.863	19.803	9.029	0.501
1245.000	695.881	80.015	19.994	103.863	19.804	8.943	0.502
1245.500	696.128	80.015	19.993	103.863	19.804	8.965	0.514
1246.000	696.385	80.016	19.993	103.862	19.804	8.975	0.510
1246.500	696.647	80.015	19.994	103.862	19.803	9.005	0.511
1247.000	696.874	80.015	19.994	103.862	19.802	9.083	0.503
1247.500	697.113	80.013	19.994	103.864	19.805	8.920	0.477
1248.000	697.393	80.014	19.993	103.865	19.803	9.003	0.493
1248.500	697.631	80.013	19.994	103.866	19.799	9.289	0.519
1249.000	697.874	80.016	19.994	103.867	19.801	9.180	0.500
1249.500	698.131	80.014	19.994	103.867	19.799	9.299	0.490
1250.001	698.368	80.013	19.995	103.865	19.803	9.055	0.497
1250.501	698.613	80.014	19.994	103.865	19.802	9.076	0.488
1251.000	698.886	80.016	19.994	103.864	19.800	9.245	0.500
1251.500	699.142	80.015	19.995	103.864	19.802	9.094	0.523
1252.001	699.395	80.014	19.994	103.867	19.801	9.206	0.519
1252.501	699.633	80.014	19.994	103.870	19.800	9.269	0.500
1253.000	699.904	80.014	19.993	103.873	19.799	9.319	0.500
1253.500	700.156	80.014	19.995	103.873	19.799	9.333	0.516
1254.000	700.402	80.015	19.995	103.872	19.797	9.460	0.510
1254.500	700.635	80.015	19.995	103.869	19.799	9.331	0.488
1255.001	700.880	80.017	19.995	103.866	19.802	9.128	0.479
1255.501	701.200	80.014	19.995	103.863	19.800	9.242	0.522
1256.000	701.447	80.014	19.995	103.863	19.803	9.039	0.566
1256.501	701.666	80.014	19.994	103.863	19.801	9.178	0.516
1257.001	701.914	80.013	19.994	103.863	19.802	9.099	0.466
1257.500	702.179	80.014	19.995	103.863	19.800	9.268	0.491
1258.000	702.404	80.015	19.995	103.863	19.801	9.211	0.502
1258.500	702.641	80.015	19.995	103.864	19.800	9.228	0.476
1259.000	702.932	80.013	19.994	103.864	19.799	9.308	0.495
1259.500	703.214	80.016	19.994	103.864	19.800	9.252	0.550
1260.000	703.460	80.015	19.994	103.863	19.801	9.150	0.550
1260.500	703.698	80.014	19.995	103.863	19.799	9.329	0.506
1261.000	703.944	80.014	19.995	103.862	19.797	9.486	0.484
1261.500	704.199	80.015	19.995	103.862	19.797	9.464	0.492
1262.000	704.466	80.015	19.995	103.861	19.800	9.275	0.511
1262.500	704.700	80.015	19.995	103.861	19.801	9.186	0.512
1263.001	704.967	80.015	19.995	103.862	19.801	9.168	0.501
1263.501	705.202	80.016	19.994	103.862	19.800	9.224	0.501
1264.000	705.441	80.016	19.995	103.863	19.802	9.109	0.488
1264.500	705.705	80.015	19.995	103.863	19.799	9.329	0.489
1265.001	705.990	80.014	19.994	103.864	19.800	9.272	0.526
1265.501	706.232	80.016	19.995	103.864	19.798	9.397	0.538
1266.000	706.394	80.016	19.994	103.865	19.799	9.337	0.465
1266.501	706.695	80.016	19.994	103.865	19.803	9.049	0.433
1267.001	706.960	80.015	19.994	103.866	19.803	9.021	0.514
1267.500	707.189	80.015	19.994	103.865	19.799	9.349	0.530
1268.000	707.464	80.015	19.995	103.870	19.802	9.128	0.499
1268.500	707.696	80.015	19.994	103.874	19.803	9.043	0.505
1269.000	707.977	80.015	19.994	103.875	19.800	9.285	0.510
1269.500	708.219	80.015	19.994	103.874	19.801	9.194	0.519
1270.000	708.481	80.014	19.994	103.873	19.799	9.291	0.514
1270.501	708.715	80.014	19.994	103.869	19.800	9.222	0.500
1271.001	708.956	80.014	19.994	103.865	19.801	9.194	0.485
1271.500	709.210	80.015	19.994	103.864	19.800	9.224	0.485
1272.000	709.528	80.015	19.995	103.865	19.801	9.166	0.534
1272.500	709.735	80.015	19.994	103.865	19.801	9.188	0.549
1273.000	709.996	80.015	19.995	103.865	19.801	9.145	0.496
1273.500	710.242	80.013	19.995	103.866	19.800	9.256	0.487
1274.000	710.487	80.013	19.994	103.866	19.802	9.131	0.499
1274.500	710.742	80.013	19.994	103.866	19.799	9.309	0.496
1275.000	710.958	80.013	19.994	103.866	19.799	9.297	0.485
1275.501	711.229	80.013	19.995	103.868	19.799	9.301	0.479
1276.001	711.476	80.014	19.994	103.868	19.800	9.272	0.503
1276.500	711.778	80.014	19.994	103.868	19.797	9.471	0.533
1277.000	711.990	80.015	19.994	103.868	19.799	9.338	0.531
1277.500	712.213	80.013	19.995	103.868	19.799	9.292	0.474
1278.000	712.506	80.013	19.993	103.866	19.797	9.437	0.476
1278.500	712.729	80.013	19.994	103.866	19.799	9.298	0.516
1279.000	713.000	80.013	19.993	103.866	19.801	9.185	0.505
1279.500	713.233	80.014	19.993	103.867	19.800	9.226	0.499
1280.000	713.495	80.013	19.993	103.867	19.800	9.266	0.499
1280.500	713.778	80.013	19.994	103.867	19.800	9.224	0.520
1281.000	713.994	80.012	19.994	103.867	19.801	9.206	0.522
1281.501	714.250	80.013	19.993	103.866	19.800	9.226	0.486
1282.001	714.538	80.012	19.993	103.865	19.800	9.278	0.508
1282.500	714.793	80.013	19.993	103.865	19.800	9.276	0.543
1283.000	715.004	80.013	19.994	103.867	19.798	9.367	0.505
1283.500	715.289	80.014	19.993	103.869	19.799	9.347	0.481
1284.001	715.507	80.014	19.992	103.870	19.798	9.389	0.499
1284.501	715.752	80.013	19.994	103.870	19.796	9.529	0.483
1285.000	716.028	80.013	19.993	103.870	19.794	9.680	0.493
1285.500	716.271	80.013	19.993	103.868	19.797	9.500	0.520
1286.000	716.535	80.014	19.994	103.867	19.796	9.570	0.513
1286.500	716.821	80.014	19.993	103.867	19.797	9.447	0.528
1287.001	717.044	80.014	19.994	103.868	19.798	9.422	0.529
1287.501	717.264	80.014	19.993	103.871	19.797	9.495	0.476
1288.000	717.576	80.014	19.993	103.873	19.797	9.493	0.487
1288.500	717.782	80.013	19.995	103.875	19.797	9.451	0.525
1289.000	718.027	80.013	19.994	103.876	19.799	9.324	0.485
1289.500	718.290	80.013	19.994	103.876	19.798	9.398	0.480
1290.000	718.542	80.013	19.994	103.874	19.795	9.633	0.511
1290.500	718.774	80.014	19.993	103.874	19.796	9.539	0.500
1291.000	719.040	80.013	19.993	103.871	19.797	9.491	0.491
1291.500	719.246	80.013	19.993	103.870	19.796	9.522	0.485
1292.000	719.512	80.013	19.993	103.870	19.797	9.488	0.472
1292.500	719.761	80.012	19.993	103.870	19.797	9.454	0.493
1293.000	719.990	80.014	19.993	103.870	19.796	9.532	0.497
1293.500	720.283	80.014	19.994	103.871	19.799	9.331	0.500
1294.000	720.535	80.014	19.993	103.871	19.797	9.439	0.533
1294.500	720.792	80.014	19.994	103.872	19.798	9.411	0.527
1295.000	721.031	80.014	19.994	103.874	19.796	9.568	0.503
1295.501	721.306	80.014	19.994	103.880	19.798	9.423	0.505
1296.001	721.525	80.013	19.994	103.885	19.799	9.341	0.504
1296.500	721.797	80.014	19.993	103.890	19.797	9.492	0.492
1297.001	722.035	80.013	19.993	103.893	19.797	9.442	0.500
1297.501	722.286	80.013	19.994	103.891	19.796	9.508	0.500
1298.001	722.536	80.014	19.994	103.888	19.795	9.613	0.495
1298.501	722.779	80.014	19.995	103.883	19.799	9.332	0.497
1299.000	723.036	80.014	19.994	103.880	19.797	9.447	0.497
1299.501	723.287	80.014	19.994	103.879	19.799	9.302	0.505
1300.001	723.564	80.014	19.995	103.881	19.799	9.358	0.518
1300.501	723.782	80.015	19.994	103.882	19.800	9.255	0.511
1301.001	724.036	80.014	19.994	103.883	19.797	9.448	0.484
1301.501	724.290	80.015	19.994	103.883	19.799	9.330	0.490
1302.001	724.565	80.014	19.994	103.879	19.797	9.447	0.518
1302.500	724.786	80.014	19.994	103.874	19.800	9.264	0.512
1303.000	725.032	80.014	19.994	103.870	19.799	9.290	0.482
1303.500	725.313	80.012	19.994	103.867	19.801	9.151	0.497
1304.000	725.549	80.014	19.994	103.865	19.797	9.434	0.522
1304.500	725.806	80.014	19.994	103.869	19.800	9.250	0.505
1305.000	726.050	80.013	19.994	103.873	19.798	9.365	0.497
1305.500	726.307	80.014	19.994	103.874	19.797	9.452	0.501
1306.000	726.591	80.012	19.994	103.873	19.800	9.259	0.521
1306.500	726.843	80.013	19.994	103.874	19.797	9.453	0.539
1307.000	727.100	80.014	19.994	103.871	19.800	9.248	0.523
1307.500	727.351	80.013	19.994	103.868	19.799	9.311	0.508
1308.000	727.611	80.013	19.993	103.866	19.798	9.429	0.510
1308.501	727.870	80.013	19.994	103.867	19.796	9.508	0.515
1309.001	728.133	80.013	19.994	103.868	19.795	9.634	0.520
1309.500	728.387	80.014	19.994	103.872	19.796	9.529	0.520
1310.000	728.647	80.014	19.994	103.874	19.799	9.350	0.515
1310.500	728.886	80.014	19.994	103.875	19.796	9.551	0.507
1311.000	729.141	80.014	19.994	103.877	19.798	9.366	0.497
1311.500	729.379	80.014	19.993	103.880	19.797	9.463	0.494
1312.001	729.653	80.013	19.993	103.882	19.796	9.544	0.503
1312.501	729.883	80.014	19.994	103.878	19.796	9.574	0.508
1313.000	730.139	80.012	19.993	103.878	19.793	9.729	0.495
1313.500	730.399	80.014	19.994	103.877	19.795	9.610	0.501
1314.001	730.661	80.015	19.995	103.878	19.793	9.781	0.519
1314.501	730.926	80.014	19.994	103.879	19.794	9.660	0.525
1315.000	731.157	80.013	19.995	103.885	19.795	9.628	0.512
1315.500	731.445	80.015	19.994	103.890	19.794	9.704	0.507
1316.000	731.678	80.014	19.994	103.890	19.795	9.625	0.520
1316.500	731.915	80.014	19.994	103.885	19.796	9.551	0.496
1317.000	732.170	80.014	19.993	103.878	19.795	9.620	0.482
1317.500	732.445	80.013	19.993	103.871	19.795	9.638	0.511
1318.000	732.670	80.015	19.993	103.868	19.795	9.590	0.515
1318.500	732.960	80.015	19.994	103.867	19.795	9.643	0.507
1319.000	733.197	80.016	19.993	103.868	19.788	10.090	0.521
1319.501	733.463	80.015	19.993	103.871	19.793	9.727	0.515
1320.001	733.708	80.016	19.993	103.875	19.793	9.761	0.507
1320.500	733.995	80.015	19.994	103.876	19.795	9.650	0.521
1321.000	734.219	80.016	19.994	103.876	19.793	9.769	0.522
1321.500	734.462	80.016	19.994	103.879	19.792	9.815	0.490
1322.000	734.712	80.015	19.993	103.879	19.793	9.753	0.480
1322.500	734.939	80.015	19.993	103.877	19.792	9.799	0.485
1323.000	735.200	80.016	19.994	103.876	19.794	9.662	0.483
1323.501	735.442	80.016	19.993	103.878	19.793	9.792	0.496
1324.001	735.727	80.017	19.993	103.873	19.792	9.872	0.515
1324.500	735.996	80.016	19.993	103.871	19.791	9.886	0.540
1325.000	736.214	80.016	19.993	103.874	19.795	9.626	0.520
1325.501	736.475	80.015	19.993	103.875	19.790	9.979	0.483
1326.001	736.699	80.015	19.994	103.877	19.791	9.931	0.482
1326.500	736.948	80.016	19.993	103.883	19.791	9.935	0.479
1327.000	737.199	80.016	19.994	103.886	19.788	10.157	0.487
1327.500	737.480	80.015	19.994	103.882	19.792	9.799	0.516
1328.000	737.687	80.016	19.994	103.881	19.792	9.865	0.510
1328.501	737.950	80.015	19.994	103.875	19.791	9.915	0.479
1329.001	738.238	80.015	19.994	103.870	19.790	9.947	0.511
1329.500	738.445	80.014	19.994	103.869	19.790	9.973	0.523
1330.000	738.734	80.014	19.993	103.873	19.788	10.112	0.496
1330.500	738.952	80.014	19.994	103.874	19.790	9.966	0.501
1331.000	739.252	80.015	19.994	103.876	19.788	10.162	0.512
1331.500	739.443	80.013	19.994	103.877	19.792	9.844	0.505
1332.000	739.713	80.014	19.994	103.877	19.789	10.088	0.476
1332.500	739.968	80.014	19.993	103.877	19.788	10.160	0.493
1333.000	740.220	80.014	19.995	103.879	19.788	10.097	0.516
1333.500	740.478	80.015	19.994	103.880	19.792	9.853	0.508
1334.000	740.672	80.014	19.995	103.885	19.789	10.060	0.481
1334.501	741.003	80.013	19.994	103.888	19.787	10.180	0.488
1335.001	741.188	80.015	19.994	103.892	19.790	9.989	0.520
1335.500	741.472	80.014	19.995	103.894	19.790	9.968	0.493
1336.000	741.684	80.014	19.994	103.897	19.792	9.841	0.483
1336.500	741.953	80.014	19.994	103.893	19.789	10.041	0.489
1337.000	742.236	80.013	19.994	103.890	19.790	9.983	0.517
1337.500	742.484	80.015	19.994	103.884	19.792	9.803	0.542
1338.000	742.700	80.013	19.995	103.881	19.793	9.768	0.497
1338.500	742.971	80.015	19.995	103.882	19.792	9.837	0.475
1339.000	743.218	80.014	19.993	103.885	19.790	9.998	0.502
1339.500	743.488	80.014	19.994	103.887	19.791	9.873	0.517
1340.000	743.700	80.014	19.995	103.890	19.786	10.307	0.500
