Sample ID:	C:\MCC\MCC Cal\Test\Bean_Bag_Chair_Beads_MCC_30K_min_220315_R2.txt
Sample Weight (mg):	4.73
Heating Rate (C/s):	0.5
Combustor Temp (C):	900
N2 Flow Rate (cc/min):	80
O2 Flow Rate (cc/min):	20
Calibration File:	C:\MCC\MCC Cal\Coeff1 JN10440_30_210304.txt.txt
T Correction Coefficients:	0	1.024463	0
Time Shift (s):	14
*
Time (s)	Temperature (C)	N2 flow rate (cc/min)	O2 flow rate (cc/min)	Flow Rate (cc/min)	Oxygen (%)	HRR (W/g)	Heating rate (C/s)
0.000	108.832	80.010	19.995	103.703	19.974	0.585	0.009
0.500	108.813	80.010	19.994	103.705	19.976	0.451	0.000
1.000	108.857	80.010	19.995	103.705	19.974	0.630	0.007
1.500	108.822	80.010	19.995	103.706	19.978	0.328	0.017
2.000	108.803	80.008	19.993	103.709	19.978	0.333	-0.023
2.500	108.815	80.010	19.995	103.709	19.973	0.671	-0.031
3.000	108.840	80.009	19.994	103.709	19.974	0.600	0.015
3.500	108.838	80.010	19.994	103.709	19.976	0.444	0.030
4.000	108.837	80.010	19.993	103.706	19.974	0.637	0.010
4.500	108.833	80.009	19.993	103.705	19.976	0.490	-0.004
5.000	108.830	80.010	19.994	103.705	19.978	0.341	-0.006
5.500	108.826	80.011	19.993	103.705	19.975	0.507	-0.007
6.000	108.844	80.010	19.993	103.705	19.975	0.539	0.004
6.500	108.813	80.010	19.994	103.707	19.977	0.390	0.001
7.000	108.819	80.011	19.995	103.708	19.976	0.488	-0.019
7.500	108.802	80.012	19.994	103.708	19.976	0.451	-0.018
8.000	108.835	80.011	19.994	103.708	19.979	0.248	0.003
8.500	108.809	80.009	19.993	103.709	19.975	0.535	0.011
9.000	108.822	80.010	19.994	103.714	19.973	0.703	-0.003
9.500	108.811	80.010	19.994	103.722	19.974	0.611	-0.006
10.000	108.771	80.011	19.994	103.735	19.974	0.611	-0.025
10.501	108.788	80.011	19.993	103.750	19.973	0.652	-0.037
11.001	108.794	80.012	19.993	103.763	19.973	0.645	0.000
11.501	108.787	80.011	19.994	103.766	19.967	1.074	0.011
12.001	108.791	80.012	19.994	103.770	19.969	0.955	-0.002
12.500	108.831	80.012	19.993	103.772	19.968	1.003	0.020
13.000	108.809	80.012	19.993	103.776	19.960	1.542	0.031
13.500	108.825	80.011	19.994	103.787	19.964	1.270	0.006
14.000	108.851	80.012	19.992	103.805	19.963	1.374	0.018
14.501	108.862	80.011	19.993	103.818	19.961	1.494	0.039
15.001	108.847	80.013	19.994	103.830	19.961	1.518	0.016
15.500	108.934	80.011	19.994	103.835	19.958	1.667	0.034
16.000	108.934	80.011	19.994	103.838	19.956	1.854	0.079
16.500	108.962	80.011	19.994	103.839	19.956	1.858	0.058
17.000	108.983	80.012	19.994	103.845	19.958	1.705	0.039
17.500	109.032	80.012	19.994	103.849	19.955	1.904	0.059
18.000	109.006	80.012	19.994	103.856	19.956	1.856	0.047
18.500	109.093	80.012	19.994	103.860	19.952	2.080	0.043
19.000	109.119	80.011	19.994	103.862	19.955	1.889	0.087
19.500	109.164	80.012	19.994	103.856	19.952	2.134	0.092
20.000	109.175	80.011	19.993	103.851	19.950	2.229	0.064
20.500	109.225	80.011	19.994	103.851	19.950	2.223	0.059
21.000	109.285	80.011	19.994	103.851	19.951	2.152	0.086
21.500	109.307	80.012	19.994	103.853	19.949	2.320	0.096
22.000	109.342	80.011	19.994	103.859	19.947	2.471	0.070
22.500	109.388	80.012	19.994	103.865	19.947	2.443	0.069
23.000	109.423	80.011	19.994	103.866	19.948	2.406	0.081
23.500	109.500	80.011	19.994	103.868	19.945	2.604	0.096
24.000	109.526	80.010	19.993	103.871	19.943	2.729	0.107
24.500	109.613	80.012	19.994	103.874	19.946	2.511	0.108
25.000	109.639	80.011	19.994	103.878	19.942	2.789	0.113
25.501	109.718	80.012	19.993	103.885	19.942	2.813	0.109
26.000	109.736	80.012	19.994	103.891	19.945	2.567	0.101
26.500	109.826	80.012	19.993	103.897	19.944	2.647	0.103
27.000	109.834	80.011	19.994	103.901	19.940	2.961	0.103
27.500	109.970	80.010	19.993	103.903	19.943	2.748	0.121
28.000	110.002	80.012	19.993	103.904	19.944	2.690	0.155
28.500	110.044	80.011	19.994	103.904	19.940	2.940	0.121
29.000	110.133	80.012	19.994	103.904	19.941	2.883	0.103
29.500	110.186	80.012	19.993	103.904	19.938	3.047	0.136
30.000	110.261	80.012	19.994	103.906	19.941	2.834	0.134
30.500	110.342	80.012	19.994	103.909	19.938	3.067	0.142
31.000	110.426	80.012	19.994	103.909	19.939	3.026	0.161
31.500	110.462	80.012	19.994	103.910	19.938	3.047	0.143
32.000	110.574	80.012	19.993	103.910	19.938	3.105	0.134
32.501	110.668	80.013	19.994	103.908	19.938	3.101	0.177
33.001	110.710	80.014	19.994	103.905	19.936	3.233	0.171
33.501	110.822	80.012	19.993	103.905	19.936	3.191	0.145
34.000	110.931	80.013	19.993	103.905	19.935	3.274	0.188
34.500	110.985	80.011	19.993	103.911	19.935	3.291	0.192
35.000	111.062	80.013	19.993	103.915	19.935	3.275	0.147
35.500	111.137	80.012	19.993	103.922	19.934	3.331	0.142
36.000	111.254	80.012	19.993	103.924	19.936	3.224	0.172
36.500	111.325	80.012	19.993	103.929	19.936	3.223	0.190
37.001	111.439	80.013	19.993	103.929	19.933	3.417	0.187
37.501	111.518	80.013	19.993	103.931	19.934	3.381	0.189
38.001	111.598	80.013	19.993	103.933	19.931	3.549	0.176
38.501	111.724	80.014	19.993	103.938	19.931	3.538	0.183
39.000	111.835	80.014	19.993	103.940	19.934	3.331	0.222
39.500	111.925	80.014	19.993	103.942	19.931	3.525	0.219
40.000	112.043	80.013	19.993	103.943	19.929	3.725	0.204
40.500	112.141	80.013	19.993	103.944	19.931	3.529	0.212
41.000	112.239	80.014	19.993	103.943	19.930	3.647	0.206
41.500	112.364	80.013	19.993	103.943	19.933	3.406	0.210
42.000	112.464	80.013	19.993	103.943	19.930	3.624	0.224
42.500	112.543	80.014	19.992	103.943	19.932	3.453	0.201
43.000	112.664	80.012	19.993	103.943	19.928	3.737	0.189
43.500	112.764	80.013	19.993	103.944	19.928	3.752	0.210
44.000	112.921	80.012	19.993	103.944	19.929	3.658	0.239
44.500	113.071	80.013	19.993	103.944	19.929	3.711	0.282
45.000	113.168	80.011	19.993	103.944	19.931	3.559	0.277
45.500	113.296	80.012	19.993	103.944	19.931	3.569	0.236
46.000	113.368	80.011	19.993	103.949	19.929	3.660	0.212
46.500	113.508	80.011	19.992	103.952	19.930	3.612	0.206
47.000	113.661	80.012	19.993	103.956	19.930	3.617	0.253
47.500	113.824	80.011	19.993	103.956	19.932	3.515	0.305
48.000	113.929	80.009	19.993	103.961	19.929	3.699	0.292
48.500	114.049	80.010	19.993	103.962	19.929	3.707	0.247
49.000	114.186	80.009	19.993	103.960	19.930	3.651	0.241
49.500	114.355	80.010	19.993	103.959	19.929	3.724	0.281
50.000	114.454	80.010	19.994	103.966	19.926	3.890	0.287
50.500	114.612	80.010	19.993	103.963	19.924	4.032	0.263
51.000	114.747	80.010	19.994	103.961	19.926	3.882	0.275
51.500	114.872	80.009	19.993	103.966	19.927	3.819	0.276
52.000	115.005	80.011	19.994	103.970	19.925	3.942	0.259
52.500	115.179	80.010	19.993	103.971	19.922	4.162	0.282
53.000	115.325	80.010	19.994	103.976	19.929	3.716	0.313
53.501	115.453	80.010	19.993	103.981	19.924	4.063	0.297
54.001	115.577	80.009	19.993	103.983	19.925	3.987	0.263
54.501	115.748	80.009	19.993	103.983	19.927	3.852	0.274
55.000	115.938	80.009	19.993	103.983	19.925	3.938	0.328
55.500	116.062	80.009	19.993	103.983	19.923	4.088	0.337
56.000	116.206	80.010	19.994	103.982	19.922	4.194	0.291
56.500	116.412	80.010	19.994	103.982	19.924	4.028	0.309
57.000	116.548	80.009	19.994	103.984	19.923	4.082	0.346
57.500	116.677	80.009	19.994	103.984	19.926	3.890	0.303
58.000	116.867	80.008	19.996	103.983	19.924	4.022	0.292
58.500	117.013	80.009	19.996	103.985	19.921	4.257	0.327
59.000	117.203	80.011	19.996	103.986	19.923	4.119	0.336
59.500	117.367	80.010	19.995	103.986	19.923	4.084	0.345
60.000	117.550	80.009	19.994	103.985	19.924	4.011	0.350
60.500	117.714	80.010	19.994	103.983	19.926	3.906	0.347
61.000	117.845	80.009	19.994	103.981	19.923	4.087	0.322
61.500	118.089	80.011	19.994	103.981	19.926	3.912	0.335
62.000	118.205	80.011	19.994	103.981	19.924	4.053	0.367
62.500	118.371	80.010	19.995	103.982	19.925	3.953	0.321
63.000	118.543	80.010	19.994	103.984	19.922	4.147	0.310
63.500	118.702	80.010	19.993	103.985	19.923	4.078	0.335
64.000	118.928	80.011	19.994	103.983	19.924	4.055	0.358
64.500	119.065	80.011	19.993	103.982	19.923	4.104	0.374
65.000	119.250	80.010	19.993	103.982	19.924	4.035	0.342
65.500	119.419	80.012	19.995	103.982	19.926	3.878	0.338
66.000	119.560	80.010	19.993	103.982	19.922	4.163	0.332
66.500	119.765	80.010	19.994	103.983	19.924	4.014	0.328
67.000	119.919	80.012	19.995	103.983	19.921	4.253	0.353
67.500	120.114	80.010	19.995	103.983	19.923	4.098	0.354
68.001	120.367	80.011	19.994	103.981	19.926	3.920	0.399
68.501	120.475	80.011	19.994	103.980	19.923	4.079	0.405
69.001	120.690	80.011	19.994	103.977	19.922	4.191	0.342
69.501	120.874	80.011	19.995	103.977	19.922	4.143	0.360
70.000	121.062	80.010	19.994	103.977	19.924	4.016	0.385
70.501	121.264	80.009	19.994	103.979	19.924	4.012	0.381
71.001	121.466	80.011	19.994	103.978	19.922	4.150	0.397
71.501	121.635	80.011	19.993	103.976	19.923	4.111	0.387
72.000	121.812	80.010	19.993	103.971	19.923	4.124	0.359
72.500	122.008	80.010	19.993	103.970	19.925	3.946	0.360
73.000	122.232	80.011	19.993	103.969	19.925	3.984	0.396
73.501	122.418	80.011	19.993	103.968	19.924	4.003	0.415
74.001	122.599	80.009	19.994	103.967	19.923	4.073	0.388
74.500	122.801	80.010	19.994	103.972	19.921	4.236	0.374
75.000	122.961	80.010	19.993	103.971	19.927	3.840	0.372
75.500	123.197	80.010	19.995	103.972	19.924	4.007	0.379
76.000	123.373	80.010	19.994	103.972	19.927	3.816	0.405
76.500	123.555	80.011	19.994	103.971	19.926	3.873	0.385
77.000	123.781	80.011	19.993	103.966	19.925	3.979	0.383
77.500	123.990	80.010	19.994	103.963	19.924	4.001	0.421
78.000	124.219	80.010	19.993	103.957	19.927	3.856	0.436
78.500	124.383	80.011	19.994	103.952	19.926	3.931	0.416
79.000	124.581	80.010	19.994	103.953	19.926	3.931	0.378
79.501	124.766	80.011	19.995	103.958	19.923	4.119	0.373
80.001	125.006	80.010	19.995	103.961	19.927	3.824	0.404
80.501	125.234	80.011	19.994	103.963	19.924	4.027	0.446
81.000	125.420	80.010	19.995	103.967	19.927	3.839	0.440
81.500	125.557	80.010	19.994	103.966	19.925	3.958	0.368
82.000	125.777	80.009	19.994	103.959	19.926	3.869	0.340
82.500	126.049	80.010	19.994	103.956	19.924	4.026	0.424
83.000	126.236	80.010	19.994	103.955	19.926	3.895	0.475
83.500	126.461	80.009	19.995	103.953	19.927	3.858	0.436
84.000	126.672	80.010	19.994	103.953	19.928	3.787	0.424
84.500	126.789	80.009	19.995	103.954	19.926	3.914	0.382
85.000	127.052	80.010	19.994	103.955	19.924	4.003	0.354
85.501	127.264	80.009	19.994	103.957	19.926	3.895	0.427
86.001	127.496	80.010	19.994	103.960	19.926	3.893	0.459
86.500	127.663	80.010	19.995	103.962	19.926	3.888	0.422
87.001	127.863	80.011	19.995	103.967	19.923	4.113	0.383
87.501	128.085	80.010	19.995	103.971	19.923	4.082	0.394
88.000	128.300	80.011	19.994	103.973	19.925	3.983	0.430
88.500	128.543	80.010	19.995	103.976	19.923	4.082	0.448
89.000	128.769	80.011	19.996	103.979	19.924	4.046	0.463
89.500	128.968	80.010	19.994	103.979	19.923	4.084	0.447
90.001	129.195	80.011	19.995	103.979	19.922	4.144	0.425
90.501	129.421	80.009	19.995	103.974	19.923	4.101	0.440
91.000	129.609	80.011	19.995	103.972	19.922	4.177	0.433
91.500	129.845	80.010	19.994	103.971	19.924	4.024	0.419
92.000	130.055	80.010	19.994	103.970	19.924	4.046	0.435
92.501	130.287	80.010	19.994	103.972	19.921	4.226	0.444
93.001	130.477	80.011	19.994	103.976	19.922	4.155	0.432
93.500	130.686	80.011	19.994	103.978	19.925	3.987	0.410
94.000	130.925	80.013	19.994	103.975	19.923	4.095	0.423
94.501	131.165	80.012	19.995	103.976	19.924	4.048	0.464
95.001	131.392	80.012	19.995	103.973	19.923	4.134	0.473
95.500	131.603	80.012	19.993	103.973	19.922	4.201	0.452
96.000	131.804	80.013	19.995	103.973	19.922	4.166	0.425
96.501	132.040	80.013	19.993	103.971	19.922	4.198	0.425
97.001	132.274	80.012	19.995	103.971	19.923	4.136	0.454
97.500	132.487	80.013	19.995	103.973	19.920	4.297	0.459
98.000	132.706	80.014	19.994	103.974	19.920	4.319	0.440
98.500	132.945	80.013	19.994	103.974	19.921	4.248	0.445
99.001	133.140	80.013	19.994	103.978	19.920	4.336	0.446
99.501	133.399	80.012	19.994	103.979	19.920	4.283	0.444
100.000	133.604	80.013	19.994	103.981	19.920	4.304	0.459
100.500	133.852	80.011	19.994	103.980	19.919	4.380	0.459
101.000	134.071	80.012	19.993	103.981	19.919	4.367	0.460
101.500	134.279	80.012	19.994	103.981	19.919	4.382	0.447
102.000	134.507	80.011	19.994	103.981	19.922	4.167	0.432
102.500	134.744	80.012	19.994	103.980	19.924	4.025	0.451
103.000	134.984	80.012	19.993	103.979	19.919	4.343	0.471
103.500	135.222	80.012	19.994	103.978	19.921	4.206	0.477
104.000	135.442	80.013	19.993	103.977	19.922	4.195	0.468
104.500	135.666	80.012	19.994	103.977	19.921	4.216	0.451
105.000	135.892	80.012	19.994	103.978	19.923	4.090	0.447
105.500	136.130	80.012	19.993	103.980	19.923	4.124	0.457
106.000	136.356	80.012	19.993	103.979	19.923	4.111	0.464
106.500	136.583	80.013	19.993	103.979	19.922	4.154	0.458
107.000	136.806	80.011	19.994	103.978	19.922	4.154	0.452
107.500	137.041	80.012	19.994	103.978	19.921	4.266	0.454
108.001	137.324	80.011	19.994	103.978	19.922	4.154	0.488
108.501	137.521	80.011	19.993	103.980	19.921	4.229	0.499
109.000	137.757	80.012	19.993	103.981	19.922	4.149	0.457
109.501	137.983	80.012	19.994	103.980	19.925	3.998	0.447
110.001	138.246	80.012	19.994	103.980	19.925	3.992	0.476
110.500	138.458	80.011	19.993	103.980	19.922	4.165	0.482
111.000	138.709	80.012	19.993	103.978	19.923	4.070	0.469
111.500	138.924	80.012	19.993	103.976	19.922	4.199	0.465
112.000	139.140	80.012	19.993	103.973	19.921	4.260	0.448
112.500	139.383	80.012	19.992	103.970	19.922	4.171	0.445
113.000	139.628	80.011	19.993	103.968	19.923	4.123	0.474
113.500	139.864	80.012	19.993	103.968	19.918	4.470	0.485
114.000	140.118	80.010	19.993	103.965	19.919	4.405	0.485
114.500	140.335	80.012	19.994	103.966	19.922	4.196	0.480
115.001	140.554	80.010	19.994	103.964	19.917	4.492	0.453
115.501	140.857	80.011	19.993	103.962	19.918	4.412	0.479
116.001	141.057	80.012	19.992	103.958	19.921	4.218	0.513
116.500	141.336	80.011	19.994	103.954	19.916	4.578	0.491
117.000	141.546	80.013	19.993	103.954	19.916	4.599	0.484
117.500	141.796	80.011	19.994	103.954	19.917	4.483	0.474
118.000	142.030	80.013	19.994	103.955	19.920	4.328	0.472
118.501	142.299	80.011	19.993	103.961	19.914	4.709	0.494
119.001	142.523	80.012	19.992	103.968	19.917	4.496	0.498
119.500	142.767	80.012	19.993	103.971	19.919	4.371	0.480
120.000	142.984	80.012	19.994	103.973	19.920	4.322	0.465
120.500	143.232	80.012	19.993	103.975	19.921	4.208	0.463
121.000	143.534	80.012	19.994	103.974	19.919	4.367	0.508
121.501	143.745	80.012	19.993	103.969	19.919	4.395	0.532
122.001	143.975	80.012	19.992	103.966	19.917	4.484	0.477
122.500	144.227	80.013	19.993	103.966	19.917	4.514	0.461
123.000	144.464	80.012	19.993	103.966	19.921	4.251	0.486
123.500	144.730	80.012	19.993	103.966	19.917	4.501	0.496
124.000	144.981	80.013	19.993	103.972	19.921	4.261	0.510
124.500	145.225	80.013	19.993	103.976	19.919	4.352	0.506
125.000	145.449	80.012	19.993	103.977	19.922	4.151	0.482
125.500	145.723	80.012	19.993	103.979	19.920	4.326	0.483
126.000	145.951	80.011	19.992	103.978	19.921	4.274	0.500
126.500	146.187	80.011	19.994	103.975	19.916	4.604	0.483
127.000	146.400	80.012	19.994	103.973	19.917	4.515	0.457
127.500	146.638	80.012	19.993	103.975	19.921	4.220	0.450
128.000	146.871	80.011	19.993	103.974	19.919	4.389	0.461
128.500	147.136	80.011	19.994	103.975	19.919	4.406	0.485
129.000	147.364	80.012	19.993	103.975	19.920	4.340	0.495
129.500	147.585	80.013	19.994	103.973	19.921	4.206	0.471
130.000	147.872	80.012	19.994	103.971	19.917	4.502	0.479
130.500	148.116	80.012	19.993	103.970	19.917	4.519	0.519
131.000	148.332	80.011	19.993	103.968	19.917	4.519	0.496
131.500	148.610	80.011	19.994	103.967	19.917	4.534	0.477
132.000	148.862	80.013	19.994	103.968	19.918	4.477	0.512
132.500	149.091	80.011	19.993	103.965	19.917	4.514	0.506
133.000	149.370	80.011	19.993	103.962	19.917	4.505	0.494
133.500	149.649	80.011	19.993	103.962	19.918	4.411	0.533
134.000	149.859	80.011	19.993	103.966	19.918	4.413	0.524
134.500	150.129	80.011	19.994	103.969	19.916	4.569	0.485
135.000	150.359	80.011	19.993	103.972	19.915	4.683	0.490
135.500	150.630	80.010	19.994	103.977	19.917	4.511	0.500
136.000	150.875	80.011	19.993	103.978	19.915	4.633	0.509
136.500	151.113	80.011	19.993	103.979	19.918	4.467	0.500
137.000	151.370	80.011	19.994	103.978	19.917	4.513	0.489
137.500	151.610	80.011	19.994	103.978	19.915	4.670	0.496
138.000	151.862	80.011	19.993	103.974	19.917	4.485	0.495
138.500	152.104	80.010	19.994	103.972	19.913	4.773	0.493
139.000	152.346	80.011	19.993	103.968	19.916	4.586	0.489
139.500	152.639	80.011	19.994	103.962	19.919	4.368	0.510
140.000	152.876	80.011	19.993	103.955	19.916	4.566	0.533
140.500	153.098	80.010	19.993	103.952	19.918	4.459	0.495
141.000	153.372	80.010	19.994	103.949	19.916	4.571	0.477
141.500	153.586	80.012	19.993	103.948	19.919	4.370	0.492
142.000	153.833	80.011	19.993	103.955	19.918	4.441	0.474
142.500	154.071	80.012	19.994	103.958	19.917	4.547	0.473
143.000	154.336	80.011	19.994	103.962	19.916	4.577	0.494
143.500	154.552	80.012	19.993	103.960	19.916	4.583	0.491
144.000	154.824	80.011	19.993	103.958	19.915	4.638	0.484
144.500	155.055	80.011	19.994	103.951	19.916	4.573	0.496
145.000	155.309	80.012	19.993	103.947	19.917	4.508	0.494
145.500	155.505	80.011	19.995	103.943	19.920	4.325	0.468
146.000	155.759	80.011	19.994	103.942	19.917	4.506	0.450
146.500	156.012	80.011	19.994	103.942	19.918	4.416	0.479
147.000	156.298	80.011	19.993	103.942	19.916	4.584	0.523
147.500	156.517	80.011	19.993	103.942	19.913	4.802	0.522
148.000	156.777	80.011	19.993	103.943	19.916	4.606	0.492
148.500	157.064	80.012	19.994	103.942	19.915	4.623	0.513
149.000	157.267	80.012	19.994	103.942	19.916	4.608	0.519
149.500	157.535	80.011	19.993	103.942	19.914	4.703	0.481
150.000	157.756	80.011	19.993	103.942	19.915	4.681	0.479
150.500	158.025	80.010	19.993	103.944	19.915	4.633	0.489
151.000	158.254	80.011	19.993	103.946	19.915	4.624	0.494
151.500	158.518	80.011	19.994	103.947	19.915	4.639	0.496
152.000	158.770	80.011	19.993	103.947	19.916	4.588	0.505
152.500	158.992	80.011	19.993	103.952	19.914	4.710	0.495
153.000	159.295	80.009	19.993	103.951	19.917	4.504	0.499
153.500	159.491	80.010	19.993	103.950	19.916	4.584	0.512
154.000	159.761	80.011	19.993	103.949	19.917	4.530	0.483
154.500	160.025	80.010	19.994	103.947	19.915	4.649	0.500
155.000	160.294	80.011	19.994	103.941	19.918	4.422	0.533
155.500	160.510	80.011	19.994	103.940	19.917	4.489	0.509
156.000	160.789	80.012	19.994	103.941	19.914	4.703	0.490
156.500	161.012	80.012	19.995	103.941	19.917	4.506	0.499
157.000	161.262	80.011	19.994	103.942	19.918	4.431	0.487
157.500	161.481	80.012	19.995	103.943	19.916	4.562	0.470
158.000	161.787	80.010	19.993	103.942	19.916	4.573	0.497
158.500	161.982	80.011	19.995	103.941	19.916	4.562	0.513
159.000	162.238	80.011	19.994	103.941	19.919	4.396	0.476
159.500	162.495	80.010	19.993	103.940	19.916	4.580	0.482
160.000	162.744	80.011	19.994	103.938	19.917	4.494	0.510
160.500	162.971	80.011	19.994	103.938	19.915	4.661	0.491
161.000	163.208	80.011	19.995	103.938	19.915	4.677	0.470
161.500	163.484	80.009	19.994	103.943	19.918	4.466	0.489
162.000	163.732	80.009	19.994	103.948	19.917	4.500	0.519
162.500	163.986	80.010	19.994	103.950	19.918	4.432	0.513
163.000	164.245	80.012	19.995	103.950	19.916	4.570	0.507
163.500	164.478	80.011	19.994	103.950	19.916	4.563	0.503
164.000	164.737	80.010	19.994	103.945	19.918	4.468	0.493
164.500	164.988	80.011	19.995	103.939	19.918	4.460	0.501
165.000	165.255	80.010	19.994	103.937	19.917	4.490	0.514
165.500	165.504	80.010	19.994	103.935	19.920	4.332	0.517
166.000	165.743	80.009	19.994	103.936	19.916	4.571	0.502
166.500	166.004	80.011	19.994	103.937	19.918	4.451	0.495
167.000	166.278	80.011	19.994	103.940	19.917	4.491	0.518
167.500	166.521	80.010	19.994	103.941	19.919	4.394	0.526
168.000	166.777	80.009	19.995	103.943	19.916	4.612	0.508
168.500	167.019	80.009	19.994	103.943	19.916	4.565	0.499
169.000	167.319	80.010	19.995	103.942	19.914	4.684	0.520
169.500	167.506	80.009	19.994	103.941	19.917	4.488	0.514
170.000	167.769	80.011	19.994	103.941	19.917	4.485	0.468
170.500	168.050	80.010	19.994	103.939	19.918	4.474	0.497
171.000	168.273	80.011	19.994	103.938	19.917	4.498	0.524
171.500	168.506	80.010	19.994	103.940	19.917	4.487	0.480
172.000	168.782	80.011	19.994	103.937	19.912	4.884	0.483
172.500	169.028	80.011	19.994	103.934	19.914	4.687	0.515
173.000	169.288	80.011	19.994	103.932	19.918	4.431	0.513
173.500	169.535	80.011	19.994	103.927	19.916	4.569	0.506
174.000	169.779	80.010	19.995	103.923	19.917	4.517	0.500
174.500	170.016	80.010	19.993	103.926	19.918	4.431	0.486
175.000	170.281	80.011	19.994	103.927	19.916	4.608	0.491
175.500	170.502	80.011	19.994	103.929	19.919	4.409	0.494
176.000	170.776	80.011	19.994	103.931	19.920	4.280	0.491
176.500	171.016	80.011	19.994	103.932	19.917	4.537	0.504
177.000	171.266	80.012	19.993	103.933	19.920	4.289	0.502
177.500	171.542	80.012	19.994	103.935	19.920	4.317	0.508
178.000	171.804	80.012	19.993	103.938	19.919	4.389	0.532
178.500	172.032	80.012	19.994	103.934	19.917	4.529	0.514
179.000	172.294	80.012	19.994	103.931	19.915	4.637	0.490
179.500	172.494	80.013	19.994	103.926	19.919	4.365	0.477
180.000	172.747	80.012	19.994	103.925	19.920	4.322	0.458
180.500	173.012	80.013	19.994	103.923	19.920	4.338	0.485
181.000	173.272	80.011	19.994	103.928	19.921	4.243	0.521
181.500	173.504	80.012	19.994	103.933	19.921	4.226	0.509
182.000	173.787	80.012	19.994	103.936	19.917	4.489	0.503
182.500	174.015	80.013	19.994	103.935	19.916	4.600	0.513
183.000	174.264	80.012	19.994	103.937	19.914	4.729	0.494
183.500	174.519	80.012	19.995	103.940	19.917	4.534	0.491
184.000	174.746	80.011	19.995	103.942	19.918	4.428	0.493
184.500	175.043	80.013	19.994	103.943	19.919	4.372	0.503
185.000	175.238	80.012	19.995	103.945	19.919	4.354	0.508
185.500	175.497	80.012	19.994	103.943	19.919	4.358	0.473
186.000	175.730	80.010	19.993	103.943	19.919	4.395	0.473
186.500	176.007	80.012	19.996	103.940	19.918	4.412	0.501
187.000	176.244	80.012	19.996	103.939	19.917	4.506	0.512
187.500	176.498	80.011	19.995	103.934	19.918	4.461	0.503
188.000	176.762	80.011	19.995	103.928	19.917	4.500	0.505
188.500	177.020	80.010	19.995	103.927	19.918	4.438	0.520
189.000	177.276	80.010	19.995	103.926	19.922	4.143	0.518
189.500	177.504	80.011	19.994	103.922	19.918	4.452	0.499
190.000	177.756	80.011	19.994	103.923	19.918	4.460	0.482
190.500	178.026	80.010	19.994	103.929	19.919	4.381	0.501
191.000	178.255	80.011	19.994	103.930	19.919	4.376	0.510
191.500	178.502	80.011	19.994	103.933	19.921	4.221	0.487
192.000	178.776	80.011	19.995	103.938	19.920	4.301	0.498
192.500	178.982	80.010	19.994	103.937	19.918	4.449	0.501
193.000	179.225	80.010	19.994	103.932	19.918	4.469	0.465
193.500	179.460	80.011	19.995	103.924	19.920	4.334	0.464
194.000	179.731	80.011	19.995	103.917	19.920	4.323	0.492
194.500	180.021	80.011	19.995	103.912	19.919	4.373	0.533
195.000	180.251	80.010	19.995	103.912	19.919	4.360	0.540
195.500	180.477	80.010	19.994	103.916	19.919	4.387	0.488
196.000	180.776	80.010	19.994	103.923	19.922	4.162	0.490
196.500	180.970	80.011	19.994	103.930	19.921	4.270	0.509
197.000	181.228	80.011	19.995	103.935	19.920	4.316	0.472
197.500	181.514	80.012	19.994	103.938	19.923	4.116	0.498
198.000	181.743	80.012	19.995	103.940	19.923	4.107	0.530
198.500	181.982	80.013	19.995	103.935	19.924	4.017	0.492
199.000	182.266	80.012	19.994	103.931	19.919	4.398	0.496
199.500	182.513	80.013	19.993	103.926	19.921	4.258	0.527
200.000	182.781	80.012	19.993	103.922	19.923	4.096	0.522
200.500	182.984	80.012	19.994	103.916	19.918	4.432	0.492
201.000	183.228	80.012	19.993	103.913	19.919	4.375	0.459
201.500	183.503	80.013	19.994	103.913	19.915	4.625	0.484
202.000	183.693	80.013	19.992	103.912	19.917	4.500	0.492
202.500	183.964	80.012	19.994	103.910	19.919	4.380	0.463
203.000	184.217	80.013	19.993	103.911	19.922	4.199	0.492
203.500	184.466	80.013	19.993	103.917	19.920	4.285	0.513
204.000	184.724	80.013	19.993	103.920	19.916	4.566	0.504
204.500	184.949	80.013	19.994	103.926	19.921	4.236	0.495
205.000	185.228	80.012	19.993	103.933	19.919	4.385	0.494
205.500	185.484	80.014	19.993	103.934	19.925	3.971	0.520
206.000	185.746	80.014	19.993	103.929	19.920	4.322	0.527
206.500	185.968	80.014	19.993	103.924	19.918	4.436	0.501
207.000	186.262	80.014	19.993	103.919	19.923	4.109	0.500
207.500	186.518	80.014	19.993	103.914	19.921	4.231	0.533
208.000	186.723	80.014	19.993	103.911	19.918	4.413	0.506
208.500	186.996	80.015	19.994	103.910	19.921	4.247	0.469
209.000	187.218	80.014	19.994	103.907	19.922	4.173	0.486
209.500	187.496	80.014	19.994	103.906	19.923	4.118	0.498
210.000	187.762	80.012	19.993	103.908	19.921	4.253	0.522
210.500	187.999	80.014	19.992	103.914	19.921	4.234	0.523
211.000	188.252	80.013	19.993	103.920	19.921	4.269	0.497
211.500	188.504	80.013	19.993	103.924	19.920	4.316	0.498
212.000	188.765	80.013	19.993	103.931	19.920	4.281	0.509
212.500	188.979	80.013	19.993	103.934	19.921	4.266	0.494
213.000	189.213	80.013	19.993	103.931	19.917	4.490	0.461
213.500	189.455	80.012	19.994	103.927	19.921	4.212	0.462
214.000	189.736	80.012	19.993	103.928	19.920	4.282	0.499
214.500	189.968	80.012	19.992	103.922	19.922	4.168	0.518
215.000	190.181	80.012	19.994	103.914	19.921	4.208	0.479
215.500	190.448	80.011	19.995	103.912	19.917	4.536	0.463
216.000	190.681	80.011	19.994	103.914	19.919	4.378	0.490
216.500	190.910	80.011	19.994	103.912	19.920	4.305	0.481
217.000	191.187	80.010	19.993	103.917	19.921	4.271	0.484
217.500	191.385	80.010	19.993	103.919	19.924	4.059	0.490
218.000	191.642	80.010	19.992	103.920	19.923	4.103	0.465
218.500	191.918	80.010	19.994	103.918	19.919	4.351	0.494
219.000	192.161	80.011	19.994	103.917	19.921	4.246	0.526
219.500	192.398	80.009	19.995	103.915	19.918	4.420	0.499
220.000	192.667	80.011	19.993	103.913	19.921	4.222	0.492
220.500	192.874	80.010	19.994	103.911	19.922	4.189	0.491
221.000	193.138	80.011	19.995	103.909	19.917	4.532	0.474
221.500	193.358	80.010	19.994	103.911	19.917	4.530	0.477
222.000	193.618	80.012	19.995	103.909	19.920	4.290	0.482
222.500	193.874	80.011	19.995	103.910	19.918	4.448	0.498
223.000	194.119	80.010	19.995	103.914	19.915	4.628	0.508
223.500	194.376	80.011	19.994	103.915	19.921	4.244	0.502
224.000	194.601	80.010	19.994	103.913	19.918	4.425	0.493
224.500	194.871	80.012	19.995	103.910	19.919	4.393	0.489
225.000	195.128	80.012	19.993	103.910	19.922	4.156	0.511
225.500	195.339	80.011	19.995	103.905	19.916	4.594	0.498
226.000	195.561	80.011	19.993	103.905	19.917	4.482	0.450
226.500	195.825	80.010	19.995	103.908	19.918	4.445	0.459
227.000	196.083	80.011	19.994	103.913	19.916	4.573	0.504
227.500	196.292	80.011	19.993	103.913	19.916	4.560	0.495
228.000	196.525	80.010	19.994	103.913	19.917	4.510	0.454
228.500	196.811	80.011	19.993	103.910	19.916	4.556	0.480
229.000	197.029	80.010	19.994	103.902	19.915	4.640	0.511
229.500	197.269	80.011	19.994	103.898	19.918	4.454	0.481
230.000	197.547	80.013	19.994	103.897	19.915	4.637	0.488
230.500	197.784	80.011	19.993	103.898	19.919	4.357	0.517
231.000	198.048	80.011	19.994	103.901	19.916	4.562	0.508
231.500	198.303	80.011	19.993	103.905	19.918	4.426	0.510
232.000	198.565	80.011	19.994	103.905	19.917	4.500	0.518
232.500	198.766	80.011	19.993	103.905	19.918	4.430	0.490
233.000	199.014	80.012	19.993	103.907	19.921	4.224	0.456
233.500	199.252	80.011	19.993	103.910	19.918	4.409	0.468
234.000	199.513	80.011	19.992	103.914	19.918	4.418	0.492
234.500	199.778	80.011	19.994	103.918	19.916	4.583	0.512
235.000	200.015	80.011	19.993	103.920	19.916	4.592	0.514
235.500	200.169	80.011	19.993	103.919	19.915	4.657	0.446
236.000	200.482	80.012	19.993	103.915	19.915	4.614	0.429
236.500	200.692	80.011	19.993	103.911	19.914	4.722	0.495
237.000	200.956	80.011	19.993	103.907	19.914	4.747	0.498
237.500	201.210	80.011	19.993	103.906	19.916	4.555	0.496
238.000	201.447	80.011	19.993	103.906	19.917	4.510	0.505
238.500	201.722	80.011	19.993	103.906	19.916	4.590	0.501
239.000	201.941	80.012	19.993	103.907	19.918	4.473	0.503
239.500	202.149	80.009	19.992	103.907	19.917	4.512	0.461
240.000	202.413	80.010	19.993	103.906	19.913	4.784	0.450
240.500	202.661	80.012	19.994	103.905	19.922	4.182	0.492
241.000	202.865	80.011	19.993	103.905	19.919	4.366	0.481
241.500	203.122	80.011	19.994	103.904	19.915	4.680	0.457
242.000	203.402	80.010	19.994	103.905	19.916	4.571	0.499
242.500	203.647	80.011	19.993	103.905	19.917	4.519	0.531
243.000	203.868	80.011	19.993	103.906	19.918	4.441	0.495
243.500	204.094	80.010	19.994	103.906	19.917	4.504	0.456
244.000	204.339	80.011	19.993	103.906	19.915	4.665	0.459
244.500	204.621	80.009	19.993	103.906	19.917	4.532	0.499
245.000	204.825	80.010	19.994	103.906	19.917	4.506	0.506
245.500	205.103	80.011	19.993	103.906	19.918	4.420	0.484
246.000	205.325	80.009	19.992	103.907	19.920	4.316	0.491
246.500	205.582	80.010	19.994	103.907	19.919	4.378	0.490
247.000	205.822	80.010	19.994	103.906	19.917	4.497	0.489
247.500	206.058	80.009	19.994	103.906	19.917	4.525	0.487
248.000	206.268	80.011	19.995	103.907	19.918	4.475	0.460
248.500	206.497	80.010	19.993	103.908	19.919	4.396	0.442
249.000	206.798	80.009	19.995	103.908	19.917	4.493	0.485
249.500	207.040	80.010	19.993	103.909	19.920	4.331	0.537
250.000	207.263	80.009	19.994	103.910	19.919	4.398	0.504
250.500	207.552	80.010	19.994	103.908	19.919	4.375	0.488
251.000	207.743	80.010	19.994	103.907	19.918	4.416	0.496
251.500	208.007	80.010	19.994	103.908	19.916	4.570	0.467
252.000	208.274	80.011	19.994	103.906	19.918	4.426	0.493
252.500	208.527	80.009	19.995	103.906	19.918	4.453	0.526
253.000	208.753	80.010	19.994	103.906	19.915	4.625	0.499
253.500	209.022	80.010	19.995	103.907	19.917	4.512	0.487
254.000	209.303	80.009	19.995	103.907	19.917	4.479	0.522
254.500	209.521	80.011	19.994	103.907	19.913	4.774	0.524
255.000	209.758	80.009	19.995	103.906	19.912	4.848	0.477
255.500	209.995	80.009	19.994	103.906	19.912	4.872	0.465
256.000	210.229	80.009	19.994	103.907	19.913	4.777	0.472
256.500	210.487	80.010	19.994	103.910	19.913	4.820	0.481
257.000	210.726	80.010	19.994	103.911	19.913	4.781	0.494
257.500	210.976	80.009	19.994	103.911	19.915	4.655	0.494
258.000	211.230	80.011	19.994	103.912	19.913	4.810	0.497
258.500	211.432	80.011	19.994	103.911	19.914	4.741	0.480
259.000	211.713	80.011	19.994	103.909	19.916	4.586	0.470
259.500	211.988	80.011	19.995	103.908	19.913	4.780	0.519
260.000	212.199	80.010	19.994	103.908	19.914	4.691	0.521
260.500	212.452	80.012	19.994	103.908	19.915	4.681	0.475
261.000	212.756	80.011	19.994	103.909	19.915	4.674	0.510
261.500	212.923	80.011	19.995	103.904	19.914	4.741	0.514
262.000	213.170	80.010	19.993	103.887	19.914	4.748	0.443
262.500	213.450	80.011	19.995	103.870	19.914	4.717	0.470
263.000	213.668	80.011	19.994	103.858	19.911	4.894	0.512
263.500	213.881	80.012	19.994	103.848	19.913	4.776	0.465
264.000	214.184	80.012	19.994	103.845	19.912	4.871	0.474
264.500	214.408	80.012	19.993	103.860	19.912	4.858	0.521
265.000	214.662	80.013	19.994	103.881	19.914	4.716	0.503
265.500	214.897	80.012	19.993	103.925	19.916	4.582	0.484
266.000	215.108	80.012	19.995	103.951	19.916	4.576	0.468
266.500	215.398	80.012	19.994	103.963	19.915	4.658	0.473
267.000	215.612	80.012	19.994	103.964	19.915	4.670	0.502
267.500	215.848	80.012	19.994	103.960	19.913	4.752	0.477
268.000	216.109	80.013	19.994	103.927	19.915	4.664	0.474
268.500	216.345	80.013	19.995	103.908	19.917	4.530	0.497
269.000	216.579	80.013	19.994	103.903	19.913	4.816	0.484
269.500	216.810	80.013	19.994	103.902	19.913	4.778	0.467
270.000	217.056	80.012	19.994	103.901	19.915	4.653	0.471
270.500	217.268	80.011	19.993	103.901	19.913	4.784	0.467
271.000	217.544	80.012	19.993	103.901	19.913	4.778	0.473
271.500	217.808	80.013	19.994	103.900	19.914	4.711	0.514
272.000	218.042	80.012	19.994	103.901	19.914	4.745	0.519
272.500	218.289	80.013	19.994	103.901	19.913	4.774	0.489
273.000	218.516	80.013	19.993	103.901	19.911	4.894	0.477
273.500	218.764	80.011	19.995	103.900	19.912	4.858	0.474
274.000	218.954	80.013	19.994	103.901	19.910	4.966	0.456
274.500	219.263	80.011	19.994	103.901	19.912	4.875	0.469
275.000	219.490	80.014	19.995	103.901	19.913	4.776	0.518
275.500	219.743	80.011	19.993	103.896	19.911	4.925	0.508
276.000	220.003	80.012	19.994	103.894	19.913	4.784	0.497
276.500	220.231	80.010	19.994	103.891	19.912	4.853	0.501
277.000	220.484	80.012	19.994	103.891	19.911	4.908	0.484
277.500	220.749	80.012	19.995	103.891	19.910	5.005	0.499
278.000	220.950	80.011	19.994	103.896	19.914	4.740	0.492
278.500	221.196	80.011	19.994	103.899	19.909	5.042	0.457
279.000	221.444	80.013	19.993	103.901	19.910	5.011	0.471
279.500	221.678	80.012	19.993	103.901	19.910	5.011	0.488
280.000	221.924	80.011	19.995	103.902	19.911	4.944	0.481
280.500	222.185	80.012	19.994	103.902	19.910	4.998	0.494
281.000	222.450	80.012	19.994	103.902	19.911	4.935	0.516
281.500	222.676	80.012	19.994	103.903	19.912	4.825	0.508
282.000	222.953	80.013	19.994	103.903	19.908	5.147	0.497
282.500	223.190	80.012	19.995	103.903	19.908	5.134	0.509
283.000	223.437	80.012	19.994	103.899	19.909	5.030	0.499
283.500	223.660	80.012	19.994	103.897	19.906	5.270	0.477
284.000	223.949	80.012	19.995	103.897	19.908	5.151	0.491
284.500	224.187	80.012	19.994	103.892	19.911	4.929	0.519
285.000	224.409	80.013	19.995	103.888	19.910	4.979	0.493
285.500	224.646	80.013	19.994	103.891	19.909	5.074	0.460
286.000	224.873	80.012	19.995	103.893	19.907	5.214	0.462
286.500	225.123	80.013	19.995	103.893	19.910	5.015	0.470
287.000	225.370	80.012	19.994	103.895	19.907	5.215	0.487
287.500	225.580	80.011	19.994	103.898	19.908	5.149	0.477
288.000	225.872	80.014	19.994	103.894	19.910	5.011	0.480
288.500	226.085	80.012	19.994	103.888	19.907	5.167	0.504
289.000	226.351	80.012	19.995	103.887	19.911	4.912	0.492
289.500	226.599	80.012	19.994	103.888	19.905	5.305	0.496
290.000	226.835	80.012	19.995	103.889	19.911	4.923	0.499
290.500	227.064	80.011	19.994	103.893	19.909	5.033	0.474
291.000	227.331	80.012	19.994	103.899	19.910	4.981	0.481
291.500	227.623	80.013	19.994	103.900	19.906	5.276	0.528
292.000	227.800	80.013	19.994	103.899	19.905	5.304	0.514
292.500	228.118	80.012	19.994	103.897	19.912	4.877	0.482
293.000	228.285	80.013	19.995	103.897	19.907	5.200	0.490
293.500	228.510	80.013	19.994	103.897	19.910	5.011	0.439
294.000	228.785	80.013	19.994	103.896	19.911	4.890	0.446
294.500	229.034	80.013	19.994	103.893	19.908	5.151	0.512
295.000	229.340	80.013	19.994	103.894	19.910	4.985	0.540
295.500	229.593	80.013	19.994	103.892	19.906	5.290	0.557
296.000	229.811	80.012	19.995	103.892	19.910	4.984	0.514
296.500	230.047	80.012	19.994	103.892	19.908	5.134	0.462
297.000	230.269	80.012	19.994	103.897	19.908	5.158	0.456
297.500	230.545	80.011	19.993	103.899	19.911	4.940	0.479
298.000	230.824	80.012	19.994	103.900	19.909	5.087	0.527
298.500	231.063	80.011	19.994	103.896	19.909	5.031	0.536
299.000	231.301	80.011	19.995	103.891	19.910	4.969	0.497
299.500	231.546	80.012	19.994	103.888	19.909	5.038	0.480
300.000	231.755	80.011	19.995	103.887	19.908	5.119	0.469
300.500	232.059	80.011	19.995	103.887	19.907	5.218	0.484
301.000	232.255	80.011	19.994	103.889	19.905	5.300	0.506
301.500	232.580	80.010	19.994	103.894	19.908	5.112	0.511
302.000	232.731	80.011	19.993	103.896	19.906	5.237	0.498
302.500	233.052	80.011	19.994	103.895	19.906	5.261	0.474
303.000	233.338	80.010	19.994	103.897	19.906	5.276	0.539
303.500	233.389	80.010	19.993	103.898	19.906	5.268	0.472
304.000	233.967	80.011	19.993	103.901	19.908	5.158	0.483
304.500	233.905	80.012	19.994	103.902	19.908	5.147	0.572
305.000	234.378	80.011	19.994	103.898	19.905	5.344	0.464
305.500	234.631	80.010	19.993	103.895	19.904	5.371	0.569
306.000	234.625	80.009	19.993	103.891	19.902	5.542	0.487
306.500	235.113	80.009	19.993	103.884	19.904	5.375	0.364
307.000	235.502	80.011	19.993	103.883	19.902	5.546	0.679
307.500	235.512	80.009	19.994	103.886	19.906	5.274	0.638
308.000	235.800	80.011	19.993	103.883	19.904	5.416	0.349
308.500	235.992	80.011	19.994	103.883	19.904	5.423	0.389
309.000	236.293	80.010	19.994	103.883	19.903	5.481	0.486
309.500	236.441	80.011	19.994	103.880	19.902	5.541	0.471
310.000	236.756	80.010	19.994	103.878	19.902	5.561	0.456
310.500	237.039	80.011	19.995	103.884	19.907	5.215	0.531
311.000	237.209	80.011	19.994	103.888	19.902	5.532	0.525
311.500	237.516	80.010	19.995	103.888	19.903	5.472	0.464
312.000	237.780	80.009	19.993	103.888	19.902	5.563	0.524
312.500	238.011	80.011	19.994	103.892	19.903	5.463	0.533
313.000	238.248	80.012	19.993	103.892	19.904	5.407	0.482
313.500	238.495	80.012	19.994	103.889	19.907	5.177	0.477
314.000	238.763	80.011	19.995	103.890	19.907	5.194	0.500
314.500	239.047	80.011	19.993	103.893	19.906	5.252	0.534
315.000	239.207	80.011	19.994	103.890	19.908	5.151	0.498
315.500	239.440	80.011	19.993	103.885	19.909	5.032	0.418
316.000	239.675	80.010	19.994	103.886	19.908	5.115	0.430
316.500	239.959	80.012	19.993	103.889	19.908	5.126	0.494
317.000	240.179	80.011	19.993	103.891	19.908	5.111	0.512
317.500	240.418	80.011	19.993	103.893	19.906	5.242	0.481
318.000	240.672	80.011	19.992	103.894	19.908	5.106	0.476
318.500	240.947	80.011	19.993	103.894	19.908	5.116	0.511
319.000	241.154	80.012	19.993	103.891	19.909	5.032	0.506
319.500	241.391	80.011	19.993	103.889	19.907	5.205	0.463
320.000	241.662	80.011	19.994	103.888	19.909	5.091	0.476
320.500	241.887	80.011	19.993	103.893	19.906	5.252	0.502
321.000	242.159	80.010	19.994	103.895	19.906	5.294	0.496
321.500	242.377	80.012	19.993	103.899	19.911	4.955	0.493
322.000	242.660	80.011	19.992	103.901	19.907	5.171	0.495
322.500	242.907	80.011	19.993	103.904	19.908	5.096	0.515
323.000	243.135	80.011	19.993	103.902	19.909	5.087	0.503
323.500	243.391	80.011	19.993	103.903	19.908	5.157	0.480
324.000	243.620	80.010	19.994	103.901	19.909	5.085	0.484
324.500	243.898	80.011	19.994	103.901	19.906	5.258	0.496
325.000	244.147	80.010	19.992	103.901	19.904	5.409	0.517
325.500	244.394	80.011	19.994	103.903	19.904	5.404	0.512
326.000	244.612	80.011	19.992	103.903	19.903	5.492	0.480
326.500	244.882	80.010	19.993	103.901	19.908	5.135	0.476
327.000	245.147	80.010	19.994	103.894	19.905	5.342	0.512
327.500	245.395	80.012	19.994	103.890	19.908	5.159	0.524
328.000	245.681	80.010	19.994	103.890	19.905	5.353	0.523
328.500	245.934	80.011	19.993	103.891	19.907	5.170	0.536
329.000	246.163	80.010	19.994	103.892	19.907	5.222	0.511
329.500	246.427	80.011	19.993	103.899	19.903	5.460	0.487
330.000	246.678	80.010	19.994	103.898	19.907	5.212	0.504
330.500	246.922	80.010	19.993	103.894	19.907	5.176	0.505
331.000	247.194	80.012	19.994	103.895	19.904	5.379	0.506
331.500	247.420	80.009	19.993	103.895	19.905	5.357	0.507
332.000	247.695	80.011	19.993	103.890	19.906	5.294	0.500
332.500	247.929	80.010	19.993	103.891	19.906	5.242	0.505
333.000	248.218	80.011	19.993	103.890	19.905	5.351	0.516
333.500	248.398	80.011	19.994	103.882	19.905	5.312	0.495
334.000	248.691	80.011	19.994	103.877	19.904	5.377	0.471
334.500	248.898	80.011	19.993	103.877	19.905	5.364	0.487
335.000	249.198	80.010	19.993	103.873	19.905	5.331	0.504
335.500	249.461	80.011	19.993	103.873	19.904	5.432	0.535
336.000	249.753	80.010	19.993	103.879	19.905	5.356	0.558
336.500	250.020	80.011	19.994	103.886	19.901	5.604	0.557
337.000	250.242	80.010	19.993	103.895	19.906	5.296	0.524
337.500	250.516	80.012	19.994	103.903	19.905	5.350	0.492
338.000	250.738	80.011	19.993	103.907	19.902	5.549	0.496
338.500	250.984	80.012	19.994	103.907	19.905	5.346	0.482
339.000	251.266	80.012	19.994	103.907	19.904	5.395	0.498
339.500	251.489	80.012	19.992	103.899	19.905	5.339	0.517
340.000	251.776	80.011	19.994	103.890	19.904	5.430	0.508
340.500	252.018	80.012	19.994	103.884	19.902	5.561	0.519
341.000	252.254	80.011	19.993	103.880	19.904	5.414	0.503
341.500	252.513	80.013	19.994	103.876	19.901	5.619	0.487
342.000	252.784	80.011	19.993	103.880	19.902	5.518	0.513
342.500	253.015	80.013	19.993	103.884	19.901	5.587	0.516
343.000	253.256	80.012	19.993	103.883	19.899	5.726	0.487
343.500	253.507	80.012	19.994	103.881	19.898	5.778	0.482
344.000	253.761	80.013	19.994	103.878	19.900	5.674	0.498
344.500	254.013	80.013	19.993	103.872	19.899	5.722	0.506
345.000	254.243	80.014	19.995	103.868	19.903	5.494	0.494
345.500	254.532	80.013	19.993	103.870	19.898	5.801	0.501
346.000	254.782	80.013	19.993	103.876	19.898	5.801	0.529
346.500	255.039	80.012	19.993	103.882	19.900	5.693	0.523
347.000	255.310	80.014	19.993	103.890	19.900	5.665	0.517
347.500	255.546	80.013	19.994	103.890	19.898	5.790	0.517
348.000	255.806	80.014	19.993	103.888	19.900	5.682	0.501
348.500	256.048	80.013	19.994	103.887	19.901	5.619	0.499
349.000	256.268	80.013	19.994	103.884	19.901	5.605	0.482
349.500	256.553	80.013	19.993	103.881	19.899	5.760	0.483
350.000	256.758	80.015	19.994	103.887	19.899	5.714	0.497
350.500	257.032	80.012	19.993	103.892	19.899	5.712	0.484
351.000	257.263	80.013	19.993	103.889	19.901	5.619	0.492
351.500	257.487	80.013	19.994	103.888	19.900	5.651	0.481
352.000	257.783	80.013	19.993	103.890	19.903	5.492	0.488
352.500	258.041	80.014	19.995	103.889	19.900	5.665	0.537
353.000	258.274	80.013	19.994	103.888	19.900	5.662	0.522
353.500	258.535	80.012	19.994	103.887	19.902	5.563	0.492
354.000	258.795	80.012	19.995	103.882	19.904	5.378	0.507
354.500	259.047	80.013	19.993	103.876	19.903	5.439	0.516
355.000	259.294	80.012	19.994	103.871	19.900	5.652	0.505
355.500	259.543	80.013	19.994	103.867	19.899	5.710	0.498
356.000	259.811	80.013	19.994	103.868	19.902	5.519	0.507
356.500	260.022	80.013	19.994	103.873	19.901	5.574	0.498
357.000	260.270	80.012	19.995	103.876	19.904	5.382	0.469
357.500	260.549	80.013	19.994	103.882	19.901	5.604	0.493
358.000	260.792	80.012	19.994	103.888	19.903	5.492	0.525
358.500	261.036	80.011	19.994	103.886	19.904	5.404	0.505
359.000	261.276	80.013	19.994	103.884	19.903	5.486	0.486
359.500	261.519	80.013	19.993	103.887	19.905	5.327	0.484
360.000	261.766	80.013	19.994	103.885	19.904	5.379	0.487
360.500	262.029	80.012	19.994	103.883	19.904	5.387	0.500
361.000	262.301	80.012	19.994	103.887	19.905	5.331	0.522
361.500	262.549	80.012	19.995	103.891	19.902	5.533	0.527
362.000	262.792	80.013	19.994	103.893	19.901	5.589	0.506
362.500	263.046	80.012	19.994	103.895	19.901	5.628	0.494
363.000	263.264	80.013	19.995	103.894	19.901	5.614	0.484
363.500	263.533	80.012	19.993	103.892	19.901	5.601	0.479
364.000	263.774	80.011	19.993	103.889	19.900	5.657	0.499
364.500	264.026	80.012	19.995	103.886	19.900	5.704	0.502
365.000	264.272	80.012	19.993	103.882	19.899	5.752	0.495
365.500	264.541	80.012	19.994	103.880	19.902	5.567	0.507
366.000	264.753	80.012	19.993	103.881	19.897	5.855	0.498
366.500	265.062	80.014	19.994	103.880	19.898	5.817	0.501
367.000	265.309	80.013	19.993	103.881	19.897	5.883	0.538
367.500	265.538	80.012	19.994	103.883	19.896	5.974	0.516
368.000	265.824	80.012	19.995	103.883	19.897	5.871	0.496
368.500	266.053	80.013	19.994	103.886	19.899	5.763	0.516
369.000	266.305	80.012	19.994	103.884	19.902	5.562	0.498
369.500	266.557	80.013	19.994	103.878	19.899	5.733	0.493
370.000	266.826	80.011	19.994	103.876	19.897	5.879	0.512
370.500	267.072	80.013	19.993	103.877	19.896	5.931	0.518
371.000	267.324	80.012	19.993	103.878	19.901	5.625	0.507
371.500	267.561	80.013	19.993	103.881	19.900	5.698	0.494
372.000	267.806	80.012	19.994	103.888	19.901	5.595	0.485
372.500	268.112	80.013	19.994	103.890	19.902	5.569	0.516
373.000	268.310	80.013	19.994	103.889	19.900	5.703	0.527
373.500	268.606	80.012	19.993	103.885	19.899	5.748	0.499
374.000	268.829	80.014	19.992	103.881	19.898	5.810	0.506
374.500	269.096	80.013	19.993	103.876	19.900	5.672	0.504
375.000	269.322	80.013	19.993	103.874	19.902	5.530	0.492
375.500	269.569	80.013	19.994	103.874	19.900	5.685	0.483
376.000	269.879	80.013	19.993	103.873	19.903	5.491	0.515
376.500	270.077	80.013	19.993	103.873	19.901	5.595	0.533
377.000	270.342	80.014	19.994	103.874	19.896	5.951	0.485
377.500	270.630	80.013	19.993	103.873	19.897	5.892	0.508
378.000	270.863	80.013	19.993	103.873	19.898	5.845	0.537
378.500	271.106	80.013	19.994	103.872	19.896	5.931	0.498
379.000	271.364	80.012	19.994	103.872	19.894	6.119	0.489
379.500	271.625	80.013	19.994	103.874	19.897	5.882	0.510
380.000	271.872	80.012	19.994	103.875	19.896	5.944	0.514
380.500	272.133	80.012	19.993	103.874	19.898	5.817	0.508
381.000	272.382	80.011	19.994	103.875	19.896	5.976	0.509
381.500	272.634	80.012	19.995	103.872	19.897	5.847	0.506
382.000	272.884	80.011	19.994	103.869	19.896	5.944	0.502
382.500	273.128	80.012	19.994	103.867	19.894	6.110	0.498
383.000	273.392	80.010	19.994	103.868	19.896	5.948	0.501
383.500	273.626	80.012	19.994	103.871	19.899	5.717	0.503
384.000	273.853	80.010	19.995	103.871	19.897	5.851	0.479
384.500	274.125	80.009	19.994	103.871	19.897	5.885	0.480
385.000	274.365	80.010	19.995	103.871	19.894	6.058	0.506
385.500	274.648	80.010	19.995	103.868	19.894	6.120	0.517
386.000	274.902	80.011	19.995	103.866	19.893	6.131	0.530
386.500	275.147	80.010	19.995	103.867	19.893	6.142	0.518
387.000	275.417	80.010	19.994	103.868	19.892	6.241	0.506
387.500	275.614	80.010	19.995	103.870	19.899	5.756	0.491
388.000	275.887	80.009	19.995	103.870	19.897	5.905	0.468
388.500	276.120	80.010	19.995	103.871	19.893	6.177	0.488
389.000	276.361	80.010	19.995	103.871	19.894	6.059	0.490
389.500	276.624	80.009	19.995	103.869	19.890	6.330	0.489
390.000	276.896	80.010	19.995	103.868	19.888	6.516	0.519
390.500	277.075	80.010	19.995	103.869	19.895	6.046	0.493
391.000	277.353	80.009	19.993	103.867	19.891	6.313	0.454
391.500	277.596	80.010	19.994	103.869	19.890	6.387	0.489
392.000	277.844	80.010	19.995	103.868	19.890	6.330	0.506
392.500	278.106	80.010	19.994	103.870	19.893	6.171	0.500
393.000	278.361	80.009	19.994	103.871	19.892	6.240	0.513
393.500	278.585	80.011	19.995	103.871	19.893	6.171	0.498
394.000	278.824	80.010	19.995	103.871	19.891	6.283	0.471
394.500	279.124	80.010	19.994	103.874	19.894	6.067	0.501
395.000	279.320	80.011	19.994	103.876	19.892	6.188	0.517
395.500	279.622	80.011	19.994	103.879	19.890	6.357	0.497
396.000	279.862	80.010	19.993	103.883	19.893	6.150	0.520
396.500	280.111	80.010	19.993	103.886	19.887	6.574	0.515
397.000	280.351	80.010	19.994	103.884	19.890	6.343	0.489
397.500	280.630	80.011	19.995	103.883	19.891	6.266	0.504
398.000	280.873	80.011	19.994	103.880	19.890	6.384	0.521
398.500	281.094	80.010	19.994	103.877	19.891	6.276	0.493
399.000	281.353	80.011	19.993	103.872	19.888	6.522	0.472
399.500	281.568	80.011	19.994	103.871	19.890	6.341	0.477
400.000	281.837	80.011	19.995	103.866	19.889	6.458	0.479
400.500	282.094	80.011	19.993	103.866	19.891	6.302	0.505
401.000	282.329	80.012	19.994	103.865	19.889	6.413	0.509
401.500	282.577	80.013	19.993	103.865	19.885	6.675	0.487
402.000	282.824	80.011	19.993	103.865	19.889	6.417	0.489
402.500	283.084	80.012	19.994	103.865	19.889	6.425	0.501
403.000	283.330	80.010	19.993	103.865	19.889	6.445	0.506
403.500	283.558	80.012	19.993	103.868	19.886	6.658	0.490
404.000	283.814	80.011	19.994	103.868	19.886	6.608	0.479
404.500	284.080	80.011	19.993	103.868	19.889	6.415	0.503
405.000	284.279	80.010	19.993	103.867	19.887	6.537	0.493
405.500	284.567	80.011	19.993	103.867	19.888	6.471	0.476
406.000	284.787	80.012	19.994	103.864	19.888	6.522	0.497
406.500	285.052	80.012	19.994	103.864	19.883	6.853	0.497
407.000	285.311	80.013	19.994	103.864	19.888	6.499	0.505
407.500	285.548	80.011	19.993	103.866	19.891	6.277	0.510
408.000	285.802	80.011	19.993	103.866	19.885	6.701	0.493
408.500	286.032	80.011	19.993	103.866	19.882	6.913	0.487
409.000	286.272	80.012	19.994	103.868	19.883	6.831	0.477
409.500	286.513	80.011	19.993	103.868	19.887	6.566	0.476
410.000	286.786	80.011	19.993	103.866	19.883	6.831	0.498
410.500	287.030	80.011	19.992	103.867	19.880	7.019	0.515
411.000	287.287	80.010	19.994	103.866	19.884	6.742	0.509
411.500	287.502	80.011	19.994	103.866	19.886	6.652	0.486
412.000	287.752	80.011	19.993	103.866	19.884	6.779	0.469
412.500	288.011	80.013	19.994	103.866	19.885	6.680	0.487
413.000	288.309	80.011	19.993	103.868	19.882	6.895	0.533
413.500	288.502	80.012	19.995	103.868	19.882	6.898	0.524
414.000	288.803	80.011	19.994	103.867	19.883	6.872	0.492
414.500	289.034	80.011	19.994	103.867	19.881	6.977	0.512
415.000	289.261	80.010	19.994	103.868	19.878	7.148	0.495
415.500	289.510	80.010	19.993	103.866	19.884	6.736	0.467
416.000	289.761	80.010	19.994	103.866	19.877	7.252	0.488
416.500	290.013	80.010	19.994	103.865	19.879	7.145	0.502
417.000	290.240	80.011	19.994	103.865	19.880	7.077	0.491
417.500	290.514	80.011	19.994	103.865	19.877	7.270	0.490
418.000	290.752	80.011	19.994	103.866	19.877	7.217	0.507
418.500	290.992	80.011	19.995	103.866	19.879	7.107	0.495
419.000	291.242	80.011	19.994	103.866	19.878	7.196	0.484
419.500	291.510	80.012	19.994	103.866	19.876	7.314	0.504
420.000	291.750	80.011	19.994	103.867	19.873	7.519	0.512
420.500	292.038	80.010	19.995	103.866	19.874	7.445	0.518
421.000	292.280	80.010	19.993	103.866	19.874	7.478	0.529
421.500	292.531	80.011	19.994	103.866	19.872	7.585	0.512
422.000	292.769	80.011	19.995	103.867	19.873	7.512	0.491
422.500	293.010	80.010	19.993	103.867	19.874	7.467	0.484
423.000	293.261	80.010	19.994	103.866	19.875	7.417	0.485
423.500	293.504	80.011	19.994	103.866	19.873	7.497	0.493
424.000	293.742	80.011	19.993	103.867	19.873	7.519	0.487
424.500	293.942	80.011	19.995	103.866	19.873	7.517	0.460
425.000	294.243	80.011	19.995	103.865	19.872	7.590	0.470
425.500	294.475	80.011	19.994	103.865	19.870	7.747	0.517
426.000	294.756	80.010	19.992	103.866	19.873	7.512	0.523
426.500	294.987	80.011	19.995	103.865	19.868	7.873	0.512
427.000	295.214	80.011	19.994	103.866	19.871	7.646	0.485
427.500	295.423	80.012	19.995	103.869	19.874	7.458	0.447
428.000	295.715	80.013	19.994	103.870	19.870	7.709	0.469
428.500	295.977	80.012	19.994	103.870	19.869	7.769	0.527
429.000	296.199	80.012	19.994	103.870	19.869	7.791	0.519
429.500	296.449	80.013	19.994	103.869	19.864	8.145	0.478
430.000	296.664	80.012	19.994	103.865	19.870	7.750	0.468
430.500	296.924	80.014	19.995	103.865	19.866	7.983	0.470
431.000	297.135	80.012	19.995	103.866	19.862	8.310	0.473
431.500	297.398	80.012	19.994	103.867	19.868	7.877	0.473
432.000	297.626	80.013	19.994	103.867	19.868	7.898	0.483
432.500	297.931	80.012	19.994	103.870	19.864	8.125	0.512
433.000	298.135	80.012	19.994	103.869	19.863	8.222	0.521
433.500	298.366	80.012	19.994	103.868	19.863	8.200	0.472
434.000	298.648	80.012	19.994	103.867	19.866	8.000	0.474
434.500	298.846	80.012	19.994	103.867	19.862	8.250	0.497
435.000	299.087	80.014	19.993	103.864	19.862	8.259	0.459
435.500	299.363	80.011	19.993	103.864	19.862	8.293	0.478
436.000	299.591	80.013	19.994	103.865	19.855	8.763	0.511
436.500	299.887	80.012	19.993	103.866	19.859	8.502	0.514
437.000	300.101	80.015	19.994	103.867	19.858	8.541	0.517
437.500	300.323	80.012	19.993	103.867	19.859	8.473	0.473
438.000	300.601	80.013	19.995	103.865	19.859	8.454	0.468
438.500	300.829	80.012	19.993	103.865	19.858	8.583	0.503
439.000	301.081	80.015	19.993	103.863	19.855	8.765	0.493
439.500	301.323	80.012	19.992	103.863	19.856	8.722	0.487
440.000	301.570	80.013	19.993	103.862	19.855	8.765	0.492
440.500	301.785	80.012	19.992	103.864	19.856	8.656	0.476
441.000	302.043	80.013	19.992	103.865	19.858	8.567	0.467
441.500	302.322	80.013	19.993	103.867	19.855	8.774	0.505
442.000	302.553	80.012	19.993	103.868	19.854	8.802	0.524
442.500	302.812	80.014	19.992	103.870	19.857	8.611	0.500
443.000	303.055	80.013	19.993	103.871	19.852	8.971	0.496
443.500	303.279	80.011	19.992	103.871	19.858	8.554	0.484
444.000	303.533	80.012	19.994	103.870	19.853	8.912	0.473
444.500	303.765	80.013	19.994	103.870	19.854	8.811	0.482
445.000	304.028	80.011	19.992	103.869	19.850	9.119	0.491
445.500	304.284	80.012	19.993	103.867	19.853	8.927	0.507
446.000	304.530	80.013	19.993	103.866	19.855	8.783	0.510
446.500	304.763	80.014	19.993	103.866	19.849	9.145	0.491
447.000	305.024	80.012	19.994	103.866	19.848	9.208	0.487
447.500	305.257	80.013	19.994	103.866	19.847	9.287	0.494
448.000	305.530	80.014	19.995	103.874	19.845	9.473	0.500
448.500	305.743	80.012	19.994	103.876	19.851	9.059	0.497
449.000	306.021	80.013	19.994	103.875	19.847	9.315	0.488
449.500	306.271	80.012	19.994	103.875	19.848	9.264	0.509
450.000	306.512	80.011	19.993	103.874	19.844	9.480	0.509
450.500	306.772	80.012	19.995	103.868	19.844	9.477	0.496
451.000	307.024	80.012	19.994	103.866	19.845	9.454	0.507
451.500	307.243	80.012	19.994	103.866	19.843	9.596	0.491
452.000	307.472	80.012	19.994	103.864	19.845	9.475	0.459
452.500	307.774	80.012	19.994	103.864	19.844	9.482	0.489
453.000	307.990	80.012	19.993	103.864	19.843	9.594	0.524
453.500	308.260	80.014	19.993	103.864	19.843	9.550	0.502
454.001	308.482	80.013	19.994	103.864	19.842	9.632	0.489
454.500	308.729	80.013	19.996	103.866	19.843	9.602	0.481
455.000	309.011	80.013	19.994	103.866	19.840	9.773	0.499
455.500	309.272	80.013	19.994	103.866	19.841	9.728	0.536
456.000	309.491	80.013	19.993	103.866	19.840	9.751	0.511
456.500	309.761	80.014	19.993	103.865	19.837	10.004	0.484
457.000	310.034	80.012	19.993	103.865	19.840	9.803	0.516
457.500	310.264	80.013	19.995	103.865	19.838	9.911	0.523
458.000	310.507	80.012	19.994	103.865	19.836	10.077	0.488
458.500	310.787	80.014	19.993	103.866	19.838	9.945	0.498
459.000	310.998	80.014	19.993	103.866	19.836	10.030	0.507
459.500	311.229	80.013	19.994	103.867	19.831	10.370	0.466
460.000	311.490	80.013	19.995	103.867	19.831	10.401	0.467
460.500	311.718	80.014	19.994	103.866	19.834	10.204	0.491
461.000	312.023	80.013	19.993	103.866	19.832	10.314	0.511
461.500	312.249	80.012	19.993	103.864	19.833	10.252	0.532
462.000	312.500	80.013	19.992	103.864	19.830	10.491	0.504
462.500	312.788	80.013	19.993	103.864	19.830	10.448	0.508
463.000	313.018	80.013	19.994	103.864	19.832	10.356	0.528
463.500	313.276	80.013	19.994	103.865	19.833	10.254	0.503
464.000	313.515	80.013	19.993	103.867	19.833	10.246	0.493
464.500	313.793	80.013	19.993	103.868	19.829	10.552	0.507
465.000	314.047	80.013	19.994	103.868	19.829	10.556	0.524
465.500	314.277	80.013	19.993	103.868	19.826	10.712	0.508
466.000	314.551	80.012	19.994	103.867	19.831	10.431	0.494
466.500	314.790	80.012	19.994	103.867	19.826	10.770	0.508
467.000	315.030	80.012	19.994	103.866	19.825	10.800	0.496
467.500	315.329	80.013	19.995	103.866	19.827	10.677	0.509
468.000	315.582	80.012	19.994	103.866	19.823	10.971	0.545
468.500	315.830	80.012	19.994	103.865	19.823	10.928	0.526
469.000	316.079	80.012	19.994	103.865	19.820	11.154	0.499
469.500	316.328	80.012	19.993	103.864	19.823	10.934	0.498
470.000	316.525	80.012	19.993	103.864	19.820	11.156	0.472
470.500	316.801	80.011	19.993	103.864	19.822	11.039	0.460
471.000	317.049	80.012	19.994	103.864	19.815	11.499	0.498
471.500	317.306	80.011	19.994	103.865	19.822	11.028	0.514
472.000	317.565	80.010	19.994	103.865	19.817	11.380	0.511
472.500	317.819	80.010	19.995	103.865	19.815	11.502	0.515
473.000	318.053	80.011	19.994	103.865	19.815	11.490	0.501
473.500	318.240	80.011	19.993	103.865	19.815	11.531	0.454
474.000	318.536	80.011	19.994	103.863	19.813	11.650	0.452
474.500	318.794	80.012	19.994	103.863	19.812	11.702	0.518
475.000	319.089	80.012	19.994	103.863	19.811	11.797	0.554
475.500	319.319	80.011	19.994	103.863	19.812	11.725	0.539
476.000	319.574	80.011	19.994	103.862	19.814	11.578	0.505
476.500	319.800	80.011	19.994	103.863	19.807	12.029	0.483
477.000	320.035	80.011	19.995	103.863	19.806	12.101	0.471
477.500	320.305	80.011	19.995	103.861	19.805	12.150	0.483
478.000	320.587	80.011	19.994	103.862	19.805	12.185	0.529
478.500	320.858	80.011	19.994	103.862	19.806	12.105	0.552
479.000	321.034	80.011	19.994	103.861	19.806	12.133	0.500
479.500	321.336	80.012	19.995	103.860	19.807	12.079	0.462
480.000	321.584	80.012	19.995	103.859	19.805	12.210	0.514
480.500	321.828	80.011	19.994	103.859	19.801	12.441	0.522
481.000	322.088	80.012	19.995	103.859	19.802	12.392	0.498
481.500	322.321	80.012	19.995	103.862	19.804	12.276	0.498
482.000	322.580	80.010	19.994	103.865	19.799	12.575	0.492
482.500	322.837	80.011	19.996	103.868	19.804	12.260	0.504
483.000	323.071	80.011	19.994	103.868	19.800	12.539	0.504
483.500	323.363	80.011	19.995	103.868	19.797	12.705	0.509
484.000	323.554	80.011	19.995	103.865	19.798	12.666	0.505
484.500	323.779	80.012	19.995	103.863	19.794	12.914	0.449
485.000	324.036	80.009	19.994	103.862	19.792	13.069	0.449
485.500	324.321	80.011	19.995	103.862	19.790	13.194	0.512
486.000	324.559	80.010	19.994	103.862	19.790	13.192	0.533
486.500	324.798	80.010	19.996	103.863	19.792	13.093	0.500
487.000	325.034	80.011	19.996	103.863	19.791	13.134	0.476
487.500	325.281	80.012	19.995	103.863	19.790	13.212	0.479
488.000	325.574	80.012	19.995	103.862	19.788	13.319	0.512
488.500	325.800	80.012	19.995	103.861	19.786	13.466	0.530
489.000	326.049	80.011	19.995	103.862	19.786	13.479	0.497
489.500	326.320	80.013	19.996	103.862	19.785	13.570	0.498
490.000	326.595	80.012	19.995	103.862	19.786	13.484	0.533
490.500	326.816	80.012	19.995	103.863	19.784	13.601	0.521
491.000	327.077	80.012	19.995	103.863	19.786	13.493	0.489
491.500	327.322	80.012	19.996	103.862	19.780	13.877	0.494
492.000	327.567	80.012	19.996	103.862	19.779	13.934	0.498
492.500	327.847	80.010	19.995	103.861	19.776	14.150	0.507
493.000	328.100	80.013	19.995	103.861	19.780	13.876	0.529
493.500	328.346	80.012	19.994	103.861	19.775	14.218	0.517
494.000	328.598	80.011	19.995	103.862	19.772	14.426	0.499
494.500	328.809	80.012	19.995	103.862	19.773	14.380	0.480
495.000	329.101	80.012	19.994	103.863	19.772	14.447	0.483
495.500	329.379	80.012	19.995	103.863	19.771	14.499	0.536
496.000	329.599	80.012	19.995	103.863	19.766	14.825	0.534
496.500	329.849	80.011	19.995	103.863	19.766	14.872	0.484
497.000	330.094	80.012	19.994	103.863	19.766	14.858	0.483
497.500	330.334	80.012	19.994	103.862	19.766	14.854	0.490
498.000	330.622	80.012	19.995	103.861	19.764	14.977	0.506
498.500	330.830	80.012	19.994	103.861	19.762	15.159	0.512
499.000	331.068	80.012	19.995	103.861	19.761	15.200	0.471
499.500	331.321	80.011	19.995	103.861	19.758	15.386	0.468
500.000	331.614	80.012	19.994	103.862	19.759	15.322	0.519
500.500	331.850	80.011	19.994	103.862	19.757	15.448	0.538
501.000	332.111	80.011	19.994	103.857	19.755	15.605	0.513
501.500	332.323	80.011	19.993	103.857	19.753	15.761	0.485
502.000	332.598	80.011	19.994	103.858	19.750	15.949	0.480
502.500	332.879	80.009	19.994	103.857	19.749	16.001	0.522
503.000	333.143	80.012	19.994	103.860	19.750	15.929	0.550
503.500	333.359	80.011	19.993	103.863	19.747	16.152	0.512
504.000	333.619	80.012	19.994	103.864	19.748	16.066	0.478
504.500	333.907	80.012	19.994	103.864	19.747	16.161	0.512
505.000	334.147	80.011	19.994	103.864	19.744	16.373	0.538
505.500	334.407	80.011	19.993	103.864	19.741	16.573	0.514
506.000	334.640	80.010	19.994	103.865	19.742	16.519	0.496
506.500	334.885	80.011	19.994	103.864	19.737	16.811	0.485
507.000	335.144	80.012	19.994	103.865	19.742	16.490	0.491
507.500	335.405	80.012	19.994	103.867	19.733	17.098	0.512
508.000	335.648	80.013	19.993	103.868	19.738	16.764	0.512
508.500	335.867	80.011	19.995	103.869	19.735	16.947	0.483
509.000	336.138	80.012	19.995	103.869	19.734	17.044	0.476
509.500	336.408	80.012	19.995	103.864	19.733	17.093	0.516
510.000	336.649	80.012	19.994	103.861	19.731	17.249	0.526
510.500	336.891	80.011	19.992	103.860	19.728	17.469	0.497
511.000	337.138	80.012	19.993	103.859	19.726	17.616	0.486
511.500	337.376	80.012	19.994	103.860	19.724	17.713	0.487
512.000	337.676	80.012	19.993	103.869	19.727	17.549	0.511
512.500	337.899	80.012	19.994	103.872	19.719	18.041	0.530
513.000	338.158	80.012	19.993	103.873	19.722	17.851	0.502
513.500	338.399	80.014	19.994	103.874	19.718	18.140	0.491
514.000	338.669	80.013	19.994	103.873	19.719	18.097	0.506
514.500	338.917	80.012	19.993	103.869	19.717	18.178	0.515
515.000	339.180	80.013	19.994	103.868	19.716	18.314	0.514
515.500	339.430	80.013	19.993	103.868	19.714	18.447	0.512
516.000	339.693	80.013	19.994	103.868	19.713	18.484	0.513
516.500	339.900	80.013	19.993	103.868	19.711	18.641	0.492
517.000	340.199	80.013	19.993	103.866	19.710	18.661	0.488
517.500	340.426	80.014	19.993	103.866	19.708	18.803	0.516
518.000	340.695	80.013	19.994	103.865	19.707	18.908	0.511
518.500	340.917	80.013	19.993	103.865	19.704	19.094	0.493
519.000	341.186	80.014	19.994	103.864	19.699	19.438	0.491
519.500	341.425	80.014	19.994	103.865	19.700	19.399	0.500
520.000	341.669	80.012	19.993	103.865	19.696	19.667	0.496
520.500	341.947	80.013	19.993	103.865	19.694	19.758	0.502
521.000	342.183	80.013	19.994	103.864	19.699	19.411	0.518
521.500	342.454	80.013	19.993	103.864	19.696	19.623	0.510
522.000	342.679	80.012	19.993	103.863	19.691	20.018	0.501
522.500	342.927	80.012	19.994	103.863	19.686	20.363	0.484
523.000	343.196	80.012	19.993	103.860	19.687	20.260	0.495
523.500	343.406	80.014	19.995	103.860	19.688	20.208	0.498
524.000	343.676	80.013	19.994	103.860	19.689	20.106	0.480
524.500	343.940	80.011	19.994	103.861	19.682	20.633	0.507
525.000	344.160	80.013	19.993	103.862	19.680	20.730	0.509
525.500	344.413	80.012	19.993	103.866	19.677	20.982	0.478
526.000	344.624	80.013	19.994	103.868	19.671	21.377	0.469
526.500	344.914	80.013	19.994	103.869	19.672	21.311	0.483
527.000	345.171	80.011	19.994	103.869	19.668	21.580	0.524
527.500	345.390	80.011	19.994	103.868	19.667	21.622	0.512
528.000	345.660	80.012	19.993	103.868	19.665	21.745	0.483
528.500	345.921	80.012	19.994	103.868	19.662	21.969	0.510
529.000	346.194	80.013	19.993	103.864	19.663	21.904	0.532
529.500	346.421	80.012	19.992	103.861	19.659	22.210	0.517
530.000	346.674	80.013	19.993	103.857	19.655	22.428	0.490
530.500	346.946	80.011	19.993	103.856	19.655	22.471	0.503
531.000	347.178	80.012	19.993	103.856	19.651	22.713	0.515
531.500	347.431	80.013	19.993	103.859	19.644	23.200	0.494
532.000	347.688	80.013	19.993	103.862	19.643	23.289	0.497
532.500	347.907	80.013	19.994	103.866	19.645	23.120	0.493
533.000	348.162	80.012	19.993	103.867	19.638	23.595	0.475
533.500	348.375	80.013	19.993	103.867	19.636	23.783	0.471
534.000	348.670	80.012	19.992	103.867	19.637	23.718	0.488
534.500	348.865	80.014	19.994	103.867	19.629	24.270	0.499
535.000	349.161	80.013	19.993	103.869	19.625	24.495	0.491
535.500	349.398	80.014	19.993	103.873	19.628	24.296	0.512
536.000	349.685	80.013	19.993	103.875	19.624	24.578	0.529
536.500	349.927	80.013	19.992	103.874	19.616	25.139	0.526
537.001	350.191	80.012	19.993	103.874	19.617	25.079	0.518
537.500	350.455	80.013	19.993	103.871	19.612	25.432	0.517
538.000	350.719	80.013	19.993	103.865	19.608	25.646	0.527
538.500	350.908	80.013	19.994	103.862	19.607	25.764	0.490
539.000	351.211	80.015	19.993	103.862	19.602	26.083	0.473
539.500	351.420	80.015	19.993	103.863	19.599	26.268	0.502
540.000	351.677	80.014	19.992	103.863	19.594	26.620	0.489
540.500	351.925	80.014	19.993	103.864	19.595	26.547	0.486
541.000	352.150	80.013	19.993	103.864	19.592	26.756	0.489
541.500	352.408	80.015	19.993	103.864	19.588	27.077	0.477
542.000	352.684	80.015	19.993	103.864	19.584	27.318	0.509
542.500	352.915	80.015	19.994	103.864	19.574	27.982	0.521
543.000	353.164	80.015	19.993	103.863	19.576	27.890	0.494
543.500	353.439	80.014	19.993	103.864	19.567	28.523	0.502
544.000	353.688	80.014	19.994	103.863	19.565	28.621	0.524
544.500	353.967	80.014	19.992	103.863	19.562	28.854	0.525
545.000	354.207	80.014	19.992	103.863	19.558	29.083	0.524
545.500	354.461	80.014	19.992	103.863	19.556	29.258	0.507
546.000	354.710	80.013	19.992	103.863	19.551	29.594	0.499
546.500	354.954	80.015	19.993	103.863	19.545	30.005	0.498
547.000	355.187	80.013	19.994	103.863	19.542	30.200	0.485
547.500	355.436	80.014	19.994	103.863	19.539	30.420	0.479
548.000	355.679	80.013	19.994	103.864	19.536	30.596	0.487
548.500	355.942	80.014	19.992	103.865	19.535	30.646	0.499
549.000	356.187	80.014	19.993	103.866	19.529	31.065	0.507
549.500	356.420	80.015	19.995	103.866	19.527	31.242	0.493
550.000	356.707	80.014	19.993	103.867	19.522	31.599	0.499
550.500	356.947	80.013	19.992	103.866	19.513	32.174	0.523
551.000	357.195	80.014	19.993	103.868	19.507	32.568	0.508
551.500	357.439	80.013	19.994	103.871	19.505	32.747	0.490
552.000	357.694	80.013	19.993	103.873	19.500	33.059	0.496
552.500	357.924	80.013	19.994	103.876	19.495	33.443	0.492
553.000	358.226	80.012	19.993	103.876	19.492	33.594	0.509
553.500	358.450	80.010	19.994	103.877	19.486	34.054	0.529
554.000	358.744	80.010	19.993	103.873	19.481	34.371	0.522
554.500	358.996	80.012	19.995	103.871	19.474	34.854	0.532
555.000	359.237	80.012	19.994	103.868	19.470	35.106	0.519
555.500	359.499	80.011	19.995	103.869	19.465	35.484	0.498
556.000	359.695	80.013	19.994	103.866	19.464	35.529	0.480
556.500	359.988	80.011	19.994	103.868	19.457	36.013	0.474
557.000	360.205	80.013	19.996	103.868	19.454	36.255	0.500
557.500	360.502	80.011	19.993	103.869	19.448	36.666	0.512
558.000	360.749	80.011	19.994	103.868	19.444	36.910	0.529
558.500	360.988	80.011	19.994	103.867	19.437	37.387	0.515
559.000	361.231	80.011	19.994	103.864	19.433	37.645	0.484
559.500	361.482	80.011	19.993	103.862	19.428	38.000	0.488
560.000	361.757	80.010	19.993	103.860	19.419	38.624	0.510
560.500	361.993	80.011	19.994	103.859	19.415	38.941	0.519
561.000	362.260	80.011	19.994	103.859	19.412	39.120	0.507
561.500	362.509	80.011	19.994	103.860	19.402	39.820	0.509
562.000	362.759	80.012	19.994	103.863	19.394	40.326	0.507
562.500	362.993	80.012	19.993	103.864	19.389	40.691	0.491
563.000	363.235	80.012	19.994	103.864	19.388	40.731	0.480
563.500	363.481	80.012	19.995	103.864	19.378	41.432	0.482
564.000	363.764	80.012	19.994	103.865	19.373	41.777	0.509
564.500	363.967	80.012	19.993	103.864	19.366	42.268	0.508
565.000	364.258	80.012	19.994	103.864	19.357	42.884	0.490
565.500	364.461	80.011	19.993	103.863	19.353	43.137	0.494
566.000	364.732	80.013	19.994	103.863	19.349	43.458	0.484
566.500	365.025	80.012	19.994	103.863	19.338	44.198	0.519
567.000	365.243	80.012	19.993	103.863	19.328	44.899	0.537
567.500	365.504	80.011	19.993	103.862	19.322	45.287	0.495
568.000	365.741	80.012	19.993	103.865	19.314	45.849	0.489
568.500	366.020	80.012	19.993	103.868	19.310	46.121	0.507
569.000	366.201	80.012	19.994	103.873	19.308	46.255	0.488
569.500	366.514	80.012	19.995	103.878	19.299	46.873	0.477
570.000	366.750	80.010	19.994	103.884	19.290	47.473	0.521
570.500	367.029	80.012	19.994	103.887	19.283	47.993	0.532
571.000	367.252	80.011	19.993	103.890	19.272	48.692	0.509
571.500	367.526	80.012	19.994	103.890	19.265	49.226	0.499
572.000	367.802	80.012	19.993	103.894	19.259	49.639	0.524
572.500	368.017	80.011	19.994	103.895	19.256	49.847	0.521
573.000	368.256	80.012	19.995	103.897	19.246	50.489	0.472
573.500	368.524	80.013	19.993	103.896	19.238	51.045	0.481
574.000	368.737	80.012	19.994	103.899	19.231	51.497	0.494
574.500	369.026	80.012	19.993	103.898	19.224	52.034	0.491
575.000	369.282	80.012	19.994	103.897	19.214	52.676	0.524
575.500	369.541	80.010	19.993	103.898	19.207	53.144	0.531
576.000	369.806	80.012	19.994	103.900	19.196	53.946	0.520
576.500	370.055	80.010	19.994	103.899	19.190	54.327	0.519
577.000	370.311	80.011	19.994	103.899	19.178	55.180	0.510
577.500	370.510	80.011	19.993	103.899	19.169	55.788	0.480
578.000	370.798	80.011	19.994	103.897	19.164	56.123	0.471
578.500	371.073	80.011	19.993	103.898	19.158	56.548	0.525
579.000	371.278	80.011	19.994	103.899	19.148	57.223	0.522
579.500	371.495	80.012	19.994	103.899	19.139	57.831	0.451
580.000	371.802	80.011	19.994	103.902	19.128	58.559	0.473
580.500	372.015	80.011	19.994	103.904	19.119	59.190	0.522
581.000	372.272	80.012	19.994	103.904	19.112	59.669	0.495
581.500	372.517	80.011	19.994	103.902	19.098	60.668	0.485
582.000	372.816	80.011	19.994	103.902	19.090	61.207	0.523
582.500	373.039	80.011	19.993	103.901	19.082	61.766	0.533
583.000	373.320	80.010	19.995	103.901	19.068	62.720	0.514
583.500	373.578	80.011	19.994	103.902	19.061	63.209	0.521
584.000	373.820	80.011	19.994	103.903	19.043	64.414	0.519
584.500	374.118	80.011	19.995	103.904	19.037	64.793	0.520
585.000	374.352	80.010	19.995	103.904	19.026	65.570	0.536
585.500	374.594	80.011	19.995	103.904	19.014	66.384	0.504
586.000	374.849	80.011	19.995	103.905	19.002	67.229	0.487
586.500	375.126	80.010	19.995	103.905	18.989	68.133	0.515
587.000	375.399	80.011	19.994	103.904	18.976	68.998	0.541
587.500	375.615	80.010	19.994	103.903	18.967	69.630	0.519
588.000	375.916	80.011	19.995	103.903	18.951	70.747	0.503
588.500	376.104	80.010	19.995	103.903	18.944	71.206	0.503
589.000	376.398	80.010	19.994	103.903	18.928	72.275	0.486
589.500	376.666	80.009	19.994	103.903	18.914	73.295	0.522
590.000	376.940	80.011	19.995	103.902	18.907	73.764	0.552
590.500	377.169	80.010	19.994	103.902	18.888	75.049	0.523
591.000	377.380	80.010	19.994	103.900	18.875	75.916	0.472
591.500	377.648	80.010	19.994	103.901	18.864	76.695	0.460
592.000	377.896	80.010	19.996	103.901	18.849	77.725	0.497
592.500	378.165	80.011	19.995	103.902	18.833	78.849	0.516
593.000	378.426	80.009	19.994	103.903	18.821	79.660	0.523
593.500	378.674	80.010	19.995	103.905	18.813	80.191	0.520
594.000	378.909	80.010	19.995	103.905	18.797	81.318	0.496
594.500	379.188	80.011	19.995	103.906	18.782	82.296	0.499
595.000	379.420	80.010	19.994	103.904	18.769	83.213	0.513
595.500	379.691	80.011	19.994	103.904	18.748	84.622	0.507
596.000	379.950	80.010	19.995	103.904	18.739	85.279	0.517
596.500	380.182	80.011	19.995	103.904	18.722	86.467	0.511
597.000	380.441	80.011	19.994	103.905	18.710	87.280	0.491
597.500	380.690	80.011	19.994	103.907	18.691	88.574	0.499
598.000	380.962	80.012	19.994	103.915	18.678	89.484	0.515
598.500	381.208	80.011	19.993	103.920	18.661	90.646	0.520
599.000	381.426	80.011	19.994	103.924	18.649	91.472	0.491
599.500	381.702	80.011	19.993	103.925	18.626	92.994	0.479
600.000	381.936	80.013	19.995	103.925	18.618	93.595	0.502
600.500	382.200	80.012	19.994	103.917	18.599	94.894	0.504
601.000	382.448	80.013	19.995	103.912	18.584	95.928	0.505
601.500	382.708	80.013	19.993	103.907	18.565	97.197	0.510
602.000	382.969	80.013	19.993	103.912	18.553	98.008	0.514
602.500	383.242	80.013	19.993	103.916	18.536	99.160	0.528
603.000	383.482	80.013	19.993	103.923	18.513	100.770	0.523
603.500	383.721	80.013	19.994	103.930	18.493	102.114	0.496
604.000	383.971	80.013	19.994	103.935	18.475	103.391	0.484
604.500	384.221	80.014	19.993	103.934	18.456	104.698	0.494
605.000	384.440	80.014	19.994	103.931	18.437	105.985	0.485
605.500	384.751	80.015	19.993	103.929	18.419	107.197	0.500
606.000	384.972	80.012	19.993	103.931	18.401	108.493	0.530
606.500	385.227	80.014	19.993	103.932	18.384	109.604	0.504
607.000	385.485	80.015	19.995	103.934	18.359	111.369	0.495
607.500	385.743	80.014	19.995	103.940	18.344	112.372	0.515
608.000	385.979	80.012	19.994	103.942	18.324	113.726	0.505
608.500	386.239	80.011	19.994	103.941	18.303	115.145	0.495
609.000	386.524	80.012	19.994	103.940	18.288	116.221	0.520
609.500	386.751	80.013	19.994	103.940	18.269	117.528	0.528
610.000	387.001	80.014	19.994	103.937	18.251	118.736	0.494
610.500	387.241	80.013	19.994	103.936	18.231	120.147	0.484
611.000	387.484	80.012	19.993	103.937	18.214	121.281	0.487
611.500	387.752	80.014	19.994	103.937	18.195	122.617	0.497
612.000	388.026	80.012	19.994	103.938	18.174	124.043	0.526
612.500	388.269	80.013	19.994	103.940	18.155	125.354	0.530
613.000	388.539	80.013	19.993	103.940	18.141	126.319	0.515
613.500	388.778	80.011	19.993	103.937	18.123	127.585	0.511
614.000	389.041	80.013	19.994	103.931	18.098	129.293	0.505
614.500	389.255	80.012	19.993	103.928	18.080	130.517	0.489
615.000	389.508	80.013	19.994	103.928	18.062	131.768	0.472
615.500	389.776	80.013	19.994	103.928	18.039	133.327	0.494
616.000	390.063	80.014	19.994	103.933	18.023	134.395	0.538
616.500	390.262	80.011	19.994	103.944	17.999	136.057	0.521
617.000	390.511	80.013	19.995	103.950	17.981	137.269	0.467
617.500	390.771	80.011	19.994	103.951	17.963	138.529	0.478
618.000	391.039	80.013	19.992	103.951	17.943	139.921	0.518
618.500	391.273	80.014	19.993	103.949	17.922	141.353	0.515
619.000	391.495	80.012	19.993	103.940	17.903	142.622	0.479
619.500	391.784	80.011	19.994	103.937	17.879	144.291	0.484
620.000	392.039	80.013	19.994	103.937	17.852	146.176	0.528
620.500	392.289	80.013	19.993	103.943	17.826	147.984	0.524
621.000	392.530	80.013	19.993	103.951	17.802	149.597	0.498
621.500	392.794	80.013	19.994	103.962	17.776	151.448	0.498
622.001	393.052	80.012	19.993	103.972	17.751	153.185	0.513
622.500	393.319	80.014	19.994	103.985	17.717	155.523	0.523
623.000	393.596	80.014	19.994	103.992	17.695	157.048	0.535
623.500	393.806	80.014	19.993	103.995	17.670	158.808	0.516
624.000	394.117	80.014	19.994	104.002	17.649	160.195	0.504
624.500	394.342	80.013	19.993	104.001	17.623	161.990	0.528
625.000	394.633	80.013	19.994	103.996	17.604	163.307	0.526
625.500	394.846	80.013	19.994	103.990	17.579	165.006	0.510
626.000	395.127	80.013	19.992	103.987	17.553	166.792	0.499
626.500	395.358	80.014	19.994	103.980	17.528	168.452	0.503
627.000	395.621	80.016	19.994	103.979	17.501	170.277	0.503
627.500	395.868	80.013	19.994	103.981	17.473	172.110	0.502
628.000	396.116	80.014	19.993	103.979	17.441	174.200	0.502
628.500	396.386	80.015	19.993	103.972	17.410	176.305	0.507
629.000	396.642	80.014	19.993	103.967	17.380	178.321	0.523
629.500	396.887	80.014	19.993	103.968	17.346	180.653	0.514
630.000	397.117	80.015	19.992	103.965	17.315	182.766	0.488
630.500	397.349	80.015	19.993	103.968	17.267	186.069	0.469
631.000	397.594	80.013	19.994	103.980	17.222	189.183	0.469
631.500	397.892	80.014	19.994	103.996	17.179	192.152	0.510
632.000	398.109	80.013	19.993	104.013	17.133	195.345	0.529
632.500	398.343	80.015	19.992	104.034	17.083	198.811	0.484
633.000	398.613	80.013	19.994	104.057	17.030	202.424	0.478
633.500	398.853	80.013	19.993	104.074	16.973	206.392	0.507
634.000	399.119	80.014	19.993	104.086	16.917	210.311	0.508
634.500	399.376	80.012	19.993	104.088	16.857	214.584	0.515
635.000	399.617	80.013	19.993	104.082	16.798	218.739	0.511
635.500	399.882	80.014	19.994	104.080	16.736	223.115	0.502
636.000	400.129	80.014	19.994	104.075	16.691	226.219	0.509
636.500	400.379	80.012	19.992	104.064	16.647	229.232	0.505
637.000	400.596	80.013	19.993	104.058	16.619	231.140	0.482
637.500	400.881	80.011	19.992	104.040	16.583	233.601	0.485
638.000	401.125	80.010	19.993	103.996	16.562	235.028	0.516
638.500	401.389	80.012	19.993	103.957	16.536	236.792	0.519
639.000	401.605	80.012	19.994	103.919	16.509	238.676	0.494
639.500	401.895	80.011	19.993	103.888	16.480	240.673	0.493
640.000	402.150	80.013	19.993	103.864	16.456	242.286	0.525
640.500	402.378	80.012	19.993	103.859	16.422	244.514	0.514
641.000	402.594	80.012	19.993	103.858	16.391	246.611	0.464
641.500	402.857	80.013	19.994	103.869	16.365	248.369	0.462
642.000	403.071	80.013	19.993	103.874	16.339	250.027	0.478
642.500	403.318	80.012	19.993	103.891	16.309	251.973	0.469
643.000	403.576	80.011	19.992	103.913	16.275	254.270	0.482
643.500	403.919	80.011	19.994	103.931	16.242	256.536	0.553
644.000	404.165	80.013	19.993	103.944	16.207	258.808	0.595
644.500	404.320	80.014	19.994	103.970	16.172	261.211	0.495
645.000	404.586	80.012	19.993	104.012	16.135	263.799	0.411
645.500	404.843	80.012	19.992	104.060	16.092	266.723	0.472
646.000	405.089	80.011	19.993	104.115	16.043	270.081	0.513
646.500	405.317	80.012	19.993	104.165	15.984	274.250	0.488
647.000	405.576	80.012	19.993	104.190	15.922	278.617	0.481
647.500	405.795	80.013	19.993	104.188	15.857	283.239	0.483
648.000	406.065	80.012	19.995	104.172	15.791	287.918	0.484
648.500	406.315	80.012	19.993	104.157	15.739	291.587	0.504
649.000	406.584	80.012	19.992	104.165	15.684	295.460	0.519
649.500	406.815	80.011	19.994	104.160	15.636	298.741	0.510
650.000	407.063	80.011	19.994	104.158	15.594	301.637	0.490
650.500	407.324	80.010	19.993	104.166	15.556	304.159	0.494
651.000	407.566	80.011	19.994	104.151	15.521	306.572	0.506
651.500	407.827	80.011	19.994	104.104	15.482	309.145	0.503
652.000	408.090	80.012	19.994	104.080	15.447	311.462	0.513
652.500	408.336	80.011	19.994	104.070	15.418	313.492	0.516
653.000	408.603	80.013	19.994	104.032	15.380	316.000	0.511
653.500	408.836	80.010	19.995	103.988	15.343	318.594	0.507
654.000	409.063	80.012	19.994	103.963	15.313	320.517	0.480
654.500	409.286	80.011	19.993	103.957	15.276	323.184	0.455
655.000	409.560	80.013	19.994	103.925	15.239	325.605	0.473
655.500	409.804	80.011	19.993	103.905	15.205	328.055	0.507
656.000	410.021	80.011	19.996	103.923	15.165	330.756	0.489
656.500	410.288	80.010	19.994	103.928	15.126	333.529	0.472
657.000	410.543	80.011	19.993	103.923	15.086	336.251	0.503
657.500	410.777	80.012	19.993	103.975	15.047	338.952	0.506
658.000	411.027	80.010	19.994	104.028	15.003	341.964	0.487
658.500	411.248	80.012	19.994	104.070	14.959	344.990	0.478
659.000	411.502	80.011	19.994	104.136	14.922	347.560	0.473
659.500	411.740	80.012	19.994	104.171	14.879	350.469	0.483
660.000	411.974	80.011	19.995	104.193	14.843	352.943	0.482
660.500	412.211	80.011	19.994	104.198	14.806	355.435	0.472
661.000	412.462	80.013	19.994	104.202	14.768	357.911	0.480
661.500	412.705	80.011	19.994	104.176	14.730	360.501	0.491
662.000	412.936	80.011	19.993	104.162	14.700	362.476	0.484
662.500	413.182	80.010	19.994	104.134	14.653	365.707	0.476
663.000	413.391	80.011	19.994	104.112	14.615	368.367	0.466
663.500	413.652	80.012	19.995	104.104	14.578	370.956	0.462
664.000	413.876	80.011	19.993	104.079	14.539	373.680	0.477
664.500	414.102	80.011	19.993	104.089	14.502	376.424	0.468
665.000	414.349	80.012	19.994	104.063	14.461	379.543	0.462
665.500	414.552	80.010	19.993	104.085	14.427	381.959	0.461
666.000	414.824	80.011	19.992	104.066	14.397	384.071	0.462
666.500	415.039	80.013	19.995	104.093	14.358	386.797	0.481
667.000	415.299	80.012	19.994	104.084	14.316	389.618	0.481
667.500	415.530	80.012	19.994	104.102	14.285	391.507	0.483
668.000	415.770	80.011	19.994	104.105	14.243	394.284	0.481
668.500	415.970	80.013	19.995	104.102	14.223	395.606	0.456
669.000	416.259	80.013	19.993	104.109	14.206	396.487	0.464
669.500	416.491	80.013	19.994	104.108	14.190	397.351	0.505
670.000	416.739	80.012	19.994	104.117	14.174	398.209	0.501
670.500	417.000	80.012	19.994	104.111	14.161	398.867	0.495
671.000	417.255	80.011	19.994	104.101	14.149	399.541	0.512
671.500	417.478	80.011	19.994	104.085	14.133	400.585	0.497
672.000	417.727	80.011	19.994	104.060	14.114	401.828	0.475
672.500	417.961	80.011	19.993	104.044	14.073	404.660	0.477
673.000	418.221	80.013	19.994	104.019	14.017	408.782	0.489
673.500	418.451	80.012	19.994	104.028	13.955	413.454	0.493
674.001	418.688	80.011	19.995	104.029	13.889	418.316	0.479
674.501	418.958	80.012	19.993	104.044	13.830	422.778	0.487
675.000	419.218	80.013	19.995	104.059	13.779	426.622	0.518
675.500	419.427	80.010	19.995	104.120	13.744	429.107	0.499
676.000	419.689	80.013	19.996	104.203	13.718	430.942	0.470
676.500	419.931	80.012	19.994	104.232	13.708	431.757	0.488
677.000	420.196	80.009	19.994	104.243	13.700	432.190	0.505
677.500	420.424	80.011	19.994	104.252	13.694	432.479	0.500
678.000	420.640	80.010	19.994	104.236	13.701	431.951	0.469
678.500	420.905	80.012	19.993	104.171	13.699	431.914	0.463
679.000	421.136	80.012	19.996	104.142	13.708	431.144	0.488
679.500	421.376	80.013	19.995	104.129	13.716	430.578	0.484
680.000	421.643	80.010	19.995	104.058	13.722	430.173	0.490
680.500	421.870	80.012	19.995	103.983	13.729	429.672	0.501
681.000	422.092	80.013	19.994	103.937	13.734	429.348	0.471
681.500	422.353	80.013	19.994	103.873	13.740	428.844	0.466
682.000	422.585	80.012	19.994	103.821	13.758	427.643	0.488
682.500	422.866	80.011	19.994	103.809	13.767	426.980	0.503
683.000	423.082	80.012	19.994	103.799	13.789	425.461	0.505
683.500	423.310	80.013	19.995	103.801	13.797	424.814	0.471
684.000	423.573	80.013	19.994	103.879	13.816	423.526	0.468
684.500	423.788	80.011	19.994	103.980	13.825	422.917	0.484
685.000	424.050	80.013	19.994	104.065	13.840	421.913	0.478
685.500	424.271	80.012	19.995	104.172	13.844	421.710	0.480
686.000	424.546	80.013	19.996	104.261	13.863	420.536	0.489
686.500	424.821	80.011	19.995	104.275	13.876	419.707	0.523
687.000	425.015	80.014	19.996	104.287	13.895	418.430	0.510
687.500	425.304	80.015	19.995	104.313	13.919	416.800	0.476
688.000	425.550	80.013	19.994	104.288	13.940	415.388	0.508
688.500	425.792	80.013	19.995	104.252	13.970	413.580	0.511
689.000	426.052	80.013	19.994	104.244	13.994	412.077	0.496
689.500	426.284	80.013	19.993	104.205	14.018	410.473	0.497
690.000	426.528	80.013	19.994	104.170	14.052	408.084	0.484
690.500	426.810	80.014	19.996	104.171	14.084	405.923	0.500
691.000	427.072	80.014	19.996	104.159	14.117	403.385	0.535
691.500	427.303	80.012	19.994	104.153	14.158	400.458	0.519
692.000	427.528	80.014	19.994	104.162	14.198	397.590	0.474
692.500	427.806	80.013	19.994	104.149	14.240	394.460	0.480
693.000	428.074	80.012	19.995	104.145	14.287	391.067	0.525
693.500	428.330	80.013	19.994	104.140	14.333	387.791	0.535
694.000	428.565	80.011	19.995	104.131	14.381	384.298	0.507
694.500	428.808	80.011	19.994	104.115	14.422	381.434	0.485
695.000	429.066	80.013	19.994	104.119	14.471	377.997	0.489
695.500	429.304	80.013	19.993	104.114	14.524	374.213	0.498
696.000	429.539	80.016	19.995	104.130	14.570	371.090	0.485
696.500	429.804	80.013	19.995	104.153	14.602	368.989	0.487
697.000	430.083	80.015	19.995	104.170	14.621	367.804	0.522
697.500	430.351	80.012	19.994	104.192	14.640	366.789	0.545
698.000	430.583	80.014	19.994	104.197	14.653	366.166	0.523
698.500	430.823	80.013	19.994	104.212	14.677	364.797	0.486
699.000	431.062	80.013	19.994	104.216	14.709	362.682	0.476
699.500	431.335	80.013	19.994	104.277	14.750	359.987	0.495
700.000	431.589	80.014	19.994	104.309	14.796	356.841	0.519
700.500	431.883	80.014	19.993	104.319	14.851	353.018	0.538
701.000	432.115	80.013	19.993	104.320	14.910	348.860	0.537
701.500	432.386	80.013	19.993	104.322	14.987	343.472	0.515
702.000	432.612	80.013	19.993	104.261	15.050	339.040	0.500
702.500	432.848	80.015	19.994	104.224	15.128	333.580	0.479
703.000	433.112	80.013	19.994	104.189	15.197	328.710	0.481
703.500	433.393	80.011	19.993	104.137	15.266	323.934	0.523
704.000	433.620	80.016	19.993	104.091	15.342	318.673	0.527
704.500	433.909	80.013	19.993	104.049	15.419	313.337	0.511
705.000	434.167	80.015	19.994	103.998	15.491	308.429	0.531
705.500	434.413	80.015	19.993	103.982	15.562	303.478	0.526
706.000	434.672	80.013	19.992	103.966	15.634	298.560	0.505
706.500	434.936	80.015	19.994	103.928	15.704	293.745	0.514
707.000	435.187	80.013	19.993	103.930	15.789	287.883	0.519
707.500	435.434	80.013	19.994	103.962	15.856	283.298	0.507
708.000	435.696	80.014	19.993	103.996	15.924	278.614	0.504
708.500	435.947	80.015	19.992	104.069	16.002	273.226	0.510
709.000	436.203	80.015	19.992	104.157	16.071	268.546	0.510
709.500	436.431	80.014	19.994	104.228	16.145	263.425	0.495
710.000	436.688	80.016	19.993	104.267	16.218	258.444	0.485
710.500	436.964	80.017	19.992	104.293	16.285	253.823	0.509
711.000	437.211	80.014	19.995	104.292	16.362	248.554	0.528
711.500	437.474	80.016	19.994	104.280	16.426	244.102	0.517
712.000	437.755	80.017	19.993	104.252	16.497	239.222	0.527
712.500	437.997	80.016	19.993	104.221	16.568	234.341	0.533
713.000	438.276	80.014	19.993	104.190	16.638	229.534	0.522
713.500	438.508	80.014	19.992	104.160	16.709	224.660	0.516
714.000	438.797	80.016	19.994	104.135	16.774	220.210	0.516
714.500	439.024	80.015	19.993	104.119	16.849	215.049	0.518
715.000	439.293	80.015	19.993	104.108	16.916	210.473	0.506
715.500	439.578	80.012	19.994	104.096	16.985	205.716	0.525
716.000	439.839	80.012	19.994	104.087	17.051	201.159	0.550
716.500	440.107	80.016	19.994	104.079	17.119	196.545	0.538
717.000	440.349	80.016	19.993	104.071	17.183	192.134	0.520
717.500	440.639	80.013	19.992	104.066	17.246	187.802	0.521
718.000	440.858	80.013	19.993	104.064	17.309	183.447	0.520
718.500	441.103	80.014	19.993	104.065	17.371	179.207	0.487
719.000	441.370	80.014	19.993	104.065	17.436	174.745	0.488
719.500	441.647	80.015	19.993	104.065	17.503	170.151	0.527
720.000	441.867	80.012	19.994	104.063	17.560	166.194	0.520
720.500	442.131	80.013	19.994	104.062	17.620	162.044	0.491
721.000	442.413	80.015	19.993	104.061	17.675	158.287	0.516
721.500	442.689	80.012	19.993	104.061	17.737	154.012	0.552
722.000	442.934	80.015	19.992	104.061	17.791	150.346	0.539
722.500	443.203	80.013	19.992	104.058	17.852	146.157	0.518
723.000	443.470	80.013	19.993	104.052	17.903	142.634	0.525
723.500	443.714	80.013	19.994	104.046	17.959	138.769	0.523
724.000	443.976	80.012	19.993	104.044	18.017	134.804	0.509
724.500	444.201	80.012	19.994	104.043	18.062	131.730	0.497
725.000	444.471	80.012	19.993	104.041	18.111	128.324	0.491
725.500	444.733	80.013	19.994	104.040	18.166	124.545	0.513
726.000	444.998	80.011	19.992	104.038	18.215	121.211	0.530
726.500	445.284	80.012	19.993	104.032	18.259	118.189	0.539
727.000	445.525	80.012	19.995	104.027	18.310	114.713	0.539
727.500	445.802	80.011	19.995	104.029	18.357	111.511	0.523
728.000	446.064	80.010	19.993	104.029	18.398	108.705	0.529
728.500	446.312	80.014	19.992	104.029	18.445	105.446	0.524
729.000	446.567	80.013	19.994	104.028	18.488	102.527	0.506
729.500	446.812	80.012	19.994	104.021	18.525	99.980	0.501
730.000	447.054	80.013	19.993	104.011	18.569	96.947	0.494
730.500	447.333	80.013	19.993	104.004	18.609	94.196	0.504
731.000	447.616	80.012	19.993	103.997	18.645	91.724	0.542
731.500	447.862	80.011	19.993	103.991	18.685	88.997	0.545
732.000	448.115	80.013	19.994	103.989	18.718	86.691	0.514
732.500	448.395	80.012	19.992	103.987	18.755	84.159	0.516
733.000	448.627	80.011	19.992	103.984	18.791	81.679	0.522
733.500	448.880	80.014	19.995	103.983	18.821	79.640	0.499
734.000	449.106	80.013	19.993	103.981	18.852	77.503	0.483
734.500	449.413	80.011	19.993	103.975	18.882	75.479	0.506
735.000	449.617	80.011	19.994	103.970	18.912	73.431	0.522
735.500	449.933	80.013	19.993	103.963	18.946	71.090	0.516
736.000	450.185	80.013	19.992	103.957	18.973	69.238	0.544
736.500	450.432	80.013	19.994	103.950	18.999	67.427	0.533
737.000	450.722	80.013	19.993	103.947	19.026	65.603	0.518
737.500	450.953	80.013	19.992	103.949	19.050	63.962	0.529
738.000	451.233	80.012	19.994	103.953	19.076	62.160	0.516
738.500	451.516	80.012	19.992	103.954	19.110	59.848	0.537
739.000	451.757	80.013	19.992	103.955	19.123	58.909	0.544
739.500	451.996	80.013	19.993	103.954	19.145	57.411	0.502
740.000	452.250	80.014	19.994	103.950	19.166	55.960	0.486
740.500	452.501	80.014	19.993	103.945	19.188	54.440	0.499
741.000	452.754	80.015	19.993	103.943	19.209	53.036	0.504
741.500	452.999	80.012	19.993	103.943	19.230	51.545	0.501
742.000	453.280	80.012	19.993	103.942	19.255	49.894	0.512
742.500	453.525	80.013	19.993	103.941	19.267	49.011	0.527
743.000	453.760	80.014	19.993	103.940	19.286	47.771	0.503
743.500	454.049	80.013	19.993	103.938	19.305	46.443	0.502
744.000	454.300	80.013	19.993	103.930	19.325	45.048	0.531
744.500	454.576	80.014	19.992	103.925	19.339	44.132	0.533
745.000	454.836	80.011	19.993	103.924	19.348	43.473	0.532
745.500	455.073	80.014	19.992	103.919	19.368	42.122	0.517
746.000	455.338	80.014	19.994	103.916	19.384	41.004	0.500
746.500	455.620	80.013	19.994	103.916	19.397	40.161	0.525
747.000	455.854	80.015	19.994	103.914	19.403	39.693	0.532
747.500	456.156	80.012	19.992	103.909	19.415	38.872	0.526
748.000	456.398	80.013	19.992	103.906	19.430	37.879	0.540
748.500	456.654	80.014	19.993	103.903	19.441	37.144	0.521
749.000	456.883	80.013	19.993	103.901	19.460	35.844	0.492
749.500	457.149	80.013	19.993	103.894	19.466	35.417	0.490
750.000	457.410	80.014	19.994	103.889	19.477	34.614	0.511
750.500	457.658	80.013	19.993	103.884	19.488	33.895	0.518
751.000	457.898	80.012	19.994	103.877	19.501	33.027	0.499
751.500	458.158	80.014	19.993	103.872	19.514	32.104	0.494
752.000	458.432	80.014	19.992	103.872	19.522	31.530	0.517
752.500	458.709	80.014	19.995	103.869	19.530	31.046	0.542
753.000	458.974	80.011	19.993	103.867	19.536	30.600	0.546
753.500	459.218	80.011	19.995	103.866	19.549	29.719	0.526
754.000	459.463	80.011	19.993	103.865	19.559	29.035	0.499
754.500	459.742	80.012	19.994	103.863	19.564	28.672	0.507
755.000	459.973	80.011	19.993	103.863	19.567	28.483	0.518
755.500	460.253	80.011	19.995	103.862	19.575	27.917	0.511
756.000	460.502	80.015	19.995	103.860	19.589	26.945	0.520
756.500	460.772	80.013	19.994	103.861	19.597	26.415	0.524
757.000	461.020	80.013	19.994	103.862	19.600	26.221	0.519
757.500	461.304	80.012	19.994	103.862	19.609	25.584	0.525
758.000	461.538	80.012	19.995	103.863	19.616	25.120	0.525
758.500	461.789	80.012	19.994	103.864	19.623	24.641	0.501
759.000	462.020	80.013	19.994	103.862	19.630	24.168	0.484
759.500	462.300	80.010	19.995	103.855	19.637	23.709	0.496
760.000	462.548	80.012	19.995	103.847	19.640	23.488	0.519
760.500	462.787	80.013	19.994	103.841	19.649	22.835	0.508
761.000	463.077	80.010	19.994	103.838	19.649	22.879	0.508
761.500	463.292	80.012	19.994	103.834	19.657	22.303	0.517
762.000	463.572	80.013	19.994	103.834	19.668	21.558	0.500
762.500	463.800	80.013	19.995	103.835	19.669	21.502	0.502
763.000	464.079	80.014	19.995	103.833	19.677	20.934	0.508
763.500	464.309	80.012	19.993	103.830	19.684	20.463	0.508
764.000	464.583	80.014	19.995	103.826	19.687	20.276	0.506
764.500	464.824	80.015	19.993	103.823	19.696	19.671	0.509
765.000	465.044	80.014	19.995	103.822	19.701	19.265	0.488
765.500	465.288	80.015	19.994	103.822	19.701	19.315	0.463
766.001	465.589	80.013	19.993	103.823	19.709	18.785	0.504
766.500	465.818	80.011	19.993	103.822	19.716	18.293	0.537
767.000	466.075	80.014	19.993	103.819	19.721	17.963	0.508
767.500	466.263	80.013	19.994	103.817	19.719	18.057	0.465
768.000	466.540	80.016	19.993	103.815	19.722	17.884	0.455
768.500	466.809	80.014	19.994	103.815	19.728	17.427	0.506
769.000	467.025	80.014	19.993	103.815	19.737	16.806	0.515
769.500	467.310	80.016	19.993	103.818	19.736	16.903	0.493
770.000	467.575	80.014	19.994	103.817	19.744	16.382	0.526
770.500	467.833	80.013	19.993	103.814	19.751	15.862	0.537
771.000	468.020	80.016	19.994	103.808	19.752	15.838	0.484
771.500	468.321	80.014	19.994	103.806	19.757	15.484	0.467
772.000	468.569	80.011	19.993	103.805	19.756	15.533	0.519
772.500	468.837	80.023	19.992	103.803	19.758	15.406	0.533
773.000	469.060	80.019	19.993	103.801	19.765	14.901	0.504
773.500	469.302	80.013	19.993	103.802	19.765	14.941	0.478
774.000	469.557	80.008	19.995	103.806	19.773	14.377	0.481
774.500	469.835	80.014	19.993	103.805	19.778	14.031	0.515
775.000	470.068	80.013	19.993	103.810	19.781	13.805	0.522
775.500	470.354	80.011	19.993	103.816	19.786	13.504	0.515
776.000	470.578	80.008	19.994	103.818	19.787	13.419	0.514
776.500	470.829	80.013	19.994	103.818	19.797	12.758	0.492
777.000	471.102	80.004	19.994	103.820	19.794	12.903	0.500
777.500	471.334	80.015	19.995	103.820	19.799	12.566	0.515
778.000	471.608	80.008	19.993	103.819	19.801	12.485	0.506
778.500	471.859	80.015	19.993	103.824	19.801	12.433	0.516
779.000	472.110	80.015	19.994	103.825	19.805	12.201	0.513
779.500	472.349	80.003	19.995	103.827	19.814	11.583	0.496
780.000	472.648	80.011	19.995	103.825	19.817	11.350	0.514
780.500	472.870	80.014	19.994	103.825	19.819	11.205	0.529
781.000	473.145	80.012	19.995	103.827	19.822	11.011	0.509
781.500	473.360	80.012	19.994	103.830	19.825	10.789	0.494
782.000	473.647	80.013	19.993	103.828	19.829	10.507	0.496
782.500	473.879	80.014	19.994	103.830	19.833	10.261	0.510
783.000	474.157	80.013	19.994	103.831	19.830	10.492	0.515
783.500	474.418	80.012	19.994	103.832	19.835	10.099	0.525
784.000	474.638	80.012	19.994	103.833	19.840	9.793	0.510
784.500	474.920	80.012	19.994	103.838	19.841	9.739	0.492
785.000	475.167	80.013	19.995	103.842	19.844	9.490	0.515
785.500	475.436	80.011	19.994	103.846	19.842	9.613	0.522
786.000	475.644	80.012	19.993	103.844	19.847	9.287	0.497
786.500	475.919	80.012	19.994	103.841	19.849	9.162	0.480
787.000	476.164	80.013	19.995	103.844	19.855	8.741	0.502
787.500	476.440	80.012	19.994	103.847	19.854	8.810	0.521
788.000	476.672	80.011	19.995	103.846	19.855	8.745	0.514
788.500	476.971	80.010	19.995	103.847	19.859	8.454	0.519
789.000	477.176	80.011	19.995	103.847	19.858	8.530	0.517
789.500	477.404	80.011	19.994	103.844	19.860	8.398	0.468
790.000	477.667	80.012	19.993	103.838	19.860	8.383	0.462
790.500	477.930	80.012	19.995	103.841	19.864	8.149	0.508
791.000	478.167	80.015	19.994	103.846	19.867	7.961	0.513
791.500	478.451	80.012	19.994	103.846	19.867	7.931	0.511
792.000	478.694	80.013	19.993	103.844	19.865	8.071	0.524
792.500	478.957	80.012	19.993	103.845	19.869	7.828	0.517
793.000	479.229	80.012	19.993	103.844	19.869	7.775	0.521
793.500	479.449	80.013	19.994	103.841	19.869	7.827	0.513
794.001	479.723	80.013	19.995	103.839	19.875	7.406	0.492
794.501	479.973	80.015	19.996	103.839	19.872	7.585	0.509
795.000	480.239	80.014	19.995	103.840	19.868	7.849	0.520
795.500	480.475	80.013	19.993	103.835	19.866	8.018	0.509
796.000	480.743	80.012	19.993	103.832	19.872	7.614	0.503
796.500	481.012	80.014	19.993	103.832	19.873	7.548	0.521
797.000	481.242	80.015	19.994	103.832	19.869	7.765	0.518
797.500	481.498	80.014	19.993	103.830	19.870	7.705	0.492
798.000	481.767	80.015	19.993	103.830	19.872	7.595	0.506
798.500	482.028	80.013	19.992	103.828	19.871	7.664	0.528
799.000	482.265	80.015	19.993	103.828	19.870	7.705	0.514
799.500	482.570	80.013	19.992	103.830	19.872	7.561	0.520
800.000	482.788	80.016	19.993	103.831	19.872	7.617	0.532
800.500	483.078	80.012	19.992	103.831	19.873	7.541	0.515
801.000	483.281	80.015	19.993	103.834	19.873	7.507	0.500
801.500	483.562	80.013	19.992	103.839	19.869	7.820	0.489
802.000	483.805	80.014	19.992	103.840	19.873	7.524	0.504
802.500	484.054	80.012	19.993	103.839	19.879	7.084	0.508
803.000	484.299	80.015	19.993	103.837	19.871	7.634	0.493
803.500	484.547	80.014	19.993	103.834	19.882	6.918	0.494
804.000	484.802	80.013	19.993	103.829	19.872	7.569	0.498
804.500	485.082	80.014	19.994	103.825	19.872	7.608	0.518
805.000	485.343	80.014	19.993	103.825	19.874	7.452	0.538
805.500	485.586	80.013	19.993	103.827	19.873	7.497	0.523
806.000	485.800	80.013	19.995	103.834	19.871	7.655	0.480
806.500	486.078	80.011	19.994	103.835	19.871	7.637	0.475
807.000	486.367	80.013	19.994	103.835	19.876	7.299	0.530
807.500	486.595	80.013	19.993	103.834	19.878	7.159	0.542
808.000	486.833	80.013	19.995	103.835	19.879	7.144	0.492
808.500	487.084	80.011	19.993	103.828	19.881	6.967	0.478
809.000	487.363	80.013	19.993	103.831	19.874	7.444	0.509
809.500	487.576	80.011	19.994	103.831	19.871	7.691	0.511
810.000	487.867	80.012	19.994	103.830	19.876	7.291	0.498
810.500	488.110	80.012	19.994	103.829	19.876	7.313	0.519
811.000	488.354	80.012	19.993	103.830	19.874	7.423	0.511
811.500	488.604	80.012	19.994	103.827	19.874	7.468	0.490
812.000	488.836	80.013	19.993	103.828	19.876	7.306	0.488
812.500	489.087	80.004	19.995	103.829	19.874	7.459	0.482
813.000	489.362	80.019	19.992	103.826	19.877	7.263	0.505
813.500	489.615	80.009	19.994	103.827	19.877	7.234	0.527
814.000	489.889	80.017	19.994	103.827	19.880	7.016	0.528
814.500	490.121	80.017	19.994	103.831	19.879	7.079	0.516
815.000	490.398	80.013	19.994	103.833	19.878	7.153	0.507
815.500	490.626	80.012	19.994	103.836	19.876	7.323	0.507
816.000	490.894	80.013	19.993	103.838	19.875	7.407	0.501
816.500	491.114	80.014	19.994	103.843	19.875	7.373	0.492
817.000	491.394	80.012	19.993	103.843	19.876	7.328	0.494
817.500	491.634	80.017	19.994	103.843	19.880	7.017	0.510
818.000	491.879	80.009	19.994	103.844	19.879	7.095	0.502
818.500	492.162	80.009	19.994	103.841	19.879	7.123	0.506
819.000	492.411	80.011	19.993	103.837	19.875	7.397	0.530
819.500	492.700	80.003	19.994	103.833	19.881	6.999	0.535
820.000	492.914	80.013	19.993	103.828	19.876	7.293	0.521
820.500	493.191	80.010	19.994	103.827	19.879	7.107	0.497
821.000	493.440	80.018	19.993	103.825	19.873	7.513	0.508
821.500	493.689	80.013	19.993	103.823	19.874	7.455	0.512
822.000	493.928	80.010	19.994	103.824	19.875	7.414	0.493
822.500	494.283	80.015	19.995	103.826	19.877	7.222	0.541
823.000	494.472	80.016	19.995	103.828	19.878	7.163	0.569
823.500	494.770	80.010	19.993	103.831	19.873	7.493	0.515
824.000	495.019	80.011	19.993	103.836	19.872	7.566	0.517
824.500	495.268	80.010	19.994	103.836	19.877	7.253	0.522
825.000	495.560	80.015	19.992	103.837	19.873	7.497	0.519
825.501	495.788	80.011	19.993	103.837	19.878	7.150	0.530
826.000	496.038	80.013	19.995	103.834	19.872	7.607	0.500
826.500	496.335	80.012	19.993	103.830	19.876	7.301	0.513
827.000	496.558	80.012	19.993	103.832	19.873	7.523	0.533
827.500	496.785	80.013	19.993	103.831	19.877	7.260	0.484
828.000	497.025	80.012	19.993	103.831	19.873	7.499	0.459
828.500	497.316	80.013	19.993	103.830	19.879	7.096	0.500
829.000	497.568	80.013	19.993	103.830	19.875	7.409	0.537
829.500	497.816	80.014	19.994	103.829	19.874	7.459	0.521
830.000	498.090	80.013	19.993	103.832	19.874	7.480	0.511
830.500	498.363	80.013	19.993	103.833	19.875	7.381	0.535
831.000	498.607	80.011	19.992	103.832	19.879	7.137	0.532
831.500	498.876	80.014	19.994	103.833	19.870	7.709	0.515
832.000	499.125	80.014	19.994	103.831	19.873	7.547	0.515
832.500	499.384	80.012	19.994	103.829	19.873	7.489	0.513
833.000	499.628	80.014	19.993	103.829	19.876	7.319	0.506
833.500	499.885	80.013	19.995	103.833	19.874	7.424	0.502
834.000	500.164	80.014	19.993	103.834	19.875	7.416	0.518
834.500	500.378	80.012	19.994	103.837	19.878	7.151	0.515
835.000	500.662	80.012	19.992	103.841	19.876	7.300	0.496
835.500	500.921	80.012	19.994	103.841	19.874	7.436	0.520
836.000	501.156	80.011	19.992	103.838	19.876	7.343	0.519
836.500	501.434	80.012	19.993	103.840	19.877	7.254	0.504
837.000	501.666	80.012	19.993	103.842	19.877	7.217	0.511
837.500	501.931	80.013	19.994	103.844	19.875	7.353	0.503
838.000	502.201	80.012	19.993	103.842	19.881	6.945	0.516
838.500	502.459	80.014	19.994	103.846	19.877	7.275	0.532
839.000	502.717	80.012	19.993	103.847	19.877	7.234	0.522
839.500	502.961	80.013	19.994	103.845	19.877	7.243	0.509
840.000	503.197	80.012	19.993	103.840	19.877	7.274	0.491
840.500	503.477	80.013	19.993	103.838	19.877	7.244	0.498
841.000	503.751	80.013	19.993	103.835	19.878	7.151	0.535
841.500	503.993	80.011	19.995	103.835	19.875	7.406	0.534
842.000	504.232	80.011	19.993	103.837	19.877	7.261	0.498
842.500	504.466	80.012	19.994	103.837	19.878	7.190	0.477
843.000	504.726	80.012	19.993	103.838	19.875	7.375	0.484
843.500	504.959	80.010	19.994	103.840	19.878	7.174	0.493
844.000	505.247	80.012	19.995	103.837	19.876	7.299	0.506
844.500	505.493	80.012	19.993	103.834	19.878	7.213	0.528
845.000	505.749	80.002	19.996	103.834	19.876	7.336	0.519
845.500	506.037	80.007	19.994	103.833	19.872	7.615	0.523
846.000	506.288	80.007	19.992	103.833	19.878	7.145	0.542
846.500	506.480	80.015	19.993	103.831	19.876	7.328	0.491
847.000	506.790	80.012	19.996	103.833	19.880	7.024	0.472
847.500	507.031	80.011	19.995	103.835	19.877	7.242	0.526
848.000	507.289	80.010	19.994	103.837	19.879	7.130	0.525
848.500	507.574	80.014	19.995	103.838	19.876	7.293	0.521
849.000	507.801	80.010	19.994	103.839	19.875	7.375	0.528
849.500	508.111	80.014	19.993	103.836	19.877	7.226	0.525
850.000	508.323	80.012	19.993	103.836	19.874	7.475	0.529
850.500	508.637	80.011	19.995	103.832	19.877	7.220	0.524
851.000	508.850	80.006	19.994	103.830	19.876	7.292	0.527
851.500	509.139	80.010	19.993	103.827	19.875	7.367	0.515
852.000	509.365	80.012	19.995	103.827	19.873	7.503	0.508
852.500	509.601	80.012	19.994	103.827	19.875	7.382	0.488
853.000	509.869	80.025	19.992	103.829	19.878	7.166	0.483
853.500	510.098	80.020	19.994	103.831	19.876	7.289	0.501
854.000	510.363	80.015	19.993	103.835	19.875	7.369	0.496
854.500	510.585	80.016	19.994	103.834	19.877	7.216	0.491
855.000	510.858	80.018	19.993	103.834	19.876	7.308	0.491
855.500	511.117	80.009	19.994	103.833	19.878	7.181	0.513
856.000	511.391	80.014	19.995	103.831	19.874	7.451	0.532
856.500	511.635	80.012	19.994	103.829	19.875	7.397	0.525
857.000	511.871	80.003	19.995	103.827	19.878	7.170	0.499
857.500	512.120	80.019	19.993	103.822	19.875	7.395	0.482
858.000	512.368	80.010	19.993	103.822	19.879	7.142	0.491
858.500	512.629	80.020	19.994	103.823	19.876	7.298	0.503
859.000	512.930	80.014	19.993	103.823	19.876	7.302	0.535
859.500	513.134	80.014	19.992	103.826	19.878	7.209	0.534
860.000	513.407	80.008	19.995	103.831	19.872	7.617	0.491
860.500	513.612	80.011	19.996	103.830	19.873	7.492	0.477
861.000	513.922	80.015	19.994	103.827	19.877	7.244	0.497
861.500	514.172	80.014	19.995	103.825	19.880	7.033	0.537
862.000	514.438	80.013	19.995	103.825	19.877	7.255	0.538
862.500	514.699	80.014	19.993	103.824	19.873	7.513	0.521
863.000	514.932	80.005	19.995	103.826	19.874	7.451	0.511
863.500	515.174	80.017	19.994	103.824	19.877	7.269	0.485
864.000	515.475	80.010	19.995	103.825	19.874	7.434	0.509
864.500	515.711	80.015	19.994	103.824	19.874	7.444	0.540
865.000	515.928	80.013	19.995	103.825	19.881	6.952	0.496
865.500	516.225	80.012	19.994	103.825	19.878	7.181	0.484
866.001	516.446	80.017	19.994	103.828	19.879	7.129	0.516
866.500	516.724	80.001	19.995	103.829	19.877	7.239	0.508
867.000	516.968	80.011	19.994	103.827	19.876	7.284	0.511
867.500	517.240	80.010	19.994	103.827	19.876	7.317	0.519
868.000	517.451	80.024	19.993	103.828	19.879	7.084	0.500
868.500	517.745	80.019	19.993	103.830	19.878	7.168	0.494
869.000	517.974	80.002	19.995	103.830	19.877	7.241	0.513
869.500	518.241	80.011	19.993	103.829	19.881	6.944	0.509
870.000	518.468	80.000	19.995	103.830	19.875	7.352	0.495
870.500	518.730	80.015	19.994	103.826	19.877	7.237	0.491
871.000	518.994	80.016	19.993	103.824	19.876	7.281	0.508
871.500	519.239	80.004	19.995	103.824	19.877	7.250	0.518
872.000	519.492	80.015	19.993	103.825	19.878	7.207	0.503
872.500	519.723	80.008	19.994	103.825	19.874	7.486	0.491
873.000	519.988	80.014	19.993	103.829	19.881	6.965	0.490
873.500	520.245	80.015	19.995	103.829	19.881	6.991	0.509
874.000	520.507	80.012	19.992	103.828	19.879	7.128	0.521
874.500	520.729	80.016	19.993	103.828	19.873	7.502	0.501
875.000	521.002	80.012	19.994	103.828	19.878	7.213	0.489
875.500	521.217	80.014	19.994	103.827	19.877	7.251	0.492
876.000	521.475	80.016	19.993	103.827	19.877	7.243	0.480
876.500	521.731	80.008	19.994	103.828	19.879	7.100	0.493
877.000	521.966	80.020	19.993	103.828	19.874	7.448	0.503
877.500	522.226	80.014	19.994	103.828	19.878	7.148	0.493
878.000	522.510	80.018	19.992	103.830	19.875	7.368	0.519
878.500	522.718	80.009	19.995	103.832	19.874	7.463	0.518
879.000	523.018	80.018	19.994	103.828	19.877	7.249	0.500
879.500	523.235	80.012	19.994	103.831	19.877	7.261	0.512
880.000	523.523	80.008	19.994	103.828	19.880	7.008	0.511
880.500	523.758	80.011	19.994	103.826	19.884	6.774	0.514
881.000	523.993	80.009	19.995	103.824	19.879	7.140	0.496
881.500	524.266	80.019	19.994	103.826	19.875	7.362	0.489
882.000	524.489	80.017	19.993	103.824	19.874	7.444	0.502
882.500	524.754	80.017	19.995	103.826	19.879	7.087	0.493
883.000	525.012	80.019	19.993	103.826	19.876	7.299	0.506
883.500	525.234	80.010	19.996	103.828	19.877	7.255	0.502
884.000	525.526	80.010	19.995	103.827	19.875	7.374	0.497
884.500	525.802	80.014	19.995	103.826	19.875	7.352	0.541
885.000	526.061	80.016	19.995	103.825	19.878	7.168	0.551
885.500	526.280	80.016	19.994	103.831	19.875	7.401	0.506
886.000	526.552	80.023	19.993	103.835	19.875	7.402	0.485
886.500	526.800	80.010	19.995	103.840	19.877	7.252	0.505
887.000	527.047	80.013	19.993	103.839	19.876	7.349	0.507
887.500	527.333	80.013	19.995	103.842	19.875	7.408	0.514
888.000	527.549	80.014	19.996	103.842	19.877	7.266	0.518
888.500	527.803	80.014	19.994	103.838	19.877	7.231	0.486
889.000	528.074	80.018	19.996	103.840	19.875	7.414	0.498
889.500	528.345	80.009	19.995	103.843	19.875	7.397	0.534
890.000	528.626	80.006	19.995	103.838	19.878	7.204	0.547
890.500	528.866	80.011	19.994	103.832	19.880	7.064	0.536
891.000	529.148	80.006	19.994	103.830	19.878	7.186	0.521
891.500	529.369	80.005	19.996	103.824	19.876	7.348	0.513
892.001	529.654	80.007	19.995	103.827	19.877	7.281	0.504
892.500	529.901	80.006	19.993	103.834	19.873	7.501	0.519
893.000	530.184	80.009	19.994	103.837	19.878	7.188	0.531
893.500	530.452	80.012	19.995	103.838	19.873	7.535	0.540
894.000	530.737	80.013	19.995	103.839	19.874	7.454	0.552
894.500	531.025	80.016	19.993	103.842	19.876	7.313	0.564
895.000	531.227	80.014	19.993	103.844	19.877	7.216	0.532
895.500	531.518	80.012	19.993	103.847	19.874	7.467	0.491
896.000	531.782	80.010	19.995	103.851	19.876	7.335	0.523
896.500	532.020	80.007	19.995	103.851	19.873	7.513	0.529
897.000	532.321	80.006	19.995	103.844	19.878	7.173	0.521
897.500	532.577	80.011	19.994	103.836	19.876	7.348	0.548
898.000	532.847	80.013	19.994	103.831	19.878	7.181	0.541
898.500	533.105	79.997	19.997	103.825	19.876	7.349	0.527
899.000	533.338	80.009	19.995	103.823	19.873	7.499	0.509
899.500	533.646	80.013	19.993	103.825	19.877	7.240	0.516
900.000	533.916	80.018	19.994	103.830	19.871	7.693	0.560
900.500	534.196	80.010	19.993	103.832	19.878	7.192	0.564
901.000	534.410	80.019	19.993	103.835	19.877	7.220	0.522
901.500	534.748	80.007	19.995	103.838	19.875	7.418	0.523
902.000	534.984	80.020	19.993	103.843	19.875	7.414	0.563
902.500	535.269	80.012	19.993	103.846	19.878	7.184	0.547
903.000	535.547	80.018	19.993	103.849	19.872	7.598	0.542
903.500	535.815	80.023	19.993	103.852	19.874	7.466	0.554
904.000	536.088	80.019	19.992	103.851	19.875	7.416	0.543
904.500	536.370	80.015	19.993	103.847	19.877	7.278	0.548
905.000	536.631	80.012	19.994	103.844	19.876	7.344	0.549
905.500	536.871	80.011	19.995	103.845	19.874	7.437	0.522
906.000	537.169	80.010	19.993	103.844	19.874	7.462	0.520
906.500	537.476	80.017	19.992	103.843	19.874	7.488	0.571
907.000	537.719	80.020	19.994	103.849	19.869	7.807	0.577
907.500	537.987	80.018	19.993	103.855	19.876	7.299	0.531
908.000	538.281	80.013	19.994	103.855	19.873	7.493	0.537
908.500	538.528	80.015	19.994	103.851	19.872	7.590	0.552
909.000	538.800	80.011	19.994	103.855	19.872	7.598	0.530
909.500	539.055	80.002	19.995	103.853	19.876	7.335	0.523
910.000	539.324	80.018	19.993	103.846	19.874	7.471	0.525
910.500	539.596	80.015	19.993	103.845	19.874	7.466	0.533
911.000	539.910	80.017	19.994	103.852	19.873	7.503	0.564
911.500	540.165	80.020	19.992	103.852	19.876	7.339	0.577
912.000	540.432	80.011	19.993	103.851	19.874	7.436	0.545
912.500	540.711	80.011	19.993	103.856	19.878	7.194	0.535
913.000	541.017	80.010	19.994	103.858	19.871	7.662	0.566
913.500	541.263	80.007	19.995	103.852	19.875	7.412	0.568
914.000	541.523	80.014	19.993	103.849	19.877	7.230	0.529
914.500	541.799	80.013	19.996	103.847	19.880	7.047	0.521
915.000	542.108	80.018	19.994	103.837	19.878	7.194	0.560
915.500	542.365	80.009	19.995	103.833	19.874	7.468	0.575
916.000	542.645	80.013	19.994	103.838	19.875	7.368	0.552
916.500	542.936	80.005	19.995	103.845	19.875	7.360	0.554
917.000	543.185	80.017	19.993	103.847	19.875	7.408	0.555
917.500	543.477	80.010	19.994	103.849	19.872	7.564	0.541
918.000	543.748	80.009	19.993	103.848	19.876	7.305	0.552
918.500	544.007	80.012	19.993	103.840	19.873	7.538	0.546
919.000	544.275	80.003	19.994	103.837	19.873	7.493	0.528
919.500	544.576	80.018	19.992	103.836	19.873	7.526	0.549
920.000	544.807	80.014	19.992	103.844	19.870	7.738	0.551
920.500	545.083	80.023	19.995	103.849	19.872	7.614	0.519
921.000	545.382	80.016	19.992	103.850	19.871	7.692	0.541
921.500	545.640	80.008	19.993	103.849	19.874	7.428	0.566
922.000	545.938	80.023	19.991	103.852	19.874	7.475	0.556
922.500	546.208	80.022	19.993	103.854	19.876	7.309	0.562
923.000	546.451	80.023	19.993	103.856	19.873	7.509	0.541
923.500	546.745	80.022	19.991	103.857	19.872	7.585	0.525
924.000	547.000	80.007	19.994	103.855	19.870	7.760	0.543
924.500	547.337	80.004	19.995	103.848	19.872	7.619	0.570
925.000	547.564	79.991	19.998	103.836	19.871	7.628	0.578
925.500	547.897	80.012	19.993	103.826	19.871	7.673	0.562
926.000	548.168	80.017	19.993	103.826	19.871	7.660	0.582
926.500	548.427	80.022	19.992	103.826	19.872	7.567	0.567
927.000	548.685	80.012	19.994	103.832	19.874	7.462	0.524
927.500	548.957	80.011	19.994	103.837	19.875	7.400	0.523
928.000	549.261	80.012	19.993	103.845	19.875	7.389	0.553
928.500	549.534	80.010	19.994	103.848	19.875	7.400	0.577
929.000	549.797	80.014	19.992	103.847	19.872	7.592	0.556
929.500	550.076	79.996	19.995	103.844	19.873	7.551	0.539
930.000	550.332	80.013	19.993	103.839	19.875	7.372	0.538
930.500	550.611	79.994	19.995	103.834	19.871	7.627	0.535
931.000	550.866	80.005	19.995	103.830	19.875	7.358	0.535
931.500	551.175	80.001	19.995	103.834	19.869	7.777	0.549
932.000	551.424	80.008	19.996	103.836	19.870	7.718	0.560
932.500	551.723	80.009	19.993	103.841	19.877	7.271	0.553
933.000	551.975	80.012	19.994	103.849	19.872	7.582	0.550
933.500	552.220	80.021	19.992	103.850	19.875	7.400	0.524
934.000	552.492	80.007	19.995	103.849	19.876	7.321	0.507
934.500	552.789	80.012	19.993	103.850	19.873	7.494	0.543
935.000	553.085	80.016	19.994	103.852	19.872	7.623	0.581
935.500	553.308	80.014	19.994	103.851	19.875	7.389	0.556
936.000	553.588	80.018	19.993	103.856	19.876	7.303	0.511
936.500	553.841	80.027	19.993	103.860	19.871	7.685	0.518
937.000	554.135	80.015	19.993	103.861	19.874	7.483	0.540
937.500	554.394	80.014	19.992	103.857	19.871	7.625	0.550
938.000	554.680	80.016	19.992	103.851	19.870	7.752	0.549
938.500	554.967	80.010	19.991	103.847	19.875	7.381	0.559
939.000	555.225	80.010	19.992	103.843	19.872	7.591	0.559
939.500	555.480	80.009	19.994	103.842	19.874	7.454	0.529
940.000	555.806	80.016	19.991	103.839	19.873	7.526	0.547
940.500	556.036	80.016	19.994	103.844	19.870	7.742	0.569
941.000	556.341	80.014	19.993	103.841	19.872	7.597	0.545
941.500	556.556	80.008	19.994	103.837	19.873	7.520	0.527
942.000	556.834	80.021	19.992	103.830	19.870	7.718	0.507
942.500	557.113	80.011	19.993	103.831	19.871	7.631	0.525
943.000	557.354	80.001	19.994	103.828	19.872	7.571	0.538
943.500	557.642	80.023	19.993	103.831	19.874	7.469	0.524
944.000	557.892	80.018	19.994	103.841	19.871	7.661	0.534
944.500	558.151	80.018	19.992	103.850	19.873	7.502	0.523
945.000	558.444	80.026	19.992	103.855	19.876	7.314	0.530
945.500	558.721	80.011	19.993	103.856	19.871	7.636	0.561
946.000	558.988	80.012	19.994	103.854	19.871	7.626	0.557
946.500	559.284	80.012	19.994	103.847	19.875	7.406	0.553
947.000	559.553	80.017	19.993	103.843	19.872	7.623	0.564
947.500	559.778	80.012	19.995	103.839	19.872	7.597	0.530
948.000	560.076	80.022	19.993	103.833	19.874	7.427	0.508
948.500	560.317	80.014	19.993	103.837	19.872	7.601	0.531
949.000	560.585	80.006	19.994	103.838	19.874	7.472	0.524
949.500	560.827	80.018	19.994	103.834	19.876	7.289	0.510
950.000	561.133	80.024	19.992	103.836	19.871	7.625	0.529
950.500	561.406	80.012	19.994	103.841	19.876	7.321	0.563
951.000	561.697	80.009	19.995	103.835	19.874	7.485	0.572
951.500	561.947	80.013	19.993	103.834	19.869	7.824	0.553
952.000	562.181	80.013	19.993	103.837	19.871	7.687	0.513
952.500	562.461	80.011	19.994	103.833	19.872	7.579	0.499
953.000	562.750	80.013	19.995	103.834	19.872	7.577	0.541
953.500	563.038	80.024	19.993	103.835	19.873	7.536	0.573
954.000	563.271	80.013	19.994	103.842	19.875	7.375	0.549
954.500	563.557	80.009	19.995	103.843	19.872	7.567	0.520
955.000	563.798	80.010	19.993	103.842	19.872	7.585	0.523
955.500	564.067	80.016	19.995	103.838	19.867	7.912	0.518
956.000	564.341	80.009	19.994	103.835	19.869	7.802	0.527
956.500	564.622	80.020	19.993	103.827	19.871	7.642	0.549
957.000	564.871	80.014	19.994	103.825	19.872	7.620	0.543
957.500	565.122	80.015	19.994	103.827	19.872	7.616	0.515
958.000	565.471	80.022	19.992	103.830	19.869	7.805	0.550
958.500	565.694	80.013	19.994	103.835	19.873	7.493	0.586
959.000	565.920	80.009	19.994	103.836	19.866	8.025	0.510
959.500	566.193	80.012	19.994	103.833	19.876	7.329	0.474
960.000	566.507	80.014	19.994	103.835	19.874	7.473	0.543
960.500	566.774	80.019	19.994	103.836	19.871	7.659	0.584
961.000	566.980	80.013	19.994	103.833	19.874	7.470	0.527
961.500	567.298	80.014	19.994	103.832	19.873	7.503	0.498
962.000	567.574	80.013	19.994	103.836	19.877	7.240	0.559
962.500	567.804	80.008	19.996	103.836	19.873	7.498	0.550
963.000	568.066	80.025	19.993	103.839	19.872	7.620	0.499
963.500	568.328	80.009	19.996	103.839	19.872	7.582	0.509
964.000	568.606	80.016	19.993	103.837	19.870	7.746	0.532
964.500	568.883	80.022	19.993	103.837	19.873	7.507	0.547
965.000	569.085	80.014	19.996	103.835	19.874	7.477	0.517
965.500	569.437	80.017	19.994	103.829	19.875	7.412	0.516
966.000	569.662	80.021	19.993	103.827	19.870	7.755	0.566
966.500	569.912	80.026	19.994	103.829	19.872	7.603	0.526
967.000	570.189	80.016	19.994	103.832	19.875	7.400	0.500
967.500	570.481	80.015	19.996	103.834	19.874	7.481	0.548
968.000	570.719	80.012	19.994	103.839	19.871	7.690	0.550
968.500	570.991	80.018	19.993	103.844	19.875	7.410	0.520
969.000	571.234	80.007	19.995	103.848	19.875	7.408	0.512
969.500	571.522	80.015	19.993	103.844	19.868	7.852	0.523
970.000	571.790	80.012	19.993	103.845	19.872	7.563	0.543
970.500	572.050	80.017	19.995	103.842	19.873	7.507	0.542
971.000	572.310	80.014	19.995	103.843	19.869	7.809	0.524
971.500	572.606	80.013	19.994	103.846	19.872	7.619	0.538
972.000	572.893	80.020	19.994	103.852	19.867	7.898	0.569
972.500	573.116	80.017	19.993	103.851	19.868	7.839	0.547
973.000	573.351	80.017	19.993	103.852	19.874	7.452	0.484
973.500	573.684	80.012	19.993	103.851	19.875	7.376	0.513
974.000	573.911	80.003	19.997	103.845	19.869	7.766	0.564
974.500	574.237	79.997	19.996	103.835	19.871	7.673	0.557
975.000	574.498	80.019	19.994	103.830	19.872	7.606	0.570
975.500	574.769	80.018	19.994	103.830	19.875	7.407	0.559
976.000	575.042	80.026	19.993	103.827	19.874	7.442	0.538
976.500	575.322	80.020	19.994	103.831	19.874	7.436	0.549
977.000	575.578	80.016	19.994	103.835	19.868	7.889	0.545
977.500	575.826	80.013	19.994	103.840	19.874	7.434	0.520
978.000	576.141	80.008	19.995	103.838	19.874	7.455	0.533
978.500	576.410	80.017	19.992	103.835	19.874	7.455	0.574
979.000	576.650	80.009	19.993	103.833	19.868	7.883	0.547
979.500	576.888	80.007	19.996	103.833	19.874	7.449	0.493
980.000	577.167	80.008	19.994	103.829	19.871	7.628	0.497
980.500	577.429	79.995	19.997	103.834	19.875	7.367	0.529
981.000	577.705	80.012	19.994	103.834	19.873	7.552	0.539
981.500	577.982	80.006	19.995	103.833	19.873	7.520	0.546
982.000	578.243	79.998	19.996	103.831	19.873	7.547	0.546
982.500	578.504	80.004	19.995	103.831	19.870	7.709	0.530
983.000	578.786	80.012	19.994	103.826	19.873	7.534	0.532
983.500	579.021	80.010	19.995	103.830	19.873	7.522	0.530
984.000	579.275	80.013	19.994	103.835	19.871	7.634	0.503
984.500	579.542	80.021	19.995	103.845	19.875	7.392	0.505
985.000	579.831	80.012	19.995	103.850	19.876	7.292	0.539
985.500	580.068	80.011	19.995	103.852	19.871	7.629	0.541
986.000	580.329	80.017	19.994	103.855	19.869	7.814	0.512
986.500	580.590	80.016	19.994	103.856	19.875	7.365	0.510
987.000	580.885	80.017	19.994	103.853	19.868	7.873	0.539
987.500	581.137	80.010	19.996	103.852	19.870	7.760	0.552
988.000	581.438	80.012	19.995	103.854	19.874	7.435	0.550
988.500	581.697	80.017	19.994	103.853	19.873	7.508	0.557
989.000	581.969	80.009	19.995	103.852	19.871	7.689	0.546
989.500	582.229	80.002	19.996	103.852	19.875	7.400	0.531
990.000	582.495	80.020	19.994	103.853	19.873	7.493	0.529
990.500	582.780	80.010	19.996	103.854	19.870	7.741	0.539
991.000	582.999	80.014	19.995	103.856	19.871	7.685	0.528
991.500	583.304	80.021	19.993	103.853	19.873	7.547	0.514
992.000	583.625	80.012	19.994	103.854	19.873	7.525	0.575
992.500	583.812	80.004	19.998	103.850	19.874	7.426	0.567
993.000	584.050	80.005	19.994	103.842	19.874	7.428	0.467
993.500	584.331	80.005	19.993	103.838	19.875	7.352	0.472
994.000	584.631	80.006	19.995	103.835	19.874	7.430	0.550
994.500	584.924	80.012	19.995	103.830	19.871	7.637	0.587
995.000	585.178	80.018	19.994	103.832	19.877	7.247	0.570
995.500	585.406	80.015	19.995	103.840	19.872	7.580	0.514
996.000	585.690	80.008	19.993	103.841	19.871	7.666	0.497
996.500	585.947	80.004	19.995	103.845	19.871	7.679	0.527
997.000	586.203	80.006	19.998	103.845	19.875	7.351	0.527
997.501	586.506	80.013	19.993	103.845	19.870	7.749	0.536
998.000	586.763	80.019	19.992	103.843	19.872	7.564	0.559
998.500	587.019	80.004	19.994	103.843	19.878	7.147	0.536
999.000	587.265	80.004	19.995	103.841	19.878	7.203	0.508
999.500	587.531	80.005	19.994	103.839	19.874	7.449	0.507
1000.000	587.845	80.011	19.992	103.840	19.874	7.443	0.546
1000.500	588.067	80.012	19.994	103.843	19.875	7.417	0.558
1001.000	588.312	80.015	19.994	103.837	19.875	7.363	0.501
1001.500	588.590	80.012	19.994	103.838	19.871	7.673	0.495
1002.000	588.857	80.013	19.992	103.843	19.874	7.475	0.534
1002.500	589.105	80.015	19.994	103.843	19.871	7.678	0.530
1003.000	589.390	80.012	19.994	103.840	19.873	7.510	0.524
1003.500	589.647	80.012	19.996	103.847	19.872	7.572	0.537
1004.000	589.901	80.011	19.996	103.849	19.872	7.620	0.527
1004.500	590.153	80.009	19.995	103.850	19.873	7.551	0.508
1005.000	590.436	80.002	19.994	103.846	19.872	7.562	0.521
1005.500	590.648	80.005	19.995	103.843	19.874	7.433	0.515
1006.000	590.974	80.011	19.994	103.838	19.873	7.547	0.516
1006.500	591.216	80.016	19.993	103.835	19.868	7.886	0.553
1007.000	591.471	80.014	19.993	103.834	19.873	7.523	0.532
1007.500	591.777	80.022	19.992	103.833	19.875	7.364	0.529
1008.000	592.020	80.017	19.992	103.838	19.867	7.903	0.555
1008.500	592.284	80.011	19.994	103.844	19.869	7.793	0.528
1009.000	592.540	80.012	19.994	103.845	19.874	7.443	0.513
1009.500	592.744	80.014	19.995	103.845	19.870	7.696	0.490
1010.000	593.060	80.014	19.992	103.845	19.872	7.588	0.490
1010.500	593.329	80.012	19.992	103.846	19.868	7.851	0.552
1011.000	593.564	80.018	19.992	103.849	19.870	7.734	0.544
1011.500	593.856	80.013	19.993	103.851	19.867	7.939	0.515
1012.000	594.096	80.010	19.995	103.852	19.869	7.788	0.529
1012.500	594.369	80.010	19.996	103.855	19.869	7.820	0.523
1013.000	594.651	80.016	19.994	103.854	19.869	7.810	0.534
1013.500	594.890	80.013	19.992	103.851	19.870	7.706	0.538
1014.000	595.150	80.018	19.994	103.847	19.869	7.778	0.510
1014.500	595.435	80.010	19.994	103.845	19.864	8.129	0.521
1015.000	595.699	80.020	19.993	103.840	19.870	7.732	0.547
1015.500	595.939	80.009	19.993	103.837	19.874	7.458	0.527
1016.000	596.200	80.020	19.993	103.836	19.872	7.618	0.503
1016.500	596.421	80.013	19.992	103.834	19.870	7.752	0.492
1017.000	596.685	80.002	19.995	103.836	19.869	7.786	0.483
1017.500	596.960	80.014	19.996	103.838	19.870	7.739	0.512
1018.000	597.215	80.007	19.993	103.836	19.871	7.679	0.535
1018.500	597.454	80.023	19.991	103.839	19.869	7.799	0.512
1019.000	597.751	80.016	19.990	103.839	19.870	7.721	0.515
1019.500	598.027	80.021	19.992	103.835	19.871	7.654	0.555
1020.000	598.244	80.007	19.996	103.838	19.870	7.703	0.533
1020.500	598.513	80.003	19.995	103.841	19.869	7.829	0.490
1021.000	598.822	80.014	19.993	103.837	19.867	7.906	0.532
1021.500	599.038	80.019	19.993	103.843	19.868	7.861	0.551
1022.000	599.303	80.015	19.996	103.849	19.870	7.726	0.503
1022.500	599.555	80.018	19.993	103.847	19.867	7.929	0.499
1023.000	599.841	80.016	19.992	103.848	19.866	7.969	0.527
1023.500	600.088	80.022	19.991	103.850	19.864	8.141	0.535
1024.000	600.320	80.010	19.995	103.848	19.868	7.867	0.506
1024.500	600.547	80.014	19.992	103.844	19.867	7.923	0.469
1025.000	600.854	80.015	19.995	103.843	19.869	7.804	0.497
1025.500	601.099	80.012	19.994	103.843	19.870	7.729	0.543
1026.000	601.374	80.016	19.993	103.844	19.871	7.632	0.536
1026.500	601.644	80.017	19.993	103.839	19.870	7.751	0.533
1027.000	601.889	80.009	19.995	103.841	19.868	7.840	0.530
1027.501	602.159	80.009	19.996	103.841	19.869	7.769	0.515
1028.001	602.416	80.016	19.995	103.839	19.867	7.940	0.521
1028.500	602.688	80.021	19.993	103.838	19.867	7.961	0.528
1029.000	602.909	80.020	19.993	103.840	19.870	7.741	0.511
1029.500	603.190	80.013	19.993	103.840	19.869	7.829	0.497
1030.000	603.482	80.012	19.992	103.842	19.870	7.757	0.538
1030.500	603.712	80.001	19.994	103.848	19.869	7.811	0.548
1031.000	603.965	80.007	19.994	103.850	19.867	7.902	0.502
1031.500	604.202	80.016	19.993	103.852	19.871	7.692	0.486
1032.000	604.457	80.006	19.995	103.849	19.865	8.063	0.491
1032.500	604.780	80.014	19.994	103.846	19.869	7.781	0.535
1033.000	605.005	80.018	19.995	103.842	19.868	7.863	0.563
1033.500	605.257	80.013	19.993	103.844	19.872	7.613	0.513
1034.001	605.512	80.014	19.992	103.845	19.870	7.709	0.492
1034.501	605.778	80.012	19.994	103.850	19.867	7.951	0.514
1035.000	606.005	80.020	19.991	103.857	19.868	7.849	0.507
1035.500	606.303	80.019	19.993	103.860	19.865	8.080	0.510
1036.000	606.546	80.019	19.993	103.858	19.871	7.681	0.533
1036.500	606.788	80.011	19.995	103.859	19.873	7.541	0.513
1037.000	607.057	80.009	19.995	103.857	19.867	7.918	0.498
1037.500	607.300	80.014	19.993	103.852	19.871	7.647	0.511
1038.000	607.601	80.009	19.993	103.847	19.869	7.778	0.528
1038.500	607.824	80.013	19.995	103.847	19.872	7.595	0.535
1039.000	608.081	80.015	19.992	103.842	19.865	8.070	0.502
1039.500	608.365	80.013	19.994	103.842	19.872	7.555	0.510
1040.000	608.618	80.020	19.994	103.842	19.868	7.893	0.539
1040.500	608.879	80.013	19.994	103.841	19.868	7.842	0.525
1041.000	609.097	80.015	19.994	103.835	19.869	7.779	0.497
1041.500	609.369	80.017	19.992	103.834	19.869	7.824	0.485
1042.000	609.606	80.010	19.993	103.832	19.872	7.621	0.499
1042.501	609.880	80.023	19.992	103.829	19.875	7.395	0.510
1043.001	610.155	80.013	19.992	103.831	19.864	8.150	0.530
1043.500	610.400	80.014	19.993	103.831	19.865	8.072	0.534
1044.000	610.656	80.014	19.992	103.832	19.865	8.036	0.510
1044.500	610.890	80.012	19.994	103.830	19.862	8.258	0.496
1045.000	611.145	80.017	19.992	103.831	19.864	8.160	0.490
1045.500	611.443	80.016	19.993	103.834	19.867	7.955	0.521
1046.000	611.688	80.002	19.993	103.836	19.864	8.143	0.548
1046.500	611.938	80.010	19.995	103.836	19.868	7.894	0.519
1047.000	612.161	80.007	19.994	103.838	19.867	7.924	0.484
1047.500	612.469	80.025	19.993	103.837	19.865	8.085	0.502
1048.000	612.712	80.013	19.994	103.834	19.865	8.055	0.541
1048.500	612.965	80.008	19.994	103.833	19.867	7.910	0.524
1049.000	613.209	80.016	19.993	103.831	19.864	8.153	0.496
1049.500	613.462	80.004	19.994	103.828	19.867	7.960	0.497
1050.000	613.670	80.011	19.994	103.830	19.869	7.815	0.479
1050.500	613.963	80.015	19.994	103.828	19.866	7.981	0.482
1051.000	614.253	80.016	19.992	103.827	19.866	8.022	0.542
1051.500	614.470	80.013	19.993	103.828	19.866	7.987	0.545
1052.000	614.735	80.013	19.994	103.829	19.866	8.032	0.494
1052.500	615.002	80.017	19.994	103.827	19.868	7.880	0.507
1053.000	615.242	80.014	19.993	103.828	19.865	8.048	0.519
1053.500	615.500	80.015	19.994	103.828	19.864	8.110	0.502
1054.000	615.761	80.016	19.992	103.830	19.868	7.887	0.508
1054.500	615.996	80.014	19.994	103.829	19.864	8.163	0.507
1055.000	616.248	80.011	19.995	103.829	19.867	7.953	0.492
1055.500	616.506	80.012	19.993	103.830	19.867	7.945	0.499
1056.000	616.758	80.022	19.993	103.833	19.864	8.109	0.510
1056.500	617.027	80.022	19.994	103.836	19.868	7.893	0.515
1057.000	617.294	80.014	19.992	103.837	19.870	7.737	0.528
1057.500	617.497	80.009	19.994	103.842	19.865	8.094	0.503
1058.000	617.787	80.007	19.996	103.841	19.866	8.005	0.481
1058.500	618.121	80.008	19.994	103.834	19.865	8.042	0.559
1059.000	618.266	80.006	19.993	103.829	19.865	8.091	0.552
1059.500	618.525	80.016	19.993	103.828	19.863	8.191	0.441
1060.001	618.784	80.016	19.993	103.825	19.865	8.087	0.461
1060.501	619.038	80.019	19.992	103.828	19.866	8.027	0.516
1061.000	619.260	80.015	19.994	103.836	19.869	7.828	0.494
1061.500	619.527	79.999	19.996	103.839	19.867	7.917	0.483
1062.000	619.773	80.018	19.993	103.836	19.866	7.982	0.501
1062.500	620.008	80.017	19.993	103.842	19.868	7.891	0.497
1063.000	620.224	80.011	19.994	103.839	19.864	8.111	0.466
1063.500	620.503	80.013	19.994	103.834	19.864	8.118	0.473
1064.000	620.746	80.014	19.994	103.835	19.864	8.139	0.509
1064.500	620.991	80.008	19.994	103.836	19.865	8.055	0.505
1065.000	621.251	80.007	19.994	103.830	19.866	7.975	0.496
1065.500	621.460	80.004	19.993	103.831	19.864	8.122	0.487
1066.001	621.700	80.007	19.995	103.831	19.867	7.962	0.459
1066.501	621.963	80.013	19.994	103.828	19.861	8.310	0.476
1067.000	622.212	80.009	19.991	103.829	19.867	7.952	0.508
1067.500	622.479	80.005	19.993	103.830	19.864	8.118	0.514
1068.000	622.714	79.999	19.995	103.831	19.864	8.137	0.509
1068.500	622.968	80.010	19.991	103.829	19.865	8.085	0.495
1069.000	623.225	80.012	19.994	103.829	19.864	8.139	0.500
1069.500	623.445	80.024	19.993	103.830	19.864	8.154	0.494
1070.000	623.703	80.004	19.993	103.831	19.862	8.281	0.477
1070.500	623.947	80.014	19.993	103.830	19.863	8.178	0.490
1071.000	624.169	80.012	19.993	103.833	19.864	8.163	0.484
1071.500	624.447	80.006	19.994	103.833	19.862	8.276	0.483
1072.000	624.707	80.013	19.993	103.832	19.862	8.280	0.519
1072.500	624.923	80.010	19.995	103.833	19.864	8.105	0.507
1073.000	625.187	80.013	19.994	103.830	19.864	8.118	0.478
1073.500	625.456	80.016	19.994	103.830	19.862	8.246	0.506
1074.001	625.705	80.013	19.995	103.830	19.859	8.502	0.525
1074.501	625.896	80.012	19.997	103.828	19.867	7.945	0.479
1075.000	626.228	80.018	19.993	103.826	19.865	8.094	0.482
1075.501	626.419	80.012	19.994	103.830	19.863	8.211	0.523
1076.001	626.674	80.005	19.993	103.829	19.866	8.005	0.484
1076.501	626.886	80.013	19.993	103.828	19.866	7.997	0.456
1077.001	627.145	80.008	19.998	103.830	19.866	8.013	0.469
1077.500	627.406	80.012	19.995	103.830	19.863	8.196	0.496
1078.001	627.671	80.014	19.993	103.826	19.866	8.029	0.523
1078.501	627.894	80.013	19.995	103.828	19.864	8.168	0.507
1079.001	628.168	80.012	19.994	103.831	19.863	8.198	0.493
1079.501	628.373	80.013	19.994	103.832	19.865	8.085	0.488
1080.001	628.661	80.012	19.994	103.833	19.860	8.398	0.486
1080.500	628.878	80.012	19.994	103.833	19.863	8.216	0.499
1081.000	629.091	80.013	19.993	103.831	19.864	8.101	0.467
1081.500	629.394	80.013	19.994	103.826	19.857	8.583	0.473
1082.000	629.641	80.011	19.995	103.822	19.865	8.069	0.533
1082.500	629.873	80.012	19.995	103.821	19.866	7.972	0.515
1083.000	630.089	80.010	19.995	103.820	19.864	8.133	0.464
1083.500	630.343	80.014	19.993	103.821	19.865	8.058	0.459
1084.000	630.592	80.011	19.994	103.823	19.866	7.995	0.486
1084.500	630.825	80.013	19.994	103.813	19.866	8.006	0.492
1085.000	631.076	80.011	19.996	103.807	19.868	7.877	0.483
1085.500	631.361	80.013	19.992	103.801	19.867	7.916	0.510
1086.000	631.597	80.014	19.995	103.798	19.868	7.827	0.529
1086.500	631.821	80.011	19.995	103.796	19.869	7.825	0.490
1087.000	632.109	80.013	19.995	103.807	19.869	7.807	0.486
1087.500	632.339	80.012	19.997	103.825	19.866	8.029	0.515
1088.000	632.592	80.012	19.992	103.839	19.867	7.924	0.500
1088.500	632.878	80.010	20.000	103.848	19.869	7.816	0.511
1089.000	633.119	80.013	19.994	103.851	19.866	8.006	0.533
1089.500	633.356	80.012	19.993	103.845	19.870	7.712	0.502
1090.000	633.623	80.013	19.993	103.825	19.868	7.868	0.491
1090.500	633.880	80.010	19.994	103.809	19.872	7.569	0.514
1091.000	634.131	80.011	19.996	103.800	19.867	7.916	0.517
1091.500	634.394	80.009	19.998	103.793	19.868	7.869	0.512
1092.000	634.651	80.011	19.996	103.793	19.868	7.837	0.517
1092.500	634.882	80.012	19.993	103.793	19.868	7.882	0.504
1093.000	635.139	80.010	19.996	103.794	19.866	7.966	0.488
1093.500	635.409	80.013	19.993	103.794	19.868	7.883	0.507
1094.000	635.642	80.010	19.994	103.798	19.868	7.859	0.515
1094.500	635.901	80.011	19.995	103.797	19.868	7.876	0.498
1095.000	636.154	80.012	19.994	103.800	19.868	7.889	0.502
1095.500	636.399	80.011	19.994	103.800	19.866	7.986	0.505
1096.000	636.651	80.009	19.996	103.797	19.864	8.124	0.497
1096.500	636.917	80.011	19.994	103.796	19.866	8.009	0.507
1097.001	637.182	80.011	19.996	103.798	19.863	8.204	0.525
1097.501	637.439	80.012	19.994	103.799	19.867	7.936	0.527
1098.000	637.684	80.013	19.992	103.806	19.865	8.047	0.512
1098.501	637.960	80.011	19.992	103.811	19.867	7.956	0.511
1099.001	638.165	80.012	19.994	103.815	19.867	7.902	0.501
1099.501	638.446	80.012	19.994	103.822	19.867	7.966	0.483
1100.001	638.687	80.013	19.997	103.825	19.870	7.753	0.504
1100.500	638.971	80.012	19.993	103.823	19.868	7.880	0.523
1101.000	639.216	80.012	19.993	103.818	19.871	7.652	0.527
1101.500	639.450	80.012	19.993	103.815	19.870	7.713	0.504
1102.000	639.683	80.013	19.994	103.814	19.865	8.075	0.473
1102.501	639.969	80.012	19.994	103.811	19.869	7.786	0.493
1103.001	640.209	80.014	19.991	103.810	19.868	7.870	0.522
1103.500	640.504	80.015	19.994	103.809	19.871	7.646	0.531
1104.000	640.724	80.010	19.991	103.807	19.870	7.697	0.525
1104.500	640.976	80.015	19.994	103.803	19.872	7.567	0.494
1105.000	641.203	80.013	19.995	103.800	19.867	7.936	0.476
1105.500	641.479	80.011	19.994	103.802	19.868	7.882	0.491
1106.001	641.732	80.015	19.997	103.808	19.868	7.830	0.516
1106.501	641.959	80.015	19.994	103.809	19.865	8.054	0.505
1107.000	642.203	80.014	19.994	103.811	19.869	7.826	0.476
1107.500	642.471	80.014	19.994	103.818	19.868	7.863	0.491
1108.000	642.726	80.012	19.990	103.828	19.866	8.012	0.517
1108.500	642.961	80.015	19.992	103.837	19.867	7.945	0.507
1109.000	643.197	80.013	19.999	103.845	19.868	7.882	0.480
1109.500	643.458	80.012	19.994	103.850	19.866	7.994	0.484
1110.000	643.701	80.014	19.993	103.848	19.867	7.946	0.501
1110.500	643.924	80.014	19.993	103.840	19.868	7.841	0.485
1111.001	644.184	80.013	19.994	103.832	19.867	7.934	0.474
1111.501	644.411	80.021	19.994	103.828	19.867	7.921	0.485
1112.000	644.668	80.013	19.994	103.820	19.867	7.960	0.486
1112.500	644.910	80.015	19.992	103.810	19.867	7.938	0.492
1113.000	645.162	80.014	19.994	103.803	19.867	7.936	0.497
1113.500	645.416	80.013	19.994	103.797	19.867	7.957	0.500
1114.000	645.664	80.012	19.993	103.793	19.868	7.871	0.504
1114.500	645.912	80.012	19.993	103.792	19.867	7.921	0.499
1115.000	646.188	80.012	19.993	103.798	19.872	7.586	0.510
1115.500	646.425	80.013	19.993	103.801	19.869	7.798	0.518
1116.001	646.667	80.012	19.994	103.808	19.870	7.759	0.496
1116.501	646.962	80.013	19.993	103.810	19.874	7.483	0.508
1117.001	647.209	80.014	19.993	103.809	19.870	7.750	0.539
1117.501	647.441	80.014	19.992	103.809	19.870	7.719	0.511
1118.000	647.723	80.013	19.997	103.806	19.873	7.496	0.497
1118.500	647.950	80.012	19.996	103.799	19.872	7.613	0.512
1119.000	648.193	80.013	19.993	103.798	19.868	7.893	0.490
1119.500	648.444	80.012	19.994	103.805	19.868	7.859	0.482
1120.000	648.707	80.014	19.994	103.808	19.873	7.516	0.504
1120.500	648.936	80.012	19.994	103.811	19.870	7.692	0.503
1121.000	649.214	80.013	19.994	103.812	19.874	7.459	0.499
1121.501	649.427	80.013	19.995	103.809	19.870	7.703	0.498
1122.001	649.704	80.013	19.994	103.803	19.874	7.479	0.491
1122.500	649.972	80.014	19.994	103.803	19.872	7.597	0.518
1123.000	650.244	80.013	19.991	103.804	19.870	7.697	0.542
1123.500	650.456	80.013	19.992	103.804	19.867	7.928	0.512
1124.000	650.685	80.016	19.992	103.807	19.867	7.939	0.463
1124.500	650.966	80.013	19.996	103.811	19.869	7.764	0.475
1125.000	651.256	80.012	19.995	103.812	19.874	7.485	0.540
1125.500	651.467	80.015	19.992	103.808	19.870	7.722	0.536
1126.000	651.733	80.012	19.992	103.806	19.871	7.689	0.490
1126.500	652.003	80.019	19.991	103.801	19.868	7.869	0.507
1127.000	652.235	80.010	19.993	103.804	19.870	7.737	0.519
1127.500	652.487	80.009	19.990	103.806	19.866	8.029	0.493
1128.000	652.723	80.014	19.993	103.812	19.869	7.826	0.486
1128.500	652.997	80.014	19.994	103.819	19.865	8.051	0.499
1129.001	653.257	80.013	19.992	103.827	19.867	7.918	0.522
1129.501	653.496	80.017	19.989	103.825	19.868	7.853	0.517
1130.000	653.780	80.013	19.994	103.826	19.869	7.771	0.511
1130.500	654.041	80.013	19.993	103.822	19.868	7.842	0.534
1131.000	654.273	80.016	19.989	103.817	19.869	7.795	0.519
1131.500	654.522	80.014	19.995	103.812	19.870	7.708	0.487
1132.000	654.751	80.019	19.995	103.807	19.871	7.650	0.480
1132.500	655.041	80.015	19.996	103.803	19.870	7.745	0.498
1133.000	655.275	80.013	19.993	103.807	19.868	7.872	0.522
1133.500	655.524	80.010	20.000	103.807	19.873	7.508	0.504
1134.000	655.810	80.016	19.992	103.804	19.867	7.918	0.509
1134.501	656.082	80.014	19.991	103.806	19.867	7.897	0.546
1135.001	656.323	80.020	19.995	103.805	19.869	7.819	0.535
1135.500	656.520	80.013	19.985	103.804	19.869	7.827	0.475
1136.000	656.795	80.018	19.993	103.808	19.868	7.866	0.455
1136.500	657.042	80.016	19.989	103.815	19.869	7.780	0.498
1137.000	657.327	80.013	19.997	103.816	19.869	7.818	0.527
1137.500	657.546	80.016	19.995	103.814	19.869	7.781	0.518
1138.000	657.799	80.010	19.992	103.812	19.869	7.777	0.488
1138.500	658.071	80.014	19.995	103.807	19.868	7.831	0.499
1139.000	658.333	80.020	19.993	103.806	19.867	7.939	0.530
1139.500	658.567	80.015	19.992	103.807	19.867	7.960	0.515
1140.000	658.847	80.016	19.998	103.812	19.864	8.150	0.504
1140.500	659.098	80.017	19.994	103.813	19.868	7.861	0.522
1141.000	659.343	80.015	19.993	103.817	19.865	8.092	0.514
1141.501	659.617	80.015	19.993	103.819	19.865	8.066	0.508
1142.001	659.841	80.013	19.994	103.820	19.866	8.034	0.509
1142.500	660.100	80.012	19.994	103.819	19.864	8.120	0.490
1143.000	660.366	80.014	19.993	103.819	19.863	8.235	0.504
1143.500	660.657	80.012	19.991	103.821	19.860	8.414	0.541
1144.000	660.895	80.014	19.993	103.818	19.859	8.513	0.543
1144.500	661.147	80.010	19.996	103.818	19.867	7.948	0.509
1145.000	661.415	80.005	20.000	103.820	19.865	8.036	0.505
1145.500	661.688	80.010	19.997	103.815	19.864	8.131	0.530
1146.001	661.935	80.010	19.995	103.814	19.862	8.256	0.531
1146.501	662.174	80.014	19.995	103.815	19.864	8.116	0.503
1147.000	662.490	80.010	19.996	103.814	19.865	8.075	0.520
1147.500	662.709	80.015	19.996	103.815	19.861	8.317	0.545
1148.000	662.999	80.013	19.992	103.821	19.864	8.161	0.522
1148.500	663.278	80.010	19.997	103.824	19.867	7.939	0.539
1149.000	663.536	80.015	19.993	103.825	19.865	8.083	0.553
1149.500	663.804	80.013	19.994	103.825	19.865	8.060	0.531
1150.000	664.045	80.013	19.994	103.825	19.864	8.155	0.518
1150.500	664.291	80.014	19.995	103.824	19.864	8.150	0.498
1151.000	664.561	80.010	19.995	103.822	19.865	8.062	0.501
1151.500	664.843	80.011	19.995	103.822	19.864	8.134	0.534
1152.000	665.118	80.011	19.995	103.821	19.862	8.302	0.554
1152.500	665.330	80.012	19.995	103.820	19.863	8.235	0.522
1153.000	665.626	80.013	19.993	103.822	19.864	8.116	0.498
1153.500	665.896	80.012	19.994	103.823	19.861	8.315	0.538
1154.000	666.146	80.012	19.996	103.822	19.864	8.144	0.543
1154.501	666.482	80.012	19.994	103.821	19.860	8.380	0.553
1155.001	666.673	80.012	19.994	103.822	19.859	8.474	0.556
1155.500	666.945	80.012	19.995	103.820	19.863	8.192	0.495
1156.000	667.170	80.015	19.993	103.819	19.865	8.047	0.481
1156.500	667.461	80.013	19.993	103.820	19.863	8.224	0.507
1157.000	667.695	80.011	19.996	103.820	19.862	8.278	0.520
1157.500	667.984	80.012	19.997	103.820	19.861	8.345	0.524
1158.001	668.244	80.010	19.993	103.822	19.864	8.164	0.536
1158.501	668.476	80.014	19.993	103.823	19.863	8.233	0.520
1159.000	668.748	80.015	19.994	103.821	19.865	8.047	0.498
1159.500	669.039	80.017	19.991	103.822	19.864	8.138	0.534
1160.000	669.324	80.013	19.996	103.823	19.862	8.280	0.570
1160.501	669.563	80.016	19.992	103.822	19.866	8.032	0.550
1161.001	669.837	80.013	19.994	103.822	19.863	8.231	0.518
1161.500	670.094	80.014	19.993	103.823	19.862	8.244	0.522
1162.000	670.364	80.015	19.991	103.823	19.862	8.296	0.529
1162.500	670.610	80.011	19.995	103.819	19.863	8.175	0.521
1163.000	670.881	80.015	19.994	103.820	19.866	7.998	0.517
1163.500	671.135	80.008	19.997	103.819	19.863	8.179	0.521
1164.000	671.412	80.012	19.992	103.819	19.860	8.384	0.528
1164.501	671.702	80.013	19.989	103.820	19.865	8.044	0.549
1165.001	671.949	80.012	19.996	103.821	19.864	8.109	0.552
1165.500	672.178	80.015	19.995	103.820	19.864	8.167	0.507
1166.000	672.451	80.014	19.996	103.819	19.867	7.950	0.489
1166.500	672.704	80.009	19.993	103.820	19.861	8.347	0.514
1167.000	672.987	80.013	19.996	103.820	19.863	8.195	0.531
1167.501	673.254	80.014	19.994	103.820	19.863	8.213	0.543
1168.001	673.535	80.010	19.998	103.822	19.864	8.148	0.549
1168.501	673.777	80.014	19.995	103.820	19.866	8.031	0.536
1169.001	674.020	80.013	19.992	103.818	19.862	8.297	0.504
1169.500	674.310	80.010	19.998	103.818	19.864	8.135	0.509
1170.000	674.591	80.017	19.991	103.818	19.862	8.308	0.552
1170.500	674.864	80.008	19.997	103.818	19.864	8.168	0.563
1171.000	675.091	80.014	19.997	103.818	19.861	8.359	0.527
1171.500	675.392	80.012	19.993	103.816	19.861	8.370	0.514
1172.000	675.651	80.016	19.993	103.814	19.862	8.261	0.544
1172.500	675.915	80.005	20.002	103.814	19.864	8.160	0.542
1173.000	676.169	80.016	19.990	103.812	19.862	8.257	0.521
1173.500	676.444	80.012	19.998	103.815	19.864	8.140	0.524
1174.000	676.694	80.017	19.990	103.820	19.867	7.916	0.527
1174.500	676.987	80.013	19.989	103.822	19.859	8.462	0.534
1175.000	677.210	80.009	19.994	103.824	19.864	8.102	0.529
1175.500	677.473	80.005	19.996	103.825	19.860	8.398	0.501
1176.000	677.748	80.014	19.989	103.824	19.865	8.097	0.513
1176.500	677.999	80.011	19.992	103.825	19.858	8.576	0.532
1177.000	678.233	80.013	19.992	103.825	19.860	8.421	0.505
1177.500	678.531	80.015	19.994	103.824	19.860	8.400	0.508
1178.000	678.726	80.011	19.993	103.825	19.862	8.287	0.512
1178.500	679.025	80.013	19.993	103.827	19.864	8.155	0.493
1179.000	679.244	80.012	19.996	103.827	19.863	8.221	0.506
1179.500	679.491	80.013	19.996	103.827	19.857	8.590	0.492
1180.000	679.779	80.012	19.997	103.827	19.862	8.299	0.501
1180.500	680.013	80.012	19.993	103.823	19.861	8.340	0.528
1181.000	680.278	80.010	19.990	103.821	19.863	8.178	0.510
1181.500	680.511	80.011	19.997	103.820	19.865	8.081	0.498
1182.001	680.781	80.014	19.993	103.813	19.861	8.346	0.500
1182.501	680.988	80.013	19.998	103.810	19.866	8.032	0.490
1183.001	681.278	80.013	19.990	103.812	19.864	8.124	0.487
1183.501	681.504	80.011	19.997	103.815	19.860	8.389	0.507
1184.000	681.790	80.011	19.994	103.816	19.861	8.341	0.514
1184.500	682.023	80.012	19.995	103.819	19.862	8.277	0.515
1185.000	682.266	80.016	19.992	103.815	19.863	8.220	0.498
1185.500	682.495	80.009	19.993	103.814	19.864	8.151	0.475
1186.001	682.763	80.008	19.997	103.812	19.861	8.341	0.485
1186.501	682.999	80.012	19.995	103.808	19.862	8.272	0.500
1187.000	683.264	80.014	19.994	103.811	19.862	8.298	0.502
1187.501	683.516	80.014	19.994	103.817	19.864	8.142	0.508
1188.001	683.766	80.016	19.994	103.817	19.863	8.195	0.509
1188.500	683.945	80.011	19.996	103.813	19.863	8.201	0.466
1189.000	684.178	80.015	19.994	103.816	19.864	8.154	0.420
1189.501	684.458	80.014	20.000	103.814	19.863	8.228	0.462
1190.001	684.711	80.012	19.996	103.810	19.863	8.195	0.523
1190.500	684.944	80.012	19.995	103.807	19.860	8.402	0.510
1191.000	685.180	80.011	19.998	103.809	19.868	7.894	0.477
1191.500	685.402	80.005	20.003	103.807	19.862	8.252	0.464
1192.000	685.662	80.015	19.992	103.802	19.864	8.140	0.471
1192.501	685.918	80.014	19.989	103.803	19.863	8.222	0.499
1193.001	686.136	80.013	19.996	103.803	19.863	8.205	0.495
1193.500	686.395	80.012	19.990	103.802	19.862	8.263	0.475
1194.000	686.627	80.013	19.998	103.805	19.862	8.308	0.484
1194.500	686.858	80.008	19.995	103.810	19.866	8.034	0.477
1195.000	687.118	80.014	19.995	103.812	19.863	8.224	0.477
1195.500	687.360	80.014	19.993	103.812	19.862	8.245	0.497
1196.000	687.584	80.013	19.989	103.812	19.862	8.267	0.484
1196.500	687.805	80.013	19.994	103.816	19.860	8.390	0.455
1197.000	688.047	80.016	19.995	103.817	19.864	8.119	0.454
1197.500	688.284	80.017	19.994	103.818	19.859	8.502	0.471
1198.000	688.532	80.011	19.996	103.820	19.864	8.152	0.482
1198.500	688.782	80.016	19.993	103.821	19.862	8.262	0.491
1199.000	688.986	80.016	19.993	103.814	19.861	8.353	0.476
1199.500	689.257	80.015	19.994	103.810	19.861	8.352	0.464
1200.000	689.477	80.012	19.994	103.807	19.861	8.372	0.483
1200.500	689.752	80.013	19.992	103.804	19.861	8.328	0.493
1201.001	689.964	80.015	19.993	103.805	19.861	8.328	0.491
1201.501	690.203	80.015	19.993	103.809	19.863	8.239	0.469
1202.001	690.469	80.020	19.991	103.813	19.862	8.272	0.479
1202.500	690.702	80.014	19.992	103.817	19.866	8.030	0.502
1203.000	690.952	80.010	19.993	103.821	19.858	8.540	0.491
1203.500	691.129	80.011	19.990	103.820	19.863	8.208	0.455
1204.000	691.412	80.011	19.997	103.820	19.861	8.350	0.444
1204.501	691.634	80.009	19.992	103.820	19.861	8.336	0.482
1205.001	691.898	80.015	19.994	103.820	19.864	8.117	0.495
1205.500	692.111	80.012	19.990	103.821	19.861	8.324	0.481
1206.000	692.377	80.017	19.991	103.824	19.862	8.262	0.478
1206.500	692.576	80.010	20.005	103.823	19.864	8.120	0.472
1207.000	692.799	80.017	19.994	103.820	19.862	8.277	0.444
1207.501	693.060	80.014	19.994	103.819	19.865	8.041	0.453
1208.001	693.323	80.015	19.994	103.812	19.860	8.442	0.504
1208.500	693.577	80.016	19.998	103.805	19.862	8.301	0.521
1209.000	693.800	80.013	19.995	103.800	19.863	8.202	0.497
1209.500	694.029	80.013	19.993	103.801	19.864	8.103	0.464
1210.000	694.272	80.014	19.993	103.801	19.862	8.306	0.462
1210.500	694.505	80.011	19.999	103.808	19.864	8.148	0.474
1211.000	694.801	80.016	19.990	103.814	19.865	8.068	0.503
1211.500	695.029	80.012	19.991	103.821	19.861	8.332	0.527
1212.000	695.278	80.014	19.995	103.822	19.861	8.325	0.500
1212.500	695.509	80.011	19.994	103.820	19.864	8.138	0.478
1213.000	695.777	80.013	19.998	103.817	19.861	8.338	0.490
1213.500	696.021	80.017	19.997	103.813	19.858	8.526	0.506
1214.000	696.251	80.020	19.993	103.806	19.861	8.313	0.493
1214.500	696.506	80.014	19.989	103.806	19.860	8.401	0.479
1215.000	696.725	80.015	19.989	103.807	19.858	8.571	0.480
1215.500	697.021	80.016	19.994	103.805	19.857	8.625	0.495
1216.000	697.289	80.013	19.990	103.805	19.861	8.312	0.540
1216.500	697.521	80.019	19.996	103.808	19.860	8.410	0.532
1217.000	697.772	80.013	19.993	103.805	19.859	8.509	0.491
1217.500	698.048	80.012	19.992	103.807	19.862	8.269	0.504
1218.000	698.285	80.012	19.991	103.810	19.859	8.455	0.520
1218.500	698.554	80.012	20.002	103.815	19.857	8.606	0.510
1219.001	698.794	80.017	19.993	103.817	19.858	8.546	0.508
1219.501	699.019	80.015	19.998	103.823	19.859	8.474	0.487
1220.000	699.306	80.014	19.992	103.823	19.858	8.554	0.488
1220.500	699.539	80.014	19.992	103.823	19.861	8.373	0.516
1221.000	699.807	80.011	19.995	103.823	19.861	8.364	0.510
1221.500	700.032	80.022	19.990	103.822	19.863	8.237	0.497
1222.000	700.333	80.011	19.993	103.822	19.861	8.375	0.510
1222.500	700.567	80.014	19.993	103.821	19.856	8.677	0.531
1223.000	700.831	80.015	19.995	103.821	19.859	8.483	0.516
1223.500	701.066	80.017	19.998	103.820	19.858	8.527	0.498
1224.000	701.349	80.012	19.998	103.821	19.859	8.460	0.508
1224.500	701.617	80.016	19.996	103.820	19.858	8.565	0.535
1225.000	701.887	80.019	19.990	103.821	19.859	8.493	0.545
1225.500	702.145	80.020	19.987	103.822	19.859	8.498	0.533
1226.000	702.381	80.014	19.995	103.820	19.856	8.664	0.511
1226.500	702.672	80.013	19.998	103.821	19.858	8.536	0.510
1227.000	702.915	80.012	19.998	103.821	19.858	8.534	0.531
1227.500	703.161	80.012	19.996	103.822	19.857	8.610	0.511
1228.000	703.422	80.018	19.991	103.821	19.856	8.694	0.498
1228.500	703.686	80.010	19.996	103.822	19.855	8.780	0.516
1229.000	703.926	80.009	19.997	103.822	19.856	8.663	0.514
1229.500	704.179	80.007	19.988	103.822	19.856	8.657	0.498
1230.000	704.497	80.018	19.990	103.821	19.857	8.595	0.532
1230.500	704.707	80.008	19.997	103.821	19.860	8.409	0.549
1231.000	704.965	80.013	19.986	103.819	19.860	8.377	0.499
1231.500	705.265	80.012	19.997	103.822	19.856	8.698	0.513
1232.000	705.506	80.011	19.996	103.821	19.857	8.616	0.549
1232.500	705.752	80.011	19.991	103.820	19.857	8.627	0.514
1233.000	706.030	80.016	19.991	103.818	19.855	8.785	0.506
1233.500	706.285	80.013	19.990	103.818	19.854	8.791	0.529
1234.000	706.564	80.013	19.993	103.815	19.856	8.718	0.533
1234.500	706.839	80.014	19.994	103.815	19.857	8.628	0.544
1235.000	707.120	80.010	19.994	103.818	19.856	8.654	0.555
1235.500	707.363	80.015	19.990	103.821	19.856	8.652	0.540
1236.000	707.606	80.008	19.992	103.823	19.855	8.749	0.505
1236.501	707.877	80.013	19.991	103.825	19.856	8.672	0.500
1237.001	708.118	80.007	20.002	103.826	19.856	8.650	0.513
1237.500	708.461	80.014	19.991	103.825	19.856	8.678	0.547
1238.000	708.646	80.012	19.990	103.826	19.858	8.557	0.556
1238.500	708.923	80.013	19.991	103.826	19.857	8.617	0.495
1239.000	709.196	80.014	19.993	103.827	19.859	8.507	0.506
1239.500	709.435	80.013	19.993	103.826	19.857	8.647	0.531
1240.000	709.722	80.013	19.992	103.828	19.857	8.636	0.519
1240.500	710.016	80.011	19.993	103.828	19.858	8.573	0.554
1241.000	710.226	80.015	19.994	103.827	19.860	8.388	0.542
1241.500	710.453	80.013	19.993	103.827	19.857	8.603	0.471
1242.000	710.732	80.012	19.999	103.827	19.858	8.515	0.472
1242.500	710.999	80.010	19.994	103.825	19.858	8.543	0.526
1243.000	711.252	80.011	19.986	103.824	19.857	8.618	0.532
1243.500	711.580	80.011	19.989	103.824	19.856	8.664	0.551
1244.000	711.796	80.017	19.992	103.825	19.856	8.666	0.563
1244.500	712.097	80.012	19.993	103.825	19.854	8.852	0.531
1245.001	712.356	80.013	19.994	103.827	19.856	8.682	0.538
1245.501	712.616	80.012	19.995	103.822	19.855	8.728	0.539
1246.001	712.859	80.011	19.995	103.820	19.857	8.624	0.511
1246.501	713.105	80.012	19.994	103.818	19.855	8.784	0.496
1247.000	713.354	80.012	19.992	103.813	19.853	8.876	0.492
1247.500	713.636	80.011	19.993	103.810	19.854	8.820	0.513
1248.000	713.906	80.014	19.992	103.816	19.857	8.630	0.542
1248.501	714.162	80.010	19.997	103.818	19.856	8.679	0.540
1249.001	714.430	80.013	19.991	103.818	19.854	8.798	0.525
1249.500	714.690	80.010	19.993	103.822	19.855	8.740	0.525
1250.000	714.955	80.013	19.987	103.822	19.854	8.796	0.526
1250.500	715.246	80.013	19.993	103.822	19.854	8.807	0.541
1251.000	715.467	80.011	19.995	103.822	19.857	8.598	0.535
1251.500	715.758	80.013	19.991	103.823	19.859	8.489	0.512
1252.000	716.019	80.011	19.996	103.823	19.857	8.646	0.532
1252.500	716.295	80.014	19.992	103.824	19.861	8.350	0.544
1253.001	716.534	80.013	19.994	103.825	19.859	8.466	0.526
1253.501	716.806	80.020	19.989	103.826	19.861	8.317	0.513
1254.000	717.055	80.010	19.993	103.828	19.860	8.394	0.516
1254.501	717.316	80.015	19.991	103.829	19.858	8.517	0.515
1255.001	717.572	80.014	19.992	103.827	19.859	8.446	0.514
1255.500	717.799	80.011	19.992	103.821	19.858	8.559	0.501
1256.000	718.084	80.016	19.997	103.819	19.857	8.641	0.498
1256.500	718.272	80.010	20.000	103.814	19.857	8.604	0.493
1257.000	718.553	80.015	19.995	103.810	19.857	8.602	0.471
1257.501	718.775	80.016	19.993	103.812	19.858	8.520	0.485
1258.001	719.042	80.012	19.995	103.817	19.860	8.381	0.496
1258.500	719.283	80.011	19.992	103.818	19.860	8.405	0.498
1259.000	719.520	80.012	19.992	103.817	19.858	8.532	0.493
1259.500	719.782	80.013	19.995	103.820	19.858	8.543	0.489
1260.000	720.033	80.018	19.996	103.822	19.859	8.446	0.506
1260.500	720.307	80.015	19.993	103.819	19.859	8.513	0.519
1261.000	720.544	80.012	19.994	103.814	19.860	8.443	0.518
1261.500	720.818	80.013	19.992	103.814	19.858	8.525	0.511
1262.000	721.036	80.013	19.993	103.813	19.857	8.603	0.501
1262.500	721.274	80.011	19.994	103.809	19.857	8.649	0.474
1263.001	721.548	80.011	19.993	103.810	19.859	8.469	0.484
1263.501	721.761	80.013	19.994	103.817	19.855	8.765	0.499
1264.001	722.013	80.014	19.990	103.820	19.859	8.502	0.476
1264.500	722.254	80.012	19.996	103.821	19.861	8.321	0.479
1265.000	722.517	80.012	19.992	103.825	19.859	8.479	0.499
1265.500	722.748	80.013	19.997	103.826	19.859	8.481	0.500
1266.000	723.043	80.008	19.996	103.825	19.858	8.572	0.510
1266.500	723.243	80.012	19.996	103.821	19.855	8.735	0.510
1267.000	723.485	80.013	19.996	103.820	19.856	8.679	0.468
1267.500	723.742	80.013	19.994	103.821	19.855	8.725	0.471
1268.000	724.007	80.014	19.994	103.822	19.855	8.767	0.511
1268.500	724.247	80.015	19.991	103.821	19.856	8.696	0.514
1269.000	724.464	80.009	19.990	103.827	19.853	8.910	0.481
1269.500	724.737	80.013	19.989	103.826	19.855	8.742	0.473
1270.000	724.948	80.008	19.991	103.826	19.858	8.569	0.487
1270.500	725.221	80.012	19.986	103.826	19.858	8.567	0.484
1271.001	725.453	80.012	19.998	103.830	19.854	8.809	0.494
1271.501	725.687	80.012	19.993	103.829	19.856	8.692	0.486
1272.001	725.934	80.012	19.991	103.831	19.857	8.612	0.474
1272.501	726.139	80.012	19.995	103.831	19.859	8.477	0.467
1273.000	726.397	80.012	19.993	103.831	19.856	8.707	0.458
1273.500	726.617	80.012	19.992	103.828	19.855	8.766	0.470
1274.000	726.885	80.011	19.993	103.827	19.858	8.578	0.483
1274.500	727.122	80.015	19.994	103.825	19.856	8.666	0.497
1275.001	727.384	80.014	19.992	103.824	19.858	8.582	0.502
1275.501	727.621	80.014	19.995	103.822	19.856	8.658	0.498
1276.000	727.877	80.012	19.994	103.821	19.859	8.451	0.496
1276.501	728.109	80.015	19.993	103.819	19.859	8.452	0.491
1277.001	728.372	80.016	19.993	103.820	19.853	8.858	0.492
1277.501	728.637	80.013	19.992	103.821	19.856	8.666	0.512
1278.001	728.887	80.012	19.996	103.823	19.856	8.688	0.522
1278.500	729.119	80.017	19.996	103.823	19.852	8.966	0.498
1279.000	729.339	80.014	19.994	103.823	19.855	8.766	0.467
1279.500	729.576	80.015	19.994	103.823	19.852	8.928	0.455
1280.000	729.830	80.016	19.994	103.822	19.854	8.848	0.474
1280.500	730.077	80.011	19.995	103.821	19.853	8.858	0.496
1281.000	730.315	80.014	19.994	103.822	19.852	8.927	0.493
1281.500	730.567	80.015	19.993	103.823	19.851	9.057	0.488
1282.000	730.790	80.012	19.995	103.823	19.854	8.826	0.483
1282.500	731.030	80.012	19.995	103.822	19.854	8.820	0.469
1283.000	731.281	80.016	19.993	103.821	19.851	9.017	0.477
1283.501	731.552	80.013	19.994	103.821	19.853	8.902	0.506
1284.001	731.793	80.014	19.994	103.821	19.854	8.814	0.517
1284.500	732.053	80.012	19.996	103.821	19.854	8.794	0.506
1285.000	732.317	80.013	19.994	103.822	19.853	8.923	0.513
1285.500	732.528	80.013	19.994	103.822	19.854	8.835	0.499
1286.000	732.803	80.010	19.993	103.822	19.853	8.889	0.480
1286.500	733.044	80.012	19.994	103.822	19.853	8.873	0.502
1287.000	733.306	80.012	19.995	103.822	19.856	8.684	0.510
1287.500	733.535	80.013	19.995	103.823	19.854	8.826	0.497
1288.000	733.771	80.013	19.997	103.824	19.854	8.813	0.478
1288.500	734.025	80.013	19.995	103.823	19.856	8.701	0.477
1289.000	734.317	80.012	19.994	103.821	19.854	8.856	0.517
1289.500	734.523	80.012	19.994	103.820	19.856	8.707	0.522
1290.000	734.774	80.014	19.994	103.820	19.854	8.808	0.478
1290.500	735.059	80.013	19.993	103.821	19.853	8.886	0.497
1291.000	735.262	80.012	19.993	103.823	19.852	8.975	0.512
1291.500	735.536	80.013	19.996	103.824	19.852	8.986	0.483
1292.000	735.819	80.014	19.994	103.823	19.851	9.046	0.517
1292.500	736.041	80.013	19.994	103.822	19.854	8.807	0.531
1293.000	736.302	80.013	19.995	103.820	19.853	8.880	0.494
1293.501	736.560	80.012	19.994	103.819	19.849	9.156	0.501
1294.001	736.782	80.013	19.994	103.815	19.850	9.087	0.500
1294.501	737.041	80.013	19.996	103.817	19.851	9.018	0.480
1295.001	737.311	80.013	19.993	103.817	19.852	8.936	0.505
1295.500	737.558	80.014	19.994	103.819	19.854	8.832	0.523
1296.000	737.793	80.014	19.994	103.819	19.855	8.757	0.500
1296.500	738.065	80.014	19.994	103.822	19.850	9.085	0.494
1297.000	738.297	80.013	19.994	103.823	19.854	8.838	0.505
1297.500	738.593	80.015	19.993	103.823	19.850	9.074	0.516
1298.000	738.879	80.014	19.994	103.823	19.853	8.890	0.555
1298.500	739.121	80.016	19.993	103.823	19.852	8.979	0.555
1299.000	739.392	80.014	19.994	103.824	19.854	8.815	0.521
1299.500	739.647	80.013	19.993	103.823	19.852	8.942	0.520
1300.000	739.885	80.015	19.993	103.823	19.853	8.881	0.509
1300.500	740.166	80.013	19.994	103.823	19.853	8.894	0.506
1301.000	740.430	80.015	19.994	103.823	19.850	9.119	0.532
1301.500	740.671	80.014	19.992	103.823	19.849	9.192	0.525
1302.000	740.930	80.014	19.993	103.824	19.850	9.091	0.503
1302.500	741.185	80.017	19.993	103.824	19.849	9.171	0.507
1303.000	741.479	80.015	19.993	103.824	19.848	9.260	0.531
1303.500	741.748	80.015	19.992	103.823	19.847	9.272	0.556
1304.001	742.001	80.015	19.993	103.823	19.850	9.102	0.543
1304.501	742.241	80.016	19.993	103.822	19.849	9.175	0.508
1305.000	742.496	80.015	19.992	103.822	19.848	9.251	0.494
1305.500	742.841	80.016	19.993	103.822	19.848	9.212	0.547
1306.000	743.040	80.015	19.993	103.822	19.849	9.149	0.572
1306.500	743.340	80.016	19.992	103.823	19.852	8.927	0.522
1307.001	743.560	80.015	19.992	103.823	19.847	9.279	0.509
1307.501	743.850	80.016	19.993	103.827	19.846	9.341	0.515
1308.000	744.137	80.015	19.992	103.828	19.847	9.274	0.544
1308.500	744.385	80.015	19.992	103.828	19.845	9.417	0.556
1309.000	744.653	80.015	19.994	103.829	19.849	9.190	0.525
1309.500	744.893	80.015	19.992	103.829	19.849	9.194	0.512
1310.000	745.168	80.016	19.993	103.828	19.847	9.302	0.512
