Sample ID:	C:\MCC\MCC Cal\Test\LatexPillow_C_Foam_MCC_30K_min_211213_R1.txt
Sample Weight (mg):	4.41
Heating Rate (C/s):	0.5
Combustor Temp (C):	900
N2 Flow Rate (cc/min):	80
O2 Flow Rate (cc/min):	20
Calibration File:	C:\MCC\MCC Cal\Coeff1 JN10440_30_210304.txt.txt
T Correction Coefficients:	0	1.024463	0
Time Shift (s):	14
*
Time (s)	Temperature (C)	N2 flow rate (cc/min)	O2 flow rate (cc/min)	Flow Rate (cc/min)	Oxygen (%)	HRR (W/g)	Heating rate (C/s)
0.000	112.265	79.996	19.994	103.016	20.327	-0.080	-0.017
0.500	112.264	80.015	19.993	103.017	20.329	-0.217	0.005
1.000	112.280	80.014	19.991	103.022	20.328	-0.135	0.017
1.500	112.213	80.003	19.994	103.024	20.330	-0.288	-0.018
2.000	112.261	80.003	19.994	103.023	20.332	-0.465	-0.035
2.500	112.247	80.003	19.993	103.024	20.330	-0.290	0.007
3.000	112.257	80.005	19.995	103.025	20.331	-0.330	0.015
3.500	112.226	80.005	19.995	103.022	20.331	-0.336	-0.012
4.000	112.235	79.999	19.997	103.020	20.329	-0.251	-0.021
4.500	112.240	80.007	19.994	103.019	20.331	-0.360	-0.004
5.000	112.246	80.004	19.998	103.021	20.331	-0.332	0.012
5.500	112.232	80.003	19.995	103.016	20.329	-0.197	0.001
6.000	112.280	79.992	19.994	103.017	20.332	-0.447	0.013
6.500	112.252	79.995	19.997	103.019	20.327	-0.048	0.027
7.000	112.195	80.005	19.995	103.018	20.331	-0.354	-0.032
7.500	112.204	79.988	19.997	103.016	20.331	-0.328	-0.067
8.000	112.235	80.012	19.992	103.019	20.329	-0.205	-0.005
8.500	112.233	80.002	19.994	103.022	20.327	-0.095	0.034
9.000	112.226	80.001	19.995	103.020	20.328	-0.151	0.011
9.500	112.232	79.996	19.993	103.022	20.329	-0.219	-0.004
10.000	112.221	80.005	19.992	103.024	20.327	-0.090	-0.003
10.500	112.209	80.002	19.993	103.027	20.327	-0.048	-0.015
11.000	112.222	80.015	19.992	103.022	20.329	-0.183	-0.011
11.500	112.239	80.005	19.994	103.025	20.329	-0.191	0.016
12.000	112.195	80.008	19.994	103.028	20.326	0.006	0.001
12.501	112.231	80.008	19.992	103.033	20.327	-0.036	-0.018
13.001	112.252	80.013	19.992	103.041	20.323	0.187	0.025
13.500	112.207	79.987	19.994	103.054	20.326	-0.028	0.017
14.000	112.238	80.000	19.994	103.058	20.325	0.080	-0.019
14.500	112.228	80.003	19.995	103.060	20.324	0.121	0.003
15.001	112.202	80.003	19.995	103.062	20.322	0.323	-0.007
15.501	112.247	80.009	19.992	103.060	20.327	-0.106	-0.009
16.001	112.215	80.013	19.993	103.059	20.324	0.175	0.016
16.501	112.231	80.003	19.994	103.061	20.326	0.036	-0.001
17.000	112.231	79.999	19.995	103.066	20.323	0.227	0.000
17.500	112.251	80.015	19.995	103.072	20.323	0.213	0.018
18.000	112.222	80.016	19.991	103.077	20.320	0.462	0.005
18.500	112.220	80.022	19.994	103.085	20.318	0.595	-0.020
19.000	112.174	79.993	19.996	103.093	20.319	0.526	-0.039
19.500	112.215	80.001	19.993	103.095	20.317	0.633	-0.027
20.000	112.212	80.027	19.993	103.098	20.316	0.717	0.016
20.500	112.198	80.006	19.995	103.104	20.315	0.773	0.011
21.000	112.242	80.004	19.995	103.107	20.318	0.595	0.006
21.500	112.238	80.007	19.996	103.117	20.316	0.733	0.035
22.000	112.295	80.014	19.994	103.134	20.312	1.033	0.046
22.500	112.278	80.006	19.995	103.144	20.309	1.213	0.046
23.000	112.289	80.009	19.994	103.156	20.312	1.003	0.017
23.500	112.305	80.003	19.994	103.162	20.310	1.165	0.011
24.000	112.288	79.999	19.997	103.167	20.310	1.193	0.013
24.500	112.358	80.006	19.993	103.165	20.304	1.615	0.027
25.000	112.391	80.004	19.994	103.170	20.305	1.559	0.078
25.501	112.390	80.014	19.994	103.172	20.306	1.441	0.067
26.001	112.412	79.998	19.995	103.180	20.304	1.611	0.026
26.501	112.457	80.017	19.994	103.184	20.302	1.782	0.044
27.001	112.495	80.004	19.994	103.195	20.304	1.623	0.075
27.500	112.503	80.003	19.996	103.199	20.302	1.788	0.064
28.000	112.560	80.005	19.995	103.198	20.298	2.059	0.055
28.500	112.586	80.011	19.994	103.193	20.297	2.139	0.074
29.000	112.630	79.998	19.995	103.190	20.300	1.866	0.077
29.500	112.708	80.015	19.995	103.181	20.296	2.166	0.096
30.000	112.745	80.012	19.993	103.184	20.299	1.997	0.119
30.500	112.773	80.001	19.996	103.189	20.298	2.073	0.090
31.000	112.798	80.005	19.994	103.190	20.297	2.116	0.059
31.500	112.830	80.005	19.996	103.196	20.295	2.246	0.055
32.000	112.878	80.003	19.996	103.198	20.296	2.194	0.069
32.500	112.951	80.005	19.996	103.187	20.296	2.166	0.101
33.001	113.006	80.006	19.994	103.180	20.297	2.149	0.124
33.501	113.086	80.007	19.995	103.179	20.295	2.288	0.131
34.000	113.124	80.002	19.993	103.178	20.293	2.394	0.127
34.500	113.186	80.002	19.996	103.181	20.293	2.402	0.110
35.000	113.253	80.011	19.994	103.184	20.295	2.238	0.114
35.500	113.365	80.015	19.994	103.186	20.296	2.198	0.153
36.000	113.403	80.005	19.995	103.185	20.295	2.290	0.165
36.500	113.444	80.000	19.996	103.179	20.296	2.216	0.115
37.001	113.490	80.002	19.995	103.176	20.295	2.274	0.083
37.501	113.565	80.003	19.995	103.178	20.294	2.306	0.104
38.000	113.637	80.019	19.992	103.177	20.294	2.336	0.134
38.500	113.722	80.017	19.991	103.180	20.294	2.336	0.152
39.000	113.787	79.998	19.996	103.190	20.295	2.296	0.153
39.500	113.870	80.001	19.995	103.190	20.298	2.079	0.149
40.000	113.908	79.998	19.994	103.190	20.296	2.183	0.135
40.500	113.991	80.001	19.997	103.190	20.293	2.420	0.121
41.000	114.037	80.007	19.994	103.183	20.296	2.165	0.125
41.500	114.148	80.009	19.994	103.173	20.292	2.466	0.143
42.000	114.206	80.003	19.995	103.175	20.293	2.422	0.163
42.500	114.284	79.996	19.995	103.176	20.294	2.344	0.152
43.000	114.412	80.001	19.994	103.181	20.295	2.275	0.171
43.501	114.462	80.001	19.996	103.190	20.295	2.285	0.192
44.001	114.557	80.013	19.996	103.196	20.294	2.329	0.162
44.500	114.627	80.005	19.995	103.199	20.295	2.299	0.155
45.000	114.679	80.003	19.993	103.200	20.298	2.054	0.144
45.500	114.758	80.002	19.994	103.204	20.300	1.898	0.127
46.001	114.854	80.004	19.994	103.200	20.296	2.157	0.153
46.501	114.949	79.999	19.995	103.195	20.296	2.159	0.183
47.000	115.019	80.001	19.993	103.188	20.293	2.436	0.178
47.500	115.080	80.007	19.994	103.193	20.294	2.305	0.148
48.000	115.222	80.003	19.993	103.193	20.292	2.484	0.167
48.500	115.275	79.997	19.995	103.198	20.291	2.586	0.199
49.000	115.407	80.002	19.995	103.205	20.293	2.401	0.190
49.500	115.457	79.986	19.997	103.213	20.296	2.197	0.183
50.000	115.591	79.980	19.998	103.211	20.291	2.558	0.183
50.500	115.682	80.019	19.994	103.209	20.291	2.544	0.205
51.000	115.747	80.004	19.995	103.211	20.293	2.395	0.191
51.500	115.856	80.000	19.995	103.209	20.293	2.424	0.165
52.000	115.957	79.990	19.998	103.209	20.291	2.578	0.192
52.500	116.057	79.998	19.996	103.208	20.290	2.606	0.205
53.000	116.176	79.994	19.997	103.214	20.290	2.647	0.210
53.500	116.255	80.007	19.996	103.214	20.287	2.839	0.208
54.000	116.397	79.998	19.997	103.217	20.289	2.697	0.210
54.501	116.498	80.001	19.995	103.220	20.290	2.658	0.232
55.001	116.609	80.003	19.994	103.227	20.288	2.781	0.228
55.500	116.677	79.993	19.996	103.224	20.288	2.795	0.196
56.000	116.791	80.004	19.996	103.226	20.286	2.945	0.180
56.500	116.904	80.006	19.995	103.227	20.288	2.757	0.205
57.000	117.041	80.006	19.995	103.232	20.287	2.819	0.239
57.501	117.135	80.000	19.997	103.233	20.290	2.616	0.240
58.001	117.268	79.986	19.997	103.236	20.286	2.926	0.229
58.500	117.384	80.000	19.995	103.236	20.287	2.819	0.238
59.000	117.519	80.006	19.995	103.236	20.289	2.673	0.250
59.500	117.668	80.009	19.995	103.238	20.287	2.825	0.268
60.000	117.778	80.007	19.998	103.238	20.289	2.731	0.272
60.500	117.845	80.006	19.995	103.234	20.288	2.789	0.218
61.000	117.972	80.003	19.995	103.240	20.290	2.662	0.185
61.500	118.055	79.985	19.998	103.242	20.288	2.809	0.202
62.000	118.218	80.012	19.995	103.237	20.285	2.970	0.228
62.500	118.329	79.998	19.995	103.234	20.284	3.066	0.260
63.000	118.488	80.011	19.995	103.237	20.286	2.959	0.272
63.500	118.567	80.003	19.998	103.235	20.286	2.923	0.254
64.000	118.704	79.992	19.995	103.232	20.285	2.990	0.227
64.500	118.859	79.995	19.994	103.234	20.287	2.855	0.254
65.000	118.977	79.996	19.997	103.239	20.286	2.959	0.282
65.500	119.093	80.010	19.994	103.238	20.284	3.074	0.253
66.000	119.225	80.004	19.995	103.240	20.282	3.214	0.241
66.500	119.352	79.998	19.996	103.244	20.288	2.744	0.253
67.000	119.464	79.993	19.996	103.244	20.285	2.967	0.249
67.500	119.603	80.007	19.993	103.241	20.283	3.140	0.245
68.000	119.727	79.994	19.996	103.245	20.283	3.129	0.257
68.501	119.875	79.994	19.997	103.238	20.283	3.113	0.267
69.001	120.061	80.001	19.995	103.230	20.286	2.933	0.303
69.500	120.159	80.006	19.994	103.232	20.284	3.047	0.309
70.000	120.324	80.006	19.993	103.237	20.284	3.061	0.273
70.500	120.465	79.994	19.995	103.239	20.283	3.175	0.284
71.000	120.563	80.003	19.995	103.245	20.282	3.192	0.273
71.500	120.712	80.004	19.995	103.251	20.283	3.125	0.243
72.000	120.845	79.989	19.995	103.252	20.283	3.155	0.264
72.500	121.016	79.984	19.996	103.250	20.285	3.009	0.293
73.000	121.152	80.004	19.995	103.244	20.280	3.340	0.305
73.500	121.298	79.997	19.995	103.243	20.281	3.320	0.295
74.000	121.453	79.994	19.995	103.245	20.282	3.196	0.292
74.500	121.598	80.004	19.995	103.243	20.280	3.362	0.300
75.000	121.748	80.000	19.995	103.244	20.281	3.266	0.298
75.500	121.898	80.004	19.996	103.249	20.283	3.142	0.298
76.000	122.051	80.009	19.993	103.250	20.279	3.465	0.301
76.500	122.196	80.004	19.993	103.252	20.281	3.322	0.301
77.000	122.379	80.001	19.992	103.254	20.280	3.344	0.313
77.500	122.510	79.997	19.993	103.261	20.277	3.566	0.321
78.000	122.672	79.990	19.995	103.266	20.276	3.639	0.303
78.500	122.866	80.000	19.992	103.265	20.280	3.386	0.324
79.000	122.966	80.002	19.993	103.268	20.281	3.308	0.325
79.500	123.131	80.002	19.992	103.270	20.280	3.388	0.280
80.000	123.260	80.001	19.993	103.268	20.277	3.605	0.280
80.500	123.477	80.011	19.994	103.265	20.276	3.643	0.320
81.000	123.654	80.007	19.993	103.271	20.276	3.635	0.370
81.500	123.792	79.993	19.996	103.272	20.275	3.745	0.355
82.000	123.914	79.995	19.996	103.268	20.275	3.705	0.288
82.500	124.089	80.016	19.995	103.268	20.278	3.502	0.278
83.000	124.275	80.006	19.993	103.274	20.277	3.611	0.329
83.500	124.418	80.000	19.995	103.273	20.276	3.627	0.345
84.000	124.574	80.007	19.993	103.270	20.278	3.514	0.314
84.500	124.726	79.991	19.995	103.275	20.277	3.612	0.303
85.001	124.911	80.005	19.995	103.271	20.275	3.707	0.323
85.501	125.074	79.997	19.996	103.265	20.274	3.793	0.343
86.000	125.246	80.004	19.993	103.263	20.273	3.841	0.341
86.501	125.404	79.999	19.996	103.265	20.273	3.885	0.333
87.001	125.603	80.002	19.994	103.264	20.276	3.687	0.344
87.500	125.780	80.014	19.994	103.273	20.276	3.658	0.366
88.000	125.973	80.009	19.994	103.282	20.276	3.634	0.373
88.500	126.148	79.995	19.996	103.288	20.276	3.647	0.369
89.000	126.329	79.997	19.996	103.289	20.275	3.723	0.362
89.500	126.465	80.005	19.996	103.284	20.276	3.624	0.336
90.000	126.628	80.000	19.997	103.279	20.273	3.861	0.307
90.500	126.841	79.988	19.998	103.270	20.271	4.026	0.338
91.000	127.024	80.003	19.995	103.265	20.273	3.887	0.386
91.500	127.241	80.007	19.994	103.265	20.274	3.779	0.398
92.000	127.337	79.992	19.997	103.275	20.270	4.106	0.357
92.500	127.549	80.009	19.995	103.274	20.272	3.915	0.310
93.000	127.759	80.006	19.995	103.281	20.276	3.644	0.365
93.500	127.959	79.997	19.995	103.286	20.275	3.736	0.416
94.000	128.119	80.019	19.995	103.285	20.272	3.975	0.385
94.500	128.281	80.005	19.995	103.281	20.273	3.879	0.341
95.000	128.477	80.023	19.992	103.284	20.271	4.014	0.340
95.500	128.632	79.998	19.997	103.288	20.270	4.102	0.355
96.000	128.839	79.999	19.994	103.283	20.271	4.054	0.357
96.500	129.067	80.015	19.992	103.286	20.270	4.058	0.398
97.000	129.254	80.006	19.995	103.289	20.270	4.066	0.425
97.500	129.444	80.004	19.992	103.293	20.269	4.130	0.396
98.000	129.660	80.000	19.994	103.291	20.267	4.281	0.392
98.500	129.841	80.006	19.995	103.296	20.266	4.399	0.402
99.000	129.996	80.004	19.994	103.294	20.271	4.054	0.367
99.501	130.234	80.007	19.994	103.289	20.272	3.980	0.364
100.001	130.417	80.015	19.994	103.289	20.270	4.090	0.406
100.501	130.628	80.010	19.994	103.289	20.266	4.361	0.407
101.001	130.807	80.013	19.992	103.289	20.268	4.237	0.392
101.500	130.998	80.012	19.993	103.292	20.270	4.092	0.380
102.000	131.216	80.006	19.993	103.294	20.270	4.078	0.390
102.500	131.388	80.017	19.994	103.294	20.270	4.108	0.399
103.000	131.632	80.005	19.991	103.298	20.270	4.060	0.403
103.500	131.837	80.008	19.992	103.303	20.272	3.919	0.433
104.000	131.999	80.017	19.991	103.304	20.268	4.234	0.408
104.501	132.226	79.986	19.995	103.306	20.267	4.304	0.378
105.001	132.458	80.011	19.992	103.302	20.270	4.098	0.424
105.500	132.637	80.000	19.994	103.297	20.271	4.002	0.435
106.000	132.819	79.997	19.993	103.290	20.268	4.203	0.386
106.500	133.041	79.998	19.993	103.287	20.271	4.048	0.382
107.000	133.261	80.024	19.992	103.285	20.269	4.162	0.423
107.500	133.451	80.022	19.992	103.291	20.270	4.128	0.426
108.000	133.657	79.996	19.995	103.295	20.268	4.243	0.403
108.501	133.871	80.009	19.996	103.295	20.270	4.070	0.408
109.001	134.143	80.018	19.994	103.294	20.269	4.140	0.454
109.500	134.300	80.007	19.993	103.293	20.272	3.962	0.458
110.000	134.502	80.008	19.993	103.290	20.270	4.084	0.394
110.501	134.697	80.003	19.994	103.286	20.265	4.469	0.378
111.001	134.903	80.000	19.993	103.286	20.270	4.080	0.399
111.500	135.129	79.998	19.995	103.288	20.271	4.018	0.416
112.000	135.383	79.999	19.993	103.285	20.269	4.152	0.456
112.500	135.581	80.014	19.995	103.288	20.273	3.893	0.466
113.000	135.777	80.000	19.996	103.292	20.270	4.058	0.423
113.500	136.051	80.025	19.990	103.291	20.274	3.825	0.432
114.000	136.267	80.002	19.993	103.296	20.271	4.038	0.480
114.500	136.432	79.997	19.995	103.300	20.270	4.114	0.436
115.000	136.663	80.011	19.993	103.298	20.270	4.076	0.388
115.500	136.913	79.992	19.995	103.297	20.272	3.936	0.438
116.000	137.138	80.009	19.996	103.298	20.267	4.291	0.478
116.501	137.374	79.992	19.997	103.291	20.268	4.248	0.468
117.001	137.525	80.008	19.995	103.287	20.267	4.306	0.424
117.500	137.779	80.014	19.993	103.286	20.267	4.286	0.396
118.000	137.982	79.991	19.995	103.285	20.267	4.346	0.431
118.500	138.213	79.975	19.997	103.282	20.267	4.318	0.446
119.000	138.473	80.007	19.993	103.279	20.271	4.037	0.463
119.501	138.710	80.007	19.995	103.286	20.270	4.086	0.494
120.001	138.895	80.008	19.995	103.287	20.266	4.391	0.459
120.500	139.138	80.008	19.995	103.283	20.266	4.403	0.425
121.000	139.389	80.002	19.996	103.287	20.269	4.200	0.461
121.500	139.620	80.010	19.994	103.293	20.268	4.265	0.488
122.000	139.816	79.994	19.996	103.290	20.274	3.827	0.454
122.501	140.075	79.996	19.994	103.290	20.267	4.303	0.441
123.001	140.302	79.999	19.994	103.293	20.268	4.215	0.471
123.500	140.533	79.999	19.994	103.294	20.269	4.180	0.472
124.000	140.739	80.003	19.994	103.296	20.272	3.926	0.447
124.501	140.988	79.989	19.996	103.296	20.270	4.098	0.446
125.001	141.229	80.011	19.995	103.294	20.272	3.926	0.473
125.500	141.419	80.003	19.995	103.293	20.271	4.046	0.460
126.000	141.677	79.976	19.996	103.292	20.269	4.174	0.439
126.500	141.931	80.016	19.993	103.288	20.269	4.130	0.480
127.000	142.164	80.011	19.995	103.294	20.270	4.086	0.500
127.500	142.402	80.010	19.992	103.298	20.269	4.130	0.479
128.000	142.605	80.019	19.993	103.301	20.271	3.994	0.456
128.500	142.849	80.000	19.996	103.304	20.272	3.939	0.444
129.000	143.095	80.015	19.995	103.306	20.272	3.976	0.469
129.500	143.307	80.016	19.994	103.299	20.271	4.052	0.474
130.000	143.546	80.001	19.996	103.301	20.269	4.170	0.455
130.500	143.750	80.008	19.994	103.295	20.270	4.092	0.447
131.000	144.006	79.998	19.996	103.294	20.268	4.222	0.451
131.500	144.253	79.995	19.995	103.293	20.273	3.883	0.481
132.000	144.495	79.998	19.995	103.293	20.271	3.987	0.496
132.500	144.715	80.002	19.995	103.289	20.268	4.220	0.475
133.000	144.924	80.005	19.995	103.289	20.270	4.100	0.446
133.500	145.181	80.005	19.994	103.288	20.269	4.198	0.448
134.000	145.429	80.005	19.995	103.288	20.270	4.120	0.486
134.500	145.656	79.994	19.996	103.287	20.269	4.184	0.490
135.000	145.921	80.001	19.995	103.285	20.268	4.235	0.483
135.500	146.174	80.005	19.994	103.286	20.268	4.245	0.505
136.000	146.403	80.003	19.996	103.286	20.271	4.000	0.500
136.500	146.642	80.006	19.994	103.286	20.267	4.285	0.475
137.000	146.915	80.023	19.992	103.286	20.264	4.547	0.490
137.500	147.093	79.996	19.994	103.293	20.267	4.283	0.482
138.000	147.379	80.011	19.993	103.292	20.269	4.146	0.457
138.500	147.602	79.991	19.997	103.294	20.269	4.172	0.486
139.000	147.878	80.001	19.995	103.292	20.267	4.331	0.505
139.500	148.070	80.004	19.994	103.292	20.266	4.413	0.484
140.000	148.340	79.977	19.996	103.288	20.267	4.319	0.465
140.500	148.604	80.008	19.994	103.290	20.264	4.540	0.498
141.000	148.867	80.008	19.996	103.294	20.268	4.248	0.530
141.500	149.111	80.002	19.997	103.298	20.269	4.186	0.517
142.001	149.333	79.997	19.996	103.297	20.266	4.401	0.486
142.500	149.551	79.997	19.995	103.297	20.268	4.212	0.453
143.000	149.848	80.017	19.994	103.296	20.270	4.068	0.477
143.500	150.077	80.004	19.996	103.296	20.264	4.496	0.520
144.000	150.309	79.996	19.998	103.294	20.263	4.580	0.494
144.500	150.574	80.015	19.995	103.292	20.265	4.443	0.479
145.000	150.856	80.006	19.997	103.293	20.266	4.379	0.522
145.500	151.062	80.007	19.996	103.291	20.265	4.426	0.518
146.000	151.304	80.003	19.996	103.288	20.268	4.267	0.469
146.500	151.514	80.005	19.995	103.288	20.267	4.295	0.450
147.000	151.800	80.001	19.996	103.292	20.268	4.227	0.473
147.500	152.028	79.995	19.997	103.292	20.271	4.042	0.505
148.000	152.242	80.001	19.995	103.293	20.268	4.241	0.479
148.500	152.515	80.006	19.996	103.292	20.269	4.201	0.464
149.000	152.753	79.970	19.998	103.292	20.269	4.146	0.499
149.500	153.035	79.996	19.994	103.287	20.273	3.876	0.515
150.000	153.240	80.004	19.996	103.288	20.266	4.353	0.503
150.500	153.498	80.001	19.996	103.290	20.270	4.066	0.475
151.000	153.738	80.001	19.996	103.289	20.269	4.140	0.481
151.500	154.008	80.011	19.994	103.288	20.268	4.253	0.504
152.000	154.272	79.995	19.997	103.294	20.268	4.267	0.522
152.500	154.509	80.014	19.995	103.290	20.266	4.363	0.518
153.000	154.773	80.003	19.997	103.291	20.270	4.112	0.501
153.500	154.974	79.998	19.997	103.291	20.272	3.964	0.483
154.000	155.233	80.003	19.995	103.288	20.270	4.116	0.463
154.500	155.465	79.995	19.996	103.286	20.267	4.321	0.476
155.000	155.726	79.996	19.996	103.288	20.268	4.219	0.492
155.500	155.920	80.004	19.995	103.285	20.263	4.606	0.474
156.000	156.184	79.987	19.999	103.285	20.268	4.239	0.456
156.500	156.464	79.999	19.996	103.282	20.265	4.431	0.501
157.000	156.698	80.022	19.992	103.277	20.264	4.522	0.529
157.500	156.938	79.995	19.995	103.281	20.268	4.257	0.494
158.000	157.194	80.001	19.996	103.280	20.266	4.391	0.485
158.500	157.449	80.005	19.994	103.279	20.267	4.291	0.504
159.000	157.666	79.996	19.998	103.286	20.269	4.161	0.492
159.500	157.985	80.010	19.994	103.286	20.271	4.044	0.504
160.000	158.186	80.009	19.995	103.285	20.266	4.350	0.528
160.500	158.499	80.002	19.995	103.283	20.271	4.045	0.517
161.000	158.709	80.011	19.993	103.283	20.268	4.219	0.518
161.500	158.954	80.000	19.995	103.283	20.267	4.324	0.489
162.000	159.201	80.004	19.996	103.285	20.268	4.249	0.473
162.500	159.488	80.021	19.993	103.280	20.266	4.380	0.513
163.000	159.746	80.008	19.994	103.284	20.268	4.211	0.540
163.500	159.955	80.008	19.995	103.285	20.271	4.011	0.506
164.000	160.235	80.012	19.994	103.284	20.266	4.366	0.478
164.500	160.515	80.011	19.993	103.287	20.270	4.095	0.525
165.000	160.737	80.011	19.994	103.293	20.268	4.231	0.531
165.500	160.955	79.995	19.997	103.292	20.267	4.327	0.471
166.000	161.209	79.988	19.995	103.286	20.265	4.428	0.456
166.500	161.534	80.004	19.993	103.286	20.266	4.366	0.526
167.000	161.728	80.016	19.993	103.288	20.264	4.499	0.549
167.500	162.023	80.013	19.995	103.287	20.270	4.083	0.504
168.000	162.210	79.997	19.994	103.285	20.267	4.288	0.486
168.500	162.462	79.996	19.995	103.291	20.266	4.354	0.461
169.000	162.732	80.017	19.993	103.288	20.268	4.257	0.481
169.500	162.985	79.995	19.996	103.283	20.269	4.189	0.522
170.000	163.261	80.008	19.996	103.278	20.268	4.237	0.526
170.500	163.519	79.986	19.995	103.275	20.267	4.304	0.531
171.000	163.734	79.984	19.996	103.275	20.268	4.232	0.504
171.500	164.070	80.014	19.991	103.273	20.267	4.336	0.512
172.000	164.312	80.004	19.995	103.273	20.265	4.493	0.565
172.500	164.560	79.998	19.994	103.271	20.266	4.402	0.534
173.000	164.819	80.001	19.993	103.272	20.267	4.290	0.498
173.500	165.060	80.002	19.996	103.266	20.264	4.515	0.503
174.000	165.352	79.997	19.994	103.267	20.265	4.477	0.517
174.500	165.581	80.010	19.995	103.264	20.265	4.451	0.527
175.000	165.845	79.999	19.994	103.266	20.270	4.115	0.507
175.500	166.066	80.003	19.994	103.268	20.270	4.075	0.489
176.000	166.336	80.016	19.995	103.272	20.268	4.216	0.488
176.500	166.611	79.998	19.994	103.275	20.267	4.298	0.518
177.000	166.885	80.006	19.995	103.273	20.268	4.254	0.547
177.500	167.060	80.005	19.995	103.271	20.270	4.095	0.500
178.000	167.372	80.001	19.995	103.265	20.269	4.133	0.468
178.500	167.628	80.008	19.993	103.263	20.269	4.129	0.527
179.000	167.879	80.003	19.995	103.266	20.266	4.354	0.537
179.500	168.102	80.005	19.995	103.273	20.268	4.260	0.490
180.000	168.378	79.993	19.994	103.277	20.267	4.304	0.487
180.500	168.606	79.987	19.997	103.280	20.270	4.097	0.502
181.000	168.897	79.996	19.996	103.274	20.268	4.250	0.512
181.500	169.153	80.014	19.994	103.266	20.272	3.913	0.533
182.000	169.393	80.007	19.995	103.259	20.269	4.130	0.521
182.500	169.669	80.010	19.994	103.257	20.267	4.278	0.506
183.000	169.913	80.003	19.996	103.260	20.274	3.780	0.518
183.500	170.168	80.000	19.995	103.264	20.269	4.180	0.510
184.000	170.383	80.009	19.995	103.263	20.269	4.170	0.485
184.500	170.687	80.009	19.994	103.263	20.271	4.033	0.495
185.000	170.931	80.003	19.995	103.259	20.268	4.204	0.534
185.500	171.175	80.006	19.994	103.255	20.269	4.178	0.518
186.000	171.408	80.004	19.994	103.260	20.270	4.100	0.482
186.500	171.622	80.010	19.996	103.262	20.267	4.332	0.462
187.000	171.920	80.003	19.994	103.264	20.266	4.361	0.480
187.500	172.143	79.995	19.995	103.268	20.267	4.306	0.517
188.000	172.407	80.019	19.992	103.267	20.263	4.616	0.504
188.501	172.686	80.011	19.994	103.265	20.266	4.359	0.515
189.001	172.973	80.010	19.994	103.264	20.265	4.463	0.554
189.501	173.211	80.007	19.994	103.265	20.266	4.401	0.545
190.001	173.455	80.004	19.994	103.260	20.265	4.491	0.504
190.501	173.709	80.008	19.994	103.260	20.265	4.475	0.490
191.000	173.968	80.005	19.993	103.257	20.265	4.427	0.505
191.500	174.235	80.005	19.994	103.256	20.267	4.314	0.519
192.000	174.462	80.011	19.994	103.253	20.264	4.529	0.510
192.500	174.730	80.003	19.994	103.254	20.265	4.445	0.495
193.000	174.945	80.005	19.994	103.252	20.262	4.674	0.489
193.500	175.202	80.006	19.994	103.252	20.264	4.509	0.477
194.000	175.464	80.010	19.994	103.254	20.265	4.479	0.495
194.500	175.720	80.002	19.995	103.257	20.260	4.834	0.518
195.000	175.963	80.005	19.993	103.255	20.260	4.824	0.509
195.500	176.231	80.002	19.994	103.257	20.263	4.573	0.505
196.000	176.464	80.006	19.993	103.256	20.265	4.471	0.506
196.500	176.757	80.003	19.994	103.256	20.265	4.447	0.513
197.000	176.976	80.009	19.995	103.254	20.262	4.668	0.519
197.500	177.202	80.004	19.995	103.253	20.262	4.647	0.479
198.000	177.484	80.006	19.994	103.252	20.266	4.405	0.476
198.500	177.709	80.007	19.996	103.253	20.264	4.545	0.507
199.000	177.964	80.006	19.994	103.251	20.264	4.503	0.494
199.500	178.215	80.008	19.995	103.252	20.266	4.356	0.494
200.000	178.512	80.012	19.996	103.254	20.265	4.487	0.527
200.500	178.729	80.000	19.997	103.255	20.263	4.575	0.531
201.000	178.985	79.997	19.997	103.254	20.265	4.465	0.494
201.500	179.212	80.017	19.993	103.257	20.261	4.716	0.478
202.000	179.459	80.008	19.995	103.257	20.266	4.381	0.478
202.500	179.708	80.000	19.995	103.260	20.262	4.662	0.486
203.000	179.928	79.999	19.995	103.257	20.265	4.459	0.483
203.500	180.209	79.999	19.994	103.256	20.267	4.316	0.485
204.000	180.482	80.002	19.994	103.253	20.262	4.660	0.527
204.500	180.716	80.003	19.994	103.252	20.264	4.547	0.530
205.000	180.928	80.004	19.995	103.250	20.263	4.592	0.476
205.500	181.252	80.007	19.994	103.253	20.262	4.676	0.491
206.000	181.483	80.006	19.994	103.254	20.263	4.628	0.546
206.500	181.704	80.003	19.994	103.256	20.257	5.033	0.504
207.000	181.950	80.005	19.995	103.256	20.263	4.622	0.460
207.500	182.203	80.005	19.995	103.256	20.261	4.732	0.483
208.000	182.508	80.000	19.994	103.256	20.264	4.523	0.529
208.500	182.717	80.001	19.995	103.257	20.261	4.768	0.536
209.000	182.950	80.007	19.993	103.257	20.261	4.776	0.478
209.500	183.220	80.005	19.992	103.256	20.263	4.630	0.472
210.000	183.499	80.004	19.996	103.256	20.259	4.885	0.526
210.500	183.713	80.003	19.994	103.256	20.261	4.720	0.521
211.000	183.977	80.003	19.994	103.256	20.260	4.793	0.485
211.500	184.234	80.007	19.994	103.256	20.261	4.764	0.500
212.000	184.471	80.003	19.995	103.256	20.259	4.883	0.507
212.500	184.742	80.001	19.994	103.255	20.261	4.763	0.501
213.000	184.989	80.006	19.994	103.255	20.260	4.793	0.513
213.500	185.267	80.006	19.994	103.255	20.262	4.673	0.522
214.000	185.479	80.003	19.994	103.252	20.264	4.548	0.508
214.500	185.724	79.997	19.997	103.250	20.258	4.935	0.474
215.000	186.014	80.014	19.993	103.249	20.261	4.761	0.496
215.501	186.249	79.997	19.996	103.247	20.262	4.680	0.530
216.000	186.528	80.004	19.994	103.244	20.261	4.759	0.520
216.500	186.781	80.002	19.996	103.245	20.260	4.853	0.523
217.000	187.044	80.004	19.996	103.245	20.260	4.803	0.524
217.500	187.308	80.016	19.995	103.246	20.260	4.825	0.522
218.000	187.536	80.009	19.996	103.249	20.256	5.112	0.510
218.500	187.814	79.999	19.995	103.251	20.255	5.158	0.499
219.000	188.012	80.001	19.997	103.249	20.257	5.034	0.491
219.500	188.265	80.006	19.995	103.248	20.256	5.130	0.463
220.000	188.517	80.003	19.996	103.247	20.258	4.949	0.478
220.500	188.776	80.009	19.994	103.244	20.259	4.901	0.508
221.000	189.031	79.997	19.996	103.244	20.255	5.210	0.512
221.500	189.267	80.003	19.996	103.245	20.253	5.343	0.502
222.000	189.502	80.008	19.994	103.245	20.256	5.084	0.481
222.500	189.749	79.991	19.997	103.245	20.254	5.293	0.477
223.000	190.026	79.999	19.996	103.237	20.250	5.548	0.503
223.500	190.272	80.010	19.994	103.234	20.256	5.111	0.523
224.000	190.485	80.004	19.995	103.233	20.254	5.227	0.491
224.500	190.783	80.007	19.996	103.231	20.254	5.233	0.485
225.000	191.020	80.005	19.994	103.226	20.252	5.397	0.523
225.500	191.261	80.005	19.996	103.236	20.248	5.664	0.507
226.000	191.509	79.999	19.996	103.239	20.256	5.134	0.483
226.500	191.754	80.004	19.994	103.239	20.254	5.243	0.491
227.000	192.006	80.006	19.995	103.241	20.253	5.315	0.495
227.500	192.241	80.008	19.994	103.245	20.256	5.139	0.492
228.000	192.497	80.003	19.995	103.242	20.254	5.265	0.490
228.500	192.733	80.008	19.993	103.241	20.256	5.106	0.491
229.000	193.022	79.996	19.994	103.242	20.251	5.464	0.508
229.500	193.233	80.007	19.992	103.240	20.251	5.490	0.513
230.000	193.481	80.006	19.995	103.242	20.254	5.280	0.479
230.500	193.727	80.002	19.995	103.242	20.252	5.381	0.476
231.000	193.957	80.010	19.995	103.243	20.254	5.267	0.485
231.500	194.225	80.020	19.994	103.242	20.251	5.504	0.487
232.000	194.428	80.003	19.996	103.241	20.249	5.658	0.485
232.500	194.684	80.011	19.993	103.234	20.252	5.393	0.465
233.000	194.952	80.002	19.995	103.230	20.253	5.347	0.491
233.500	195.161	80.004	19.995	103.228	20.246	5.835	0.501
234.000	195.474	80.005	19.994	103.227	20.247	5.791	0.499
234.500	195.675	80.005	19.995	103.230	20.247	5.757	0.518
235.000	195.913	80.005	19.995	103.236	20.250	5.588	0.476
235.500	196.154	80.004	19.995	103.238	20.249	5.644	0.459
236.000	196.413	80.011	19.995	103.240	20.246	5.817	0.490
236.500	196.641	80.012	19.994	103.244	20.249	5.652	0.494
237.000	196.859	80.001	19.994	103.240	20.248	5.706	0.466
237.500	197.131	80.000	19.996	103.239	20.248	5.670	0.468
238.000	197.401	80.003	19.995	103.233	20.247	5.791	0.516
238.500	197.615	80.008	19.994	103.230	20.246	5.815	0.513
239.000	197.864	80.002	19.994	103.229	20.245	5.951	0.473
239.500	198.139	79.995	19.995	103.231	20.245	5.928	0.493
240.000	198.396	80.006	19.996	103.232	20.244	5.980	0.528
240.500	198.644	80.006	19.996	103.238	20.242	6.116	0.518
241.000	198.863	80.004	19.995	103.244	20.244	5.992	0.486
241.500	199.130	80.006	19.995	103.243	20.245	5.953	0.477
242.000	199.382	80.013	19.996	103.241	20.243	6.092	0.503
242.500	199.641	80.006	19.997	103.236	20.245	5.919	0.515
243.000	199.842	79.995	19.997	103.236	20.242	6.126	0.486
243.500	200.104	80.005	19.996	103.233	20.240	6.273	0.461
244.000	200.404	80.005	19.995	103.233	20.247	5.743	0.512
244.500	200.575	80.011	19.995	103.238	20.242	6.111	0.517
245.000	200.830	79.992	19.995	103.242	20.243	6.034	0.448
245.500	201.061	80.012	19.995	103.241	20.244	5.968	0.456
246.000	201.334	80.006	19.995	103.243	20.242	6.104	0.495
246.500	201.594	80.021	19.993	103.243	20.243	6.059	0.519
247.000	201.813	80.000	19.997	103.242	20.243	6.079	0.506
247.500	202.059	80.002	19.995	103.237	20.242	6.151	0.472
248.000	202.284	80.009	19.995	103.238	20.242	6.123	0.468
248.500	202.533	80.008	19.995	103.240	20.241	6.210	0.473
249.000	202.746	80.007	19.995	103.241	20.241	6.178	0.468
249.500	203.007	80.003	19.995	103.240	20.240	6.285	0.468
250.000	203.249	80.006	19.994	103.240	20.242	6.128	0.488
250.500	203.553	80.004	19.994	103.235	20.240	6.309	0.524
251.000	203.758	80.005	19.995	103.232	20.239	6.389	0.528
251.500	204.015	80.006	19.993	103.233	20.240	6.255	0.485
252.000	204.275	80.004	19.995	103.235	20.237	6.477	0.489
252.500	204.496	80.008	19.994	103.238	20.240	6.317	0.499
253.000	204.714	80.008	19.994	103.242	20.241	6.218	0.461
253.500	205.003	80.007	19.994	103.238	20.241	6.242	0.473
254.000	205.237	80.006	19.994	103.235	20.239	6.347	0.515
254.500	205.487	79.997	19.997	103.233	20.240	6.285	0.503
255.000	205.771	79.998	19.996	103.233	20.241	6.199	0.509
255.500	205.966	80.008	19.993	103.230	20.239	6.344	0.507
256.000	206.255	80.005	19.995	103.234	20.240	6.302	0.482
256.500	206.459	80.006	19.994	103.236	20.236	6.579	0.488
257.000	206.714	80.014	19.993	103.240	20.234	6.700	0.476
257.500	206.939	79.991	19.995	103.245	20.238	6.451	0.469
258.000	207.202	80.016	19.994	103.249	20.235	6.641	0.484
258.500	207.440	80.000	19.994	103.251	20.239	6.337	0.495
259.000	207.683	79.991	19.996	103.250	20.238	6.453	0.491
259.500	207.975	80.002	19.994	103.244	20.242	6.113	0.508
260.000	208.187	79.997	19.995	103.238	20.240	6.254	0.520
260.500	208.432	80.011	19.995	103.237	20.248	5.694	0.481
261.000	208.696	80.007	19.993	103.233	20.242	6.146	0.483
261.500	208.924	80.003	19.995	103.234	20.243	6.089	0.500
262.000	209.196	80.009	19.995	103.236	20.241	6.204	0.496
262.500	209.473	80.012	19.995	103.238	20.242	6.110	0.525
263.000	209.671	80.001	19.996	103.239	20.233	6.792	0.512
263.500	209.935	80.006	19.994	103.236	20.234	6.693	0.469
264.000	210.176	80.011	19.994	103.238	20.239	6.323	0.483
264.500	210.368	80.006	19.996	103.240	20.233	6.828	0.468
265.000	210.645	80.003	19.995	103.239	20.233	6.761	0.451
265.500	210.893	80.006	19.995	103.236	20.231	6.913	0.497
266.000	211.114	79.998	19.996	103.234	20.236	6.602	0.497
266.500	211.344	80.006	19.993	103.226	20.237	6.528	0.460
267.000	211.649	80.006	19.994	103.220	20.230	7.000	0.493
267.500	211.880	80.007	19.995	103.215	20.229	7.062	0.535
268.000	212.124	80.006	19.995	103.213	20.233	6.757	0.506
268.500	212.392	80.007	19.995	103.217	20.232	6.851	0.494
269.000	212.643	80.007	19.993	103.227	20.233	6.809	0.516
269.500	212.845	80.004	19.996	103.237	20.232	6.876	0.486
270.000	213.079	80.008	19.992	103.242	20.233	6.788	0.444
270.500	213.379	80.001	19.995	103.247	20.234	6.751	0.485
271.000	213.589	79.996	19.996	103.248	20.231	6.918	0.523
271.500	213.846	80.008	19.991	103.246	20.233	6.811	0.489
272.000	214.116	80.003	19.996	103.247	20.228	7.151	0.496
272.500	214.328	80.004	19.996	103.247	20.234	6.725	0.504
273.000	214.597	80.001	19.995	103.247	20.233	6.823	0.482
273.500	214.844	79.986	19.995	103.244	20.232	6.844	0.499
274.000	215.023	80.008	19.993	103.242	20.232	6.841	0.471
274.500	215.265	80.005	19.995	103.235	20.233	6.793	0.423
275.000	215.514	79.998	19.996	103.230	20.234	6.731	0.456
275.500	215.803	80.017	19.992	103.227	20.232	6.861	0.515
276.000	216.076	80.008	19.993	103.234	20.232	6.872	0.550
276.500	216.255	79.996	19.995	103.238	20.233	6.795	0.507
277.000	216.634	80.006	19.995	103.236	20.234	6.689	0.505
277.500	216.802	80.002	19.995	103.236	20.235	6.627	0.553
278.000	217.024	80.004	19.995	103.239	20.233	6.804	0.469
278.500	217.251	80.004	19.996	103.233	20.234	6.711	0.419
279.000	217.609	79.999	19.995	103.229	20.232	6.888	0.517
279.500	217.796	80.003	19.996	103.230	20.233	6.800	0.565
280.000	218.055	80.008	19.995	103.229	20.234	6.697	0.496
280.500	218.277	80.001	19.996	103.230	20.233	6.778	0.464
281.000	218.550	79.995	19.994	103.226	20.236	6.565	0.488
281.500	218.777	80.000	19.995	103.228	20.238	6.464	0.498
282.000	219.039	80.002	19.995	103.229	20.232	6.879	0.494
282.500	219.286	80.007	19.993	103.229	20.237	6.522	0.499
283.000	219.516	79.996	19.996	103.229	20.233	6.815	0.493
283.500	219.797	79.996	19.994	103.231	20.233	6.783	0.494
284.000	220.049	79.993	19.995	103.229	20.237	6.536	0.522
284.500	220.261	79.991	19.996	103.229	20.236	6.546	0.499
285.001	220.513	80.003	19.996	103.232	20.234	6.732	0.464
285.500	220.786	80.000	19.994	103.229	20.234	6.753	0.495
286.000	220.958	80.002	19.996	103.231	20.236	6.559	0.485
286.500	221.285	80.007	19.995	103.232	20.238	6.422	0.472
287.001	221.501	80.002	19.995	103.231	20.232	6.858	0.521
287.501	221.771	80.008	19.994	103.229	20.234	6.741	0.514
288.000	221.977	80.014	19.994	103.228	20.234	6.712	0.481
288.500	222.283	80.001	19.994	103.229	20.233	6.802	0.494
289.000	222.501	80.016	19.992	103.225	20.234	6.705	0.518
289.500	222.753	80.013	19.992	103.222	20.231	6.954	0.497
290.000	222.988	80.004	19.993	103.224	20.231	6.950	0.479
290.500	223.269	80.002	19.994	103.222	20.229	7.076	0.502
291.000	223.518	80.008	19.994	103.222	20.228	7.177	0.523
291.500	223.791	80.006	19.995	103.225	20.229	7.066	0.526
292.000	224.023	80.004	19.993	103.225	20.231	6.923	0.514
292.500	224.240	80.012	19.993	103.228	20.231	6.940	0.477
293.000	224.505	80.003	19.994	103.235	20.233	6.809	0.466
293.500	224.716	80.006	19.994	103.236	20.229	7.100	0.479
294.000	224.977	80.024	19.991	103.232	20.233	6.827	0.474
294.500	225.246	80.009	19.993	103.237	20.236	6.593	0.501
295.000	225.442	80.009	19.995	103.231	20.229	7.079	0.498
295.500	225.773	80.002	19.997	103.227	20.227	7.238	0.496
296.000	226.017	80.012	19.993	103.222	20.233	6.805	0.551
296.500	226.229	80.017	19.994	103.227	20.234	6.704	0.515
297.000	226.461	79.994	19.996	103.223	20.231	6.907	0.450
297.500	226.714	80.003	19.995	103.222	20.231	6.936	0.465
298.000	226.969	80.019	19.992	103.220	20.233	6.789	0.497
298.500	227.241	79.999	19.996	103.225	20.231	6.948	0.518
299.000	227.484	79.995	19.994	103.220	20.233	6.820	0.521
299.500	227.720	80.003	19.994	103.221	20.236	6.547	0.497
300.000	227.980	80.021	19.992	103.223	20.233	6.820	0.488
300.500	228.269	80.013	19.993	103.230	20.230	6.977	0.523
301.000	228.525	79.994	19.994	103.229	20.231	6.967	0.547
301.500	228.747	80.009	19.994	103.231	20.235	6.665	0.511
302.000	229.068	80.015	19.994	103.232	20.234	6.746	0.510
302.500	229.308	80.010	19.994	103.238	20.231	6.909	0.552
303.000	229.517	79.988	19.996	103.235	20.233	6.793	0.506
303.500	229.741	79.992	19.998	103.232	20.231	6.967	0.441
304.000	229.995	80.010	19.993	103.229	20.232	6.867	0.455
304.500	230.230	79.992	19.998	103.234	20.232	6.894	0.483
305.000	230.455	79.984	19.998	103.230	20.232	6.872	0.475
305.500	230.731	79.999	19.998	103.219	20.234	6.721	0.480
306.000	230.992	80.006	19.996	103.215	20.232	6.860	0.519
306.500	231.228	80.003	19.997	103.216	20.233	6.773	0.517
307.000	231.532	80.011	19.994	103.209	20.231	6.954	0.518
307.500	231.700	79.992	19.995	103.212	20.234	6.720	0.506
308.000	232.028	80.010	19.994	103.218	20.235	6.627	0.484
308.500	232.229	80.006	19.993	103.225	20.235	6.621	0.513
309.001	232.476	80.003	19.994	103.227	20.233	6.806	0.489
309.500	232.723	79.988	19.996	103.226	20.237	6.489	0.471
310.000	232.970	80.020	19.996	103.221	20.229	7.071	0.494
310.500	233.246	80.013	19.993	103.223	20.233	6.818	0.508
311.000	233.506	80.002	19.996	103.222	20.231	6.952	0.529
311.500	233.737	79.994	19.995	103.221	20.232	6.856	0.514
312.000	233.996	80.004	19.996	103.220	20.234	6.698	0.490
312.500	234.223	79.989	20.000	103.219	20.232	6.897	0.488
313.000	234.497	80.000	19.998	103.212	20.233	6.762	0.494
313.500	234.755	80.004	19.995	103.211	20.230	6.979	0.517
314.000	234.995	79.999	19.993	103.211	20.232	6.889	0.515
314.500	235.260	80.002	19.995	103.214	20.231	6.957	0.502
315.000	235.518	80.004	19.995	103.215	20.231	6.945	0.514
315.500	235.720	80.005	19.996	103.223	20.236	6.576	0.491
316.000	235.986	80.002	19.992	103.227	20.234	6.742	0.464
316.500	236.230	80.005	19.994	103.226	20.233	6.774	0.489
317.000	236.478	80.009	19.993	103.224	20.228	7.164	0.501
317.500	236.734	80.008	19.996	103.227	20.232	6.870	0.498
318.000	236.994	80.004	19.995	103.222	20.230	7.019	0.510
318.500	237.262	80.006	19.995	103.221	20.235	6.674	0.522
319.000	237.480	79.997	19.997	103.221	20.229	7.083	0.507
319.500	237.738	80.009	19.991	103.219	20.230	7.011	0.481
320.000	237.961	80.003	19.995	103.219	20.235	6.628	0.478
320.500	238.208	80.017	19.996	103.220	20.230	7.030	0.475
321.000	238.457	80.003	19.995	103.224	20.228	7.176	0.483
321.500	238.730	80.011	19.994	103.222	20.231	6.973	0.509
322.000	238.953	80.002	19.996	103.226	20.231	6.951	0.509
322.500	239.232	80.009	19.996	103.223	20.230	6.987	0.499
323.000	239.458	80.004	19.994	103.220	20.227	7.224	0.504
323.500	239.741	80.002	19.994	103.214	20.227	7.242	0.507
324.000	239.925	79.975	19.997	103.215	20.229	7.107	0.488
324.500	240.190	80.010	19.994	103.210	20.228	7.125	0.458
325.001	240.439	79.999	19.994	103.212	20.227	7.236	0.481
325.500	240.689	79.994	19.998	103.212	20.229	7.089	0.507
326.000	240.920	80.016	19.996	103.211	20.229	7.096	0.490
326.500	241.217	79.993	19.996	103.211	20.225	7.407	0.504
327.000	241.402	80.006	19.994	103.215	20.226	7.339	0.505
327.500	241.657	80.006	19.994	103.212	20.223	7.523	0.461
328.000	241.914	80.001	19.994	103.214	20.228	7.188	0.476
328.500	242.189	80.005	19.995	103.216	20.229	7.112	0.522
329.000	242.428	80.004	19.996	103.215	20.225	7.347	0.524
329.500	242.684	80.006	19.993	103.214	20.227	7.250	0.505
330.000	242.946	80.006	19.996	103.215	20.226	7.330	0.506
330.500	243.168	80.010	19.995	103.214	20.224	7.421	0.501
331.000	243.426	80.006	19.995	103.211	20.223	7.529	0.482
331.500	243.669	80.013	19.994	103.211	20.224	7.469	0.491
332.000	243.932	80.008	19.995	103.214	20.224	7.441	0.504
332.501	244.154	80.003	19.997	103.213	20.223	7.497	0.496
333.000	244.391	80.001	19.995	103.213	20.225	7.411	0.472
333.500	244.673	80.009	19.995	103.216	20.224	7.482	0.488
334.000	244.911	80.018	19.993	103.217	20.226	7.281	0.519
334.500	245.135	80.005	19.996	103.219	20.226	7.329	0.491
335.000	245.412	79.996	19.998	103.221	20.228	7.140	0.481
335.500	245.642	80.006	19.996	103.220	20.224	7.443	0.504
336.000	245.873	80.005	19.997	103.219	20.223	7.505	0.484
336.500	246.154	80.009	19.994	103.215	20.224	7.419	0.487
337.000	246.375	80.000	19.994	103.213	20.225	7.361	0.507
337.500	246.617	80.004	19.996	103.212	20.228	7.132	0.483
338.000	246.882	80.005	19.996	103.215	20.223	7.508	0.485
338.500	247.137	80.012	19.994	103.213	20.224	7.482	0.513
339.000	247.375	79.991	19.997	103.217	20.228	7.172	0.506
339.500	247.638	80.005	19.995	103.216	20.224	7.482	0.497
340.000	247.861	80.019	19.994	103.214	20.225	7.341	0.493
340.500	248.087	79.998	19.994	103.217	20.226	7.337	0.468
341.000	248.389	80.016	19.992	103.218	20.225	7.399	0.489
341.500	248.598	79.998	19.996	103.220	20.224	7.413	0.519
342.000	248.872	80.009	19.995	103.217	20.222	7.598	0.497
342.500	249.136	80.015	19.997	103.216	20.223	7.499	0.510
343.000	249.387	80.008	19.994	103.213	20.224	7.475	0.527
343.500	249.660	80.005	19.996	103.212	20.223	7.524	0.520
344.000	249.890	80.007	19.995	103.207	20.225	7.385	0.514
344.500	250.183	80.001	19.994	103.209	20.226	7.303	0.513
345.000	250.393	80.000	19.996	103.207	20.226	7.289	0.513
345.500	250.640	80.016	19.990	103.207	20.226	7.339	0.479
346.000	250.843	79.995	19.994	103.211	20.225	7.381	0.454
346.500	251.106	79.995	19.995	103.213	20.226	7.323	0.459
347.000	251.364	80.005	19.994	103.211	20.224	7.459	0.493
347.500	251.692	80.002	19.994	103.212	20.220	7.706	0.553
348.000	251.890	80.011	19.993	103.216	20.223	7.517	0.556
348.500	252.130	80.013	19.992	103.210	20.221	7.700	0.482
349.000	252.383	80.018	19.995	103.210	20.223	7.512	0.466
349.500	252.675	79.998	19.994	103.210	20.221	7.642	0.519
350.000	252.880	79.998	19.995	103.211	20.222	7.574	0.521
350.500	253.129	80.005	19.994	103.210	20.223	7.556	0.476
351.000	253.381	80.012	19.994	103.209	20.222	7.610	0.477
351.500	253.622	80.010	19.994	103.210	20.224	7.452	0.497
352.000	253.885	80.020	19.991	103.213	20.218	7.851	0.499
352.500	254.099	80.001	19.994	103.216	20.219	7.841	0.491
353.000	254.397	80.015	19.993	103.213	20.220	7.715	0.494
353.500	254.640	79.989	19.994	103.214	20.221	7.672	0.527
354.000	254.885	80.010	19.996	103.214	20.220	7.763	0.515
354.500	255.149	80.003	19.995	103.212	20.223	7.490	0.498
355.000	255.429	80.019	19.992	103.207	20.222	7.599	0.527
355.500	255.621	80.010	19.995	103.211	20.221	7.671	0.508
356.000	255.896	79.986	19.995	103.211	20.223	7.525	0.469
356.500	256.154	80.004	19.995	103.208	20.222	7.586	0.500
357.000	256.409	80.015	19.993	103.209	20.222	7.588	0.523
357.500	256.622	80.008	19.994	103.212	20.221	7.667	0.490
358.000	256.898	80.007	19.994	103.210	20.219	7.808	0.478
358.500	257.182	80.009	19.994	103.211	20.220	7.735	0.525
359.000	257.416	79.994	19.994	103.212	20.219	7.816	0.539
359.500	257.660	80.008	19.995	103.210	20.219	7.821	0.498
360.000	257.894	80.004	19.993	103.209	20.219	7.789	0.478
360.500	258.144	80.010	19.996	103.208	20.218	7.892	0.481
361.000	258.421	80.002	19.996	103.207	20.222	7.626	0.506
361.500	258.666	79.990	19.997	103.207	20.219	7.809	0.524
362.000	258.916	80.009	19.994	103.206	20.218	7.877	0.508
362.500	259.177	80.004	19.997	103.204	20.220	7.724	0.503
363.000	259.401	80.000	19.994	103.205	20.219	7.838	0.498
363.500	259.663	80.017	19.993	103.205	20.219	7.814	0.485
364.000	259.906	80.013	19.993	103.210	20.217	7.953	0.496
364.500	260.120	79.978	20.001	103.213	20.217	7.925	0.481
365.000	260.416	79.993	19.997	103.206	20.216	8.066	0.484
365.500	260.666	80.010	19.996	103.199	20.214	8.145	0.528
366.000	260.870	79.988	19.995	103.200	20.215	8.104	0.500
366.500	261.112	80.005	19.994	103.196	20.217	7.964	0.450
367.000	261.343	80.005	19.995	103.196	20.213	8.257	0.459
367.500	261.604	80.014	19.994	103.203	20.216	8.047	0.483
368.000	261.887	80.010	19.995	103.205	20.213	8.286	0.518
368.500	262.114	80.013	19.992	103.198	20.217	7.994	0.527
369.000	262.392	80.001	19.993	103.200	20.219	7.822	0.508
369.500	262.600	80.007	19.993	103.200	20.217	7.953	0.496
370.000	262.863	80.008	19.994	103.199	20.216	8.003	0.479
370.500	263.079	80.005	19.997	103.204	20.214	8.169	0.475
371.000	263.364	80.010	19.994	103.206	20.213	8.231	0.490
371.500	263.641	80.008	19.995	103.206	20.215	8.134	0.531
372.000	263.849	80.023	19.993	103.208	20.212	8.315	0.523
372.500	264.156	80.017	19.991	103.210	20.215	8.104	0.500
373.000	264.357	80.016	19.994	103.213	20.211	8.372	0.511
373.500	264.651	80.002	19.993	103.218	20.210	8.496	0.501
374.000	264.880	80.007	19.993	103.218	20.209	8.535	0.509
374.500	265.170	80.004	19.993	103.216	20.210	8.475	0.521
375.000	265.433	80.010	19.993	103.213	20.211	8.367	0.536
375.500	265.668	80.005	19.994	103.209	20.215	8.126	0.526
376.000	265.913	80.009	19.998	103.206	20.215	8.094	0.489
376.500	266.184	80.007	19.995	103.206	20.212	8.288	0.498
377.000	266.395	79.999	19.993	103.206	20.210	8.452	0.499
377.500	266.637	79.999	19.997	103.203	20.209	8.538	0.468
378.000	266.848	80.004	19.993	103.202	20.212	8.298	0.453
378.500	267.138	80.002	19.997	103.199	20.211	8.392	0.477
379.000	267.364	79.996	19.996	103.192	20.210	8.497	0.509
379.500	267.620	80.007	19.994	103.185	20.207	8.660	0.499
380.000	267.880	80.001	19.993	103.191	20.211	8.398	0.499
380.500	268.133	80.008	19.995	103.194	20.210	8.499	0.514
381.000	268.400	80.005	19.995	103.198	20.205	8.825	0.517
381.500	268.643	80.001	19.999	103.204	20.204	8.879	0.515
382.000	268.853	80.000	19.993	103.210	20.209	8.558	0.482
382.500	269.150	80.005	19.992	103.210	20.208	8.610	0.480
383.000	269.381	80.003	19.995	103.210	20.205	8.814	0.517
383.500	269.627	80.008	19.992	103.207	20.209	8.516	0.502
384.000	269.908	80.012	19.992	103.205	20.208	8.637	0.502
384.500	270.147	80.004	19.995	103.202	20.208	8.580	0.523
385.000	270.365	79.988	19.996	103.199	20.206	8.789	0.488
385.500	270.640	80.020	19.991	103.190	20.203	8.967	0.475
386.000	270.895	79.996	19.995	103.191	20.207	8.722	0.512
386.500	271.199	80.013	19.993	103.190	20.207	8.689	0.544
387.000	271.370	80.003	19.996	103.189	20.207	8.695	0.517
387.500	271.666	80.019	19.990	103.193	20.205	8.836	0.471
388.000	271.943	80.002	19.993	103.207	20.206	8.771	0.520
388.500	272.189	80.013	19.993	103.209	20.209	8.538	0.548
389.000	272.423	80.011	19.994	103.216	20.203	8.964	0.501
389.500	272.659	80.003	20.004	103.222	20.205	8.833	0.474
390.000	272.931	80.010	19.994	103.218	20.203	8.967	0.489
390.500	273.208	80.004	20.000	103.212	20.204	8.909	0.529
391.000	273.442	79.996	19.996	103.206	20.207	8.724	0.531
391.500	273.685	79.993	19.995	103.196	20.203	8.954	0.494
392.000	273.932	80.009	19.991	103.188	20.201	9.111	0.483
392.500	274.184	80.012	19.989	103.187	20.205	8.808	0.494
393.000	274.413	80.005	19.994	103.185	20.207	8.683	0.490
393.500	274.619	79.996	19.993	103.183	20.204	8.874	0.458
394.000	274.915	80.015	19.993	103.182	20.200	9.177	0.469
394.500	275.136	79.984	20.003	103.181	20.202	9.079	0.509
395.000	275.400	79.993	20.001	103.174	20.201	9.139	0.501
395.500	275.651	79.996	19.995	103.167	20.200	9.234	0.500
396.000	275.923	80.022	19.989	103.167	20.201	9.146	0.519
396.500	276.175	79.998	19.999	103.172	20.203	8.969	0.524
397.000	276.458	80.009	19.996	103.172	20.201	9.111	0.529
397.500	276.685	80.006	19.993	103.178	20.200	9.199	0.522
398.000	276.935	80.004	19.997	103.181	20.200	9.213	0.493
398.500	277.176	80.006	19.996	103.182	20.200	9.227	0.484
399.000	277.431	80.000	19.997	103.181	20.199	9.304	0.494
399.500	277.673	80.003	19.996	103.181	20.202	9.087	0.497
400.001	277.973	80.026	19.992	103.185	20.197	9.389	0.520
400.500	278.187	80.004	19.995	103.193	20.197	9.419	0.528
401.000	278.433	80.011	19.990	103.190	20.201	9.140	0.487
401.500	278.720	79.997	19.991	103.190	20.199	9.270	0.497
402.000	278.953	79.997	19.995	103.191	20.201	9.099	0.526
402.500	279.207	80.013	19.995	103.185	20.202	9.081	0.504
403.000	279.435	80.008	19.988	103.178	20.205	8.862	0.485
403.500	279.714	79.994	19.994	103.181	20.197	9.415	0.494
404.000	279.939	79.999	19.994	103.182	20.198	9.357	0.506
404.500	280.218	80.007	19.994	103.182	20.201	9.126	0.504
405.000	280.430	80.011	19.995	103.182	20.199	9.247	0.498
405.500	280.689	80.008	19.995	103.181	20.199	9.247	0.481
406.000	280.976	80.004	19.998	103.180	20.200	9.170	0.508
406.500	281.215	80.020	19.998	103.177	20.202	9.072	0.536
407.000	281.457	80.011	19.995	103.175	20.195	9.563	0.504
407.500	281.687	80.015	19.994	103.175	20.196	9.517	0.477
408.000	281.967	80.017	19.991	103.178	20.197	9.433	0.491
408.500	282.172	80.007	19.997	103.181	20.195	9.545	0.497
409.000	282.402	80.008	19.995	103.180	20.196	9.495	0.460
409.500	282.712	80.008	19.992	103.181	20.194	9.646	0.488
410.000	282.969	80.001	19.994	103.182	20.191	9.845	0.554
410.500	283.197	80.010	19.995	103.179	20.194	9.614	0.526
411.000	283.486	80.012	19.996	103.175	20.193	9.678	0.501
411.500	283.707	80.003	20.001	103.176	20.193	9.690	0.513
412.000	283.994	80.008	19.996	103.175	20.189	9.991	0.509
412.500	284.204	80.008	19.995	103.174	20.188	10.090	0.503
413.001	284.456	80.010	19.995	103.174	20.189	10.011	0.480
413.500	284.727	80.000	19.996	103.175	20.191	9.829	0.492
414.000	284.978	80.005	19.994	103.173	20.193	9.728	0.523
414.500	285.204	79.994	19.995	103.175	20.192	9.793	0.500
415.000	285.479	80.007	19.997	103.172	20.189	9.986	0.489
415.500	285.737	80.006	19.993	103.170	20.189	9.990	0.516
416.000	285.992	80.010	19.992	103.169	20.190	9.905	0.522
416.500	286.273	80.012	19.994	103.170	20.191	9.885	0.524
417.000	286.511	80.010	19.994	103.169	20.190	9.964	0.528
417.500	286.793	80.008	19.995	103.172	20.188	10.110	0.520
418.000	287.040	79.998	19.994	103.176	20.192	9.817	0.524
418.500	287.250	80.009	19.993	103.177	20.190	9.920	0.493
419.000	287.531	80.014	19.991	103.175	20.188	10.100	0.474
419.500	287.773	80.009	19.994	103.176	20.188	10.090	0.507
420.000	288.010	80.009	19.994	103.175	20.188	10.042	0.501
420.500	288.309	80.018	19.994	103.176	20.188	10.096	0.508
421.000	288.507	79.999	19.992	103.176	20.186	10.210	0.516
421.500	288.756	80.011	19.995	103.177	20.185	10.297	0.471
422.000	289.021	80.013	19.995	103.177	20.189	10.036	0.480
422.500	289.244	80.012	19.994	103.179	20.186	10.255	0.501
423.000	289.498	80.011	19.997	103.179	20.183	10.408	0.483
423.500	289.763	79.990	19.996	103.179	20.183	10.412	0.498
424.000	289.990	79.984	19.998	103.177	20.186	10.215	0.505
424.500	290.235	79.998	19.995	103.173	20.186	10.211	0.482
425.000	290.502	80.010	19.992	103.173	20.187	10.175	0.492
425.500	290.771	80.004	19.999	103.172	20.179	10.752	0.524
426.000	290.979	80.012	19.997	103.170	20.181	10.588	0.506
426.500	291.282	80.001	19.998	103.173	20.186	10.218	0.494
427.000	291.506	80.005	20.000	103.173	20.182	10.504	0.519
427.500	291.802	80.020	19.995	103.170	20.181	10.552	0.524
428.000	292.067	80.001	19.995	103.170	20.179	10.765	0.541
428.500	292.306	80.002	19.998	103.171	20.179	10.709	0.532
429.000	292.530	79.990	19.993	103.170	20.178	10.828	0.483
429.500	292.819	80.013	19.993	103.170	20.177	10.868	0.488
430.000	293.044	80.017	19.994	103.174	20.180	10.674	0.513
430.500	293.304	80.018	19.994	103.172	20.179	10.755	0.500
431.000	293.577	80.011	19.992	103.173	20.177	10.889	0.510
431.500	293.836	80.012	19.994	103.177	20.174	11.089	0.532
432.000	294.089	80.015	19.992	103.178	20.174	11.121	0.522
432.500	294.318	80.023	19.998	103.175	20.175	11.030	0.497
433.000	294.573	80.003	19.998	103.175	20.176	10.926	0.483
433.500	294.835	80.009	19.998	103.173	20.174	11.122	0.501
434.000	295.081	80.002	19.993	103.169	20.170	11.385	0.513
434.500	295.343	80.006	19.994	103.166	20.168	11.518	0.508
435.000	295.591	80.005	19.995	103.167	20.169	11.480	0.509
435.500	295.858	80.008	19.997	103.167	20.168	11.536	0.513
436.000	296.079	80.004	19.996	103.167	20.168	11.564	0.502
436.500	296.363	80.007	19.992	103.168	20.166	11.693	0.496
437.000	296.621	80.014	19.991	103.174	20.165	11.757	0.523
437.500	296.890	79.995	19.991	103.178	20.167	11.611	0.535
438.000	297.099	79.994	19.996	103.177	20.163	11.910	0.503
438.500	297.348	80.003	19.994	103.175	20.164	11.818	0.468
439.000	297.619	80.023	19.992	103.173	20.162	11.941	0.489
439.500	297.825	79.995	19.989	103.174	20.160	12.114	0.499
440.000	298.127	80.020	19.993	103.169	20.158	12.267	0.493
440.500	298.383	80.012	19.995	103.173	20.162	11.989	0.533
441.000	298.621	80.025	19.991	103.182	20.159	12.158	0.526
441.500	298.885	80.000	19.998	103.190	20.155	12.483	0.498
442.000	299.142	80.005	19.997	103.185	20.154	12.586	0.511
442.500	299.362	80.004	19.995	103.187	20.156	12.395	0.499
443.000	299.595	80.005	19.992	103.186	20.154	12.575	0.465
443.500	299.898	80.004	19.994	103.180	20.152	12.692	0.494
444.000	300.166	80.009	19.990	103.175	20.151	12.810	0.553
444.500	300.383	80.001	19.993	103.181	20.150	12.826	0.528
445.000	300.618	79.988	19.997	103.181	20.150	12.858	0.468
445.500	300.889	79.998	19.995	103.178	20.151	12.772	0.479
446.000	301.119	80.012	19.994	103.181	20.147	13.061	0.504
446.500	301.403	80.008	19.992	103.181	20.147	13.100	0.507
447.000	301.618	80.000	19.997	103.179	20.146	13.144	0.507
447.500	301.890	80.000	20.000	103.175	20.142	13.429	0.493
448.000	302.130	80.003	19.997	103.180	20.143	13.351	0.499
448.501	302.365	79.995	19.990	103.178	20.141	13.479	0.493
449.001	302.630	80.001	19.995	103.174	20.141	13.505	0.488
449.500	302.861	79.991	19.996	103.172	20.142	13.438	0.498
450.000	303.129	80.003	20.000	103.173	20.139	13.639	0.498
450.500	303.395	79.994	20.004	103.171	20.137	13.806	0.516
451.000	303.657	80.006	20.000	103.168	20.137	13.770	0.531
451.500	303.880	80.004	19.996	103.169	20.135	13.961	0.506
452.000	304.172	80.001	19.997	103.170	20.133	14.106	0.500
452.500	304.404	80.001	19.997	103.172	20.131	14.213	0.520
453.000	304.652	80.003	19.996	103.169	20.130	14.285	0.502
453.500	304.911	80.012	19.992	103.173	20.130	14.319	0.494
454.000	305.131	80.002	19.990	103.175	20.128	14.422	0.493
454.500	305.389	80.006	19.993	103.175	20.124	14.773	0.478
455.000	305.613	80.006	19.994	103.177	20.123	14.785	0.480
455.500	305.883	80.003	19.995	103.178	20.124	14.759	0.488
456.000	306.152	80.009	19.992	103.178	20.117	15.263	0.516
456.500	306.416	80.011	19.997	103.179	20.118	15.159	0.536
457.000	306.626	80.014	19.997	103.176	20.116	15.348	0.503
457.500	306.913	80.009	19.991	103.173	20.117	15.256	0.486
458.000	307.173	80.003	19.998	103.174	20.113	15.539	0.523
458.501	307.418	80.001	19.993	103.175	20.111	15.696	0.526
459.000	307.669	80.005	19.994	103.175	20.113	15.547	0.500
459.500	307.906	80.006	19.993	103.178	20.110	15.768	0.492
460.000	308.171	80.006	19.994	103.181	20.108	15.917	0.495
460.500	308.463	80.002	19.991	103.181	20.105	16.125	0.530
461.000	308.697	80.006	19.995	103.181	20.103	16.269	0.542
461.500	308.950	80.001	19.998	103.178	20.102	16.316	0.506
462.000	309.211	80.002	19.997	103.178	20.101	16.432	0.501
462.500	309.460	80.002	19.994	103.177	20.099	16.590	0.512
463.000	309.738	80.006	19.993	103.175	20.093	16.994	0.518
463.500	309.992	80.005	19.995	103.175	20.091	17.161	0.529
464.000	310.238	80.000	19.996	103.176	20.090	17.241	0.516
464.501	310.453	79.993	19.996	103.176	20.087	17.422	0.480
465.000	310.729	80.002	19.995	103.175	20.089	17.301	0.476
465.500	311.005	79.999	19.994	103.175	20.084	17.693	0.522
466.000	311.262	80.013	19.991	103.175	20.083	17.735	0.543
466.500	311.523	80.002	19.994	103.177	20.078	18.117	0.525
467.000	311.762	79.993	19.995	103.177	20.079	18.035	0.509
467.500	312.025	79.996	19.994	103.177	20.072	18.551	0.501
468.001	312.281	79.993	19.997	103.176	20.072	18.549	0.510
468.500	312.569	80.008	19.992	103.171	20.065	19.076	0.532
469.000	312.792	80.011	19.992	103.172	20.062	19.288	0.527
469.500	313.062	80.007	19.993	103.173	20.064	19.097	0.501
470.000	313.373	80.002	19.991	103.174	20.059	19.505	0.537
470.500	313.567	80.016	19.989	103.176	20.055	19.808	0.544
471.000	313.827	80.000	19.993	103.184	20.052	20.027	0.480
471.500	314.100	80.004	19.995	103.179	20.049	20.210	0.493
472.000	314.379	80.001	19.994	103.178	20.050	20.151	0.543
472.500	314.599	79.999	19.993	103.178	20.048	20.311	0.525
473.000	314.873	80.002	19.995	103.178	20.044	20.560	0.496
473.500	315.130	80.003	19.996	103.173	20.041	20.797	0.513
474.000	315.382	80.002	19.992	103.173	20.038	21.012	0.520
474.500	315.647	80.007	19.993	103.172	20.034	21.309	0.513
475.001	315.893	80.004	19.999	103.173	20.031	21.500	0.514
475.500	316.165	80.006	19.996	103.171	20.030	21.617	0.514
476.000	316.406	80.004	19.996	103.172	20.023	22.109	0.515
476.501	316.711	79.999	19.994	103.172	20.022	22.214	0.529
477.001	316.893	80.003	19.994	103.172	20.016	22.658	0.517
477.500	317.155	80.004	19.995	103.171	20.016	22.664	0.465
478.000	317.395	80.002	19.995	103.172	20.010	23.030	0.473
478.500	317.651	80.000	19.993	103.170	20.008	23.195	0.499
479.000	317.934	80.003	19.996	103.170	20.003	23.591	0.517
479.500	318.174	80.006	19.994	103.171	20.001	23.738	0.531
480.000	318.451	80.008	19.993	103.171	19.997	24.008	0.520
480.500	318.697	80.005	19.996	103.173	19.992	24.373	0.520
481.000	318.940	80.005	19.994	103.174	19.990	24.551	0.506
481.500	319.159	80.011	19.991	103.174	19.986	24.796	0.476
482.000	319.405	80.008	19.993	103.175	19.984	24.987	0.464
482.500	319.643	80.001	19.996	103.174	19.981	25.166	0.474
483.000	319.879	80.007	19.996	103.171	19.976	25.545	0.479
483.500	320.134	80.007	19.997	103.171	19.971	25.889	0.483
484.000	320.402	80.006	19.991	103.171	19.964	26.426	0.507
484.500	320.663	80.005	19.993	103.171	19.964	26.426	0.526
485.000	320.911	80.008	19.992	103.171	19.959	26.796	0.519
485.500	321.173	80.010	19.988	103.175	19.955	27.078	0.509
486.000	321.425	80.008	19.996	103.174	19.954	27.162	0.512
486.500	321.713	80.015	19.994	103.173	19.949	27.521	0.527
487.000	321.963	80.009	19.991	103.172	19.946	27.732	0.540
487.500	322.220	80.009	19.993	103.172	19.943	27.973	0.522
488.000	322.463	80.002	19.994	103.172	19.935	28.572	0.503
488.500	322.717	80.019	19.989	103.172	19.933	28.665	0.499
489.000	322.998	80.001	19.994	103.170	19.932	28.784	0.516
489.500	323.226	80.004	19.996	103.167	19.926	29.168	0.521
490.000	323.472	79.987	19.996	103.167	19.922	29.478	0.491
490.500	323.726	79.997	19.998	103.165	19.914	30.100	0.488
491.000	323.956	80.011	19.997	103.165	19.914	30.084	0.492
491.500	324.232	80.009	19.994	103.166	19.907	30.587	0.495
492.001	324.502	80.007	19.992	103.170	19.903	30.865	0.526
492.500	324.709	79.991	20.000	103.170	19.898	31.236	0.512
493.000	324.993	80.004	19.995	103.169	19.892	31.678	0.484
493.500	325.222	80.004	19.995	103.169	19.892	31.682	0.501
494.000	325.451	80.002	19.994	103.171	19.889	31.918	0.485
494.500	325.737	80.005	19.994	103.169	19.883	32.355	0.487
495.000	325.987	80.011	19.996	103.166	19.882	32.441	0.525
495.501	326.227	80.001	19.994	103.168	19.876	32.877	0.513
496.001	326.499	80.009	19.996	103.169	19.869	33.368	0.501
496.500	326.732	80.008	19.994	103.165	19.863	33.807	0.509
497.000	326.990	80.002	19.997	103.167	19.862	33.848	0.498
497.500	327.231	80.006	19.995	103.167	19.854	34.461	0.495
498.000	327.485	80.002	19.996	103.167	19.852	34.575	0.497
498.500	327.751	80.007	19.996	103.163	19.846	35.032	0.508
499.000	327.996	80.003	19.995	103.161	19.845	35.067	0.516
499.500	328.250	80.006	19.996	103.158	19.835	35.812	0.505
500.000	328.485	80.004	19.997	103.158	19.832	36.029	0.494
500.500	328.753	80.005	19.995	103.158	19.828	36.357	0.496
501.000	329.034	80.006	19.996	103.160	19.823	36.685	0.526
501.500	329.288	80.005	19.992	103.158	19.818	37.078	0.542
502.000	329.510	80.008	19.992	103.156	19.811	37.580	0.505
502.500	329.815	80.007	19.993	103.156	19.808	37.822	0.502
503.000	330.047	80.005	19.994	103.153	19.807	37.887	0.532
503.500	330.258	80.006	19.993	103.148	19.801	38.305	0.490
504.000	330.531	80.005	19.996	103.151	19.794	38.848	0.463
504.500	330.765	80.005	19.994	103.154	19.790	39.148	0.495
505.000	331.005	80.006	19.994	103.153	19.782	39.669	0.490
505.500	331.240	80.007	19.994	103.155	19.781	39.740	0.474
506.000	331.530	80.008	19.994	103.157	19.773	40.376	0.500
506.500	331.754	80.006	19.992	103.159	19.768	40.696	0.519
507.000	332.030	80.009	19.993	103.156	19.762	41.153	0.507
507.500	332.286	79.998	19.998	103.160	19.757	41.500	0.516
508.000	332.549	80.006	19.992	103.157	19.751	41.944	0.526
508.501	332.766	80.008	19.993	103.157	19.747	42.286	0.500
509.000	333.043	80.006	19.994	103.153	19.739	42.819	0.487
509.500	333.299	80.005	19.993	103.149	19.732	43.312	0.514
510.000	333.547	80.004	19.994	103.142	19.729	43.574	0.518
510.500	333.785	80.009	19.996	103.144	19.725	43.887	0.495
511.000	334.060	80.013	19.993	103.143	19.716	44.502	0.500
511.500	334.306	80.004	19.995	103.147	19.713	44.744	0.517
512.000	334.604	80.006	19.995	103.148	19.704	45.359	0.532
512.500	334.804	80.001	19.996	103.148	19.699	45.783	0.521
513.000	335.049	80.007	19.995	103.145	19.689	46.458	0.471
513.500	335.315	80.008	19.996	103.148	19.686	46.691	0.478
514.000	335.579	80.010	19.993	103.146	19.679	47.213	0.521
514.500	335.787	80.008	19.994	103.146	19.672	47.722	0.501
515.000	336.069	79.999	19.999	103.146	19.666	48.188	0.481
515.500	336.323	80.007	19.991	103.143	19.657	48.808	0.512
516.000	336.582	80.006	19.998	103.143	19.651	49.279	0.524
516.500	336.834	80.008	19.993	103.145	19.644	49.776	0.512
517.000	337.085	80.012	19.993	103.149	19.635	50.453	0.507
517.500	337.353	80.003	19.999	103.152	19.627	51.006	0.510
518.000	337.598	80.005	19.993	103.155	19.623	51.317	0.516
518.500	337.845	80.003	19.996	103.153	19.616	51.802	0.503
519.000	338.086	79.991	19.995	103.149	19.609	52.318	0.490
519.500	338.362	80.003	20.000	103.143	19.598	53.106	0.502
520.000	338.593	80.003	19.997	103.137	19.592	53.550	0.512
520.500	338.836	80.004	19.999	103.135	19.582	54.267	0.491
521.000	339.119	80.008	19.996	103.133	19.573	54.944	0.500
521.500	339.373	79.997	19.998	103.134	19.566	55.439	0.531
522.000	339.614	80.003	19.994	103.134	19.558	56.072	0.516
522.500	339.887	80.003	19.996	103.137	19.549	56.714	0.505
523.000	340.111	80.003	19.996	103.138	19.540	57.328	0.506
523.500	340.372	80.004	19.995	103.138	19.533	57.863	0.491
524.000	340.634	80.002	19.995	103.138	19.523	58.601	0.504
524.500	340.873	80.004	19.992	103.138	19.518	58.964	0.512
525.000	341.158	80.005	19.993	103.135	19.508	59.717	0.513
525.500	341.389	80.002	19.995	103.134	19.499	60.373	0.520
526.000	341.634	80.000	19.996	103.134	19.488	61.168	0.496
526.500	341.888	80.005	19.993	103.133	19.476	62.038	0.488
527.000	342.121	79.999	19.998	103.135	19.469	62.506	0.494
527.500	342.404	80.004	19.995	103.135	19.461	63.132	0.502
528.000	342.672	80.003	19.995	103.135	19.450	63.900	0.533
528.500	342.914	80.000	19.994	103.135	19.441	64.585	0.530
529.000	343.131	79.999	19.998	103.135	19.432	65.192	0.485
529.500	343.391	80.004	19.994	103.134	19.419	66.181	0.468
530.000	343.633	80.004	19.994	103.135	19.409	66.876	0.489
530.501	343.882	80.004	19.996	103.136	19.401	67.513	0.497
531.000	344.142	79.997	19.997	103.135	19.393	68.024	0.500
531.500	344.415	80.003	19.993	103.134	19.378	69.186	0.521
532.000	344.645	80.006	19.994	103.135	19.369	69.820	0.518
532.500	344.880	80.005	19.995	103.134	19.361	70.419	0.484
533.000	345.145	80.005	19.994	103.133	19.346	71.495	0.482
533.500	345.402	80.004	19.994	103.132	19.339	71.973	0.511
534.000	345.673	80.004	19.995	103.134	19.324	73.110	0.525
534.500	345.878	80.004	19.995	103.132	19.314	73.810	0.502
535.000	346.167	80.004	19.994	103.132	19.305	74.473	0.485
535.500	346.418	80.005	19.995	103.131	19.290	75.573	0.517
536.000	346.648	80.000	19.993	103.132	19.279	76.351	0.510
536.500	346.890	80.002	19.997	103.127	19.268	77.178	0.477
537.000	347.148	79.999	19.994	103.125	19.253	78.284	0.486
537.500	347.385	80.005	19.994	103.125	19.243	78.985	0.497
538.000	347.641	80.007	19.996	103.126	19.227	80.133	0.495
538.500	347.883	80.005	19.995	103.124	19.216	80.965	0.496
539.000	348.132	80.002	19.995	103.128	19.202	81.963	0.494
539.500	348.418	80.004	19.995	103.126	19.189	82.954	0.513
540.000	348.670	80.002	19.986	103.119	19.181	83.505	0.537
540.500	348.883	80.008	19.988	103.113	19.164	84.720	0.501
541.000	349.178	80.001	19.994	103.113	19.153	85.555	0.486
541.500	349.406	80.003	19.993	103.109	19.142	86.392	0.515
542.000	349.675	80.008	19.995	103.105	19.126	87.526	0.510
542.500	349.911	80.007	19.994	103.107	19.117	88.160	0.501
543.000	350.171	79.996	19.995	103.109	19.099	89.477	0.501
543.500	350.415	80.005	19.995	103.104	19.086	90.469	0.500
544.000	350.688	80.004	19.995	103.110	19.072	91.470	0.510
544.500	350.918	80.007	19.993	103.111	19.059	92.424	0.509
545.000	351.161	80.005	19.998	103.111	19.039	93.884	0.488
545.500	351.424	80.002	19.990	103.107	19.027	94.707	0.490
546.000	351.655	80.005	19.997	103.108	19.013	95.742	0.501
546.500	351.918	80.003	19.987	103.103	19.000	96.719	0.494
547.000	352.168	80.006	19.995	103.103	18.985	97.775	0.503
547.500	352.434	80.006	19.996	103.099	18.968	99.033	0.515
548.000	352.683	80.001	19.998	103.100	18.956	99.906	0.516
548.500	352.932	80.005	19.996	103.097	18.935	101.427	0.507
549.000	353.194	80.003	19.993	103.095	18.920	102.512	0.504
549.500	353.453	80.002	19.995	103.095	18.905	103.674	0.516
550.000	353.696	80.003	19.996	103.095	18.886	104.991	0.511
550.500	353.938	80.005	20.001	103.095	18.874	105.898	0.494
551.000	354.192	80.003	19.993	103.094	18.855	107.314	0.491
551.500	354.437	80.003	19.995	103.094	18.841	108.293	0.497
552.000	354.677	80.000	19.998	103.094	18.820	109.856	0.492
552.500	354.939	80.001	19.993	103.093	18.804	110.960	0.494
553.000	355.175	80.007	19.995	103.093	18.787	112.250	0.500
553.500	355.466	80.003	19.993	103.095	18.767	113.680	0.512
554.000	355.680	80.005	19.996	103.095	18.752	114.787	0.516
554.500	355.932	80.005	19.996	103.094	18.729	116.468	0.486
555.000	356.181	80.006	19.996	103.094	18.713	117.607	0.483
555.500	356.467	80.005	19.995	103.092	18.695	118.892	0.518
556.000	356.718	80.006	19.994	103.087	18.674	120.428	0.537
556.500	356.997	80.004	19.995	103.081	18.655	121.846	0.534
557.000	357.219	80.005	19.995	103.078	18.633	123.453	0.515
557.500	357.499	80.005	19.994	103.075	18.617	124.606	0.501
558.000	357.730	80.003	19.995	103.076	18.599	125.940	0.506
558.500	357.997	80.006	19.994	103.081	18.578	127.442	0.505
559.000	358.225	80.004	19.994	103.087	18.555	129.095	0.497
559.500	358.504	80.004	19.993	103.088	18.535	130.613	0.501
560.000	358.754	80.007	19.994	103.089	18.514	132.091	0.518
560.500	359.027	80.004	19.995	103.090	18.495	133.487	0.526
561.000	359.261	80.005	19.997	103.088	18.474	135.034	0.515
561.500	359.494	80.004	19.996	103.087	18.454	136.454	0.487
562.000	359.791	80.008	19.995	103.089	18.431	138.148	0.499
562.500	360.047	80.008	19.996	103.089	18.410	139.634	0.542
563.000	360.298	80.005	19.995	103.082	18.391	141.016	0.530
563.500	360.556	80.005	19.995	103.076	18.371	142.481	0.508
564.000	360.781	80.006	19.995	103.070	18.347	144.265	0.496
564.500	361.029	80.007	19.993	103.062	18.326	145.780	0.478
565.000	361.275	80.007	19.994	103.056	18.306	147.210	0.483
565.500	361.545	80.007	19.995	103.057	18.285	148.761	0.505
566.000	361.792	80.002	19.995	103.056	18.262	150.413	0.517
566.500	362.050	80.003	19.999	103.055	18.243	151.846	0.511
567.000	362.296	80.003	19.995	103.055	18.219	153.557	0.505
567.500	362.556	80.004	19.993	103.056	18.199	155.054	0.505
568.000	362.750	80.006	19.994	103.056	18.180	156.417	0.480
568.500	363.047	80.006	19.994	103.056	18.157	158.057	0.473
569.000	363.275	80.009	19.995	103.057	18.135	159.699	0.508
569.500	363.514	80.007	19.992	103.056	18.112	161.379	0.496
570.000	363.772	80.007	19.994	103.056	18.087	163.188	0.482
570.500	364.000	80.008	19.993	103.057	18.065	164.818	0.491
571.000	364.262	80.007	19.995	103.052	18.047	166.113	0.488
571.500	364.507	80.008	19.994	103.048	18.026	167.582	0.498
572.000	364.782	80.007	19.995	103.043	18.005	169.161	0.514
572.500	364.993	80.007	19.994	103.036	17.981	170.901	0.503
573.000	365.247	80.008	19.994	103.028	17.958	172.562	0.475
573.500	365.516	80.006	19.994	103.026	17.938	173.971	0.494
574.000	365.733	80.004	19.995	103.025	17.917	175.501	0.505
574.500	366.009	80.005	19.993	103.023	17.895	177.098	0.489
575.000	366.286	80.005	20.000	103.024	17.872	178.796	0.523
575.500	366.545	80.005	19.994	103.021	17.852	180.209	0.545
576.000	366.771	80.004	19.994	103.020	17.828	181.975	0.511
576.500	367.005	80.004	19.998	103.019	17.807	183.549	0.473
577.000	367.261	80.008	19.994	103.018	17.788	184.923	0.475
577.500	367.499	80.008	19.993	103.018	17.766	186.503	0.492
578.000	367.767	80.006	19.993	103.020	17.745	188.004	0.500
578.500	367.991	80.003	19.995	103.020	17.724	189.565	0.499
579.000	368.252	80.005	19.994	103.019	17.705	190.971	0.489
579.500	368.517	80.003	19.994	103.019	17.682	192.569	0.506
580.000	368.770	80.007	19.994	103.019	17.660	194.167	0.522
580.500	369.032	80.002	19.995	103.018	17.644	195.318	0.516
581.000	369.311	80.002	19.994	103.014	17.626	196.655	0.528
581.500	369.533	80.005	19.994	103.015	17.606	198.124	0.521
582.000	369.776	80.003	19.994	103.013	17.585	199.604	0.483
582.500	370.064	80.005	19.995	103.007	17.564	201.181	0.498
583.000	370.312	80.005	19.994	103.001	17.545	202.556	0.534
583.500	370.578	80.004	19.994	102.998	17.526	203.942	0.525
584.000	370.809	80.005	19.996	102.991	17.506	205.391	0.505
584.500	371.053	80.003	19.994	102.985	17.491	206.476	0.486
585.000	371.325	80.005	19.995	102.983	17.469	208.062	0.496
585.500	371.595	80.004	19.995	102.982	17.455	209.059	0.529
586.000	371.815	80.004	19.996	102.980	17.433	210.695	0.516
586.500	372.110	80.004	19.996	102.978	17.420	211.593	0.503
587.000	372.343	80.007	19.995	102.978	17.400	213.063	0.522
587.500	372.587	80.005	19.995	102.977	17.385	214.136	0.503
588.000	372.862	80.005	19.995	102.976	17.366	215.561	0.498
588.500	373.145	80.005	19.995	102.977	17.352	216.537	0.538
589.000	373.390	80.006	19.995	102.975	17.336	217.692	0.543
589.500	373.645	80.007	19.995	102.974	17.324	218.572	0.514
590.000	373.918	80.006	19.996	102.970	17.310	219.648	0.514
590.500	374.144	80.006	19.995	102.963	17.294	220.762	0.514
591.000	374.414	80.007	19.995	102.957	17.281	221.741	0.498
591.500	374.681	80.006	19.995	102.952	17.268	222.658	0.516
592.000	374.917	80.004	19.995	102.945	17.251	223.862	0.520
592.500	375.181	80.005	19.995	102.944	17.240	224.678	0.502
593.000	375.434	80.008	19.994	102.944	17.229	225.447	0.509
593.500	375.683	80.008	19.995	102.943	17.217	226.332	0.509
594.000	375.959	80.007	19.993	102.941	17.207	227.050	0.513
594.500	376.194	80.007	19.997	102.941	17.198	227.742	0.518
595.000	376.444	80.005	19.994	102.938	17.191	228.284	0.498
595.500	376.720	80.008	19.993	102.938	17.179	229.105	0.506
596.000	376.974	80.006	19.994	102.939	17.173	229.570	0.529
596.500	377.236	80.006	19.994	102.940	17.161	230.413	0.523
597.000	377.503	80.005	19.995	102.935	17.156	230.789	0.522
597.500	377.766	80.005	19.993	102.930	17.149	231.288	0.529
598.000	378.050	80.005	19.994	102.927	17.142	231.817	0.538
598.500	378.270	80.007	19.995	102.922	17.137	232.203	0.526
599.000	378.494	80.003	19.995	102.921	17.132	232.575	0.474
599.500	378.770	80.007	19.993	102.924	17.127	232.933	0.472
600.000	379.011	80.006	19.993	102.926	17.122	233.347	0.509
600.500	379.273	80.005	19.995	102.926	17.121	233.393	0.510
601.000	379.499	80.007	19.994	102.926	17.120	233.464	0.495
601.500	379.788	80.005	19.996	102.923	17.116	233.707	0.501
602.000	380.007	80.003	19.992	102.919	17.117	233.618	0.512
602.500	380.265	80.004	19.996	102.916	17.115	233.812	0.493
603.000	380.527	80.004	19.996	102.911	17.115	233.815	0.499
603.500	380.808	80.004	19.995	102.909	17.117	233.667	0.531
604.000	381.030	80.003	19.993	102.907	17.117	233.710	0.523
604.500	381.290	80.004	19.995	102.907	17.119	233.518	0.493
605.000	381.557	80.005	19.995	102.909	17.123	233.288	0.505
605.500	381.797	80.002	19.998	102.911	17.127	232.966	0.517
606.000	382.021	80.004	19.995	102.910	17.127	232.995	0.485
606.500	382.312	80.004	19.995	102.908	17.133	232.531	0.489
607.000	382.564	80.003	19.995	102.907	17.138	232.149	0.529
607.500	382.806	80.003	19.994	102.904	17.142	231.895	0.518
608.000	383.044	80.004	19.995	102.901	17.148	231.435	0.487
608.500	383.312	80.004	19.994	102.903	17.152	231.131	0.493
609.000	383.552	80.004	19.995	102.910	17.161	230.475	0.507
609.500	383.775	80.005	19.995	102.916	17.169	229.908	0.485
610.000	384.051	80.003	19.995	102.924	17.173	229.659	0.481
610.500	384.321	80.004	19.995	102.927	17.183	228.945	0.523
611.000	384.578	80.003	19.995	102.930	17.188	228.544	0.536
611.500	384.819	80.003	19.995	102.923	17.199	227.787	0.512
612.000	385.053	80.003	19.995	102.915	17.209	227.028	0.487
612.501	385.352	80.005	19.995	102.909	17.218	226.417	0.504
613.000	385.582	80.003	19.996	102.911	17.230	225.552	0.531
613.500	385.827	80.004	19.997	102.910	17.242	224.622	0.502
614.000	386.065	80.004	19.997	102.917	17.252	223.898	0.479
614.500	386.334	80.004	19.996	102.924	17.262	223.180	0.495
615.000	386.584	80.005	19.996	102.930	17.275	222.259	0.513
615.500	386.836	80.004	19.996	102.931	17.286	221.429	0.510
616.000	387.118	80.004	19.996	102.936	17.301	220.380	0.518
616.500	387.369	80.004	19.995	102.936	17.313	219.474	0.533
617.000	387.628	80.004	19.995	102.936	17.325	218.614	0.522
617.500	387.892	80.005	19.996	102.936	17.340	217.503	0.517
618.000	388.140	80.004	19.996	102.936	17.350	216.774	0.518
618.501	388.382	80.005	19.996	102.938	17.366	215.639	0.501
619.000	388.664	80.005	19.995	102.939	17.384	214.331	0.507
619.500	388.924	80.003	19.995	102.940	17.395	213.551	0.533
620.000	389.183	80.003	19.997	102.942	17.410	212.470	0.530
620.500	389.429	80.004	19.996	102.944	17.425	211.352	0.512
621.000	389.666	80.002	19.996	102.944	17.443	210.049	0.494
621.500	389.912	80.003	19.997	102.945	17.455	209.129	0.483
622.000	390.159	80.003	19.996	102.948	17.475	207.720	0.488
622.500	390.404	80.005	19.995	102.954	17.489	206.684	0.493
623.000	390.681	80.004	19.996	102.957	17.504	205.623	0.507
623.500	390.929	80.005	19.995	102.958	17.519	204.521	0.523
624.000	391.176	80.005	19.995	102.963	17.537	203.227	0.510
624.500	391.459	80.004	19.995	102.965	17.552	202.138	0.512
625.000	391.686	80.003	19.995	102.965	17.566	201.062	0.520
625.500	391.913	80.003	19.995	102.968	17.580	200.048	0.482
626.000	392.196	80.004	19.994	102.969	17.600	198.632	0.482
626.500	392.452	80.002	19.995	102.966	17.618	197.292	0.524
627.000	392.696	80.005	19.995	102.967	17.633	196.233	0.520
627.500	392.948	80.007	19.995	102.967	17.652	194.802	0.498
628.000	393.200	80.002	19.994	102.967	17.666	193.818	0.500
628.500	393.489	80.003	19.995	102.970	17.683	192.574	0.522
629.000	393.735	80.004	19.995	102.975	17.704	191.063	0.538
629.500	394.002	80.004	19.993	102.975	17.719	189.950	0.524
630.000	394.271	80.003	19.994	102.976	17.737	188.685	0.525
630.500	394.530	80.005	19.994	102.976	17.755	187.323	0.532
631.000	394.765	80.005	19.995	102.976	17.770	186.238	0.511
631.500	395.026	80.003	19.994	102.977	17.789	184.916	0.495
632.000	395.271	80.003	19.995	102.977	17.803	183.857	0.501
632.500	395.499	80.005	19.995	102.977	17.822	182.488	0.490
633.000	395.798	80.004	19.996	102.978	17.844	180.903	0.500
633.500	396.061	80.004	19.994	102.978	17.858	179.894	0.544
634.000	396.296	80.005	19.995	102.979	17.877	178.504	0.530
634.500	396.547	80.004	19.994	102.979	17.891	177.448	0.492
635.000	396.819	80.004	19.996	102.979	17.912	175.969	0.505
635.500	397.090	80.006	19.994	102.979	17.925	174.969	0.533
636.000	397.312	80.003	19.995	102.980	17.945	173.541	0.518
636.500	397.575	80.003	19.996	102.979	17.965	172.046	0.489
637.000	397.821	80.004	19.993	102.980	17.979	171.027	0.497
637.500	398.059	80.003	19.995	102.982	17.999	169.602	0.496
638.000	398.296	80.004	19.995	102.984	18.015	168.459	0.479
638.500	398.566	80.003	19.994	102.987	18.032	167.166	0.491
639.000	398.813	80.003	19.995	102.991	18.047	166.113	0.512
639.500	399.072	80.003	19.996	102.992	18.065	164.825	0.511
640.000	399.301	80.003	19.995	102.993	18.081	163.610	0.497
640.500	399.558	80.003	19.993	102.996	18.100	162.239	0.487
641.000	399.828	80.004	19.995	102.996	18.116	161.045	0.507
641.500	400.070	80.004	19.995	102.998	18.135	159.699	0.520
642.000	400.308	80.004	19.996	103.004	18.146	158.915	0.496
642.500	400.569	80.004	19.994	103.008	18.165	157.517	0.489
643.000	400.837	80.002	19.996	103.011	18.183	156.225	0.514
643.500	401.076	80.004	19.995	103.014	18.194	155.391	0.518
644.000	401.358	80.004	19.995	103.017	18.212	154.106	0.514
644.500	401.591	80.005	19.994	103.017	18.230	152.799	0.518
645.000	401.853	80.005	19.995	103.018	18.240	152.073	0.505
645.500	402.099	80.006	19.994	103.018	18.258	150.736	0.502
646.000	402.342	80.004	19.994	103.018	18.278	149.328	0.498
646.500	402.602	80.006	19.994	103.018	18.289	148.468	0.496
647.000	402.882	80.006	19.994	103.019	18.301	147.638	0.522
647.500	403.112	80.006	19.993	103.019	18.319	146.339	0.525
648.000	403.363	80.006	19.993	103.020	18.332	145.385	0.495
648.500	403.638	80.006	19.994	103.020	18.347	144.313	0.504
649.000	403.864	80.006	19.994	103.020	18.361	143.249	0.514
649.500	404.114	80.006	19.993	103.019	18.375	142.254	0.489
650.000	404.356	80.006	19.994	103.020	18.388	141.271	0.484
650.500	404.628	80.005	19.994	103.020	18.399	140.508	0.503
651.000	404.901	80.006	19.995	103.020	18.413	139.424	0.530
651.500	405.177	80.004	19.994	103.020	18.425	138.593	0.547
652.000	405.392	80.008	19.994	103.021	18.437	137.687	0.520
652.500	405.656	80.006	19.995	103.022	18.451	136.740	0.485
653.000	405.895	80.007	19.994	103.023	18.464	135.790	0.491
653.500	406.164	80.007	19.995	103.023	18.473	135.077	0.505
654.000	406.444	80.006	19.993	103.023	18.487	134.088	0.529
654.500	406.675	80.005	19.994	103.025	18.499	133.194	0.530
655.000	406.928	80.006	19.996	103.028	18.510	132.408	0.497
655.500	407.193	80.006	19.994	103.033	18.521	131.634	0.501
656.000	407.446	80.004	19.993	103.035	18.534	130.645	0.518
656.500	407.709	80.005	19.994	103.037	18.549	129.535	0.517
657.000	407.959	80.006	19.994	103.037	18.558	128.900	0.514
657.500	408.202	80.005	19.994	103.039	18.572	127.902	0.503
658.000	408.429	80.006	19.994	103.042	18.581	127.252	0.482
658.500	408.683	80.005	19.994	103.047	18.592	126.409	0.476
659.000	408.953	80.004	19.994	103.051	18.606	125.428	0.502
659.500	409.205	80.004	19.995	103.055	18.613	124.884	0.523
660.000	409.440	80.006	19.994	103.052	18.622	124.240	0.505
660.500	409.762	80.005	19.994	103.046	18.635	123.306	0.522
661.000	409.964	80.006	19.995	103.041	18.643	122.734	0.541
661.500	410.213	80.006	19.993	103.040	18.655	121.836	0.488
662.000	410.479	80.005	19.995	103.042	18.663	121.213	0.483
662.500	410.739	80.006	19.993	103.044	18.673	120.538	0.520
663.000	410.998	80.005	19.994	103.051	18.682	119.876	0.522
663.500	411.270	80.007	19.994	103.057	18.691	119.237	0.525
664.000	411.483	80.004	19.995	103.059	18.700	118.541	0.508
664.500	411.757	80.007	19.993	103.058	18.710	117.843	0.486
665.000	411.991	80.005	19.994	103.059	18.716	117.398	0.498
665.500	412.242	80.006	19.994	103.060	18.729	116.418	0.497
666.000	412.487	80.005	19.994	103.059	18.735	116.032	0.491
666.500	412.765	80.004	19.993	103.058	18.745	115.262	0.510
667.000	412.996	80.007	19.994	103.060	18.751	114.878	0.516
667.500	413.249	80.005	19.994	103.059	18.760	114.195	0.497
668.000	413.464	80.005	19.994	103.059	18.767	113.704	0.476
668.500	413.766	80.005	19.995	103.058	18.777	112.929	0.492
669.000	413.995	80.006	19.994	103.057	18.781	112.647	0.524
669.500	414.239	80.007	19.994	103.056	18.790	112.025	0.502
670.000	414.498	80.006	19.994	103.056	18.793	111.755	0.488
670.500	414.754	80.006	19.995	103.055	18.803	111.035	0.509
671.000	415.001	80.007	19.994	103.056	18.810	110.558	0.509
671.500	415.227	80.007	19.995	103.056	18.815	110.198	0.488
672.000	415.494	80.005	19.995	103.056	18.822	109.683	0.483
672.500	415.743	80.007	19.994	103.056	18.830	109.132	0.505
673.000	416.012	80.006	19.994	103.056	18.834	108.795	0.517
673.500	416.220	80.008	19.995	103.056	18.843	108.161	0.498
674.000	416.474	80.007	19.995	103.058	18.845	107.992	0.469
674.500	416.736	80.006	19.995	103.058	18.852	107.497	0.489
675.000	417.030	80.008	19.995	103.058	18.858	107.033	0.536
675.500	417.293	80.008	19.995	103.058	18.860	106.870	0.556
676.000	417.517	80.009	19.994	103.058	18.865	106.557	0.522
676.500	417.780	80.006	19.996	103.058	18.876	105.725	0.487
677.000	418.020	80.009	19.995	103.058	18.879	105.523	0.495
677.500	418.297	80.008	19.994	103.061	18.883	105.211	0.510
678.000	418.562	80.007	19.995	103.063	18.890	104.700	0.529
678.500	418.802	80.007	19.995	103.062	18.895	104.352	0.524
679.000	419.041	80.007	19.995	103.062	18.901	103.956	0.492
679.500	419.282	80.008	19.994	103.063	18.907	103.488	0.479
680.000	419.566	80.007	19.996	103.059	18.912	103.129	0.503
680.500	419.822	80.006	19.995	103.059	18.914	102.937	0.533
681.000	420.068	80.006	19.995	103.063	18.923	102.349	0.522
681.500	420.311	80.006	19.997	103.068	18.925	102.136	0.495
682.000	420.562	80.006	19.996	103.072	18.932	101.688	0.491
682.500	420.838	80.007	19.995	103.079	18.935	101.458	0.510
683.000	421.094	80.007	19.996	103.083	18.941	101.005	0.529
683.500	421.335	80.006	19.996	103.080	18.943	100.883	0.514
684.000	421.578	80.004	19.995	103.075	18.949	100.409	0.491
684.500	421.847	80.004	19.996	103.071	18.951	100.281	0.499
685.000	422.093	80.005	19.996	103.070	18.955	100.019	0.513
685.500	422.360	80.003	19.995	103.068	18.962	99.499	0.514
686.000	422.592	80.003	19.995	103.068	18.962	99.452	0.506
686.500	422.886	80.004	19.996	103.070	18.969	98.928	0.512
687.000	423.090	80.004	19.995	103.073	18.971	98.780	0.512
687.500	423.357	80.005	19.995	103.072	18.975	98.544	0.485
688.000	423.565	80.005	19.995	103.075	18.979	98.239	0.473
688.501	423.822	80.003	19.994	103.081	18.983	97.951	0.470
689.000	424.094	80.004	19.995	103.080	18.985	97.816	0.497
689.500	424.344	80.003	19.995	103.081	18.991	97.335	0.525
690.000	424.581	80.003	19.995	103.081	18.994	97.147	0.505
690.500	424.836	80.004	19.994	103.082	18.998	96.855	0.490
691.000	425.067	80.004	19.995	103.077	19.003	96.523	0.489
691.500	425.308	80.005	19.996	103.079	19.008	96.141	0.479
692.000	425.560	80.004	19.995	103.080	19.010	95.968	0.482
692.500	425.821	80.005	19.995	103.077	19.012	95.871	0.503
693.000	426.124	80.005	19.995	103.076	19.018	95.424	0.538
693.500	426.348	80.004	19.995	103.081	19.019	95.333	0.545
694.000	426.598	80.004	19.995	103.084	19.020	95.226	0.500
694.500	426.830	80.005	19.996	103.084	19.024	94.960	0.478
695.000	427.107	80.005	19.995	103.087	19.029	94.624	0.495
695.500	427.375	80.005	19.995	103.087	19.032	94.397	0.527
696.000	427.620	80.005	19.996	103.080	19.035	94.130	0.529
696.500	427.891	80.004	19.995	103.076	19.038	93.947	0.515
697.000	428.119	80.005	19.994	103.076	19.040	93.778	0.508
697.500	428.356	80.004	19.995	103.078	19.045	93.434	0.482
698.000	428.600	80.006	19.995	103.077	19.048	93.205	0.473
698.500	428.893	80.004	19.995	103.080	19.048	93.227	0.509
699.000	429.125	80.005	19.995	103.085	19.053	92.826	0.531
699.500	429.400	80.005	19.994	103.085	19.055	92.712	0.516
700.000	429.606	80.005	19.995	103.086	19.061	92.250	0.494
700.500	429.884	80.004	19.995	103.088	19.063	92.104	0.482
701.000	430.153	80.003	19.995	103.092	19.065	91.958	0.516
701.500	430.379	80.005	19.996	103.092	19.066	91.871	0.521
702.000	430.615	80.004	19.995	103.092	19.073	91.424	0.479
702.500	430.878	80.005	19.997	103.092	19.074	91.277	0.480
703.000	431.140	80.004	19.995	103.088	19.077	91.063	0.511
703.500	431.410	80.004	19.995	103.088	19.079	90.967	0.528
704.000	431.644	80.005	19.996	103.087	19.081	90.811	0.518
704.500	431.887	80.004	19.996	103.086	19.085	90.515	0.491
705.000	432.154	80.004	19.996	103.086	19.088	90.320	0.493
705.500	432.413	80.004	19.995	103.087	19.093	89.961	0.518
706.000	432.691	80.003	19.995	103.087	19.096	89.707	0.531
706.500	432.946	80.003	19.996	103.089	19.100	89.398	0.535
707.000	433.186	80.003	19.996	103.088	19.102	89.239	0.514
707.500	433.425	80.006	19.996	103.085	19.105	89.048	0.487
708.000	433.685	80.004	19.995	103.088	19.107	88.917	0.489
708.500	433.935	80.003	19.996	103.088	19.111	88.621	0.505
709.000	434.205	80.003	19.994	103.088	19.113	88.462	0.515
709.500	434.469	80.005	19.995	103.090	19.116	88.289	0.527
710.000	434.706	80.003	19.997	103.094	19.116	88.240	0.517
710.500	434.992	80.004	19.996	103.095	19.120	87.988	0.512
711.000	435.231	80.003	19.996	103.095	19.126	87.555	0.524
711.500	435.463	80.003	19.996	103.093	19.125	87.637	0.498
712.000	435.728	80.003	19.995	103.093	19.129	87.274	0.484
712.500	435.942	80.004	19.997	103.093	19.134	86.943	0.488
713.000	436.216	80.003	19.996	103.092	19.135	86.868	0.484
713.500	436.460	80.005	19.995	103.088	19.139	86.585	0.502
714.000	436.733	80.004	19.996	103.088	19.141	86.457	0.517
714.500	437.010	80.004	19.996	103.086	19.144	86.189	0.534
715.000	437.262	80.003	19.994	103.085	19.147	85.962	0.540
715.500	437.509	80.003	19.995	103.085	19.151	85.716	0.514
716.000	437.729	80.004	19.996	103.090	19.154	85.493	0.483
716.500	437.998	80.004	19.996	103.091	19.156	85.348	0.478
717.000	438.264	80.003	19.996	103.090	19.159	85.125	0.512
717.500	438.502	80.005	19.995	103.090	19.162	84.898	0.519
718.000	438.752	80.003	19.997	103.091	19.168	84.449	0.496
718.500	438.993	80.005	19.995	103.091	19.169	84.394	0.489
719.000	439.234	80.004	19.995	103.091	19.177	83.827	0.486
719.500	439.505	80.003	19.996	103.094	19.177	83.790	0.497
720.000	439.761	80.003	19.995	103.095	19.184	83.283	0.520
720.500	439.998	80.003	19.996	103.094	19.186	83.121	0.510
721.000	440.308	80.003	19.995	103.096	19.188	82.992	0.520
721.500	440.575	80.004	19.995	103.096	19.193	82.606	0.562
722.000	440.789	80.003	19.995	103.097	19.193	82.639	0.529
722.500	441.034	80.005	19.995	103.097	19.202	81.989	0.470
723.000	441.283	80.003	19.996	103.098	19.207	81.651	0.477
723.500	441.521	80.003	19.995	103.098	19.205	81.772	0.490
724.000	441.727	80.003	19.995	103.098	19.208	81.581	0.465
724.500	442.015	80.004	19.996	103.098	19.216	80.940	0.469
725.000	442.258	80.003	19.995	103.097	19.216	80.926	0.513
725.501	442.510	80.004	19.994	103.098	19.223	80.427	0.513
726.000	442.730	80.005	19.994	103.098	19.227	80.142	0.483
726.500	443.009	80.005	19.995	103.098	19.229	80.046	0.485
727.000	443.270	80.005	19.994	103.098	19.233	79.732	0.519
727.500	443.502	80.005	19.994	103.098	19.238	79.366	0.517
728.000	443.802	80.006	19.994	103.098	19.240	79.224	0.513
728.500	444.019	80.004	19.995	103.098	19.245	78.864	0.525
729.000	444.271	80.006	19.994	103.098	19.248	78.661	0.493
729.500	444.521	80.005	19.995	103.100	19.252	78.347	0.486
730.000	444.788	80.006	19.995	103.100	19.256	78.078	0.509
730.500	444.991	80.006	19.995	103.098	19.260	77.789	0.494
731.000	445.256	80.007	19.994	103.098	19.265	77.391	0.469
731.500	445.487	80.005	19.994	103.097	19.271	76.982	0.482
732.000	445.763	80.005	19.994	103.095	19.274	76.731	0.501
732.500	445.999	80.006	19.994	103.095	19.279	76.333	0.510
733.000	446.279	80.007	19.996	103.096	19.280	76.291	0.514
733.500	446.542	80.006	19.996	103.095	19.285	75.945	0.529
734.000	446.794	80.006	19.994	103.095	19.290	75.579	0.529
734.500	447.038	80.006	19.995	103.094	19.295	75.204	0.505
735.000	447.278	80.006	19.994	103.094	19.301	74.742	0.490
735.500	447.510	80.007	19.994	103.094	19.304	74.530	0.479
736.000	447.812	80.006	19.995	103.094	19.309	74.186	0.503
736.500	448.011	80.007	19.994	103.094	19.313	73.907	0.517
737.000	448.261	80.006	19.996	103.094	19.318	73.518	0.475
737.500	448.543	80.005	19.994	103.093	19.327	72.860	0.491
738.000	448.765	80.007	19.994	103.094	19.330	72.674	0.518
738.500	449.019	80.006	19.994	103.093	19.331	72.541	0.490
739.000	449.293	80.006	19.995	103.095	19.340	71.947	0.502
739.500	449.515	80.006	19.994	103.096	19.347	71.441	0.512
740.000	449.757	80.005	19.994	103.098	19.350	71.171	0.480
740.500	450.038	80.006	19.995	103.098	19.353	70.996	0.494
741.000	450.285	80.005	19.994	103.098	19.359	70.557	0.525
741.500	450.520	80.007	19.995	103.097	19.366	70.024	0.504
742.000	450.783	80.005	19.994	103.097	19.368	69.854	0.490
742.500	451.037	80.006	19.995	103.095	19.375	69.376	0.508
743.000	451.295	80.006	19.994	103.095	19.377	69.187	0.515
743.500	451.547	80.005	19.995	103.095	19.383	68.764	0.511
744.000	451.773	80.007	19.995	103.097	19.393	68.078	0.494
744.500	452.026	80.006	19.995	103.097	19.397	67.761	0.479
745.000	452.290	80.006	19.994	103.098	19.403	67.314	0.498
745.500	452.553	80.006	19.995	103.099	19.407	67.007	0.522
746.000	452.828	80.006	19.995	103.103	19.411	66.731	0.532
746.500	453.042	80.005	19.994	103.105	19.417	66.279	0.513
747.000	453.303	80.006	19.994	103.107	19.420	66.128	0.482
747.501	453.560	80.006	19.995	103.110	19.426	65.624	0.497
748.000	453.792	80.006	19.996	103.109	19.429	65.425	0.504
748.500	454.087	80.007	19.994	103.104	19.437	64.847	0.508
749.000	454.327	80.005	19.995	103.100	19.440	64.612	0.531
749.500	454.586	80.006	19.994	103.098	19.446	64.199	0.517
750.000	454.828	80.005	19.996	103.095	19.452	63.723	0.500
750.500	455.075	80.007	19.995	103.100	19.459	63.220	0.495
751.000	455.338	80.006	19.995	103.108	19.463	62.990	0.499
751.500	455.594	80.007	19.995	103.113	19.470	62.422	0.514
752.000	455.897	80.006	19.994	103.117	19.475	62.053	0.539
752.500	456.135	80.006	19.995	103.117	19.481	61.640	0.550
753.000	456.389	80.007	19.995	103.113	19.487	61.175	0.516
753.500	456.644	80.007	19.994	103.106	19.494	60.699	0.500
754.000	456.895	80.006	19.994	103.100	19.499	60.357	0.507
754.500	457.142	80.007	19.994	103.096	19.504	59.997	0.502
755.000	457.412	80.008	19.995	103.100	19.510	59.568	0.508
755.500	457.653	80.008	19.994	103.101	19.516	59.119	0.514
756.000	457.916	80.007	19.994	103.102	19.524	58.522	0.507
756.500	458.168	80.007	19.995	103.107	19.528	58.203	0.510
757.000	458.403	80.008	19.995	103.111	19.536	57.620	0.501
757.500	458.694	80.009	19.994	103.114	19.541	57.281	0.506
758.000	458.943	80.008	19.995	103.120	19.550	56.590	0.533
758.500	459.207	80.008	19.994	103.120	19.557	56.083	0.526
759.000	459.473	80.008	19.994	103.117	19.560	55.875	0.521
759.500	459.716	80.007	19.993	103.115	19.569	55.199	0.520
760.000	459.970	80.009	19.994	103.109	19.572	55.042	0.503
760.500	460.190	80.008	19.994	103.107	19.580	54.432	0.486
761.000	460.459	80.007	19.994	103.113	19.587	53.926	0.481
761.500	460.701	80.008	19.993	103.119	19.598	53.122	0.500
762.000	460.939	80.007	19.994	103.120	19.601	52.930	0.495
762.500	461.190	80.008	19.994	103.122	19.608	52.385	0.485
763.000	461.418	80.007	19.994	103.121	19.612	52.098	0.484
763.500	461.707	80.007	19.995	103.119	19.623	51.290	0.498
764.000	461.992	80.008	19.993	103.114	19.630	50.776	0.545
764.500	462.227	80.007	19.994	103.113	19.636	50.366	0.547
765.000	462.512	80.007	19.994	103.116	19.643	49.807	0.520
765.500	462.739	80.006	19.994	103.120	19.647	49.505	0.516
766.000	463.008	80.005	19.995	103.122	19.651	49.236	0.504
766.500	463.245	80.006	19.994	103.126	19.658	48.711	0.501
767.000	463.528	80.007	19.993	103.124	19.663	48.369	0.513
767.500	463.750	80.006	19.995	103.122	19.674	47.604	0.513
768.000	463.998	80.005	19.994	103.118	19.677	47.351	0.487
768.501	464.255	80.005	19.995	103.118	19.687	46.631	0.487
769.001	464.484	80.005	19.994	103.117	19.689	46.459	0.496
769.501	464.781	80.004	19.995	103.121	19.698	45.795	0.506
770.000	465.008	80.005	19.994	103.126	19.706	45.210	0.525
770.500	465.296	80.006	19.993	103.130	19.714	44.677	0.519
771.000	465.523	80.005	19.994	103.131	19.722	44.040	0.514
771.500	465.779	80.006	19.995	103.133	19.727	43.738	0.499
772.000	466.054	80.005	19.995	103.135	19.736	43.076	0.507
772.500	466.317	80.005	19.995	103.135	19.740	42.732	0.535
773.000	466.572	80.005	19.994	103.134	19.747	42.234	0.528
773.500	466.798	80.005	19.995	103.131	19.754	41.756	0.499
774.000	467.037	80.004	19.996	103.129	19.759	41.387	0.473
774.500	467.317	80.003	19.994	103.130	19.764	40.988	0.492
775.000	467.593	80.004	19.995	103.128	19.770	40.588	0.538
775.500	467.851	80.005	19.994	103.124	19.776	40.150	0.545
776.000	468.074	80.004	19.995	103.124	19.785	39.474	0.507
776.500	468.337	80.005	19.995	103.125	19.791	39.018	0.483
777.000	468.592	80.004	19.996	103.124	19.796	38.653	0.502
777.500	468.855	80.006	19.995	103.126	19.807	37.847	0.518
778.000	469.113	80.006	19.995	103.130	19.812	37.483	0.520
778.500	469.390	80.004	19.996	103.132	19.818	37.077	0.528
779.000	469.646	80.006	19.996	103.133	19.825	36.587	0.534
779.500	469.911	80.004	19.997	103.132	19.833	35.995	0.527
780.000	470.116	80.005	19.996	103.132	19.834	35.882	0.495
780.500	470.329	80.006	19.995	103.133	19.844	35.161	0.444
781.000	470.639	80.004	19.996	103.134	19.851	34.654	0.471
781.500	470.905	80.004	19.997	103.134	19.858	34.168	0.550
782.000	471.146	80.003	19.995	103.133	19.864	33.695	0.542
782.500	471.414	80.005	19.995	103.134	19.872	33.099	0.508
783.000	471.631	80.006	19.995	103.133	19.875	32.912	0.497
783.500	471.894	80.004	19.994	103.133	19.883	32.345	0.482
784.000	472.150	80.003	19.994	103.133	19.893	31.600	0.499
784.500	472.407	80.005	19.995	103.134	19.897	31.285	0.516
785.000	472.658	80.005	19.996	103.134	19.907	30.596	0.511
785.500	472.931	80.005	19.994	103.135	19.909	30.395	0.516
786.000	473.220	80.004	19.994	103.136	19.915	29.985	0.543
786.500	473.437	80.005	19.995	103.136	19.922	29.465	0.534
787.000	473.711	80.006	19.994	103.136	19.929	28.937	0.498
787.500	473.950	80.004	19.995	103.136	19.938	28.348	0.502
788.000	474.254	80.005	19.995	103.134	19.940	28.147	0.529
788.500	474.414	80.005	19.995	103.134	19.948	27.564	0.504
789.000	474.712	80.005	19.994	103.134	19.953	27.192	0.461
789.500	474.991	80.004	19.994	103.134	19.958	26.829	0.517
790.000	475.216	80.006	19.996	103.135	19.967	26.201	0.540
790.500	475.509	80.005	19.995	103.136	19.971	25.904	0.511
791.000	475.725	80.004	19.995	103.138	19.978	25.419	0.514
791.500	475.986	80.005	19.995	103.138	19.987	24.749	0.493
792.000	476.236	80.003	19.995	103.138	19.993	24.286	0.494
792.500	476.474	80.004	19.995	103.137	19.997	23.983	0.500
793.000	476.713	80.004	19.995	103.138	20.004	23.517	0.482
793.500	476.983	80.005	19.994	103.137	20.012	22.929	0.493
794.000	477.211	80.004	19.993	103.137	20.014	22.776	0.504
794.500	477.486	80.003	19.995	103.138	20.020	22.343	0.501
795.000	477.761	80.003	19.995	103.140	20.025	21.957	0.526
795.500	477.975	80.004	19.994	103.140	20.029	21.692	0.519
796.000	478.227	80.004	19.994	103.140	20.035	21.237	0.477
796.500	478.510	80.005	19.994	103.140	20.041	20.831	0.500
797.000	478.754	80.005	19.996	103.138	20.044	20.608	0.531
797.500	478.994	80.005	19.994	103.137	20.049	20.196	0.506
798.000	479.271	80.005	19.995	103.136	20.056	19.675	0.501
798.500	479.503	80.004	19.995	103.135	20.061	19.357	0.513
799.000	479.770	80.004	19.995	103.135	20.064	19.090	0.504
799.500	480.009	80.004	19.995	103.137	20.069	18.751	0.502
800.000	480.268	80.004	19.996	103.136	20.073	18.429	0.502
800.500	480.481	80.004	19.997	103.140	20.081	17.867	0.485
801.001	480.766	80.004	19.997	103.145	20.085	17.573	0.485
801.500	481.035	80.004	19.996	103.145	20.085	17.559	0.525
802.000	481.266	80.003	19.998	103.146	20.093	16.986	0.527
802.500	481.500	80.004	19.997	103.147	20.096	16.773	0.482
803.000	481.748	80.003	19.995	103.145	20.101	16.451	0.474
803.500	482.009	80.005	19.995	103.141	20.105	16.152	0.496
804.000	482.270	80.005	19.996	103.140	20.107	15.961	0.515
804.500	482.532	80.004	19.995	103.137	20.113	15.552	0.523
805.000	482.777	80.003	19.995	103.135	20.117	15.238	0.515
805.500	482.998	80.004	19.996	103.134	20.119	15.103	0.486
806.000	483.295	80.004	19.996	103.133	20.125	14.698	0.492
806.500	483.501	80.004	19.996	103.133	20.127	14.536	0.511
807.000	483.775	80.004	19.996	103.132	20.129	14.345	0.491
807.500	484.042	80.004	19.996	103.133	20.137	13.781	0.510
808.000	484.293	80.005	19.996	103.133	20.140	13.549	0.530
808.500	484.487	80.005	19.996	103.134	20.144	13.296	0.482
809.000	484.730	80.006	19.995	103.135	20.145	13.215	0.441
809.500	484.957	80.004	19.995	103.136	20.148	12.982	0.453
810.000	485.244	80.004	19.996	103.135	20.153	12.652	0.492
810.501	485.454	80.005	19.997	103.135	20.154	12.543	0.505
811.001	485.706	80.005	19.995	103.134	20.156	12.407	0.479
811.500	485.986	80.005	19.994	103.133	20.158	12.276	0.497
812.000	486.222	80.007	19.997	103.135	20.161	12.033	0.524
812.500	486.522	80.007	19.995	103.134	20.163	11.878	0.526
813.000	486.730	80.006	19.995	103.134	20.165	11.782	0.522
813.500	486.997	80.005	19.995	103.133	20.168	11.552	0.492
814.000	487.186	80.006	19.996	103.134	20.170	11.367	0.465
814.500	487.456	80.005	19.995	103.133	20.172	11.263	0.457
815.000	487.739	80.007	19.995	103.136	20.174	11.111	0.506
815.500	487.958	80.006	19.995	103.139	20.176	10.966	0.528
816.000	488.194	80.006	19.995	103.144	20.177	10.900	0.478
816.500	488.483	80.007	19.995	103.149	20.177	10.852	0.490
817.000	488.692	80.007	19.995	103.150	20.180	10.675	0.512
817.500	488.960	80.007	19.994	103.149	20.177	10.852	0.488
818.000	489.211	80.009	19.994	103.146	20.182	10.520	0.498
818.500	489.424	80.007	19.995	103.141	20.186	10.204	0.492
819.000	489.681	80.006	19.994	103.135	20.187	10.170	0.467
819.500	489.928	80.008	19.995	103.133	20.192	9.797	0.487
820.000	490.191	80.007	19.996	103.135	20.191	9.851	0.507
820.500	490.463	80.008	19.994	103.138	20.190	9.891	0.522
821.000	490.706	80.006	19.995	103.139	20.193	9.726	0.525
821.500	490.951	80.007	19.993	103.139	20.193	9.700	0.502
822.000	491.197	80.006	19.995	103.139	20.192	9.752	0.490
822.500	491.432	80.007	19.995	103.138	20.197	9.414	0.486
823.000	491.689	80.007	19.994	103.138	20.196	9.494	0.486
823.500	491.934	80.008	19.994	103.140	20.199	9.249	0.497
824.000	492.145	80.007	19.995	103.141	20.196	9.484	0.479
824.500	492.448	80.006	19.994	103.141	20.198	9.335	0.485
825.000	492.708	80.006	19.993	103.141	20.195	9.528	0.539
825.500	492.948	80.006	19.995	103.137	20.201	9.128	0.532
826.000	493.187	80.007	19.994	103.134	20.201	9.098	0.489
826.500	493.459	80.006	19.994	103.133	20.202	9.066	0.495
827.000	493.681	80.006	19.995	103.133	20.203	8.943	0.503
827.500	493.940	80.006	19.995	103.134	20.204	8.871	0.488
828.000	494.202	80.007	19.995	103.134	20.207	8.680	0.501
828.500	494.458	80.005	19.995	103.134	20.204	8.873	0.519
829.000	494.726	80.006	19.995	103.135	20.208	8.638	0.521
829.500	494.946	80.005	19.994	103.135	20.208	8.632	0.506
830.000	495.220	80.006	19.995	103.133	20.208	8.628	0.491
830.500	495.447	80.005	19.995	103.133	20.212	8.327	0.498
831.000	495.659	80.004	19.995	103.133	20.208	8.602	0.470
831.500	495.933	80.006	19.995	103.132	20.210	8.481	0.462
832.000	496.170	80.006	19.994	103.135	20.209	8.509	0.498
832.500	496.447	80.005	19.994	103.136	20.210	8.469	0.512
833.000	496.690	80.006	19.995	103.139	20.212	8.328	0.517
833.500	496.975	80.005	19.995	103.141	20.211	8.402	0.524
834.000	497.241	80.006	19.995	103.141	20.214	8.143	0.540
834.500	497.449	80.005	19.995	103.143	20.212	8.298	0.513
835.000	497.718	80.008	19.994	103.149	20.214	8.173	0.475
835.500	497.956	80.007	19.995	103.149	20.212	8.340	0.491
836.000	498.185	80.007	19.995	103.149	20.213	8.215	0.487
836.500	498.467	80.007	19.994	103.150	20.214	8.183	0.490
837.000	498.735	80.008	19.994	103.149	20.216	8.061	0.531
837.500	499.021	80.006	19.994	103.146	20.214	8.204	0.551
838.000	499.207	80.008	19.994	103.147	20.213	8.262	0.513
838.500	499.468	80.007	19.994	103.149	20.214	8.166	0.459
839.000	499.714	80.007	19.996	103.150	20.217	7.941	0.477
839.500	499.960	80.007	19.995	103.150	20.215	8.136	0.500
840.000	500.235	80.007	19.994	103.148	20.218	7.901	0.507
840.500	500.482	80.007	19.995	103.146	20.218	7.893	0.522
841.000	500.799	80.007	19.995	103.144	20.216	8.013	0.543
841.501	500.998	80.007	19.995	103.141	20.220	7.704	0.539
842.000	501.310	80.007	19.994	103.141	20.219	7.826	0.513
842.500	501.501	80.008	19.994	103.142	20.217	7.935	0.507
843.000	501.757	80.007	19.993	103.145	20.217	7.971	0.476
843.500	502.085	80.008	19.995	103.144	20.219	7.836	0.515
844.000	502.278	80.009	19.993	103.146	20.216	8.025	0.552
844.500	502.549	80.008	19.995	103.150	20.217	7.925	0.493
845.000	502.747	80.007	19.995	103.148	20.219	7.824	0.467
845.500	503.067	80.007	19.995	103.144	20.217	7.983	0.493
846.000	503.340	80.009	19.995	103.148	20.217	7.925	0.555
846.500	503.564	80.008	19.994	103.151	20.219	7.796	0.545
847.000	503.802	80.007	19.994	103.150	20.216	7.999	0.480
847.500	504.080	80.006	19.995	103.149	20.220	7.748	0.489
848.000	504.333	80.006	19.995	103.150	20.222	7.579	0.523
848.500	504.554	80.006	19.994	103.147	20.220	7.718	0.502
849.000	504.841	80.006	19.993	103.143	20.219	7.832	0.491
849.500	505.064	80.004	19.994	103.139	20.222	7.607	0.509
850.000	505.342	80.005	19.995	103.139	20.219	7.802	0.506
850.500	505.605	80.004	19.995	103.139	20.216	8.031	0.521
851.000	505.859	80.005	19.994	103.138	20.221	7.697	0.529
851.500	506.146	80.005	19.995	103.137	20.216	8.043	0.529
852.000	506.359	80.004	19.994	103.137	20.223	7.546	0.521
852.500	506.643	80.005	19.994	103.137	20.219	7.830	0.498
853.000	506.902	80.005	19.995	103.138	20.223	7.514	0.520
853.500	507.158	80.005	19.994	103.139	20.219	7.780	0.529
854.000	507.442	80.005	19.993	103.140	20.223	7.539	0.527
854.500	507.649	80.004	19.994	103.140	20.219	7.780	0.515
855.000	507.896	80.005	19.994	103.140	20.221	7.684	0.473
855.501	508.204	80.005	19.995	103.139	20.223	7.543	0.505
856.001	508.461	80.006	19.993	103.140	20.209	8.530	0.560
856.500	508.676	80.004	19.994	103.142	20.221	7.674	0.518
857.000	508.923	80.004	19.995	103.141	20.227	7.195	0.467
857.500	509.171	80.005	19.994	103.141	20.217	7.953	0.479
858.000	509.398	80.005	19.995	103.140	20.221	7.678	0.485
858.500	509.764	80.005	19.995	103.141	20.219	7.837	0.534
859.000	509.953	80.005	19.994	103.138	20.220	7.700	0.574
859.500	510.177	80.002	19.992	103.138	20.220	7.706	0.484
860.000	510.485	80.005	19.994	103.138	20.220	7.764	0.472
860.500	510.700	80.005	19.993	103.138	20.217	7.977	0.528
861.000	510.970	80.003	19.996	103.137	20.224	7.470	0.504
861.500	511.182	80.005	19.995	103.139	20.220	7.726	0.483
862.000	511.532	80.005	19.995	103.144	20.221	7.657	0.522
862.500	511.704	80.004	19.994	103.147	20.220	7.764	0.542
863.000	511.931	80.003	19.994	103.146	20.219	7.820	0.461
863.500	512.219	80.005	19.995	103.147	20.219	7.796	0.457
864.000	512.496	80.004	19.994	103.145	20.222	7.595	0.540
864.500	512.674	80.005	19.993	103.140	20.218	7.879	0.510
865.000	512.971	80.005	19.993	103.137	20.221	7.626	0.465
865.500	513.136	80.005	19.994	103.136	20.222	7.569	0.468
866.000	513.525	80.005	19.995	103.135	20.221	7.629	0.508
866.500	513.715	80.005	19.995	103.135	20.222	7.573	0.567
867.000	513.942	80.004	19.994	103.136	20.224	7.431	0.498
867.500	514.228	80.004	19.995	103.139	20.225	7.336	0.465
868.000	514.566	80.005	19.995	103.139	20.222	7.557	0.568
868.500	514.470	80.005	19.996	103.140	20.222	7.600	0.432
869.000	515.373	80.006	19.994	103.138	20.223	7.481	0.524
869.500	515.312	80.005	19.996	103.137	20.222	7.557	0.825
870.000	515.014	80.006	19.995	103.134	20.223	7.543	0.242
870.500	515.534	80.004	19.995	103.134	20.221	7.690	-0.069
871.000	516.491	80.005	19.997	103.137	20.223	7.485	0.850
871.500	516.088	80.005	19.995	103.141	20.219	7.813	1.016
872.000	516.753	80.004	19.995	103.142	20.221	7.662	0.408
872.500	516.622	80.003	19.996	103.141	20.226	7.316	0.398
873.000	517.048	80.005	19.995	103.142	20.221	7.642	0.415
873.500	517.370	80.006	19.997	103.144	20.219	7.785	0.522
874.000	517.553	80.006	19.996	103.140	20.226	7.322	0.627
874.500	517.639	80.005	19.995	103.139	20.220	7.758	0.387
875.000	518.185	80.005	19.995	103.140	20.224	7.461	0.451
875.500	518.181	80.005	19.996	103.139	20.223	7.487	0.587
876.000	518.542	80.004	19.995	103.134	20.222	7.616	0.450
876.500	518.779	80.004	19.995	103.138	20.223	7.527	0.477
877.000	519.021	80.006	19.995	103.138	20.221	7.694	0.538
877.500	519.301	80.005	19.996	103.138	20.223	7.545	0.500
878.000	519.579	80.005	19.995	103.138	20.222	7.608	0.540
878.500	519.777	80.004	19.996	103.138	20.218	7.895	0.517
879.000	520.073	80.005	19.996	103.134	20.217	7.984	0.485
879.500	520.326	80.004	19.995	103.133	20.219	7.798	0.522
880.000	520.579	80.004	19.995	103.133	20.218	7.850	0.527
880.500	520.801	80.005	19.995	103.133	20.222	7.619	0.490
881.000	521.143	80.004	19.995	103.133	20.221	7.657	0.519
881.500	521.307	80.005	19.995	103.133	20.220	7.707	0.535
882.000	521.575	80.004	19.995	103.134	20.222	7.579	0.469
882.500	521.838	80.004	19.995	103.135	20.224	7.467	0.482
883.000	522.108	80.004	19.995	103.135	20.223	7.539	0.533
883.500	522.340	80.005	19.995	103.134	20.224	7.456	0.518
884.000	522.568	80.005	19.995	103.135	20.220	7.702	0.481
884.500	522.796	80.005	19.994	103.134	20.222	7.573	0.458
885.000	523.069	80.005	19.995	103.133	20.224	7.431	0.479
885.500	523.314	80.004	19.995	103.133	20.222	7.568	0.510
886.000	523.580	80.005	19.995	103.134	20.225	7.364	0.514
886.500	523.805	80.005	19.995	103.134	20.222	7.575	0.501
887.000	524.112	80.005	19.995	103.133	20.221	7.628	0.511
887.500	524.287	80.004	19.995	103.134	20.220	7.764	0.507
888.000	524.570	80.004	19.995	103.134	20.219	7.789	0.470
888.500	524.845	80.005	19.994	103.134	20.221	7.662	0.508
889.000	525.097	80.006	19.994	103.133	20.222	7.576	0.542
889.500	525.361	80.004	19.996	103.133	20.223	7.541	0.522
890.000	525.569	80.005	19.995	103.134	20.218	7.847	0.494
890.500	525.841	80.005	19.995	103.137	20.221	7.668	0.475
891.000	526.069	80.005	19.995	103.139	20.220	7.744	0.490
891.500	526.319	80.005	19.994	103.142	20.222	7.602	0.489
892.000	526.596	80.005	19.995	103.142	20.218	7.847	0.503
892.500	526.784	80.005	19.996	103.143	20.216	8.015	0.497
893.000	527.049	80.005	19.994	103.142	20.220	7.740	0.459
893.500	527.284	80.005	19.996	103.140	20.219	7.780	0.476
894.000	527.543	80.006	19.995	103.139	20.218	7.885	0.497
894.500	527.766	80.005	19.994	103.140	20.218	7.877	0.488
895.000	528.068	80.006	19.995	103.138	20.220	7.760	0.503
895.500	528.321	80.005	19.995	103.136	20.221	7.660	0.541
896.000	528.587	80.005	19.994	103.136	20.220	7.732	0.537
896.500	528.846	80.006	19.996	103.133	20.218	7.874	0.522
897.000	529.081	80.006	19.995	103.134	20.219	7.820	0.509
897.500	529.404	80.006	19.995	103.135	20.218	7.913	0.526
898.000	529.578	80.007	19.994	103.134	20.221	7.686	0.528
898.500	529.814	80.006	19.994	103.134	20.217	7.947	0.454
899.001	530.099	80.006	19.996	103.134	20.221	7.668	0.465
899.500	530.354	80.006	19.996	103.133	20.218	7.858	0.530
900.000	530.581	80.006	19.995	103.133	20.219	7.794	0.511
900.500	530.870	80.005	19.995	103.132	20.222	7.595	0.499
901.000	531.098	80.006	19.996	103.134	20.217	7.963	0.517
901.500	531.326	80.006	19.996	103.134	20.218	7.865	0.486
902.000	531.592	80.006	19.995	103.135	20.219	7.839	0.475
902.500	531.852	80.006	19.995	103.135	20.218	7.865	0.510
903.000	532.134	80.006	19.995	103.136	20.218	7.845	0.534
903.500	532.375	80.006	19.995	103.138	20.217	7.947	0.533
904.000	532.625	80.005	19.994	103.137	20.217	7.937	0.507
904.500	532.853	80.005	19.995	103.137	20.216	8.012	0.484
905.000	533.148	80.005	19.996	103.137	20.218	7.879	0.500
905.500	533.399	80.004	19.995	103.139	20.217	7.925	0.534
906.000	533.634	80.006	19.995	103.139	20.217	7.941	0.516
906.500	533.908	80.005	19.995	103.139	20.217	7.929	0.497
907.000	534.151	80.006	19.995	103.140	20.218	7.860	0.513
907.500	534.437	80.006	19.996	103.141	20.218	7.878	0.524
908.000	534.690	80.006	19.995	103.138	20.218	7.856	0.534
908.500	534.940	80.005	19.995	103.136	20.220	7.760	0.521
909.000	535.196	80.006	19.995	103.136	20.220	7.731	0.505
909.500	535.519	80.005	19.995	103.134	20.218	7.880	0.542
910.000	535.736	80.005	19.995	103.135	20.218	7.874	0.559
910.500	536.002	80.006	19.994	103.140	20.218	7.902	0.512
911.000	536.275	80.004	19.994	103.141	20.215	8.113	0.511
911.500	536.540	80.004	19.994	103.141	20.216	7.999	0.538
912.000	536.809	80.005	19.996	103.141	20.215	8.106	0.536
912.500	537.062	80.005	19.994	103.139	20.216	8.049	0.528
913.000	537.334	80.007	19.995	103.135	20.217	7.928	0.524
913.500	537.594	80.006	19.995	103.133	20.217	7.942	0.529
914.000	537.827	80.007	19.994	103.133	20.217	7.928	0.513
914.500	538.109	80.004	19.993	103.133	20.216	8.022	0.504
915.000	538.408	80.005	19.993	103.133	20.219	7.836	0.548
915.500	538.628	80.006	19.993	103.133	20.215	8.123	0.550
916.000	538.895	80.006	19.994	103.134	20.218	7.909	0.503
916.500	539.165	80.005	19.994	103.134	20.216	8.051	0.512
917.000	539.409	80.006	19.993	103.135	20.216	7.995	0.525
917.500	539.704	80.006	19.994	103.135	20.213	8.248	0.526
918.000	539.991	80.006	19.993	103.140	20.213	8.218	0.561
918.500	540.231	80.007	19.994	103.143	20.216	8.031	0.555
919.000	540.534	80.007	19.993	103.144	20.215	8.104	0.535
919.500	540.793	80.007	19.993	103.145	20.215	8.066	0.552
920.000	541.002	80.007	19.994	103.145	20.215	8.080	0.515
920.500	541.294	80.006	19.994	103.146	20.217	7.953	0.485
921.000	541.576	80.006	19.995	103.144	20.215	8.086	0.538
921.500	541.849	80.007	19.994	103.144	20.217	7.947	0.565
922.000	542.120	80.007	19.993	103.143	20.215	8.114	0.550
922.500	542.410	80.007	19.995	103.143	20.217	7.985	0.552
923.000	542.633	80.008	19.995	103.138	20.217	7.988	0.536
923.500	542.927	80.008	19.994	103.142	20.215	8.100	0.515
924.000	543.167	80.008	19.994	103.146	20.216	8.046	0.526
924.500	543.440	80.008	19.994	103.153	20.216	8.010	0.524
925.000	543.694	80.008	19.995	103.155	20.215	8.065	0.520
925.500	543.962	80.006	19.994	103.155	20.217	7.936	0.524
926.000	544.231	80.008	19.993	103.150	20.217	7.952	0.529
926.500	544.473	80.009	19.995	103.147	20.216	8.007	0.524
927.000	544.744	80.008	19.995	103.141	20.215	8.097	0.512
927.500	545.026	80.007	19.995	103.142	20.215	8.112	0.533
928.000	545.296	80.006	19.994	103.147	20.213	8.229	0.553
928.500	545.555	80.007	19.994	103.146	20.213	8.215	0.541
929.000	545.824	80.006	19.994	103.146	20.214	8.207	0.529
929.500	546.102	80.006	19.994	103.145	20.216	8.060	0.538
930.000	546.344	80.007	19.995	103.141	20.215	8.130	0.533
930.500	546.591	80.006	19.995	103.135	20.213	8.222	0.504
931.000	546.864	80.007	19.993	103.136	20.216	8.008	0.505
931.500	547.176	80.007	19.995	103.137	20.214	8.154	0.553
932.000	547.434	80.007	19.995	103.140	20.213	8.223	0.577
932.500	547.689	80.005	19.996	103.139	20.212	8.311	0.541
933.000	547.960	80.005	19.995	103.138	20.213	8.247	0.520
933.500	548.206	80.006	19.993	103.136	20.212	8.299	0.522
934.000	548.517	80.006	19.995	103.134	20.216	8.050	0.537
934.500	548.761	80.006	19.995	103.131	20.214	8.160	0.556
935.000	549.023	80.004	19.994	103.133	20.216	8.058	0.531
935.500	549.300	80.005	19.994	103.135	20.214	8.140	0.523
936.000	549.542	80.005	19.994	103.141	20.215	8.122	0.529
936.500	549.871	80.007	19.995	103.144	20.213	8.261	0.544
937.000	550.140	80.005	19.995	103.149	20.214	8.152	0.584
937.500	550.387	80.006	19.995	103.148	20.214	8.195	0.557
938.000	550.667	80.005	19.995	103.146	20.211	8.388	0.522
938.500	550.921	80.004	19.995	103.139	20.209	8.512	0.531
939.000	551.201	80.006	19.995	103.135	20.211	8.404	0.534
939.500	551.467	80.006	19.994	103.132	20.212	8.331	0.540
940.000	551.707	80.005	19.995	103.133	20.214	8.209	0.526
940.500	552.001	80.005	19.994	103.134	20.213	8.255	0.520
941.000	552.267	80.007	19.995	103.136	20.213	8.279	0.547
941.500	552.546	80.006	19.994	103.136	20.211	8.425	0.552
942.000	552.787	80.006	19.996	103.135	20.215	8.120	0.533
942.500	553.061	80.005	19.996	103.134	20.212	8.290	0.518
943.000	553.349	80.006	19.995	103.134	20.214	8.146	0.539
943.500	553.608	80.005	19.994	103.134	20.212	8.311	0.554
944.000	553.892	80.006	19.993	103.134	20.215	8.120	0.545
944.500	554.202	80.006	19.995	103.136	20.211	8.365	0.568
945.000	554.457	80.007	19.995	103.138	20.211	8.409	0.580
945.500	554.765	80.006	19.995	103.136	20.213	8.263	0.564
946.000	554.988	80.006	19.996	103.136	20.211	8.428	0.547
946.500	555.262	80.006	19.994	103.136	20.211	8.403	0.514
947.000	555.542	80.006	19.995	103.133	20.211	8.383	0.526
947.500	555.809	80.005	19.995	103.132	20.211	8.375	0.550
948.000	556.076	80.006	19.995	103.132	20.208	8.578	0.540
948.500	556.344	80.007	19.994	103.133	20.210	8.452	0.535
949.000	556.654	80.006	19.993	103.134	20.212	8.329	0.557
949.500	556.882	80.006	19.995	103.134	20.208	8.602	0.558
950.000	557.181	80.007	19.993	103.133	20.209	8.510	0.532
950.500	557.421	80.007	19.994	103.134	20.212	8.339	0.532
951.000	557.696	80.007	19.994	103.135	20.210	8.447	0.527
951.500	557.959	80.006	19.993	103.136	20.212	8.321	0.527
952.001	558.214	80.006	19.994	103.139	20.211	8.369	0.528
952.500	558.496	80.007	19.994	103.141	20.211	8.375	0.527
953.000	558.756	80.006	19.997	103.141	20.208	8.578	0.539
953.500	559.043	80.005	19.996	103.142	20.212	8.301	0.544
954.000	559.286	80.007	19.995	103.141	20.210	8.451	0.539
954.500	559.576	80.007	19.995	103.138	20.210	8.475	0.532
955.000	559.845	80.007	19.994	103.137	20.207	8.660	0.546
955.500	560.130	80.006	19.995	103.137	20.209	8.526	0.556
956.000	560.376	80.007	19.993	103.135	20.207	8.672	0.543
956.500	560.653	80.005	19.996	103.135	20.206	8.769	0.528
957.000	560.945	80.007	19.993	103.135	20.207	8.666	0.546
957.500	561.165	80.006	19.995	103.135	20.208	8.601	0.540
958.000	561.459	80.006	19.995	103.135	20.210	8.463	0.513
958.500	561.737	80.005	19.994	103.135	20.207	8.671	0.543
959.000	561.967	80.007	19.994	103.135	20.208	8.619	0.540
959.500	562.248	80.006	19.995	103.134	20.210	8.439	0.509
960.000	562.511	80.007	19.995	103.134	20.209	8.568	0.528
960.500	562.755	80.005	19.995	103.136	20.207	8.686	0.526
961.000	563.027	80.005	19.996	103.138	20.207	8.698	0.511
961.500	563.304	80.005	19.996	103.139	20.206	8.746	0.532
962.000	563.555	80.005	19.996	103.139	20.205	8.820	0.539
962.500	563.814	80.004	19.995	103.139	20.204	8.937	0.519
963.000	564.071	80.004	19.995	103.139	20.207	8.686	0.513
963.500	564.317	80.005	19.994	103.137	20.206	8.724	0.510
964.000	564.633	80.004	19.996	103.138	20.209	8.517	0.533
964.500	564.872	80.005	19.995	103.138	20.206	8.766	0.558
965.000	565.141	80.004	19.996	103.142	20.209	8.503	0.531
965.500	565.398	80.004	19.996	103.140	20.205	8.842	0.517
966.000	565.701	80.004	19.994	103.141	20.207	8.655	0.543
966.500	565.965	80.005	19.995	103.142	20.207	8.667	0.564
967.000	566.247	80.004	19.996	103.143	20.206	8.738	0.556
967.500	566.496	80.004	19.996	103.141	20.207	8.720	0.539
968.000	566.780	80.005	19.997	103.147	20.210	8.483	0.532
968.500	567.029	80.004	19.996	103.152	20.207	8.705	0.533
969.000	567.258	80.005	19.994	103.150	20.208	8.616	0.505
969.500	567.541	80.004	19.995	103.151	20.207	8.683	0.495
970.000	567.799	80.004	19.995	103.149	20.210	8.484	0.527
970.500	568.028	80.004	19.995	103.145	20.206	8.730	0.514
971.000	568.312	80.006	19.996	103.141	20.206	8.757	0.500
971.501	568.621	80.005	19.996	103.144	20.207	8.668	0.553
972.000	568.883	80.005	19.996	103.148	20.207	8.710	0.582
972.500	569.189	80.006	19.995	103.152	20.206	8.793	0.569
973.000	569.439	80.006	19.996	103.153	20.206	8.745	0.562
973.500	569.707	80.005	19.995	103.153	20.208	8.618	0.537
974.000	570.006	80.005	19.995	103.149	20.206	8.735	0.543
974.500	570.256	80.006	19.995	103.146	20.204	8.908	0.558
975.000	570.510	80.005	19.994	103.144	20.204	8.930	0.526
975.500	570.795	80.005	19.996	103.147	20.201	9.129	0.521
976.000	571.051	80.005	19.994	103.150	20.203	9.004	0.540
976.500	571.288	80.005	19.995	103.155	20.205	8.815	0.517
977.000	571.616	80.006	19.995	103.158	20.204	8.889	0.529
977.500	571.878	80.005	19.995	103.157	20.206	8.788	0.577
978.000	572.178	80.006	19.995	103.153	20.204	8.917	0.576
978.500	572.452	80.006	19.995	103.148	20.204	8.929	0.568
979.000	572.732	80.006	19.996	103.143	20.207	8.716	0.564
979.500	572.943	80.006	19.995	103.138	20.204	8.926	0.522
980.000	573.259	80.006	19.996	103.136	20.202	9.039	0.509
980.500	573.574	80.007	19.996	103.137	20.202	9.085	0.579
981.000	573.831	80.007	19.995	103.140	20.205	8.856	0.602
981.500	574.144	80.007	19.994	103.143	20.204	8.908	0.571
982.000	574.389	80.006	19.996	103.144	20.203	8.942	0.564
982.500	574.698	80.007	19.995	103.146	20.206	8.734	0.556
983.000	574.966	80.007	19.994	103.147	20.205	8.849	0.565
983.500	575.228	80.007	19.995	103.143	20.201	9.100	0.553
984.000	575.527	80.007	19.995	103.140	20.201	9.135	0.545
984.500	575.777	80.005	19.995	103.140	20.205	8.867	0.555
985.000	576.076	80.006	19.995	103.140	20.201	9.087	0.549
985.500	576.319	80.005	19.994	103.138	20.207	8.691	0.546
986.000	576.591	80.007	19.994	103.138	20.204	8.910	0.529
986.500	576.861	80.005	19.995	103.141	20.204	8.902	0.528
987.000	577.176	80.007	19.995	103.143	20.203	8.974	0.563
987.500	577.418	80.006	19.995	103.142	20.202	9.079	0.571
988.000	577.658	80.005	19.995	103.148	20.204	8.908	0.520
988.500	577.941	80.007	19.994	103.150	20.202	9.070	0.502
989.000	578.206	80.006	19.996	103.147	20.203	8.950	0.535
989.500	578.472	80.006	19.996	103.145	20.204	8.889	0.540
990.000	578.737	80.006	19.995	103.143	20.204	8.895	0.531
990.500	579.058	80.006	19.996	103.137	20.202	9.021	0.559
991.000	579.327	80.005	19.996	103.135	20.203	8.967	0.588
991.501	579.560	80.006	19.996	103.134	20.203	8.969	0.546
992.000	579.864	80.006	19.996	103.135	20.203	9.000	0.520
992.500	580.125	80.005	19.995	103.138	20.205	8.865	0.551
993.000	580.405	80.007	19.997	103.142	20.203	8.952	0.553
993.500	580.672	80.005	19.995	103.143	20.203	8.968	0.544
994.000	580.920	80.005	19.996	103.143	20.203	8.964	0.531
994.500	581.205	80.005	19.995	103.142	20.203	8.990	0.524
995.000	581.443	80.004	19.997	103.140	20.201	9.124	0.528
995.500	581.751	80.006	19.997	103.139	20.200	9.208	0.534
996.000	581.992	80.006	19.996	103.138	20.200	9.162	0.548
996.500	582.290	80.006	19.996	103.139	20.202	9.046	0.544
997.000	582.568	80.006	19.994	103.139	20.204	8.931	0.558
997.500	582.829	80.006	19.996	103.138	20.201	9.129	0.557
998.000	583.088	80.007	19.996	103.136	20.201	9.129	0.529
998.500	583.369	80.007	19.997	103.135	20.201	9.091	0.530
999.000	583.608	80.006	19.996	103.135	20.199	9.242	0.530
999.501	583.910	80.006	19.996	103.140	20.201	9.127	0.531
1000.000	584.164	80.005	19.996	103.143	20.200	9.230	0.549
1000.500	584.413	80.008	19.996	103.147	20.198	9.328	0.530
1001.000	584.685	80.006	19.997	103.150	20.201	9.139	0.512
1001.500	584.956	80.006	19.996	103.153	20.199	9.304	0.532
1002.000	585.217	80.008	19.995	103.149	20.200	9.205	0.537
1002.500	585.506	80.008	19.996	103.147	20.194	9.609	0.541
1003.000	585.741	80.007	19.997	103.142	20.198	9.322	0.537
1003.500	586.032	80.007	19.996	103.141	20.201	9.111	0.525
1004.000	586.286	80.008	19.995	103.139	20.201	9.139	0.535
1004.501	586.551	80.008	19.995	103.139	20.198	9.342	0.532
1005.000	586.804	80.008	19.995	103.138	20.199	9.256	0.518
1005.500	587.095	80.009	19.995	103.140	20.198	9.362	0.531
1006.000	587.348	80.008	19.995	103.144	20.199	9.296	0.544
1006.500	587.587	80.008	19.994	103.147	20.197	9.386	0.518
1007.000	587.861	80.009	19.993	103.145	20.201	9.129	0.503
1007.500	588.143	80.009	19.995	103.144	20.199	9.240	0.535
1008.000	588.412	80.009	19.995	103.144	20.198	9.374	0.553
1008.500	588.697	80.009	19.994	103.138	20.199	9.278	0.552
1009.000	588.941	80.009	19.994	103.134	20.199	9.253	0.542
1009.500	589.168	80.008	19.993	103.134	20.195	9.549	0.501
1010.000	589.427	80.009	19.993	103.133	20.196	9.451	0.479
1010.500	589.708	80.009	19.995	103.131	20.197	9.392	0.513
1011.000	589.968	80.009	19.996	103.132	20.197	9.423	0.541
1011.500	590.222	80.008	19.994	103.133	20.197	9.410	0.527
1012.000	590.487	80.009	19.994	103.134	20.194	9.601	0.516
1012.500	590.712	80.007	19.994	103.136	20.197	9.424	0.505
1013.000	590.991	80.007	19.994	103.136	20.195	9.571	0.498
1013.500	591.255	80.006	19.994	103.135	20.192	9.798	0.524
1014.000	591.487	80.007	19.994	103.133	20.197	9.450	0.519
1014.500	591.761	80.006	19.994	103.133	20.192	9.776	0.501
1015.000	592.018	80.007	19.995	103.132	20.193	9.713	0.518
1015.501	592.258	80.006	19.995	103.135	20.195	9.537	0.514
1016.000	592.521	80.006	19.995	103.135	20.194	9.615	0.500
1016.500	592.748	80.006	19.996	103.135	20.193	9.694	0.497
1017.000	593.030	80.005	19.996	103.135	20.193	9.712	0.500
1017.500	593.294	80.006	19.994	103.134	20.192	9.744	0.527
1018.000	593.565	80.005	19.994	103.133	20.193	9.720	0.540
1018.500	593.850	80.005	19.995	103.134	20.190	9.957	0.546
1019.000	594.106	80.005	19.994	103.137	20.190	9.939	0.549
1019.500	594.362	80.005	19.996	103.137	20.191	9.860	0.527
1020.000	594.598	80.005	19.995	103.138	20.196	9.481	0.502
1020.500	594.860	80.005	19.996	103.138	20.193	9.672	0.495
1021.000	595.136	80.006	19.995	103.137	20.191	9.828	0.518
1021.500	595.374	80.005	19.996	103.134	20.190	9.943	0.526
1022.000	595.615	80.006	19.995	103.135	20.189	10.031	0.496
1022.500	595.909	80.006	19.996	103.139	20.188	10.063	0.507
1023.000	596.127	80.006	19.995	103.138	20.194	9.629	0.523
1023.500	596.381	80.005	19.995	103.139	20.193	9.723	0.492
1024.001	596.644	80.005	19.995	103.140	20.192	9.782	0.495
1024.501	596.890	80.005	19.995	103.141	20.189	9.983	0.513
1025.001	597.122	80.005	19.995	103.138	20.194	9.666	0.493
1025.501	597.348	80.007	19.993	103.141	20.196	9.479	0.468
1026.001	597.630	80.004	19.996	103.141	20.191	9.865	0.483
1026.501	597.868	80.006	19.995	103.140	20.191	9.822	0.513
1027.001	598.110	80.006	19.995	103.139	20.190	9.961	0.500
1027.501	598.353	80.007	19.995	103.137	20.189	9.969	0.483
1028.000	598.591	80.006	19.994	103.135	20.192	9.814	0.483
1028.500	598.841	80.005	19.995	103.137	20.190	9.955	0.484
1029.000	599.060	80.005	19.994	103.138	20.192	9.776	0.479
1029.500	599.311	80.005	19.995	103.139	20.189	10.003	0.470
1030.000	599.568	80.005	19.996	103.139	20.192	9.814	0.489
1030.500	599.819	80.005	19.996	103.139	20.191	9.888	0.508
1031.001	600.059	80.006	19.994	103.138	20.190	9.945	0.499
1031.501	600.295	80.005	19.994	103.137	20.189	9.991	0.484
1032.000	600.512	80.005	19.995	103.135	20.193	9.684	0.465
1032.500	600.739	80.004	19.995	103.137	20.190	9.908	0.448
1033.001	601.007	80.005	19.995	103.140	20.193	9.703	0.470
1033.501	601.247	80.006	19.994	103.144	20.189	9.980	0.502
1034.000	601.508	80.006	19.994	103.144	20.191	9.873	0.505
1034.500	601.739	80.005	19.995	103.143	20.189	10.004	0.496
1035.001	602.004	80.005	19.995	103.142	20.190	9.944	0.494
1035.501	602.246	80.006	19.994	103.138	20.191	9.886	0.501
1036.000	602.443	80.006	19.995	103.135	20.194	9.603	0.473
1036.500	602.711	80.007	19.993	103.136	20.188	10.061	0.452
1037.000	602.962	80.006	19.994	103.136	20.193	9.706	0.491
1037.500	603.199	80.007	19.994	103.137	20.190	9.958	0.504
1038.000	603.463	80.006	19.994	103.137	20.193	9.727	0.495
1038.500	603.680	80.004	19.994	103.138	20.192	9.779	0.491
1039.000	603.920	80.007	19.993	103.137	20.190	9.936	0.469
1039.500	604.178	80.005	19.993	103.137	20.190	9.932	0.477
1040.000	604.384	80.006	19.995	103.138	20.192	9.785	0.481
1040.500	604.631	80.006	19.996	103.139	20.189	9.972	0.459
1041.000	604.910	80.006	19.994	103.139	20.190	9.918	0.490
1041.500	605.132	80.007	19.995	103.140	20.192	9.808	0.514
1042.000	605.369	80.006	19.995	103.139	20.192	9.786	0.480
1042.500	605.628	80.005	19.995	103.138	20.190	9.929	0.477
1043.000	605.863	80.006	19.995	103.138	20.192	9.758	0.495
1043.500	606.100	80.007	19.995	103.144	20.190	9.907	0.483
1044.000	606.288	80.006	19.994	103.146	20.191	9.878	0.448
1044.500	606.576	80.005	19.994	103.148	20.188	10.102	0.450
1045.000	606.804	80.006	19.993	103.148	20.191	9.844	0.496
1045.500	607.065	80.007	19.995	103.148	20.193	9.700	0.502
1046.000	607.256	80.006	19.993	103.143	20.191	9.852	0.471
1046.500	607.571	80.006	19.993	103.140	20.191	9.861	0.479
1047.000	607.831	80.005	19.995	103.139	20.191	9.843	0.540
1047.500	608.041	80.005	19.994	103.139	20.191	9.830	0.522
1048.000	608.314	80.006	19.994	103.139	20.192	9.758	0.477
1048.500	608.562	80.006	19.994	103.143	20.188	10.094	0.502
1049.000	608.819	80.005	19.995	103.143	20.192	9.800	0.513
1049.500	609.077	80.005	19.995	103.145	20.187	10.134	0.510
1050.000	609.282	80.006	19.993	103.146	20.187	10.142	0.489
1050.500	609.526	80.003	19.996	103.150	20.185	10.286	0.456
1051.000	609.754	80.006	19.994	103.146	20.186	10.190	0.461
1051.500	610.005	80.005	19.994	103.146	20.186	10.204	0.475
1052.000	610.267	80.004	19.995	103.146	20.186	10.184	0.496
1052.500	610.525	80.005	19.993	103.144	20.192	9.794	0.517
1053.000	610.771	80.004	19.994	103.140	20.186	10.183	0.512
1053.501	610.976	80.006	19.994	103.140	20.188	10.099	0.478
1054.001	611.250	80.005	19.994	103.140	20.189	10.028	0.465
1054.501	611.501	80.005	19.995	103.138	20.184	10.328	0.502
1055.000	611.745	80.005	19.995	103.138	20.187	10.162	0.510
1055.500	611.986	80.004	19.994	103.139	20.185	10.310	0.490
1056.000	612.250	80.006	19.993	103.138	20.182	10.480	0.495
1056.500	612.482	80.005	19.995	103.137	20.183	10.430	0.501
1057.000	612.757	80.006	19.994	103.137	20.183	10.414	0.502
1057.500	612.954	80.005	19.995	103.137	20.182	10.538	0.490
1058.000	613.220	80.006	19.994	103.136	20.186	10.226	0.468
1058.500	613.518	80.005	19.995	103.137	20.185	10.275	0.513
1059.001	613.697	80.006	19.996	103.137	20.187	10.168	0.520
1059.501	613.975	80.006	19.994	103.137	20.183	10.405	0.467
1060.000	614.214	80.006	19.996	103.137	20.183	10.431	0.487
1060.500	614.482	80.006	19.995	103.138	20.185	10.286	0.512
1061.000	614.757	80.006	19.995	103.137	20.187	10.164	0.525
1061.500	614.947	80.007	19.995	103.138	20.186	10.246	0.503
1062.000	615.214	80.007	19.995	103.137	20.184	10.387	0.461
1062.500	615.449	80.006	19.996	103.136	20.183	10.447	0.480
1063.000	615.701	80.007	19.995	103.136	20.182	10.480	0.495
1063.500	615.927	80.008	19.994	103.139	20.183	10.440	0.483
1064.000	616.207	80.006	19.994	103.143	20.184	10.332	0.492
1064.500	616.435	80.008	19.994	103.146	20.184	10.334	0.507
1065.000	616.689	80.006	19.995	103.149	20.184	10.369	0.495
1065.500	616.970	80.006	19.995	103.148	20.181	10.594	0.508
1066.000	617.193	80.008	19.995	103.136	20.183	10.433	0.519
1066.500	617.445	80.006	19.994	103.108	20.187	10.145	0.489
1067.000	617.686	80.007	19.994	103.095	20.186	10.189	0.484
1067.500	617.972	80.008	19.994	103.091	20.182	10.515	0.510
1068.000	618.182	80.007	19.994	103.090	20.186	10.200	0.511
1068.500	618.421	80.008	19.995	103.100	20.183	10.449	0.472
1069.000	618.677	80.007	19.995	103.138	20.181	10.602	0.472
1069.500	618.915	80.007	19.995	103.177	20.183	10.415	0.495
1070.000	619.191	80.007	19.994	103.182	20.180	10.642	0.504
1070.500	619.432	80.007	19.995	103.182	20.183	10.403	0.516
1071.000	619.677	80.007	19.994	103.181	20.182	10.533	0.502
1071.501	619.932	80.007	19.995	103.164	20.181	10.564	0.493
1072.001	620.235	80.008	19.995	103.137	20.180	10.678	0.529
1072.501	620.461	80.006	19.994	103.137	20.181	10.591	0.544
1073.001	620.714	80.007	19.993	103.140	20.180	10.639	0.504
1073.501	620.996	80.006	19.995	103.143	20.181	10.615	0.507
1074.001	621.213	80.008	19.995	103.148	20.178	10.768	0.517
1074.500	621.467	80.007	19.994	103.147	20.179	10.694	0.485
1075.000	621.755	80.008	19.994	103.143	20.180	10.690	0.506
1075.500	622.001	80.006	19.994	103.140	20.178	10.831	0.539
1076.000	622.261	80.007	19.994	103.139	20.179	10.727	0.520
1076.501	622.525	80.008	19.993	103.139	20.180	10.687	0.515
1077.001	622.762	80.007	19.994	103.144	20.179	10.743	0.513
1077.500	623.031	80.006	19.994	103.147	20.177	10.900	0.503
1078.000	623.286	80.006	19.995	103.148	20.176	10.980	0.515
1078.501	623.553	80.006	19.994	103.147	20.180	10.679	0.523
1079.001	623.827	80.006	19.993	103.144	20.181	10.584	0.531
1079.501	624.031	80.008	19.994	103.139	20.183	10.446	0.510
1080.001	624.317	80.006	19.995	103.140	20.182	10.502	0.484
1080.501	624.552	80.007	19.995	103.140	20.182	10.502	0.506
1081.000	624.829	80.007	19.994	103.142	20.180	10.631	0.516
1081.500	625.074	80.006	19.994	103.141	20.182	10.508	0.517
1082.000	625.351	80.008	19.994	103.140	20.180	10.659	0.522
1082.500	625.590	80.007	19.995	103.138	20.182	10.474	0.519
1083.001	625.853	80.008	19.993	103.142	20.183	10.456	0.508
1083.501	626.084	80.007	19.994	103.145	20.183	10.412	0.498
1084.001	626.344	80.007	19.994	103.147	20.183	10.398	0.493
1084.500	626.594	80.007	19.994	103.146	20.183	10.470	0.501
1085.000	626.843	80.007	19.994	103.148	20.181	10.614	0.505
1085.501	627.122	80.008	19.994	103.144	20.180	10.656	0.514
1086.001	627.356	80.007	19.996	103.139	20.180	10.642	0.521
1086.501	627.628	80.007	19.995	103.138	20.179	10.696	0.509
1087.001	627.890	80.006	19.994	103.137	20.180	10.634	0.519
1087.501	628.126	80.008	19.994	103.134	20.178	10.775	0.516
1088.000	628.397	80.008	19.995	103.133	20.179	10.725	0.503
1088.500	628.635	80.010	19.996	103.135	20.183	10.462	0.508
1089.000	628.863	80.008	19.994	103.135	20.182	10.506	0.487
1089.500	629.117	80.009	19.995	103.134	20.177	10.882	0.474
1090.000	629.406	80.008	19.995	103.134	20.178	10.831	0.513
1090.501	629.646	80.009	19.995	103.133	20.175	11.011	0.536
1091.001	629.925	80.008	19.996	103.131	20.173	11.184	0.524
1091.500	630.197	80.008	19.995	103.131	20.177	10.853	0.535
1092.000	630.399	80.008	19.994	103.131	20.175	10.993	0.512
1092.500	630.712	80.008	19.994	103.130	20.176	10.945	0.494
1093.000	631.009	80.008	19.996	103.130	20.178	10.803	0.563
1093.500	631.256	80.007	19.996	103.129	20.175	10.996	0.577
1094.000	631.503	80.007	19.995	103.130	20.181	10.592	0.519
1094.500	631.726	80.007	19.995	103.131	20.176	10.925	0.482
1095.000	631.989	80.008	19.994	103.133	20.177	10.863	0.478
1095.500	632.275	80.006	19.994	103.137	20.177	10.853	0.518
1096.000	632.505	80.006	19.996	103.139	20.178	10.795	0.532
1096.501	632.794	80.007	19.996	103.140	20.179	10.760	0.517
1097.001	633.020	80.008	19.995	103.141	20.179	10.720	0.517
1097.501	633.289	80.007	19.994	103.139	20.176	10.937	0.505
1098.000	633.543	80.007	19.995	103.136	20.174	11.091	0.509
1098.500	633.834	80.006	19.995	103.133	20.176	10.968	0.534
1099.000	634.037	80.006	19.995	103.132	20.174	11.125	0.519
1099.500	634.314	80.006	19.993	103.131	20.174	11.073	0.487
1100.000	634.569	80.005	19.997	103.131	20.175	11.055	0.506
1100.500	634.885	80.007	19.995	103.134	20.172	11.204	0.551
1101.000	635.137	80.004	19.997	103.141	20.174	11.084	0.569
1101.500	635.371	80.006	19.996	103.143	20.171	11.277	0.528
1102.000	635.628	80.005	19.994	103.144	20.169	11.442	0.489
1102.500	635.922	80.006	19.995	103.144	20.170	11.394	0.521
1103.000	636.126	80.006	19.995	103.144	20.171	11.338	0.524
1103.500	636.404	80.006	19.995	103.141	20.174	11.088	0.490
1104.000	636.648	80.005	19.994	103.139	20.171	11.300	0.502
1104.501	636.865	80.004	19.994	103.139	20.171	11.329	0.491
1105.001	637.092	80.006	19.995	103.139	20.176	10.975	0.453
1105.500	637.412	80.005	19.993	103.139	20.170	11.393	0.496
1106.000	637.653	80.006	19.994	103.137	20.172	11.259	0.554
1106.500	637.895	80.005	19.994	103.138	20.171	11.321	0.522
1107.001	638.172	80.005	19.994	103.141	20.168	11.498	0.501
1107.501	638.421	80.005	19.994	103.144	20.172	11.267	0.522
1108.000	638.639	80.005	19.994	103.143	20.171	11.287	0.496
1108.500	638.948	80.005	19.995	103.147	20.170	11.388	0.497
1109.000	639.200	80.005	19.994	103.149	20.170	11.402	0.544
1109.500	639.496	80.006	19.994	103.151	20.172	11.209	0.555
1110.000	639.715	80.005	19.992	103.149	20.169	11.440	0.532
1110.500	639.969	80.006	19.994	103.150	20.173	11.197	0.494
1111.000	640.257	80.006	19.994	103.150	20.172	11.213	0.507
1111.501	640.492	80.006	19.995	103.149	20.172	11.203	0.532
1112.001	640.766	80.005	19.994	103.146	20.170	11.391	0.516
1112.500	640.997	80.005	19.993	103.145	20.171	11.345	0.507
1113.000	641.251	80.007	19.994	103.144	20.172	11.247	0.495
1113.500	641.478	80.006	19.994	103.139	20.169	11.490	0.483
1114.000	641.736	80.005	19.994	103.138	20.170	11.364	0.483
1114.500	641.985	80.007	19.994	103.138	20.171	11.312	0.496
1115.000	642.245	80.007	19.993	103.137	20.167	11.626	0.508
1115.500	642.498	80.006	19.993	103.140	20.169	11.437	0.511
1116.001	642.749	80.006	19.993	103.143	20.168	11.557	0.509
1116.501	643.001	80.006	19.994	103.143	20.168	11.541	0.504
1117.000	643.293	80.006	19.994	103.142	20.167	11.591	0.523
1117.500	643.509	80.006	19.993	103.143	20.171	11.340	0.526
1118.000	643.763	80.006	19.993	103.141	20.170	11.383	0.489
1118.501	644.053	80.007	19.994	103.138	20.169	11.449	0.507
1119.001	644.276	80.005	19.993	103.138	20.166	11.662	0.528
1119.500	644.555	80.007	19.993	103.140	20.169	11.432	0.508
1120.000	644.801	80.006	19.994	103.142	20.168	11.497	0.514
1120.500	645.047	80.006	19.993	103.141	20.170	11.399	0.508
1121.000	645.310	80.006	19.995	103.141	20.167	11.630	0.500
1121.500	645.566	80.006	19.994	103.140	20.168	11.518	0.514
1122.000	645.806	80.005	19.993	103.141	20.168	11.559	0.508
1122.500	646.067	80.006	19.993	103.140	20.171	11.328	0.498
1123.000	646.329	80.006	19.994	103.143	20.167	11.600	0.512
1123.501	646.588	80.007	19.994	103.144	20.166	11.652	0.522
1124.001	646.850	80.006	19.994	103.143	20.166	11.666	0.521
1124.500	647.101	80.006	19.994	103.140	20.168	11.501	0.517
1125.000	647.343	80.006	19.995	103.138	20.167	11.605	0.503
1125.500	647.640	80.005	19.994	103.134	20.167	11.599	0.516
1126.000	647.867	80.006	19.994	103.133	20.165	11.760	0.531
1126.500	648.092	80.006	19.995	103.134	20.166	11.702	0.488
1127.000	648.366	80.006	19.995	103.133	20.161	12.009	0.476
1127.500	648.627	80.006	19.993	103.133	20.165	11.768	0.517
1128.000	648.845	80.006	19.995	103.133	20.164	11.854	0.507
1128.500	649.137	80.005	19.994	103.132	20.163	11.870	0.494
1129.000	649.410	80.006	19.994	103.132	20.165	11.778	0.537
1129.500	649.647	80.007	19.994	103.133	20.166	11.691	0.538
1130.000	649.902	80.006	19.994	103.136	20.162	11.940	0.501
1130.500	650.180	80.006	19.996	103.142	20.164	11.825	0.512
1131.000	650.451	80.005	19.996	103.148	20.164	11.828	0.541
1131.501	650.674	80.005	19.995	103.148	20.165	11.753	0.521
1132.001	650.915	80.005	19.997	103.147	20.164	11.856	0.479
1132.500	651.168	80.006	19.995	103.144	20.164	11.853	0.479
1133.000	651.419	80.006	19.995	103.138	20.167	11.603	0.499
1133.500	651.674	80.006	19.995	103.132	20.164	11.814	0.505
1134.000	651.945	80.006	19.995	103.133	20.164	11.812	0.516
1134.500	652.204	80.006	19.993	103.135	20.162	11.937	0.528
1135.000	652.446	80.006	19.994	103.136	20.169	11.485	0.516
1135.500	652.684	80.006	19.994	103.136	20.164	11.857	0.491
1136.001	652.954	80.006	19.993	103.136	20.167	11.590	0.494
1136.501	653.215	80.005	19.994	103.137	20.165	11.724	0.520
1137.000	653.441	80.006	19.993	103.136	20.166	11.696	0.509
1137.500	653.690	80.005	19.993	103.136	20.165	11.754	0.481
1138.000	653.995	80.006	19.994	103.136	20.166	11.648	0.514
1138.500	654.255	80.005	19.993	103.137	20.167	11.603	0.559
1139.001	654.523	80.007	19.994	103.139	20.164	11.792	0.546
1139.501	654.711	80.006	19.994	103.139	20.161	12.013	0.492
1140.000	654.989	80.006	19.994	103.139	20.164	11.804	0.461
1140.501	655.227	80.007	19.994	103.143	20.165	11.756	0.491
1141.001	655.509	80.007	19.994	103.146	20.165	11.740	0.518
1141.501	655.750	80.007	19.994	103.143	20.164	11.843	0.522
1142.000	655.998	80.007	19.993	103.142	20.163	11.863	0.506
1142.500	656.250	80.007	19.994	103.141	20.165	11.722	0.494
1143.000	656.494	80.007	19.992	103.138	20.162	11.969	0.498
1143.500	656.762	80.006	19.994	103.134	20.163	11.913	0.504
1144.000	656.994	80.008	19.994	103.134	20.165	11.754	0.507
1144.500	657.282	80.007	19.994	103.134	20.160	12.108	0.510
1145.000	657.531	80.007	19.994	103.135	20.161	12.004	0.528
1145.500	657.758	80.007	19.994	103.134	20.162	11.959	0.506
1146.000	658.043	80.008	19.993	103.134	20.160	12.078	0.494
1146.500	658.259	80.007	19.993	103.133	20.160	12.096	0.507
1147.000	658.533	80.007	19.993	103.133	20.159	12.188	0.495
1147.500	658.815	80.007	19.994	103.133	20.155	12.488	0.523
1148.000	659.040	80.008	19.994	103.133	20.161	12.030	0.532
1148.500	659.323	80.007	19.994	103.133	20.162	11.933	0.508
1149.000	659.579	80.007	19.994	103.134	20.161	12.012	0.523
1149.500	659.829	80.006	19.994	103.134	20.160	12.080	0.522
1150.000	660.122	80.007	19.995	103.135	20.159	12.192	0.524
1150.501	660.361	80.006	19.994	103.134	20.158	12.241	0.538
1151.001	660.644	80.006	19.994	103.133	20.159	12.211	0.527
1151.501	660.876	80.007	19.995	103.131	20.158	12.226	0.519
1152.001	661.089	80.006	19.994	103.131	20.158	12.234	0.480
1152.501	661.360	80.006	19.994	103.131	20.157	12.351	0.464
1153.000	661.625	80.007	19.994	103.132	20.158	12.258	0.510
1153.500	661.869	80.006	19.995	103.132	20.156	12.387	0.523
1154.000	662.143	80.007	19.993	103.133	20.162	11.977	0.514
1154.500	662.372	80.007	19.995	103.133	20.159	12.160	0.510
1155.000	662.666	80.007	19.995	103.133	20.164	11.851	0.513
1155.500	662.899	80.006	19.995	103.133	20.162	11.933	0.525
1156.000	663.159	80.006	19.994	103.133	20.159	12.194	0.510
1156.500	663.424	80.006	19.993	103.135	20.159	12.178	0.509
1157.000	663.638	80.006	19.995	103.135	20.160	12.078	0.502
1157.501	663.920	80.007	19.995	103.136	20.156	12.393	0.488
1158.001	664.165	80.006	19.995	103.134	20.154	12.516	0.512
1158.500	664.393	80.005	19.995	103.135	20.158	12.259	0.500
1159.000	664.655	80.007	19.993	103.132	20.158	12.242	0.482
1159.500	664.904	80.006	19.994	103.133	20.159	12.206	0.500
1160.001	665.181	80.006	19.995	103.133	20.157	12.339	0.518
1160.501	665.407	80.005	19.995	103.133	20.157	12.337	0.514
1161.001	665.651	80.007	19.994	103.133	20.160	12.124	0.486
1161.501	665.893	80.005	19.994	103.133	20.158	12.235	0.478
1162.001	666.183	80.005	19.995	103.133	20.161	12.041	0.509
1162.501	666.444	80.006	19.995	103.136	20.160	12.122	0.542
1163.001	666.735	80.005	19.995	103.137	20.157	12.339	0.552
1163.501	666.935	80.006	19.995	103.139	20.156	12.377	0.521
1164.001	667.201	80.007	19.995	103.139	20.157	12.315	0.478
1164.500	667.445	80.007	19.996	103.139	20.154	12.528	0.488
1165.001	667.707	80.007	19.995	103.137	20.155	12.488	0.508
1165.501	667.971	80.007	19.995	103.136	20.157	12.321	0.516
1166.000	668.222	80.007	19.996	103.134	20.159	12.202	0.520
1166.500	668.429	80.006	19.994	103.135	20.156	12.437	0.486
1167.000	668.728	80.007	19.994	103.135	20.156	12.393	0.482
1167.500	668.990	80.008	19.994	103.135	20.156	12.435	0.533
1168.000	669.236	80.007	19.994	103.135	20.157	12.333	0.534
1168.501	669.516	80.008	19.994	103.135	20.161	12.055	0.517
1169.001	669.773	80.008	19.995	103.135	20.157	12.325	0.532
1169.500	670.007	80.008	19.994	103.135	20.155	12.515	0.514
1170.000	670.242	80.009	19.994	103.135	20.155	12.445	0.480
1170.500	670.544	80.008	19.994	103.135	20.159	12.203	0.503
1171.000	670.748	80.007	19.994	103.135	20.156	12.374	0.522
1171.500	671.014	80.008	19.994	103.135	20.155	12.509	0.488
1172.000	671.243	80.008	19.994	103.135	20.158	12.292	0.483
1172.500	671.527	80.008	19.994	103.134	20.155	12.493	0.504
1173.000	671.699	80.007	19.995	103.135	20.158	12.296	0.484
1173.500	672.014	80.008	19.994	103.136	20.155	12.473	0.472
1174.000	672.281	80.008	19.994	103.135	20.157	12.351	0.535
1174.500	672.471	80.009	19.994	103.136	20.152	12.729	0.519
1175.000	672.765	80.008	19.994	103.137	20.156	12.439	0.471
1175.500	673.033	80.008	19.995	103.135	20.159	12.170	0.523
1176.000	673.296	80.008	19.994	103.134	20.155	12.511	0.546
1176.500	673.544	80.008	19.995	103.135	20.156	12.369	0.521
1177.000	673.798	80.007	19.994	103.134	20.156	12.369	0.507
1177.500	674.040	80.008	19.994	103.136	20.155	12.451	0.499
1178.000	674.314	80.008	19.993	103.135	20.155	12.494	0.506
1178.500	674.546	80.007	19.995	103.136	20.156	12.377	0.510
1179.000	674.835	80.008	19.994	103.136	20.154	12.576	0.513
1179.500	675.083	80.005	19.995	103.136	20.155	12.476	0.529
1180.000	675.345	80.006	19.994	103.137	20.157	12.315	0.524
1180.500	675.584	80.006	19.995	103.139	20.157	12.355	0.505
1181.000	675.821	80.005	19.996	103.141	20.155	12.481	0.488
1181.500	676.117	80.005	19.994	103.142	20.155	12.445	0.505
1182.000	676.353	80.005	19.994	103.143	20.155	12.451	0.532
1182.500	676.622	80.005	19.996	103.140	20.155	12.455	0.518
1183.000	676.890	80.004	19.996	103.139	20.154	12.544	0.521
1183.500	677.123	80.005	19.995	103.137	20.154	12.538	0.519
1184.000	677.387	80.004	19.995	103.137	20.155	12.484	0.499
1184.500	677.679	80.005	19.996	103.136	20.154	12.568	0.526
1185.001	677.928	80.005	19.995	103.136	20.152	12.697	0.549
1185.501	678.173	80.004	19.995	103.137	20.154	12.562	0.518
1186.000	678.403	80.004	19.995	103.138	20.159	12.194	0.484
1186.500	678.690	80.004	19.995	103.138	20.155	12.444	0.496
1187.000	678.937	80.004	19.996	103.138	20.158	12.265	0.526
1187.500	679.159	80.004	19.995	103.138	20.158	12.269	0.502
1188.000	679.416	80.005	19.995	103.137	20.156	12.373	0.474
1188.500	679.677	80.004	19.994	103.137	20.157	12.303	0.498
1189.000	679.921	80.005	19.995	103.136	20.157	12.335	0.511
1189.501	680.213	80.004	19.995	103.136	20.156	12.409	0.520
1190.001	680.425	80.004	19.995	103.135	20.154	12.530	0.520
1190.500	680.696	80.005	19.995	103.135	20.158	12.242	0.493
1191.000	680.983	80.005	19.996	103.134	20.158	12.230	0.521
1191.500	681.199	80.004	19.997	103.134	20.159	12.210	0.531
1192.000	681.455	80.005	19.995	103.136	20.158	12.281	0.487
1192.500	681.809	80.004	19.995	103.136	20.157	12.300	0.541
1193.000	682.040	80.004	19.996	103.136	20.155	12.469	0.598
1193.500	682.232	80.005	19.996	103.135	20.155	12.463	0.504
1194.001	682.537	80.004	19.995	103.135	20.156	12.414	0.459
1194.501	682.797	80.005	19.995	103.132	20.158	12.282	0.531
1195.000	683.032	80.005	19.996	103.133	20.155	12.460	0.531
1195.500	683.294	80.005	19.995	103.133	20.152	12.675	0.496
1196.000	683.554	80.007	19.996	103.134	20.156	12.375	0.509
1196.500	683.790	80.005	19.995	103.135	20.152	12.669	0.509
1197.000	684.040	80.006	19.995	103.135	20.158	12.283	0.491
1197.500	684.317	80.005	19.995	103.134	20.152	12.673	0.506
1198.000	684.547	80.005	19.995	103.135	20.153	12.641	0.517
1198.500	684.826	80.006	19.994	103.135	20.152	12.725	0.508
1199.000	685.061	80.006	19.994	103.134	20.152	12.727	0.511
1199.500	685.346	80.006	19.994	103.135	20.150	12.824	0.516
1200.000	685.613	80.006	19.994	103.135	20.154	12.562	0.536
1200.500	685.849	80.006	19.994	103.136	20.151	12.789	0.528
1201.000	686.122	80.005	19.994	103.136	20.150	12.825	0.506
1201.500	686.416	80.006	19.993	103.136	20.152	12.687	0.538
1202.000	686.673	80.006	19.994	103.135	20.152	12.671	0.559
1202.500	686.914	80.005	19.993	103.135	20.153	12.590	0.525
1203.000	687.154	80.006	19.994	103.136	20.152	12.697	0.489
1203.500	687.398	80.007	19.993	103.141	20.154	12.524	0.482
1204.001	687.658	80.007	19.994	103.141	20.152	12.693	0.494
1204.501	687.920	80.006	19.994	103.141	20.151	12.785	0.513
1205.001	688.236	80.006	19.993	103.142	20.153	12.659	0.550
1205.501	688.452	80.005	19.994	103.140	20.152	12.727	0.555
1206.000	688.689	80.006	19.995	103.135	20.154	12.578	0.492
1206.500	688.970	80.005	19.993	103.134	20.153	12.640	0.486
1207.000	689.185	80.005	19.994	103.134	20.151	12.793	0.507
1207.500	689.457	80.006	19.994	103.134	20.152	12.721	0.491
1208.000	689.722	80.007	19.995	103.133	20.155	12.514	0.512
1208.500	689.984	80.005	19.994	103.133	20.152	12.727	0.532
1209.001	690.205	80.006	19.995	103.133	20.152	12.682	0.505
1209.501	690.473	80.005	19.993	103.133	20.151	12.779	0.486
1210.000	690.725	80.005	19.994	103.133	20.151	12.804	0.504
1210.501	691.001	80.006	19.994	103.134	20.154	12.541	0.524
1211.001	691.179	80.005	19.994	103.134	20.152	12.708	0.491
1211.500	691.501	80.005	19.994	103.134	20.153	12.630	0.477
1212.000	691.728	80.005	19.994	103.134	20.157	12.353	0.525
1212.500	691.985	80.005	19.994	103.134	20.153	12.608	0.516
1213.000	692.210	80.005	19.996	103.134	20.155	12.476	0.483
1213.501	692.458	80.005	19.995	103.135	20.154	12.518	0.478
1214.001	692.723	80.004	19.994	103.135	20.155	12.508	0.493
1214.500	692.967	80.005	19.995	103.134	20.158	12.234	0.511
1215.000	693.254	80.005	19.995	103.135	20.154	12.544	0.520
1215.500	693.455	80.007	19.994	103.133	20.152	12.711	0.509
1216.000	693.726	80.005	19.995	103.133	20.155	12.510	0.480
1216.500	693.988	80.006	19.994	103.136	20.151	12.739	0.502
1217.000	694.229	80.005	19.995	103.137	20.149	12.918	0.518
1217.500	694.522	80.005	19.994	103.137	20.150	12.869	0.519
1218.000	694.746	80.005	19.994	103.137	20.149	12.922	0.526
1218.500	694.958	80.005	19.995	103.137	20.151	12.787	0.476
1219.000	695.241	80.005	19.996	103.135	20.150	12.848	0.465
1219.500	695.497	80.005	19.993	103.138	20.150	12.852	0.517
1220.000	695.723	80.006	19.995	103.138	20.152	12.685	0.511
1220.500	696.017	80.006	19.996	103.139	20.150	12.817	0.501
1221.000	696.270	80.006	19.995	103.142	20.153	12.646	0.533
1221.500	696.537	80.006	19.995	103.142	20.151	12.793	0.534
1222.001	696.762	80.006	19.995	103.139	20.150	12.864	0.507
1222.501	697.004	80.006	19.996	103.139	20.150	12.874	0.480
1223.000	697.252	80.007	19.996	103.138	20.147	13.060	0.478
1223.501	697.527	80.006	19.995	103.136	20.149	12.936	0.506
1224.001	697.725	80.005	19.995	103.135	20.149	12.924	0.498
1224.500	698.029	80.006	19.995	103.135	20.147	13.064	0.488
1225.000	698.279	80.006	19.994	103.136	20.151	12.750	0.528
1225.500	698.525	80.007	19.995	103.135	20.145	13.243	0.525
1226.000	698.777	80.007	19.995	103.136	20.149	12.947	0.497
1226.500	698.974	80.008	19.994	103.136	20.146	13.124	0.473
1227.000	699.288	80.008	19.994	103.137	20.147	13.056	0.480
1227.500	699.542	80.007	19.994	103.136	20.148	12.980	0.540
1228.000	699.807	80.008	19.993	103.136	20.147	13.074	0.543
1228.500	700.060	80.007	19.994	103.136	20.148	13.014	0.518
1229.000	700.318	80.007	19.994	103.135	20.147	13.060	0.514
1229.500	700.520	80.008	19.993	103.135	20.148	13.010	0.485
1230.000	700.749	80.007	19.993	103.134	20.149	12.942	0.446
1230.500	701.023	80.007	19.994	103.134	20.149	12.895	0.467
1231.000	701.267	80.007	19.995	103.134	20.149	12.913	0.511
1231.500	701.471	80.006	19.994	103.134	20.144	13.304	0.483
1232.000	701.744	80.008	19.994	103.135	20.146	13.122	0.462
1232.500	701.976	80.008	19.995	103.135	20.149	12.892	0.491
1233.000	702.256	80.008	19.994	103.135	20.145	13.234	0.509
1233.500	702.535	80.007	19.994	103.135	20.146	13.162	0.535
1234.000	702.771	80.007	19.994	103.135	20.146	13.117	0.537
1234.500	702.990	80.006	19.993	103.135	20.143	13.362	0.485
1235.000	703.266	80.007	19.994	103.136	20.146	13.145	0.475
1235.500	703.484	80.008	19.993	103.138	20.147	13.078	0.494
1236.000	703.771	80.008	19.994	103.139	20.150	12.865	0.500
1236.500	703.984	80.007	19.993	103.139	20.150	12.853	0.503
1237.000	704.260	80.007	19.994	103.139	20.146	13.153	0.494
1237.500	704.496	80.008	19.993	103.138	20.145	13.233	0.500
1238.000	704.724	80.006	19.994	103.137	20.148	13.008	0.488
1238.500	705.015	80.006	19.994	103.138	20.143	13.364	0.492
1239.000	705.243	80.008	19.993	103.138	20.143	13.372	0.519
1239.500	705.474	80.006	19.993	103.137	20.143	13.350	0.489
1240.000	705.757	80.008	19.994	103.137	20.145	13.185	0.486
1240.500	705.971	80.007	19.995	103.136	20.145	13.198	0.505
1241.000	706.226	80.008	19.993	103.136	20.146	13.126	0.484
1241.500	706.500	80.007	19.994	103.137	20.144	13.283	0.499
1242.000	706.741	80.007	19.993	103.140	20.144	13.267	0.522
1242.500	706.995	80.007	19.993	103.144	20.145	13.243	0.504
1243.001	707.222	80.007	19.993	103.145	20.143	13.344	0.488
1243.501	707.502	80.007	19.993	103.144	20.145	13.217	0.494
1244.000	707.720	80.006	19.994	103.144	20.142	13.442	0.503
1244.501	707.983	80.007	19.993	103.140	20.142	13.394	0.490
1245.001	708.265	80.006	19.993	103.136	20.147	13.093	0.513
1245.501	708.501	80.007	19.994	103.136	20.143	13.390	0.531
1246.001	708.801	80.007	19.994	103.136	20.140	13.583	0.527
1246.500	709.053	80.007	19.993	103.136	20.142	13.410	0.544
1247.000	709.263	80.007	19.993	103.138	20.143	13.322	0.507
1247.501	709.520	80.007	19.994	103.138	20.141	13.497	0.465
1248.001	709.789	80.007	19.994	103.138	20.141	13.505	0.497
1248.501	710.061	80.007	19.995	103.138	20.142	13.424	0.533
1249.001	710.298	80.006	19.995	103.138	20.142	13.408	0.525
1249.500	710.547	80.007	19.994	103.138	20.138	13.746	0.497
1250.000	710.831	80.007	19.994	103.137	20.142	13.451	0.510
1250.500	711.068	80.007	19.993	103.138	20.138	13.700	0.527
1251.000	711.311	80.008	19.993	103.139	20.137	13.807	0.500
1251.500	711.561	80.007	19.994	103.140	20.139	13.630	0.487
1252.000	711.763	80.008	19.994	103.141	20.140	13.586	0.473
1252.500	712.053	80.007	19.995	103.141	20.142	13.396	0.472
1253.000	712.308	80.008	19.994	103.140	20.143	13.384	0.518
1253.500	712.546	80.008	19.995	103.138	20.139	13.633	0.519
1254.000	712.774	80.008	19.994	103.137	20.138	13.731	0.480
1254.500	713.061	80.008	19.995	103.135	20.138	13.687	0.491
1255.001	713.320	80.008	19.995	103.135	20.141	13.491	0.530
1255.501	713.602	80.009	19.995	103.135	20.141	13.477	0.543
1256.000	713.849	80.007	19.994	103.135	20.140	13.567	0.535
1256.500	714.108	80.009	19.994	103.135	20.141	13.505	0.518
1257.000	714.376	80.007	19.994	103.135	20.140	13.573	0.516
1257.500	714.580	80.008	19.994	103.134	20.139	13.659	0.499
1258.000	714.851	80.009	19.996	103.134	20.143	13.358	0.474
1258.500	715.109	80.008	19.993	103.135	20.140	13.595	0.502
1259.000	715.357	80.008	19.994	103.135	20.139	13.626	0.518
1259.500	715.592	80.008	19.994	103.136	20.141	13.489	0.495
1260.000	715.852	80.007	19.994	103.136	20.136	13.864	0.489
1260.500	716.116	80.008	19.995	103.137	20.141	13.513	0.509
1261.000	716.386	80.007	19.994	103.134	20.140	13.567	0.529
1261.500	716.648	80.007	19.994	103.133	20.136	13.870	0.534
1262.000	716.891	80.007	19.994	103.132	20.134	14.023	0.518
1262.500	717.153	80.007	19.993	103.132	20.136	13.848	0.504
1263.000	717.401	80.006	19.994	103.131	20.136	13.848	0.507
1263.500	717.651	80.006	19.994	103.134	20.139	13.646	0.504
1264.001	717.904	80.007	19.994	103.135	20.136	13.850	0.501
1264.501	718.143	80.006	19.995	103.137	20.135	13.939	0.497
1265.000	718.370	80.006	19.994	103.138	20.134	14.019	0.479
1265.500	718.677	80.006	19.995	103.137	20.135	13.915	0.500
1266.000	718.917	80.006	19.995	103.136	20.137	13.772	0.541
1266.500	719.180	80.006	19.994	103.134	20.134	14.033	0.525
1267.000	719.419	80.005	19.995	103.133	20.136	13.859	0.502
1267.500	719.670	80.005	19.995	103.134	20.138	13.752	0.496
1268.000	719.930	80.005	19.994	103.135	20.134	14.033	0.501
1268.500	720.222	80.006	19.994	103.135	20.138	13.720	0.532
1269.000	720.433	80.005	19.995	103.135	20.137	13.825	0.528
1269.500	720.678	80.005	19.994	103.136	20.137	13.808	0.480
1270.000	720.953	80.006	19.993	103.133	20.138	13.747	0.488
1270.500	721.223	80.007	19.995	103.134	20.135	13.903	0.532
1271.000	721.434	80.006	19.994	103.135	20.136	13.858	0.513
1271.500	721.710	80.005	19.995	103.136	20.132	14.163	0.484
1272.000	721.960	80.006	19.995	103.136	20.135	13.959	0.507
1272.500	722.204	80.006	19.995	103.136	20.135	13.926	0.510
1273.000	722.458	80.006	19.993	103.135	20.135	13.909	0.496
1273.500	722.725	80.006	19.994	103.135	20.134	13.984	0.509
1274.000	722.996	80.007	19.995	103.134	20.134	14.044	0.529
1274.500	723.232	80.006	19.995	103.134	20.132	14.174	0.522
1275.000	723.504	80.005	19.995	103.135	20.137	13.766	0.508
1275.500	723.697	80.006	19.994	103.135	20.136	13.862	0.487
1276.000	723.942	80.006	19.995	103.134	20.136	13.866	0.451
1276.501	724.215	80.006	19.995	103.134	20.136	13.888	0.478
1277.001	724.509	80.005	19.995	103.135	20.135	13.928	0.542
1277.500	724.720	80.004	19.995	103.134	20.135	13.955	0.536
1278.000	724.984	80.005	19.995	103.134	20.134	14.003	0.490
1278.500	725.265	80.005	19.995	103.135	20.134	14.041	0.510
1279.000	725.475	80.005	19.995	103.135	20.135	13.909	0.518
1279.500	725.743	80.006	19.994	103.130	20.133	14.106	0.485
1280.000	725.985	80.005	19.995	103.130	20.133	14.073	0.494
1280.500	726.214	80.006	19.996	103.133	20.136	13.836	0.491
1281.000	726.480	80.006	19.996	103.140	20.135	13.910	0.483
1281.500	726.740	80.006	19.995	103.147	20.138	13.735	0.510
1282.000	727.002	80.005	19.997	103.155	20.135	13.934	0.524
1282.500	727.251	80.004	19.995	103.155	20.134	13.978	0.516
1283.001	727.528	80.007	19.995	103.151	20.137	13.823	0.518
1283.501	727.810	80.005	19.995	103.143	20.133	14.052	0.542
1284.000	728.055	80.007	19.996	103.135	20.131	14.241	0.543
1284.500	728.313	80.006	19.996	103.132	20.133	14.098	0.515
1285.000	728.578	80.007	19.996	103.132	20.135	13.910	0.513
1285.500	728.834	80.007	19.995	103.134	20.134	14.042	0.522
1286.001	729.052	80.007	19.996	103.136	20.131	14.226	0.498
1286.501	729.346	80.006	19.995	103.136	20.132	14.136	0.494
1287.001	729.580	80.006	19.995	103.137	20.133	14.085	0.520
1287.500	729.817	80.006	19.996	103.140	20.136	13.892	0.500
1288.000	730.062	80.005	19.995	103.138	20.133	14.050	0.477
1288.500	730.297	80.006	19.995	103.136	20.132	14.193	0.480
1289.000	730.555	80.005	19.996	103.136	20.133	14.090	0.486
1289.501	730.820	80.006	19.995	103.135	20.132	14.177	0.508
1290.001	731.108	80.006	19.995	103.134	20.133	14.080	0.539
1290.500	731.342	80.005	19.995	103.135	20.133	14.096	0.538
1291.000	731.643	80.007	19.995	103.139	20.132	14.189	0.528
1291.500	731.844	80.007	19.995	103.139	20.135	13.927	0.518
1292.000	732.142	80.006	19.995	103.141	20.135	13.937	0.500
1292.501	732.407	80.007	19.994	103.141	20.134	13.986	0.531
1293.001	732.606	80.007	19.995	103.141	20.133	14.074	0.514
1293.501	732.928	80.006	19.995	103.141	20.133	14.120	0.493
1294.001	733.187	80.007	19.995	103.145	20.131	14.222	0.551
1294.501	733.414	80.005	19.994	103.144	20.131	14.216	0.533
1295.001	733.686	80.006	19.994	103.144	20.131	14.196	0.492
1295.500	733.924	80.006	19.994	103.145	20.132	14.164	0.505
1296.000	734.188	80.006	19.994	103.142	20.135	13.935	0.506
1296.501	734.436	80.004	19.993	103.146	20.134	14.018	0.507
1297.001	734.713	80.005	19.995	103.150	20.130	14.301	0.518
1297.501	734.974	80.005	19.994	103.149	20.131	14.260	0.532
1298.000	735.200	80.005	19.994	103.153	20.132	14.139	0.513
1298.500	735.480	80.005	19.994	103.154	20.130	14.299	0.496
1299.000	735.720	80.006	19.994	103.148	20.133	14.090	0.513
1299.500	735.981	80.005	19.994	103.144	20.132	14.159	0.511
1300.000	736.252	80.006	19.995	103.144	20.131	14.257	0.517
1300.500	736.506	80.006	19.994	103.140	20.128	14.440	0.529
1301.000	736.730	80.006	19.995	103.144	20.130	14.330	0.501
1301.501	737.052	80.006	19.995	103.144	20.129	14.412	0.512
1302.001	737.269	80.006	19.994	103.145	20.128	14.418	0.542
1302.500	737.496	80.006	19.994	103.145	20.128	14.425	0.492
1303.000	737.773	80.005	19.994	103.145	20.131	14.253	0.474
1303.500	738.029	80.006	19.994	103.141	20.127	14.507	0.518
1304.001	738.319	80.006	19.994	103.146	20.129	14.397	0.539
1304.501	738.559	80.007	19.994	103.150	20.127	14.538	0.538
1305.000	738.852	80.007	19.994	103.154	20.128	14.443	0.532
1305.500	739.077	80.007	19.994	103.153	20.128	14.444	0.526
1306.000	739.374	80.006	19.994	103.153	20.127	14.557	0.520
1306.501	739.619	80.006	19.994	103.147	20.129	14.362	0.532
1307.001	739.905	80.006	19.994	103.149	20.128	14.446	0.537
1307.500	740.122	80.006	19.993	103.147	20.129	14.374	0.517
1308.000	740.387	80.007	19.993	103.147	20.126	14.569	0.492
1308.501	740.655	80.007	19.995	103.150	20.128	14.448	0.507
1309.001	740.895	80.006	19.993	103.152	20.126	14.565	0.521
1309.500	741.177	80.007	19.994	103.146	20.127	14.539	0.515
1310.000	741.449	80.007	19.994	103.145	20.127	14.545	0.538
1310.500	741.715	80.007	19.994	103.144	20.125	14.641	0.546
1311.000	741.952	80.008	19.993	103.144	20.127	14.509	0.520
1311.500	742.251	80.009	19.994	103.147	20.130	14.330	0.520
1312.000	742.488	80.009	19.994	103.153	20.127	14.491	0.536
1312.500	742.759	80.006	19.993	103.155	20.123	14.788	0.522
1313.000	742.997	80.007	19.994	103.156	20.125	14.640	0.509
1313.500	743.297	80.008	19.993	103.153	20.125	14.652	0.524
