Sample ID:	C:\MCC\MCC Cal\Test\FDNY_LDF_MCC_30K_min_211207_R1.txt
Sample Weight (mg):	4.05
Heating Rate (C/s):	0.5
Combustor Temp (C):	900
N2 Flow Rate (cc/min):	80
O2 Flow Rate (cc/min):	20
Calibration File:	C:\MCC\MCC Cal\Coeff1 JN10440_30_210304.txt.txt
T Correction Coefficients:	0	1.024463	0
Time Shift (s):	14
*
Time (s)	Temperature (C)	N2 flow rate (cc/min)	O2 flow rate (cc/min)	Flow Rate (cc/min)	Oxygen (%)	HRR (W/g)	Heating rate (C/s)
0.000	112.554	80.013	19.993	103.053	20.171	-0.329	0.002
0.500	112.574	80.005	19.995	103.055	20.171	-0.383	0.005
1.000	112.545	79.993	19.996	103.057	20.172	-0.398	0.002
1.500	112.619	80.024	19.991	103.054	20.170	-0.234	0.018
2.000	112.549	79.997	19.996	103.056	20.167	-0.056	0.024
2.500	112.574	80.003	19.994	103.057	20.168	-0.136	-0.020
3.000	112.527	80.000	19.996	103.054	20.165	0.106	-0.033
3.500	112.538	79.998	19.993	103.050	20.169	-0.167	-0.029
4.001	112.567	80.008	19.994	103.052	20.169	-0.154	0.002
4.500	112.518	79.996	19.996	103.049	20.168	-0.089	0.010
5.000	112.584	79.999	19.995	103.044	20.168	-0.067	-0.001
5.500	112.603	80.010	19.992	103.045	20.168	-0.080	0.051
6.001	112.552	80.016	19.992	103.053	20.167	-0.013	0.026
6.500	112.530	79.979	19.996	103.055	20.168	-0.091	-0.053
7.000	112.546	79.997	19.994	103.052	20.166	0.015	-0.040
7.500	112.506	80.001	19.995	103.057	20.166	0.050	-0.015
8.000	112.564	79.993	19.994	103.058	20.165	0.147	-0.003
8.500	112.559	80.003	19.994	103.055	20.168	-0.138	0.036
9.000	112.528	80.009	19.995	103.056	20.167	-0.045	0.008
9.500	112.532	80.005	19.994	103.060	20.168	-0.115	-0.032
10.000	112.512	80.013	19.993	103.059	20.165	0.164	-0.021
10.500	112.513	79.995	19.995	103.061	20.166	0.089	-0.018
11.000	112.542	80.014	19.993	103.059	20.166	0.076	0.005
11.501	112.508	80.010	19.995	103.061	20.169	-0.167	0.012
12.001	112.536	80.008	19.993	103.060	20.165	0.121	-0.005
12.500	112.493	80.004	19.995	103.061	20.163	0.273	-0.010
13.000	112.522	79.999	19.995	103.058	20.165	0.138	-0.014
13.500	112.587	80.013	19.992	103.060	20.165	0.171	0.040
14.000	112.511	79.997	19.995	103.061	20.164	0.182	0.041
14.500	112.536	80.009	19.994	103.058	20.165	0.136	-0.031
15.000	112.559	79.996	19.996	103.056	20.162	0.379	-0.002
15.500	112.527	79.994	19.996	103.054	20.160	0.532	0.019
16.000	112.503	79.994	19.994	103.052	20.161	0.454	-0.032
16.500	112.507	80.019	19.993	103.058	20.160	0.526	-0.037
17.000	112.504	79.988	19.997	103.063	20.164	0.249	-0.009
17.500	112.511	80.005	19.994	103.055	20.164	0.206	0.002
18.000	112.504	80.012	19.995	103.052	20.163	0.294	0.002
18.500	112.493	79.995	19.995	103.054	20.162	0.366	-0.009
19.000	112.514	80.000	19.995	103.042	20.162	0.351	-0.004
19.500	112.524	80.005	19.995	103.038	20.163	0.275	0.020
20.000	112.508	80.006	19.993	103.050	20.161	0.455	0.012
20.500	112.499	79.993	19.995	103.063	20.161	0.431	-0.015
21.000	112.500	79.997	19.997	103.070	20.160	0.533	-0.016
21.500	112.488	79.997	19.998	103.074	20.163	0.327	-0.009
22.000	112.500	80.007	19.993	103.076	20.160	0.518	-0.006
22.500	112.550	80.012	19.991	103.083	20.160	0.554	0.031
23.000	112.529	80.004	19.995	103.091	20.157	0.784	0.045
23.500	112.574	80.016	19.993	103.099	20.156	0.840	0.027
24.000	112.532	79.989	19.995	103.113	20.159	0.615	0.014
24.500	112.563	80.003	19.993	103.124	20.154	1.003	-0.004
25.001	112.572	80.007	19.993	103.130	20.157	0.782	0.014
25.500	112.617	80.022	19.992	103.129	20.155	0.895	0.047
26.000	112.588	79.997	19.995	103.132	20.155	0.905	0.035
26.500	112.571	79.999	19.994	103.134	20.153	1.068	-0.015
27.000	112.609	79.997	19.994	103.138	20.152	1.131	-0.013
27.500	112.634	80.012	19.993	103.142	20.151	1.233	0.042
28.000	112.641	80.003	19.994	103.144	20.151	1.252	0.048
28.500	112.671	80.017	19.993	103.149	20.153	1.120	0.035
29.000	112.664	79.997	19.997	103.156	20.148	1.477	0.030
29.500	112.685	79.986	19.995	103.157	20.147	1.568	0.018
30.000	112.716	80.000	19.993	103.161	20.150	1.356	0.033
30.500	112.789	79.995	19.995	103.166	20.148	1.508	0.078
31.000	112.753	80.002	19.995	103.172	20.143	1.909	0.071
31.500	112.847	79.998	19.995	103.175	20.145	1.750	0.047
32.000	112.870	79.997	19.994	103.186	20.145	1.759	0.088
32.500	112.874	79.981	19.997	103.193	20.142	1.956	0.072
33.001	112.952	80.001	19.995	103.195	20.142	1.932	0.055
33.501	113.023	80.004	19.994	103.197	20.138	2.296	0.116
34.000	113.075	80.010	19.991	103.202	20.136	2.407	0.136
34.500	113.083	79.992	19.993	103.211	20.135	2.481	0.091
35.000	113.148	80.010	19.993	103.215	20.137	2.349	0.066
35.500	113.183	79.996	19.995	103.225	20.136	2.437	0.087
36.001	113.243	80.006	19.994	103.229	20.134	2.585	0.098
36.501	113.245	80.004	19.994	103.235	20.132	2.791	0.079
37.001	113.308	79.994	19.995	103.234	20.131	2.845	0.063
37.501	113.380	79.994	19.994	103.237	20.132	2.795	0.100
38.000	113.426	79.992	19.995	103.238	20.133	2.706	0.126
38.500	113.499	79.988	19.994	103.240	20.133	2.687	0.118
39.000	113.560	79.999	19.995	103.240	20.133	2.711	0.126
39.500	113.632	80.014	19.992	103.241	20.133	2.641	0.134
40.000	113.707	79.996	19.994	103.246	20.128	3.090	0.140
40.500	113.773	80.000	19.992	103.247	20.129	2.975	0.144
41.000	113.817	79.998	19.996	103.251	20.128	3.073	0.125
41.501	113.897	79.994	19.995	103.249	20.127	3.160	0.117
42.001	113.985	79.996	19.996	103.246	20.127	3.144	0.146
42.500	114.066	80.012	19.993	103.241	20.129	2.993	0.168
43.000	114.108	80.004	19.994	103.244	20.127	3.164	0.146
43.501	114.206	80.000	19.995	103.239	20.127	3.144	0.131
44.001	114.312	80.000	19.994	103.240	20.124	3.413	0.172
44.500	114.377	80.004	19.993	103.245	20.125	3.296	0.188
45.000	114.419	79.987	19.995	103.251	20.125	3.296	0.139
45.500	114.521	79.993	19.995	103.253	20.129	3.007	0.125
46.001	114.591	80.002	19.996	103.255	20.126	3.270	0.158
46.501	114.680	80.002	19.995	103.258	20.127	3.129	0.166
47.000	114.751	80.011	19.994	103.257	20.124	3.382	0.160
47.500	114.852	79.991	19.995	103.256	20.125	3.315	0.166
48.000	114.915	80.006	19.993	103.254	20.127	3.192	0.168
48.500	115.043	80.002	19.994	103.259	20.127	3.131	0.178
49.000	115.155	80.008	19.994	103.263	20.124	3.411	0.215
49.500	115.233	79.995	19.996	103.269	20.123	3.444	0.215
50.000	115.322	80.007	19.993	103.267	20.126	3.240	0.178
50.500	115.428	79.994	19.993	103.270	20.123	3.472	0.181
51.000	115.529	79.989	19.996	103.272	20.126	3.227	0.201
51.500	115.645	80.007	19.992	103.270	20.126	3.244	0.212
52.000	115.771	80.007	19.994	103.273	20.127	3.168	0.230
52.500	115.895	79.997	19.994	103.280	20.125	3.350	0.246
53.000	116.010	79.995	19.994	103.278	20.125	3.330	0.244
53.500	116.090	80.005	19.993	103.277	20.125	3.313	0.217
54.000	116.193	80.004	19.993	103.277	20.122	3.577	0.189
54.500	116.321	80.007	19.993	103.269	20.126	3.233	0.207
55.001	116.437	80.006	19.993	103.263	20.120	3.703	0.238
55.501	116.547	79.996	19.993	103.265	20.123	3.476	0.235
56.000	116.668	80.009	19.992	103.266	20.121	3.632	0.228
56.500	116.785	80.004	19.993	103.266	20.122	3.584	0.235
57.000	116.949	79.997	19.994	103.268	20.119	3.754	0.260
57.500	117.028	79.999	19.995	103.266	20.122	3.580	0.262
58.000	117.160	80.001	19.993	103.266	20.125	3.348	0.227
58.500	117.332	80.010	19.994	103.267	20.122	3.539	0.257
59.000	117.411	79.987	19.996	103.269	20.120	3.710	0.277
59.500	117.570	80.028	19.990	103.268	20.124	3.426	0.245
60.000	117.704	80.001	19.994	103.280	20.123	3.461	0.266
60.500	117.813	80.003	19.994	103.284	20.120	3.727	0.268
61.000	117.937	80.004	19.992	103.283	20.120	3.699	0.237
61.500	118.104	79.999	19.994	103.279	20.122	3.514	0.262
62.000	118.251	80.003	19.995	103.280	20.124	3.413	0.303
62.501	118.384	80.003	19.992	103.273	20.121	3.610	0.298
63.001	118.499	80.001	19.995	103.268	20.121	3.608	0.264
63.501	118.627	80.003	19.994	103.264	20.123	3.470	0.245
64.001	118.770	80.003	19.993	103.264	20.121	3.610	0.257
64.500	118.892	79.998	19.995	103.265	20.118	3.838	0.268
65.000	119.077	80.008	19.995	103.264	20.117	3.938	0.286
65.500	119.175	80.008	19.994	103.261	20.121	3.615	0.295
66.000	119.310	80.007	19.994	103.267	20.121	3.615	0.258
66.500	119.479	80.003	19.991	103.271	20.118	3.852	0.269
67.000	119.645	80.003	19.993	103.276	20.119	3.765	0.320
67.500	119.790	80.002	19.992	103.278	20.120	3.706	0.323
68.000	119.878	79.999	19.995	103.284	20.119	3.814	0.272
68.500	120.042	80.030	19.991	103.279	20.120	3.706	0.242
69.000	120.209	79.995	19.994	103.285	20.119	3.758	0.292
69.500	120.349	79.997	19.993	103.280	20.118	3.836	0.319
70.000	120.495	79.980	19.996	103.281	20.121	3.610	0.296
70.500	120.651	80.017	19.991	103.272	20.120	3.676	0.294
71.001	120.820	79.967	19.996	103.278	20.118	3.888	0.313
71.501	120.952	79.998	19.994	103.266	20.120	3.684	0.313
72.000	121.145	80.004	19.993	103.263	20.117	3.978	0.314
72.500	121.283	79.995	19.994	103.266	20.118	3.911	0.328
73.000	121.439	79.984	19.996	103.272	20.116	4.002	0.312
73.500	121.608	80.007	19.995	103.270	20.120	3.688	0.310
74.000	121.776	80.024	19.990	103.277	20.120	3.710	0.332
74.501	121.895	79.993	19.995	103.284	20.118	3.834	0.312
75.001	122.058	80.019	19.991	103.276	20.118	3.905	0.285
75.500	122.212	79.999	19.994	103.280	20.116	4.066	0.300
76.000	122.397	80.021	19.992	103.283	20.118	3.834	0.327
76.500	122.559	80.005	19.992	103.286	20.120	3.723	0.343
77.000	122.710	80.012	19.994	103.290	20.119	3.773	0.331
77.500	122.920	80.005	19.994	103.297	20.119	3.812	0.337
78.000	123.041	80.009	19.994	103.296	20.116	4.013	0.345
78.500	123.216	79.987	19.997	103.296	20.115	4.134	0.313
79.000	123.343	80.011	19.992	103.290	20.123	3.502	0.299
79.500	123.566	80.006	19.993	103.288	20.117	3.957	0.326
80.000	123.705	80.010	19.993	103.291	20.120	3.736	0.356
80.500	123.842	80.002	19.996	103.289	20.122	3.556	0.320
81.001	124.023	80.012	19.993	103.283	20.117	3.929	0.297
81.501	124.224	79.992	19.995	103.286	20.117	3.914	0.350
82.000	124.370	79.995	19.997	103.277	20.118	3.877	0.364
82.500	124.562	80.008	19.993	103.269	20.121	3.671	0.343
83.000	124.728	80.005	19.992	103.268	20.114	4.180	0.348
83.500	124.934	80.024	19.992	103.273	20.117	3.931	0.365
84.000	125.045	80.011	19.993	103.276	20.118	3.864	0.345
84.500	125.272	80.010	19.993	103.283	20.115	4.111	0.327
85.000	125.391	80.008	19.994	103.291	20.119	3.799	0.342
85.500	125.561	80.005	19.994	103.291	20.120	3.732	0.318
86.000	125.771	79.997	19.994	103.292	20.115	4.137	0.335
86.500	125.953	80.009	19.994	103.289	20.119	3.786	0.386
87.000	126.137	80.000	19.996	103.289	20.119	3.799	0.379
87.500	126.318	79.995	19.995	103.285	20.119	3.831	0.366
88.000	126.464	80.012	19.994	103.286	20.117	3.990	0.346
88.500	126.666	79.989	19.997	103.281	20.116	4.046	0.338
89.001	126.876	80.004	19.996	103.277	20.114	4.224	0.380
89.501	127.044	79.994	19.995	103.272	20.115	4.089	0.395
90.000	127.244	79.999	19.995	103.272	20.115	4.081	0.373
90.501	127.447	79.998	19.994	103.271	20.117	3.981	0.386
91.001	127.619	79.996	19.996	103.275	20.117	3.938	0.389
91.501	127.768	79.980	19.997	103.279	20.115	4.148	0.348
92.000	127.939	79.988	19.997	103.278	20.113	4.230	0.321
92.500	128.150	79.991	19.995	103.275	20.113	4.245	0.351
93.000	128.374	80.006	19.994	103.275	20.116	4.057	0.409
93.500	128.563	80.002	19.993	103.275	20.113	4.263	0.424
94.000	128.747	80.001	19.992	103.277	20.118	3.849	0.393
94.501	128.905	80.032	19.992	103.283	20.115	4.105	0.357
95.001	129.113	80.005	19.996	103.292	20.113	4.239	0.354
95.501	129.269	79.996	19.994	103.292	20.113	4.265	0.366
96.000	129.525	79.998	19.994	103.289	20.117	3.988	0.388
96.500	129.706	80.014	19.993	103.287	20.116	4.005	0.424
97.000	129.850	79.989	19.997	103.287	20.117	3.989	0.381
97.500	130.050	80.009	19.994	103.277	20.113	4.232	0.335
98.000	130.254	80.007	19.992	103.279	20.115	4.078	0.374
98.500	130.422	79.999	19.993	103.281	20.113	4.243	0.388
99.001	130.617	79.998	19.995	103.282	20.115	4.100	0.368
99.501	130.841	80.006	19.992	103.279	20.114	4.213	0.391
100.000	130.993	79.997	19.996	103.286	20.110	4.477	0.397
100.500	131.222	80.014	19.993	103.284	20.113	4.289	0.379
101.000	131.428	80.010	19.993	103.285	20.110	4.501	0.408
101.500	131.671	80.015	19.994	103.285	20.113	4.260	0.442
102.000	131.822	79.994	19.997	103.290	20.110	4.484	0.422
102.500	131.995	79.987	19.997	103.285	20.116	3.998	0.359
103.000	132.219	79.995	19.994	103.283	20.111	4.443	0.361
103.500	132.425	80.015	19.992	103.283	20.113	4.263	0.413
104.000	132.596	79.996	19.995	103.282	20.114	4.193	0.403
104.500	132.805	80.009	19.994	103.278	20.114	4.215	0.379
105.000	133.037	80.011	19.995	103.282	20.113	4.248	0.410
105.500	133.194	79.998	19.996	103.286	20.113	4.300	0.414
106.000	133.387	80.005	19.995	103.285	20.114	4.194	0.369
106.500	133.562	80.020	19.992	103.284	20.114	4.170	0.359
107.000	133.810	79.996	19.996	103.286	20.113	4.252	0.395
107.500	133.998	79.992	19.996	103.282	20.116	4.001	0.429
108.000	134.222	80.009	19.993	103.278	20.115	4.146	0.424
108.500	134.433	79.996	19.994	103.280	20.112	4.354	0.424
109.000	134.617	80.004	19.994	103.278	20.114	4.190	0.415
109.500	134.841	80.004	19.993	103.278	20.112	4.331	0.402
110.000	135.033	79.998	19.995	103.282	20.114	4.179	0.412
110.500	135.256	79.995	19.996	103.284	20.112	4.389	0.415
111.000	135.464	80.004	19.994	103.279	20.114	4.224	0.422
111.500	135.677	80.000	19.995	103.281	20.116	4.070	0.426
112.000	135.848	79.994	19.996	103.282	20.115	4.092	0.403
112.500	136.063	79.991	19.997	103.281	20.114	4.181	0.385
113.000	136.252	80.001	19.994	103.281	20.114	4.205	0.395
113.500	136.477	79.997	19.996	103.284	20.113	4.246	0.409
114.000	136.672	79.994	19.995	103.284	20.113	4.302	0.417
114.500	136.919	80.009	19.994	103.282	20.112	4.352	0.432
115.000	137.092	80.004	19.993	103.285	20.111	4.430	0.431
115.501	137.357	80.014	19.993	103.290	20.113	4.293	0.429
116.001	137.556	80.006	19.993	103.293	20.111	4.469	0.451
116.501	137.729	80.024	19.991	103.294	20.110	4.473	0.418
117.001	137.954	79.994	19.994	103.298	20.112	4.330	0.384
117.500	138.165	80.000	19.995	103.295	20.112	4.376	0.417
118.000	138.411	79.986	19.995	103.295	20.109	4.556	0.447
118.500	138.600	80.016	19.991	103.291	20.110	4.521	0.446
119.000	138.824	80.003	19.993	103.295	20.111	4.436	0.424
119.500	139.052	80.024	19.991	103.293	20.108	4.690	0.432
120.000	139.290	80.001	19.992	103.300	20.110	4.482	0.459
120.500	139.476	79.996	19.994	103.300	20.110	4.514	0.445
121.000	139.690	80.008	19.993	103.300	20.113	4.237	0.412
121.500	139.892	80.009	19.993	103.296	20.112	4.350	0.408
122.000	140.136	80.000	19.994	103.296	20.109	4.562	0.431
122.500	140.362	80.005	19.993	103.292	20.110	4.515	0.458
123.000	140.596	80.007	19.993	103.291	20.112	4.322	0.465
123.500	140.792	80.002	19.995	103.292	20.112	4.369	0.445
124.000	141.020	80.010	19.993	103.291	20.113	4.261	0.427
124.500	141.219	80.000	19.993	103.292	20.110	4.519	0.426
125.000	141.475	80.009	19.993	103.291	20.112	4.322	0.441
125.500	141.675	79.999	19.994	103.291	20.110	4.475	0.455
126.000	141.908	80.015	19.993	103.291	20.109	4.560	0.444
126.500	142.121	80.010	19.992	103.293	20.113	4.304	0.439
127.000	142.350	80.005	19.992	103.294	20.112	4.336	0.445
127.500	142.580	80.004	19.993	103.295	20.114	4.193	0.451
128.000	142.740	80.002	19.994	103.296	20.112	4.328	0.424
128.500	143.005	80.003	19.993	103.296	20.112	4.376	0.407
129.000	143.205	80.000	19.995	103.296	20.113	4.263	0.445
129.500	143.417	80.005	19.994	103.293	20.113	4.263	0.438
130.000	143.676	79.999	19.994	103.290	20.113	4.306	0.441
130.500	143.914	80.004	19.994	103.288	20.112	4.335	0.484
131.000	144.143	80.001	19.995	103.289	20.113	4.281	0.482
131.500	144.356	80.007	19.993	103.287	20.111	4.458	0.454
132.000	144.591	80.004	19.994	103.290	20.111	4.452	0.445
132.500	144.789	79.989	19.994	103.293	20.111	4.462	0.440
133.000	145.051	80.005	19.993	103.293	20.109	4.551	0.446
133.500	145.304	79.993	19.994	103.292	20.109	4.595	0.487
134.000	145.505	80.003	19.992	103.291	20.111	4.397	0.485
134.500	145.722	80.018	19.992	103.289	20.110	4.497	0.436
135.000	145.954	80.013	19.993	103.291	20.109	4.618	0.433
135.500	146.192	79.987	19.996	103.294	20.110	4.543	0.459
136.000	146.383	79.985	19.996	103.293	20.111	4.449	0.450
136.500	146.671	80.005	19.995	103.289	20.111	4.456	0.454
137.000	146.902	79.995	19.995	103.290	20.106	4.800	0.499
137.500	147.120	80.010	19.992	103.284	20.108	4.687	0.484
138.000	147.363	80.002	19.994	103.284	20.109	4.618	0.455
138.500	147.528	79.997	19.993	103.285	20.108	4.696	0.435
139.000	147.846	80.001	19.995	103.289	20.107	4.737	0.445
139.500	148.050	79.993	19.993	103.287	20.108	4.679	0.502
140.000	148.281	79.995	19.995	103.290	20.104	4.984	0.478
140.500	148.523	80.007	19.992	103.289	20.108	4.636	0.454
141.000	148.760	79.984	19.995	103.292	20.106	4.852	0.476
141.500	149.027	79.999	19.993	103.291	20.108	4.675	0.492
142.000	149.254	80.009	19.992	103.294	20.108	4.690	0.499
142.500	149.503	80.009	19.993	103.295	20.107	4.757	0.485
143.000	149.717	80.011	19.993	103.292	20.106	4.813	0.469
143.500	149.949	80.005	19.994	103.291	20.105	4.935	0.454
144.000	150.209	80.007	19.994	103.292	20.104	4.989	0.469
144.500	150.432	79.990	19.996	103.291	20.103	5.043	0.488
145.000	150.665	80.015	19.992	103.287	20.105	4.878	0.469
145.500	150.854	79.999	19.994	103.291	20.106	4.811	0.439
146.000	151.100	79.998	19.993	103.288	20.105	4.880	0.429
146.500	151.360	79.999	19.995	103.289	20.109	4.603	0.471
147.000	151.607	80.005	19.993	103.286	20.110	4.516	0.506
147.500	151.802	80.000	19.993	103.288	20.104	4.954	0.474
148.000	152.015	79.997	19.997	103.284	20.107	4.762	0.425
148.500	152.300	80.003	19.995	103.281	20.110	4.523	0.454
149.000	152.524	79.989	19.998	103.279	20.106	4.829	0.504
149.500	152.762	80.011	19.992	103.276	20.110	4.547	0.485
150.000	153.017	80.004	19.994	103.277	20.106	4.798	0.477
150.500	153.250	80.008	19.992	103.277	20.107	4.777	0.490
151.000	153.468	79.998	19.992	103.283	20.107	4.735	0.470
151.500	153.722	80.002	19.997	103.283	20.108	4.640	0.462
152.000	153.934	80.011	19.994	103.287	20.108	4.640	0.469
152.500	154.168	79.996	19.994	103.286	20.105	4.893	0.456
153.000	154.398	80.009	19.993	103.286	20.105	4.900	0.455
153.500	154.595	80.003	19.994	103.286	20.104	4.952	0.445
154.000	154.881	79.998	19.994	103.286	20.106	4.807	0.455
154.500	155.160	80.011	19.992	103.286	20.108	4.675	0.524
155.000	155.321	79.998	19.996	103.291	20.107	4.731	0.502
155.500	155.564	79.998	19.995	103.288	20.106	4.809	0.422
156.000	155.837	80.004	19.995	103.282	20.108	4.698	0.461
156.500	156.095	80.015	19.993	103.279	20.106	4.800	0.524
157.000	156.309	80.004	19.994	103.282	20.106	4.800	0.501
157.500	156.589	80.029	19.991	103.278	20.106	4.787	0.483
158.000	156.830	79.991	19.995	103.285	20.105	4.872	0.507
158.500	157.050	80.000	19.995	103.287	20.104	5.024	0.491
159.000	157.335	80.003	19.992	103.290	20.107	4.783	0.483
159.500	157.579	80.007	19.992	103.287	20.104	5.026	0.517
160.000	157.799	80.009	19.992	103.290	20.103	5.097	0.497
160.500	158.059	80.017	19.992	103.287	20.107	4.746	0.472
161.000	158.315	80.008	19.996	103.291	20.104	5.006	0.498
161.500	158.584	79.985	19.995	103.290	20.102	5.114	0.521
162.000	158.812	80.004	19.993	103.288	20.104	4.977	0.511
162.500	159.067	80.007	19.993	103.286	20.103	5.094	0.490
163.000	159.267	79.999	19.995	103.286	20.105	4.880	0.469
163.500	159.528	80.008	19.994	103.282	20.105	4.934	0.458
164.000	159.806	79.996	19.993	103.284	20.103	5.066	0.500
164.500	160.025	80.001	19.994	103.288	20.105	4.917	0.518
165.000	160.295	80.013	19.994	103.286	20.106	4.828	0.492
165.501	160.528	80.000	19.993	103.283	20.104	4.949	0.496
166.000	160.793	80.004	19.994	103.284	20.109	4.585	0.501
166.500	161.016	79.979	19.997	103.283	20.106	4.824	0.493
167.000	161.282	80.001	19.994	103.277	20.105	4.891	0.489
167.500	161.547	80.003	19.994	103.276	20.105	4.939	0.510
168.000	161.740	80.006	19.995	103.278	20.106	4.854	0.495
168.500	162.008	80.006	19.993	103.278	20.107	4.748	0.460
169.000	162.252	80.013	19.994	103.279	20.104	5.012	0.487
169.500	162.500	79.999	19.996	103.286	20.104	5.021	0.502
170.000	162.772	80.003	19.994	103.288	20.106	4.854	0.506
170.500	162.985	80.004	19.995	103.287	20.107	4.728	0.502
171.000	163.280	80.003	19.996	103.287	20.103	5.068	0.497
171.500	163.512	80.000	19.995	103.285	20.107	4.709	0.518
172.000	163.798	80.001	19.994	103.279	20.107	4.709	0.522
172.500	164.030	80.002	19.995	103.275	20.107	4.748	0.518
173.000	164.273	80.004	19.996	103.274	20.107	4.730	0.496
173.500	164.527	79.982	19.997	103.274	20.106	4.815	0.486
174.000	164.775	80.001	19.995	103.271	20.104	4.949	0.500
174.500	165.034	80.004	19.995	103.271	20.102	5.163	0.505
175.000	165.315	80.001	19.995	103.271	20.104	4.957	0.523
175.500	165.533	79.995	19.995	103.270	20.108	4.654	0.519
176.000	165.797	79.998	19.995	103.266	20.108	4.704	0.491
176.500	166.071	80.006	19.994	103.270	20.107	4.719	0.510
177.000	166.306	80.003	19.994	103.271	20.105	4.912	0.523
177.500	166.546	80.002	19.994	103.274	20.104	4.981	0.492
178.000	166.831	80.010	19.995	103.276	20.106	4.812	0.501
178.500	167.055	80.001	19.995	103.279	20.104	5.020	0.517
179.000	167.346	80.018	19.993	103.276	20.103	5.076	0.511
179.500	167.603	80.001	19.995	103.277	20.105	4.938	0.531
180.000	167.845	80.007	19.993	103.277	20.105	4.905	0.524
180.500	168.099	80.000	19.994	103.275	20.103	5.070	0.497
181.000	168.349	80.006	19.994	103.270	20.104	4.957	0.500
181.500	168.559	80.003	19.994	103.272	20.102	5.122	0.482
182.000	168.857	80.007	19.995	103.269	20.104	4.986	0.484
182.500	169.094	80.004	19.995	103.270	20.103	5.037	0.522
183.000	169.353	79.996	19.996	103.271	20.107	4.762	0.516
183.500	169.598	79.991	19.995	103.273	20.109	4.574	0.500
184.000	169.845	79.995	19.997	103.274	20.106	4.790	0.498
184.500	170.120	80.000	19.995	103.273	20.105	4.918	0.508
185.000	170.347	80.003	19.994	103.267	20.105	4.879	0.512
185.500	170.628	80.007	19.995	103.263	20.101	5.211	0.505
186.000	170.884	80.004	19.994	103.260	20.102	5.128	0.522
186.500	171.152	80.005	19.995	103.256	20.102	5.113	0.531
187.000	171.390	80.002	19.995	103.255	20.100	5.276	0.515
187.500	171.612	80.004	19.993	103.255	20.104	5.007	0.483
188.000	171.871	80.002	19.995	103.256	20.103	5.081	0.470
188.500	172.118	80.006	19.994	103.255	20.102	5.148	0.493
189.000	172.388	80.005	19.994	103.254	20.104	5.025	0.511
189.500	172.667	80.007	19.995	103.254	20.104	5.020	0.533
190.000	172.920	80.001	19.995	103.256	20.104	4.981	0.541
190.500	173.168	80.003	19.994	103.255	20.106	4.838	0.517
191.000	173.405	80.002	19.994	103.258	20.104	4.994	0.493
191.500	173.631	80.002	19.995	103.258	20.104	4.996	0.474
192.000	173.903	80.003	19.996	103.258	20.107	4.771	0.481
192.500	174.151	80.003	19.995	103.257	20.103	5.044	0.509
193.000	174.432	79.999	19.996	103.261	20.105	4.916	0.524
193.500	174.646	80.000	19.996	103.260	20.104	5.013	0.512
194.000	174.893	80.002	19.994	103.258	20.103	5.039	0.478
194.500	175.153	80.001	19.996	103.258	20.103	5.067	0.484
195.000	175.419	80.006	19.995	103.258	20.104	4.994	0.516
195.500	175.674	79.999	19.996	103.255	20.105	4.866	0.524
196.000	175.946	79.992	19.997	103.256	20.105	4.909	0.524
196.500	176.186	80.000	19.995	103.255	20.102	5.178	0.519
197.000	176.460	80.003	19.995	103.256	20.107	4.781	0.513
197.500	176.712	80.009	19.993	103.257	20.109	4.612	0.520
198.000	176.947	80.002	19.996	103.260	20.107	4.749	0.506
198.500	177.192	80.007	19.994	103.262	20.102	5.171	0.484
199.000	177.426	80.000	19.996	103.265	20.100	5.312	0.480
199.501	177.711	79.999	19.995	103.266	20.103	5.078	0.499
200.000	177.913	79.999	19.996	103.263	20.102	5.165	0.503
200.500	178.242	80.005	19.994	103.256	20.103	5.035	0.509
201.000	178.490	79.994	19.997	103.255	20.104	4.985	0.554
201.500	178.713	80.006	19.996	103.250	20.102	5.180	0.524
202.000	178.952	80.001	19.996	103.251	20.100	5.273	0.467
202.500	179.213	80.003	19.995	103.252	20.104	4.957	0.481
203.000	179.486	80.000	19.995	103.253	20.101	5.228	0.517
203.500	179.747	80.000	19.996	103.251	20.105	4.913	0.534
204.000	179.967	80.004	19.995	103.254	20.104	5.018	0.508
204.500	180.237	79.999	19.996	103.253	20.102	5.169	0.486
205.000	180.496	80.002	19.995	103.252	20.102	5.130	0.509
205.500	180.739	80.001	19.995	103.253	20.101	5.245	0.515
206.000	181.045	80.002	19.994	103.253	20.103	5.091	0.525
206.500	181.271	80.002	19.995	103.253	20.103	5.089	0.541
207.000	181.501	80.006	19.994	103.252	20.105	4.933	0.494
207.500	181.737	79.993	19.996	103.254	20.103	5.026	0.461
208.000	182.019	80.003	19.994	103.252	20.102	5.173	0.492
208.500	182.254	80.003	19.994	103.252	20.102	5.173	0.517
209.000	182.509	80.003	19.994	103.252	20.106	4.799	0.503
209.500	182.767	79.996	19.992	103.252	20.107	4.772	0.501
210.000	183.011	80.000	19.995	103.250	20.101	5.228	0.508
210.500	183.267	79.996	19.993	103.249	20.103	5.039	0.502
211.000	183.567	79.998	19.992	103.249	20.103	5.052	0.528
211.500	183.805	80.008	19.995	103.249	20.103	5.052	0.547
212.000	184.046	79.995	19.996	103.249	20.099	5.364	0.508
212.500	184.293	80.004	19.993	103.247	20.102	5.150	0.483
213.000	184.497	80.009	19.994	103.249	20.104	5.024	0.469
213.500	184.761	80.012	19.993	103.249	20.106	4.820	0.459
214.000	185.082	80.005	19.994	103.249	20.102	5.182	0.527
214.500	185.330	79.999	19.994	103.248	20.101	5.232	0.577
215.000	185.550	80.002	19.996	103.252	20.098	5.446	0.518
215.501	185.834	79.998	19.994	103.252	20.099	5.353	0.486
216.000	186.080	80.001	19.996	103.250	20.102	5.136	0.518
216.500	186.329	80.003	19.994	103.248	20.101	5.184	0.512
217.000	186.581	79.997	19.994	103.247	20.101	5.208	0.498
217.500	186.849	80.012	19.993	103.246	20.101	5.243	0.511
218.000	187.089	79.989	19.997	103.247	20.101	5.212	0.514
218.500	187.341	80.005	19.992	103.245	20.101	5.253	0.500
219.000	187.601	80.000	19.995	103.248	20.099	5.368	0.502
219.500	187.841	80.009	19.993	103.248	20.100	5.340	0.506
220.000	188.100	79.991	19.995	103.250	20.099	5.370	0.500
220.500	188.343	80.003	19.995	103.246	20.100	5.307	0.501
221.000	188.578	80.003	19.994	103.248	20.098	5.485	0.490
221.500	188.868	80.001	19.993	103.247	20.098	5.422	0.501
222.000	189.127	80.003	19.994	103.248	20.100	5.273	0.537
222.500	189.363	79.998	19.994	103.246	20.099	5.398	0.522
223.000	189.625	80.003	19.995	103.249	20.101	5.219	0.496
223.500	189.897	79.999	19.994	103.250	20.100	5.269	0.516
224.000	190.169	79.994	19.995	103.249	20.101	5.208	0.539
224.501	190.369	80.002	19.994	103.249	20.099	5.351	0.508
225.000	190.586	79.999	19.995	103.248	20.100	5.296	0.444
225.500	190.871	80.003	19.994	103.246	20.099	5.400	0.459
226.000	191.101	80.001	19.994	103.246	20.099	5.359	0.508
226.500	191.367	80.000	19.996	103.246	20.098	5.478	0.506
227.000	191.606	80.001	19.994	103.246	20.101	5.229	0.500
227.500	191.891	80.001	19.993	103.246	20.100	5.323	0.515
228.000	192.148	80.001	19.994	103.248	20.095	5.667	0.534
228.500	192.357	80.002	19.994	103.248	20.099	5.394	0.504
229.000	192.602	80.000	19.995	103.247	20.098	5.459	0.460
229.500	192.869	80.003	19.994	103.247	20.099	5.401	0.483
230.000	193.127	80.003	19.994	103.246	20.099	5.370	0.518
230.501	193.354	79.999	19.995	103.245	20.096	5.609	0.505
231.000	193.610	80.004	19.995	103.243	20.096	5.615	0.484
231.500	193.829	80.003	19.994	103.242	20.097	5.578	0.478
232.000	194.098	80.002	19.996	103.238	20.098	5.457	0.482
232.500	194.347	80.003	19.994	103.240	20.097	5.537	0.503
233.000	194.597	80.003	19.995	103.240	20.096	5.650	0.508
233.500	194.856	80.002	19.993	103.243	20.095	5.739	0.504
234.000	195.083	80.004	19.994	103.243	20.096	5.589	0.498
234.500	195.305	80.002	19.994	103.245	20.096	5.646	0.468
235.000	195.576	80.003	19.995	103.245	20.097	5.548	0.471
235.500	195.820	80.002	19.996	103.243	20.096	5.604	0.504
236.000	196.069	80.002	19.994	103.238	20.095	5.663	0.504
236.500	196.348	80.004	19.994	103.237	20.097	5.531	0.510
237.000	196.568	80.004	19.995	103.238	20.097	5.557	0.513
237.500	196.830	80.004	19.993	103.238	20.096	5.587	0.491
238.000	197.103	80.004	19.992	103.239	20.095	5.693	0.509
238.500	197.322	80.001	19.994	103.245	20.096	5.650	0.513
239.000	197.532	80.003	19.995	103.248	20.095	5.676	0.461
239.500	197.822	80.005	19.994	103.247	20.093	5.860	0.464
240.000	198.053	80.008	19.994	103.246	20.093	5.886	0.510
240.500	198.294	80.005	19.994	103.243	20.092	5.949	0.496
241.000	198.551	80.004	19.993	103.243	20.093	5.888	0.485
241.500	198.814	80.004	19.993	103.243	20.091	6.050	0.509
242.000	199.015	80.004	19.993	103.245	20.093	5.827	0.492
242.500	199.292	80.004	19.995	103.247	20.093	5.890	0.471
243.000	199.532	80.006	19.995	103.250	20.096	5.583	0.497
243.500	199.802	80.002	19.995	103.250	20.095	5.684	0.514
244.000	200.040	80.004	19.996	103.250	20.096	5.596	0.509
244.500	200.288	79.998	19.994	103.250	20.095	5.732	0.497
245.000	200.529	80.003	19.994	103.250	20.093	5.828	0.488
245.500	200.781	80.004	19.994	103.249	20.094	5.773	0.491
246.000	201.047	80.006	19.993	103.248	20.094	5.745	0.505
246.500	201.244	80.005	19.993	103.248	20.095	5.734	0.490
247.000	201.533	80.006	19.993	103.248	20.092	5.960	0.475
247.500	201.750	80.003	19.993	103.247	20.096	5.635	0.496
248.000	201.966	80.007	19.993	103.249	20.092	5.949	0.470
248.500	202.230	80.004	19.995	103.250	20.093	5.858	0.457
249.000	202.484	80.000	19.994	103.249	20.095	5.728	0.499
249.500	202.732	80.004	19.993	103.249	20.093	5.890	0.510
250.000	202.996	80.004	19.994	103.248	20.093	5.840	0.507
250.500	203.258	80.004	19.993	103.247	20.093	5.877	0.519
251.000	203.504	80.002	19.994	103.245	20.092	5.973	0.517
251.500	203.750	80.004	19.994	103.242	20.090	6.120	0.500
252.000	203.991	80.003	19.994	103.240	20.091	6.033	0.490
252.501	204.205	80.002	19.994	103.239	20.094	5.760	0.471
253.000	204.463	80.003	19.994	103.238	20.092	5.910	0.463
253.500	204.695	80.003	19.994	103.239	20.092	5.953	0.481
254.000	204.948	80.005	19.994	103.243	20.092	5.946	0.488
254.500	205.201	80.003	19.993	103.245	20.092	5.911	0.495
255.000	205.449	80.005	19.994	103.248	20.090	6.059	0.503
255.500	205.675	80.002	19.996	103.248	20.092	5.942	0.488
256.000	205.930	80.004	19.994	103.249	20.091	6.026	0.478
256.500	206.176	80.005	19.995	103.247	20.091	6.035	0.491
257.000	206.438	80.003	19.994	103.247	20.089	6.215	0.505
257.500	206.685	80.005	19.994	103.246	20.090	6.061	0.509
258.000	206.956	80.001	19.995	103.244	20.090	6.102	0.513
258.500	207.171	80.005	19.995	103.243	20.091	6.040	0.502
259.000	207.465	80.004	19.995	103.242	20.093	5.879	0.498
259.500	207.714	80.006	19.994	103.240	20.093	5.825	0.526
260.000	207.961	80.007	19.992	103.240	20.090	6.089	0.520
260.500	208.205	80.004	19.995	103.245	20.091	6.048	0.493
261.000	208.457	80.004	19.995	103.245	20.090	6.087	0.493
261.500	208.711	80.005	19.993	103.245	20.089	6.159	0.501
262.000	208.937	80.005	19.995	103.246	20.089	6.165	0.493
262.500	209.190	80.003	19.995	103.245	20.089	6.209	0.479
263.000	209.457	80.004	19.994	103.241	20.088	6.241	0.499
263.500	209.685	80.004	19.994	103.241	20.092	5.923	0.508
264.000	209.917	80.005	19.994	103.242	20.090	6.081	0.477
264.500	210.177	80.002	19.994	103.239	20.091	6.014	0.476
265.000	210.419	80.004	19.995	103.238	20.089	6.202	0.497
265.500	210.627	80.006	19.993	103.237	20.091	6.037	0.476
266.000	210.919	80.005	19.994	103.237	20.090	6.100	0.475
266.500	211.165	80.004	19.994	103.238	20.091	6.016	0.519
267.000	211.409	80.000	19.994	103.238	20.089	6.211	0.514
267.500	211.675	80.002	19.993	103.235	20.092	5.966	0.500
268.000	211.878	80.003	19.994	103.237	20.089	6.143	0.489
268.500	212.157	80.005	19.994	103.238	20.090	6.063	0.475
269.000	212.388	80.001	19.995	103.239	20.089	6.138	0.496
269.500	212.652	80.004	19.995	103.244	20.092	5.963	0.503
270.000	212.873	80.000	19.995	103.245	20.092	5.956	0.490
270.500	213.144	80.000	19.993	103.243	20.090	6.080	0.488
271.000	213.369	80.002	19.995	103.241	20.091	5.987	0.494
271.500	213.642	80.003	19.993	103.240	20.093	5.820	0.497
272.000	213.852	80.004	19.994	103.238	20.091	6.004	0.491
272.500	214.125	80.002	19.993	103.241	20.090	6.123	0.483
273.000	214.345	79.995	19.995	103.244	20.089	6.160	0.487
273.500	214.639	80.002	19.994	103.244	20.091	6.024	0.503
274.000	214.883	80.001	19.995	103.243	20.091	6.039	0.526
274.500	215.114	80.001	19.994	103.243	20.091	6.011	0.507
275.000	215.347	80.002	19.994	103.242	20.089	6.143	0.469
275.500	215.590	79.998	19.997	103.242	20.087	6.316	0.470
276.000	215.821	79.998	19.996	103.243	20.088	6.256	0.475
276.500	216.128	80.001	19.995	103.241	20.088	6.238	0.506
277.000	216.349	80.001	19.996	103.243	20.085	6.474	0.532
277.500	216.622	80.002	19.994	103.243	20.088	6.216	0.511
278.000	216.861	80.002	19.995	103.243	20.086	6.385	0.503
278.500	217.119	80.003	19.993	103.240	20.087	6.297	0.505
279.000	217.357	80.001	19.995	103.235	20.087	6.305	0.497
279.500	217.627	79.998	19.994	103.230	20.086	6.377	0.502
280.000	217.858	80.001	19.994	103.228	20.085	6.455	0.505
280.500	218.071	80.002	19.994	103.226	20.086	6.413	0.472
281.000	218.338	80.002	19.995	103.227	20.090	6.075	0.462
281.500	218.636	80.002	19.996	103.228	20.090	6.095	0.523
282.000	218.846	80.002	19.996	103.231	20.089	6.147	0.536
282.500	219.097	80.003	19.994	103.231	20.089	6.204	0.484
283.000	219.377	80.002	19.994	103.230	20.086	6.386	0.496
283.500	219.589	80.002	19.995	103.231	20.087	6.332	0.512
284.000	219.857	80.001	19.995	103.234	20.088	6.289	0.486
284.500	220.104	80.002	19.994	103.233	20.090	6.124	0.497
285.000	220.386	80.000	19.995	103.233	20.090	6.111	0.522
285.500	220.601	80.002	19.995	103.236	20.089	6.206	0.514
286.000	220.852	80.003	19.995	103.237	20.087	6.312	0.482
286.500	221.111	80.003	19.994	103.236	20.086	6.381	0.488
287.000	221.316	80.001	19.995	103.237	20.087	6.325	0.487
287.500	221.579	80.003	19.994	103.235	20.086	6.424	0.466
288.000	221.840	79.998	19.996	103.231	20.086	6.403	0.496
288.500	222.066	79.999	19.995	103.227	20.087	6.301	0.506
289.000	222.345	80.000	19.995	103.227	20.086	6.427	0.496
289.500	222.586	80.002	19.995	103.228	20.090	6.115	0.513
290.000	222.831	80.003	19.995	103.230	20.086	6.386	0.503
290.500	223.058	80.006	19.996	103.228	20.086	6.408	0.478
291.000	223.314	80.002	19.995	103.227	20.089	6.206	0.478
291.500	223.579	80.001	19.996	103.225	20.085	6.460	0.502
292.000	223.808	80.002	19.995	103.224	20.084	6.559	0.507
292.500	224.103	80.002	19.997	103.222	20.085	6.466	0.509
293.000	224.300	80.009	19.995	103.226	20.084	6.594	0.508
293.500	224.556	80.000	19.994	103.234	20.086	6.395	0.472
294.000	224.811	80.000	19.995	103.239	20.085	6.455	0.482
294.500	225.058	79.993	19.995	103.241	20.089	6.210	0.507
295.000	225.317	80.002	19.995	103.244	20.083	6.693	0.504
295.500	225.590	80.000	19.996	103.247	20.084	6.582	0.519
296.000	225.842	80.004	19.996	103.246	20.085	6.528	0.529
296.500	226.090	80.003	19.996	103.244	20.084	6.613	0.513
297.000	226.304	80.002	19.995	103.239	20.085	6.503	0.481
297.500	226.595	80.003	19.996	103.234	20.084	6.587	0.483
298.000	226.861	80.001	19.995	103.231	20.084	6.603	0.531
298.500	227.098	80.004	19.994	103.230	20.085	6.466	0.530
299.000	227.326	80.005	19.996	103.226	20.080	6.860	0.484
299.500	227.544	80.003	19.994	103.230	20.085	6.460	0.455
300.000	227.825	80.003	19.995	103.236	20.084	6.572	0.472
300.500	228.056	80.003	19.994	103.239	20.081	6.778	0.506
301.000	228.329	80.003	19.994	103.239	20.081	6.832	0.508
301.500	228.589	80.002	19.995	103.238	20.081	6.824	0.519
302.000	228.825	79.999	19.995	103.239	20.081	6.822	0.515
302.500	229.139	80.002	19.996	103.238	20.081	6.781	0.523
303.000	229.362	80.002	19.995	103.239	20.079	6.993	0.544
303.500	229.614	80.002	19.994	103.238	20.078	7.068	0.506
304.000	229.876	80.001	19.995	103.244	20.079	6.969	0.495
304.500	230.117	79.999	19.997	103.243	20.080	6.884	0.509
305.000	230.405	80.003	19.995	103.239	20.075	7.315	0.516
305.500	230.633	80.000	19.994	103.233	20.079	6.977	0.522
306.000	230.861	80.003	19.994	103.232	20.077	7.168	0.486
306.500	231.122	80.001	19.995	103.227	20.078	7.085	0.472
307.000	231.370	80.003	19.994	103.226	20.074	7.382	0.499
307.500	231.629	80.003	19.995	103.229	20.076	7.228	0.508
308.000	231.876	80.003	19.994	103.234	20.077	7.166	0.506
308.500	232.131	80.000	19.995	103.237	20.073	7.432	0.504
309.000	232.339	80.002	19.994	103.239	20.074	7.374	0.483
309.500	232.639	80.000	19.993	103.241	20.074	7.387	0.486
310.000	232.880	80.004	19.993	103.240	20.072	7.493	0.524
310.500	233.102	80.003	19.995	103.238	20.072	7.549	0.502
311.000	233.338	80.005	19.993	103.237	20.074	7.339	0.461
311.500	233.616	80.002	19.994	103.240	20.072	7.561	0.486
312.000	233.832	80.003	19.994	103.242	20.071	7.574	0.504
312.500	234.123	80.000	19.995	103.244	20.073	7.431	0.500
313.000	234.370	80.002	19.993	103.245	20.074	7.333	0.522
313.500	234.615	80.003	19.993	103.247	20.073	7.446	0.515
314.000	234.867	80.005	19.993	103.244	20.069	7.774	0.495
314.500	235.128	80.003	19.993	103.241	20.070	7.658	0.505
315.000	235.356	80.002	19.995	103.239	20.069	7.805	0.501
315.500	235.545	80.004	19.994	103.236	20.068	7.868	0.453
316.001	235.816	80.005	19.993	103.233	20.065	8.052	0.438
316.500	236.064	80.004	19.994	103.236	20.071	7.644	0.489
317.000	236.341	80.003	19.993	103.235	20.067	7.922	0.522
317.500	236.608	80.005	19.995	103.234	20.068	7.813	0.535
318.000	236.827	80.002	19.995	103.235	20.066	8.025	0.515
318.500	237.072	79.999	19.994	103.237	20.068	7.881	0.475
319.000	237.308	80.003	19.994	103.235	20.065	8.101	0.473
319.500	237.563	80.004	19.994	103.240	20.066	8.021	0.486
320.000	237.812	80.003	19.994	103.242	20.066	7.981	0.497
320.500	238.089	80.002	19.992	103.243	20.068	7.844	0.515
321.000	238.311	80.005	19.994	103.243	20.067	7.898	0.513
321.500	238.603	80.006	19.994	103.241	20.068	7.873	0.507
322.000	238.829	80.000	19.994	103.234	20.066	8.039	0.516
322.500	239.059	80.002	19.995	103.227	20.064	8.141	0.487
323.000	239.313	80.003	19.995	103.222	20.066	8.013	0.470
323.500	239.562	80.003	19.995	103.218	20.065	8.114	0.493
324.000	239.778	80.005	19.993	103.218	20.062	8.303	0.484
324.500	240.031	80.002	19.995	103.226	20.063	8.262	0.467
325.000	240.315	80.005	19.993	103.234	20.060	8.468	0.503
325.500	240.551	80.003	19.994	103.241	20.059	8.542	0.529
326.000	240.763	80.002	19.995	103.245	20.060	8.475	0.484
326.500	241.043	80.004	19.994	103.244	20.061	8.417	0.470
327.000	241.298	80.000	19.995	103.241	20.059	8.579	0.513
327.500	241.526	80.002	19.993	103.238	20.059	8.549	0.509
328.000	241.773	80.002	19.994	103.237	20.057	8.735	0.479
328.500	241.999	80.002	19.993	103.234	20.059	8.537	0.474
329.000	242.262	80.001	19.994	103.235	20.057	8.756	0.481
329.500	242.531	80.002	19.994	103.238	20.058	8.647	0.510
330.000	242.766	80.002	19.994	103.236	20.058	8.629	0.518
330.500	243.032	80.002	19.994	103.236	20.055	8.874	0.503
331.000	243.289	80.000	19.994	103.242	20.055	8.881	0.512
331.500	243.538	80.005	19.992	103.245	20.054	8.941	0.514
332.000	243.798	80.000	19.993	103.245	20.053	9.024	0.507
332.500	244.044	80.004	19.994	103.246	20.056	8.834	0.508
333.000	244.304	80.003	19.993	103.246	20.052	9.088	0.507
333.500	244.557	80.005	19.993	103.242	20.053	9.049	0.509
334.000	244.830	80.005	19.995	103.236	20.054	8.947	0.519
334.500	245.064	80.004	19.993	103.233	20.053	9.011	0.516
335.000	245.319	80.004	19.993	103.234	20.050	9.252	0.498
335.500	245.578	80.006	19.994	103.234	20.049	9.360	0.502
336.000	245.816	80.004	19.993	103.237	20.052	9.081	0.505
336.500	246.085	80.004	19.993	103.243	20.049	9.362	0.502
337.000	246.324	80.005	19.994	103.246	20.051	9.217	0.508
337.500	246.540	80.004	19.994	103.249	20.050	9.243	0.482
338.000	246.776	80.005	19.994	103.250	20.050	9.258	0.453
338.500	247.075	80.004	19.993	103.249	20.049	9.377	0.493
339.000	247.276	80.004	19.993	103.246	20.049	9.352	0.517
339.500	247.543	80.005	19.994	103.243	20.047	9.547	0.484
340.000	247.831	80.005	19.994	103.241	20.047	9.484	0.512
340.500	248.052	80.006	19.993	103.235	20.046	9.619	0.532
341.000	248.289	80.003	19.993	103.230	20.044	9.781	0.484
341.500	248.529	80.005	19.994	103.228	20.043	9.839	0.468
342.000	248.810	80.006	19.994	103.231	20.040	10.054	0.499
342.500	249.042	80.005	19.994	103.231	20.043	9.841	0.517
343.000	249.374	80.006	19.994	103.236	20.037	10.326	0.539
343.500	249.579	80.002	19.995	103.242	20.039	10.151	0.551
344.000	249.800	80.005	19.993	103.245	20.041	10.029	0.481
344.500	250.104	80.004	19.994	103.243	20.039	10.122	0.475
345.000	250.353	80.005	19.993	103.242	20.038	10.263	0.539
345.500	250.609	80.003	19.994	103.239	20.037	10.326	0.529
346.001	250.831	80.003	19.993	103.235	20.036	10.352	0.491
346.500	251.114	80.004	19.994	103.235	20.035	10.465	0.491
347.000	251.362	80.005	19.994	103.239	20.039	10.173	0.518
347.500	251.597	80.001	19.993	103.238	20.032	10.725	0.507
348.000	251.882	80.004	19.994	103.239	20.035	10.435	0.501
348.500	252.121	80.004	19.994	103.241	20.034	10.524	0.522
349.000	252.366	80.006	19.995	103.239	20.034	10.572	0.504
349.500	252.630	80.004	19.994	103.238	20.035	10.487	0.496
350.000	252.888	80.002	19.994	103.240	20.033	10.654	0.516
350.500	253.154	80.003	19.994	103.240	20.031	10.758	0.524
351.000	253.396	80.002	19.994	103.241	20.031	10.786	0.516
351.500	253.644	80.003	19.995	103.245	20.032	10.734	0.499
352.000	253.872	80.000	19.995	103.245	20.031	10.784	0.483
352.500	254.138	80.001	19.995	103.244	20.029	10.962	0.485
353.000	254.397	80.004	19.995	103.246	20.028	11.034	0.510
353.500	254.653	80.000	19.996	103.243	20.027	11.116	0.520
354.000	254.906	79.999	19.995	103.241	20.026	11.170	0.512
354.500	255.129	80.003	19.995	103.239	20.025	11.298	0.493
355.000	255.375	80.004	19.994	103.238	20.024	11.333	0.472
355.500	255.648	80.002	19.995	103.236	20.024	11.324	0.494
356.000	255.908	80.005	19.996	103.238	20.020	11.632	0.526
356.500	256.109	80.006	19.994	103.239	20.022	11.523	0.497
357.000	256.354	80.003	19.993	103.240	20.022	11.536	0.454
357.500	256.611	79.996	19.994	103.239	20.019	11.733	0.474
358.000	256.859	80.005	19.994	103.241	20.021	11.549	0.503
358.500	257.124	80.005	19.994	103.240	20.024	11.383	0.509
359.000	257.344	80.001	19.994	103.241	20.019	11.766	0.499
359.500	257.665	80.002	19.995	103.243	20.019	11.753	0.513
360.000	257.894	80.002	19.995	103.246	20.018	11.863	0.545
360.500	258.107	80.003	19.994	103.245	20.017	11.881	0.495
361.000	258.386	80.002	19.995	103.247	20.016	11.970	0.467
361.500	258.610	80.002	19.993	103.247	20.018	11.855	0.498
362.000	258.911	80.004	19.997	103.247	20.009	12.533	0.515
362.500	259.146	80.003	19.996	103.248	20.012	12.312	0.531
363.000	259.450	80.003	19.997	103.248	20.011	12.414	0.537
363.500	259.663	80.006	19.993	103.248	20.012	12.273	0.528
364.000	259.938	80.004	19.994	103.250	20.009	12.561	0.503
364.500	260.160	80.004	19.997	103.250	20.007	12.695	0.493
365.000	260.400	80.004	19.996	103.250	20.008	12.637	0.479
365.500	260.661	80.006	19.994	103.251	20.003	12.988	0.481
366.000	260.905	80.005	19.994	103.251	20.005	12.891	0.503
366.500	261.161	80.004	19.995	103.250	20.002	13.059	0.503
367.000	261.405	80.001	19.995	103.249	20.004	12.928	0.500
367.500	261.617	80.004	19.994	103.250	19.999	13.298	0.477
368.000	261.892	80.002	19.995	103.250	20.003	13.007	0.472
368.500	262.130	80.004	19.993	103.250	20.002	13.085	0.500
369.000	262.396	80.002	19.994	103.250	19.996	13.566	0.509
369.500	262.629	80.002	19.994	103.250	19.998	13.421	0.501
370.000	262.857	80.003	19.995	103.250	19.999	13.332	0.479
370.500	263.161	80.000	19.996	103.249	19.996	13.562	0.496
371.000	263.395	79.999	19.996	103.250	19.996	13.556	0.535
371.500	263.639	80.001	19.994	103.250	19.993	13.822	0.508
372.000	263.922	80.003	19.994	103.249	19.996	13.594	0.502
372.500	264.165	80.000	19.998	103.250	19.992	13.933	0.526
373.000	264.413	80.000	19.995	103.252	19.992	13.904	0.508
373.500	264.632	80.004	19.997	103.252	19.992	13.913	0.479
374.000	264.943	80.003	19.992	103.251	19.989	14.134	0.499
374.500	265.136	80.004	19.993	103.252	19.988	14.223	0.517
375.000	265.405	80.000	20.000	103.253	19.986	14.366	0.483
375.500	265.648	80.008	19.993	103.251	19.985	14.475	0.487
376.000	265.884	79.997	19.995	103.252	19.983	14.590	0.495
376.500	266.137	80.003	19.994	103.252	19.982	14.666	0.484
377.000	266.416	80.002	19.994	103.252	19.980	14.850	0.511
377.500	266.613	79.998	19.996	103.252	19.980	14.861	0.504
378.000	266.883	80.002	19.995	103.253	19.980	14.868	0.472
378.500	267.151	80.000	19.998	103.252	19.978	14.980	0.502
379.000	267.378	80.005	19.997	103.252	19.978	14.993	0.516
379.500	267.593	80.001	19.995	103.250	19.976	15.177	0.469
380.000	267.832	80.002	19.994	103.250	19.976	15.175	0.448
380.500	268.123	80.002	19.994	103.250	19.977	15.062	0.492
381.000	268.391	79.999	19.998	103.250	19.975	15.246	0.544
381.500	268.596	80.002	19.996	103.251	19.975	15.244	0.515
382.000	268.882	80.002	19.997	103.251	19.969	15.693	0.482
382.500	269.142	79.999	20.001	103.251	19.970	15.637	0.519
383.000	269.400	79.996	19.989	103.250	19.968	15.806	0.532
383.500	269.645	80.001	19.995	103.251	19.966	15.961	0.511
384.000	269.887	80.003	19.995	103.251	19.966	15.979	0.495
384.500	270.138	80.001	19.999	103.251	19.965	16.024	0.490
385.000	270.399	80.005	19.993	103.251	19.964	16.098	0.502
385.500	270.645	79.999	19.993	103.254	19.965	16.011	0.510
386.000	270.924	80.005	19.991	103.254	19.962	16.250	0.516
386.500	271.137	80.004	19.996	103.255	19.964	16.157	0.508
387.000	271.397	80.005	19.993	103.257	19.962	16.313	0.482
387.500	271.636	80.003	19.996	103.259	19.962	16.259	0.486
388.000	271.904	80.001	19.995	103.260	19.958	16.588	0.503
388.500	272.205	80.002	19.989	103.260	19.959	16.557	0.539
389.000	272.422	80.003	19.994	103.260	19.958	16.631	0.544
389.500	272.653	80.009	19.990	103.259	19.955	16.841	0.483
390.000	272.887	80.002	19.994	103.259	19.954	16.889	0.457
390.500	273.121	80.004	19.994	103.257	19.950	17.251	0.467
391.000	273.401	79.995	20.000	103.256	19.952	17.063	0.491
391.500	273.643	80.002	19.994	103.255	19.948	17.403	0.518
392.000	273.898	80.005	19.993	103.258	19.949	17.312	0.509
392.500	274.179	80.001	19.992	103.258	19.949	17.312	0.516
393.000	274.397	80.005	19.995	103.260	19.946	17.523	0.518
393.500	274.661	80.009	19.994	103.260	19.945	17.629	0.490
394.000	274.915	80.006	19.994	103.261	19.943	17.778	0.500
394.500	275.186	80.002	19.996	103.258	19.943	17.830	0.522
395.000	275.470	80.001	19.995	103.257	19.941	17.934	0.540
395.500	275.698	80.005	19.992	103.258	19.939	18.094	0.533
396.000	275.919	80.004	19.993	103.259	19.937	18.252	0.481
396.500	276.186	80.007	19.990	103.258	19.935	18.415	0.469
397.000	276.410	80.001	19.998	103.260	19.935	18.398	0.489
397.500	276.673	80.003	19.988	103.262	19.933	18.596	0.488
398.000	276.919	80.007	19.988	103.262	19.930	18.847	0.497
398.500	277.178	80.000	19.999	103.263	19.932	18.678	0.507
399.000	277.414	80.002	19.993	103.261	19.928	19.007	0.500
399.500	277.699	79.998	19.992	103.260	19.932	18.645	0.508
400.000	277.934	80.007	19.991	103.259	19.928	18.977	0.521
400.500	278.171	80.008	19.994	103.257	19.924	19.319	0.496
401.000	278.450	79.998	19.998	103.258	19.923	19.365	0.494
401.500	278.678	80.005	19.994	103.261	19.923	19.407	0.511
402.000	278.944	80.003	19.994	103.263	19.925	19.223	0.500
402.500	279.194	79.996	19.993	103.264	19.921	19.583	0.505
403.000	279.444	80.004	19.993	103.264	19.924	19.343	0.508
403.500	279.705	80.003	19.995	103.265	19.917	19.870	0.505
404.000	279.939	80.003	19.993	103.267	19.918	19.793	0.503
404.500	280.200	79.997	19.994	103.265	19.916	19.968	0.496
405.000	280.465	80.001	19.996	103.262	19.914	20.120	0.511
405.500	280.712	80.003	19.993	103.264	19.909	20.487	0.519
406.000	280.956	80.002	19.995	103.263	19.912	20.237	0.501
406.500	281.194	80.004	19.999	103.260	19.912	20.229	0.487
407.000	281.450	80.002	19.995	103.264	19.911	20.346	0.488
407.500	281.688	80.005	19.992	103.266	19.908	20.606	0.494
408.000	281.934	80.004	19.993	103.266	19.908	20.578	0.489
408.500	282.205	80.005	19.994	103.268	19.906	20.741	0.501
409.000	282.466	80.003	19.994	103.270	19.905	20.834	0.525
409.500	282.695	79.998	19.998	103.269	19.900	21.183	0.511
410.000	282.959	80.005	19.997	103.268	19.905	20.833	0.491
410.500	283.186	79.999	19.998	103.265	19.898	21.353	0.492
411.000	283.455	79.998	20.001	103.267	19.895	21.590	0.494
411.500	283.679	80.003	19.999	103.268	19.896	21.525	0.495
412.000	283.949	80.003	19.993	103.268	19.895	21.583	0.494
412.500	284.163	80.004	19.991	103.273	19.894	21.735	0.489
413.000	284.419	80.001	19.993	103.277	19.891	21.947	0.477
413.500	284.709	80.004	19.993	103.277	19.892	21.878	0.508
414.000	284.950	80.002	19.997	103.280	19.892	21.882	0.538
414.500	285.177	80.001	19.991	103.283	19.889	22.060	0.500
415.000	285.439	80.001	19.997	103.284	19.885	22.450	0.478
415.500	285.701	80.008	19.991	103.285	19.883	22.559	0.507
416.001	285.989	80.008	19.996	103.286	19.883	22.602	0.537
416.500	286.190	80.002	19.998	103.286	19.883	22.556	0.519
417.000	286.437	80.003	19.994	103.287	19.881	22.721	0.468
417.500	286.692	80.005	19.997	103.287	19.878	22.970	0.475
418.000	286.963	80.006	19.997	103.288	19.878	22.975	0.514
418.500	287.194	80.008	19.993	103.287	19.875	23.244	0.514
419.000	287.463	80.007	19.994	103.288	19.871	23.532	0.501
419.500	287.676	80.002	19.992	103.289	19.874	23.274	0.491
420.000	287.956	80.005	19.993	103.289	19.872	23.439	0.488
420.500	288.176	80.002	19.999	103.289	19.870	23.645	0.497
421.000	288.448	80.005	19.995	103.287	19.868	23.736	0.496
421.500	288.699	80.004	19.992	103.286	19.865	23.981	0.507
422.000	288.967	80.009	19.993	103.286	19.867	23.878	0.521
422.500	289.216	80.006	19.996	103.286	19.862	24.231	0.518
423.000	289.477	80.008	19.993	103.285	19.860	24.411	0.514
423.500	289.720	80.003	19.995	103.287	19.858	24.598	0.507
424.000	289.970	80.006	19.993	103.287	19.858	24.564	0.498
424.500	290.219	80.005	19.994	103.287	19.856	24.752	0.496
425.001	290.464	80.003	19.994	103.287	19.857	24.615	0.497
425.500	290.750	80.006	19.992	103.287	19.853	24.942	0.512
426.000	290.995	80.002	19.995	103.288	19.853	24.969	0.530
426.500	291.242	80.004	19.994	103.287	19.850	25.222	0.511
427.000	291.542	80.001	19.992	103.286	19.851	25.147	0.520
427.500	291.763	80.003	19.997	103.287	19.851	25.106	0.534
428.000	292.028	80.009	19.992	103.286	19.846	25.530	0.503
428.500	292.227	80.002	19.995	103.287	19.844	25.670	0.475
429.000	292.526	80.005	19.991	103.287	19.843	25.734	0.482
429.500	292.763	80.007	19.992	103.288	19.839	26.078	0.517
430.001	293.034	80.004	19.992	103.288	19.839	26.066	0.522
430.500	293.250	80.004	19.995	103.289	19.837	26.227	0.497
431.000	293.485	80.007	19.995	103.289	19.836	26.289	0.469
431.500	293.781	80.003	19.994	103.289	19.833	26.581	0.491
432.000	294.047	80.003	19.989	103.290	19.832	26.623	0.546
432.500	294.259	80.002	19.994	103.291	19.831	26.703	0.520
433.000	294.503	80.003	19.994	103.294	19.830	26.768	0.467
433.500	294.773	80.004	19.993	103.294	19.828	26.956	0.485
434.000	294.997	80.001	19.995	103.295	19.824	27.236	0.504
434.500	295.256	80.001	19.996	103.295	19.823	27.365	0.488
435.000	295.548	80.004	19.993	103.298	19.824	27.298	0.517
435.500	295.758	80.000	19.994	103.296	19.823	27.366	0.527
436.000	296.010	80.003	19.993	103.295	19.817	27.813	0.482
436.500	296.267	80.004	19.994	103.296	19.817	27.803	0.485
437.000	296.492	80.006	19.992	103.296	19.814	28.080	0.496
437.500	296.729	80.000	19.994	103.297	19.813	28.185	0.472
438.000	296.995	80.001	19.995	103.297	19.810	28.356	0.482
438.500	297.256	80.000	19.995	103.299	19.811	28.291	0.515
439.000	297.573	80.007	19.989	103.304	19.807	28.625	0.552
439.500	297.830	80.002	19.996	103.309	19.808	28.543	0.576
440.000	298.067	80.006	19.992	103.308	19.805	28.768	0.534
440.500	298.314	80.000	19.991	103.312	19.801	29.113	0.490
441.000	298.577	80.006	19.992	103.316	19.801	29.134	0.497
441.500	298.813	80.001	19.996	103.317	19.800	29.215	0.504
442.000	299.067	80.002	19.994	103.317	19.796	29.488	0.494
442.500	299.296	80.002	19.993	103.320	19.795	29.612	0.486
443.000	299.556	80.002	19.992	103.316	19.792	29.805	0.486
443.500	299.776	80.001	19.994	103.315	19.788	30.160	0.485
444.000	300.056	80.001	19.995	103.315	19.787	30.239	0.490
444.500	300.311	80.002	19.994	103.314	19.787	30.246	0.517
445.000	300.541	80.002	19.996	103.312	19.787	30.241	0.510
445.500	300.762	80.001	19.994	103.317	19.782	30.644	0.468
446.000	301.047	80.001	19.995	103.319	19.782	30.586	0.479
446.500	301.311	80.001	19.996	103.321	19.781	30.696	0.528
447.000	301.570	80.001	19.998	103.323	19.778	30.950	0.536
447.500	301.792	80.004	19.995	103.326	19.776	31.130	0.501
448.000	302.058	80.001	19.997	103.326	19.772	31.386	0.484
448.500	302.298	80.002	19.994	103.327	19.771	31.494	0.497
449.000	302.568	80.000	19.994	103.327	19.770	31.614	0.508
449.500	302.818	80.001	19.999	103.328	19.769	31.685	0.515
450.000	303.065	80.002	19.995	103.327	19.765	31.967	0.509
450.500	303.303	80.005	19.990	103.328	19.764	32.089	0.491
451.000	303.547	80.001	19.995	103.328	19.761	32.328	0.483
451.500	303.834	80.001	19.995	103.328	19.757	32.579	0.506
452.000	304.067	80.003	19.993	103.328	19.755	32.771	0.525
452.500	304.303	80.001	19.993	103.328	19.753	32.912	0.495
453.000	304.560	80.003	19.995	103.328	19.752	32.974	0.481
453.500	304.811	80.001	19.995	103.328	19.750	33.204	0.501
454.000	305.060	80.001	19.995	103.329	19.748	33.325	0.504
454.500	305.310	80.003	19.995	103.329	19.743	33.763	0.499
455.000	305.568	80.001	19.994	103.331	19.742	33.802	0.503
455.500	305.826	80.007	19.993	103.331	19.740	33.952	0.512
456.000	306.058	80.003	19.993	103.331	19.738	34.108	0.503
456.500	306.333	80.002	19.994	103.331	19.736	34.269	0.498
457.000	306.594	80.003	19.993	103.331	19.732	34.582	0.522
457.500	306.838	80.001	19.995	103.330	19.732	34.587	0.521
458.000	307.069	80.002	19.995	103.330	19.730	34.773	0.490
458.500	307.295	80.005	19.991	103.331	19.727	35.001	0.465
459.000	307.582	79.999	19.995	103.331	19.724	35.255	0.485
459.500	307.844	80.004	19.991	103.331	19.724	35.263	0.532
460.000	308.084	80.005	19.996	103.332	19.721	35.492	0.526
460.500	308.299	80.003	19.992	103.332	19.717	35.761	0.478
461.000	308.570	80.004	19.994	103.332	19.714	36.008	0.471
461.500	308.809	80.002	19.993	103.332	19.711	36.266	0.498
462.000	309.103	80.002	19.994	103.334	19.710	36.324	0.521
462.500	309.361	80.002	19.995	103.334	19.708	36.539	0.543
463.000	309.632	80.004	19.994	103.336	19.709	36.434	0.540
463.500	309.892	80.003	19.996	103.336	19.703	36.899	0.530
464.000	310.124	80.002	19.995	103.336	19.701	37.043	0.512
464.500	310.338	80.002	19.994	103.335	19.696	37.455	0.469
465.000	310.620	80.001	19.995	103.334	19.693	37.685	0.471
465.500	310.862	80.001	19.995	103.335	19.694	37.650	0.510
466.001	311.101	80.003	19.995	103.335	19.691	37.863	0.502
466.500	311.366	80.002	19.995	103.336	19.690	37.991	0.493
467.000	311.635	80.002	19.994	103.335	19.687	38.232	0.519
467.500	311.888	80.002	19.994	103.335	19.685	38.386	0.528
468.000	312.137	79.999	19.996	103.339	19.683	38.498	0.512
468.501	312.402	80.001	19.994	103.341	19.678	38.878	0.508
469.000	312.649	79.999	19.995	103.344	19.674	39.235	0.513
469.500	312.924	80.000	19.996	103.346	19.674	39.250	0.517
470.000	313.174	80.001	19.996	103.348	19.667	39.795	0.523
470.500	313.408	80.003	19.994	103.345	19.669	39.618	0.504
471.000	313.647	80.001	19.995	103.348	19.666	39.861	0.478
471.501	313.902	80.003	19.994	103.349	19.662	40.178	0.483
472.000	314.193	80.002	19.996	103.349	19.662	40.178	0.520
472.500	314.441	80.000	19.995	103.349	19.657	40.558	0.543
473.000	314.699	80.003	19.995	103.354	19.656	40.703	0.523
473.500	314.947	80.002	19.995	103.355	19.654	40.789	0.506
474.000	315.193	80.003	19.995	103.357	19.651	41.092	0.500
474.500	315.452	80.004	19.995	103.359	19.647	41.414	0.499
475.000	315.687	80.001	19.995	103.363	19.646	41.453	0.500
475.500	315.952	80.001	19.995	103.362	19.644	41.582	0.497
476.000	316.207	80.004	19.992	103.362	19.641	41.851	0.509
476.500	316.440	79.999	19.995	103.362	19.640	41.966	0.503
477.000	316.687	80.005	19.997	103.363	19.638	42.086	0.484
477.500	316.920	80.004	19.995	103.363	19.633	42.530	0.480
478.000	317.160	79.999	20.004	103.364	19.633	42.493	0.476
478.500	317.416	80.001	19.995	103.363	19.628	42.877	0.484
479.000	317.686	80.004	19.996	103.362	19.627	42.973	0.511
479.500	317.923	80.002	19.997	103.362	19.627	42.973	0.517
480.000	318.232	80.004	19.999	103.361	19.621	43.418	0.527
480.500	318.427	80.007	19.995	103.360	19.623	43.327	0.525
481.000	318.702	80.010	19.992	103.363	19.619	43.602	0.486
481.500	318.958	80.006	19.989	103.363	19.616	43.826	0.500
482.000	319.225	80.003	19.996	103.365	19.614	44.000	0.528
482.500	319.457	80.002	20.000	103.366	19.611	44.245	0.511
483.000	319.713	80.004	19.996	103.366	19.610	44.361	0.493
483.500	319.901	80.002	19.994	103.366	19.607	44.600	0.466
484.000	320.184	80.002	19.996	103.364	19.602	44.940	0.458
484.500	320.456	80.004	19.996	103.363	19.605	44.722	0.513
485.000	320.741	80.004	19.993	103.363	19.604	44.792	0.555
485.500	320.941	80.004	19.993	103.364	19.597	45.373	0.521
486.000	321.214	80.002	19.986	103.365	19.597	45.362	0.479
486.500	321.474	80.002	19.997	103.367	19.598	45.281	0.503
487.000	321.748	80.005	19.993	103.367	19.596	45.446	0.534
487.500	321.988	80.005	19.995	103.368	19.594	45.634	0.524
488.000	322.203	80.004	19.993	103.368	19.592	45.802	0.484
488.500	322.461	80.003	19.996	103.368	19.588	46.060	0.464
489.000	322.726	80.006	19.994	103.366	19.587	46.187	0.498
489.500	322.949	79.998	20.000	103.367	19.584	46.438	0.506
490.000	323.241	80.005	19.995	103.364	19.580	46.718	0.501
490.500	323.485	80.005	19.994	103.365	19.576	46.998	0.526
491.000	323.717	80.005	19.992	103.364	19.578	46.893	0.506
491.500	323.966	79.999	19.999	103.365	19.576	47.025	0.479
492.000	324.225	80.005	19.991	103.364	19.574	47.158	0.494
492.500	324.516	80.003	19.992	103.366	19.570	47.486	0.529
493.000	324.739	80.007	19.993	103.367	19.569	47.620	0.532
493.501	325.014	80.004	19.993	103.367	19.563	48.089	0.506
494.000	325.226	80.000	19.993	103.368	19.565	47.949	0.492
494.500	325.488	80.004	19.997	103.368	19.565	47.905	0.480
495.000	325.721	80.004	19.994	103.367	19.558	48.451	0.485
495.500	325.991	80.007	19.990	103.366	19.561	48.239	0.499
496.000	326.252	80.002	19.996	103.368	19.558	48.496	0.517
496.500	326.502	80.005	19.994	103.367	19.558	48.431	0.521
497.000	326.752	80.006	19.994	103.367	19.552	48.950	0.506
497.500	327.003	80.004	19.995	103.368	19.554	48.787	0.501
498.000	327.287	80.006	19.994	103.369	19.549	49.156	0.518
498.500	327.561	80.003	19.995	103.369	19.553	48.874	0.546
499.000	327.785	80.004	19.994	103.370	19.549	49.163	0.528
499.500	328.038	80.004	19.994	103.371	19.550	49.112	0.487
500.000	328.286	80.003	19.993	103.372	19.548	49.301	0.489
500.500	328.527	80.003	19.994	103.372	19.547	49.343	0.495
501.000	328.815	80.005	19.993	103.371	19.541	49.813	0.509
501.500	329.040	80.005	19.994	103.371	19.544	49.620	0.521
502.000	329.307	80.005	19.993	103.370	19.538	50.041	0.503
502.500	329.551	80.005	19.994	103.370	19.537	50.154	0.502
503.000	329.839	80.006	19.994	103.372	19.532	50.522	0.521
503.500	330.059	80.009	19.991	103.372	19.534	50.367	0.520
504.000	330.329	80.007	19.991	103.371	19.533	50.469	0.499
504.500	330.568	80.002	19.993	103.371	19.530	50.706	0.500
505.000	330.814	80.003	19.996	103.370	19.533	50.484	0.497
505.500	331.052	80.004	19.992	103.368	19.530	50.678	0.485
506.000	331.290	80.005	19.994	103.368	19.527	50.919	0.480
506.500	331.550	80.006	19.992	103.368	19.528	50.884	0.487
507.000	331.818	80.005	19.996	103.367	19.529	50.775	0.514
507.500	332.061	80.005	19.992	103.367	19.524	51.165	0.519
508.000	332.326	80.005	19.994	103.368	19.522	51.350	0.509
508.500	332.565	80.004	19.994	103.368	19.520	51.507	0.506
509.000	332.824	80.004	19.994	103.368	19.519	51.610	0.501
509.500	333.055	80.004	19.993	103.368	19.518	51.653	0.495
510.000	333.319	80.003	19.995	103.368	19.519	51.579	0.493
510.500	333.601	80.006	19.996	103.367	19.518	51.638	0.520
511.000	333.864	80.003	19.994	103.367	19.517	51.708	0.545
511.500	334.114	80.004	19.996	103.368	19.514	51.947	0.529
512.000	334.371	80.002	19.996	103.372	19.513	52.035	0.510
512.501	334.618	80.003	19.995	103.372	19.513	52.079	0.506
513.000	334.871	80.000	20.000	103.373	19.510	52.284	0.502
513.500	335.147	80.003	19.995	103.372	19.508	52.439	0.515
514.001	335.383	80.003	19.994	103.372	19.510	52.282	0.521
514.500	335.684	80.003	19.993	103.368	19.507	52.538	0.524
515.000	335.886	80.003	19.992	103.369	19.508	52.465	0.520
515.500	336.156	80.005	19.993	103.371	19.505	52.689	0.488
516.000	336.397	79.997	19.999	103.373	19.507	52.531	0.491
516.500	336.639	80.004	19.995	103.372	19.504	52.756	0.497
517.000	336.880	80.002	19.991	103.371	19.504	52.748	0.484
517.500	337.145	79.998	19.997	103.372	19.503	52.864	0.495
518.000	337.379	80.001	19.993	103.370	19.503	52.868	0.502
518.500	337.675	79.999	19.993	103.369	19.501	52.980	0.515
519.000	337.944	80.001	19.991	103.375	19.500	53.099	0.548
519.500	338.192	80.000	19.996	103.380	19.501	53.004	0.541
520.000	338.423	80.002	19.991	103.383	19.496	53.377	0.498
520.500	338.703	80.001	19.996	103.385	19.495	53.490	0.495
521.000	338.927	80.005	19.993	103.385	19.496	53.422	0.508
521.500	339.198	79.999	19.995	103.382	19.492	53.727	0.499
522.000	339.468	80.000	19.996	103.378	19.493	53.641	0.518
522.500	339.691	80.002	19.997	103.375	19.493	53.613	0.518
523.000	339.948	79.999	19.998	103.373	19.492	53.693	0.487
523.500	340.228	80.006	19.995	103.371	19.488	54.056	0.508
524.000	340.445	80.000	19.995	103.373	19.490	53.868	0.517
524.500	340.723	80.004	19.992	103.375	19.488	54.009	0.496
525.000	340.964	80.003	19.994	103.381	19.487	54.119	0.507
525.500	341.211	80.004	19.994	103.382	19.487	54.118	0.503
526.000	341.476	80.004	19.992	103.387	19.485	54.252	0.500
526.500	341.720	80.002	19.996	103.389	19.485	54.298	0.511
527.000	342.013	80.001	19.993	103.388	19.484	54.402	0.523
527.500	342.251	80.004	19.989	103.384	19.479	54.757	0.534
528.000	342.488	80.003	19.993	103.385	19.482	54.562	0.504
528.500	342.728	80.009	19.991	103.383	19.478	54.844	0.476
529.000	343.014	80.011	19.991	103.378	19.481	54.641	0.501
529.500	343.255	80.000	19.994	103.377	19.480	54.645	0.527
530.000	343.508	80.004	19.995	103.375	19.478	54.807	0.511
530.500	343.755	79.999	19.997	103.373	19.476	54.964	0.497
531.000	344.006	80.002	19.991	103.372	19.473	55.229	0.499
531.500	344.234	80.006	19.994	103.377	19.474	55.131	0.488
532.000	344.521	80.002	19.996	103.379	19.476	54.992	0.497
532.500	344.786	80.003	19.992	103.378	19.473	55.257	0.534
533.000	345.017	80.001	19.989	103.380	19.473	55.234	0.524
533.500	345.272	80.007	19.995	103.380	19.469	55.538	0.491
534.000	345.520	80.005	19.992	103.376	19.467	55.708	0.495
534.500	345.767	80.003	19.993	103.376	19.467	55.709	0.499
535.000	346.012	80.003	19.995	103.377	19.465	55.923	0.494
535.500	346.269	80.004	19.995	103.377	19.465	55.897	0.497
536.000	346.558	79.997	19.998	103.381	19.463	56.046	0.524
536.500	346.796	80.000	19.994	103.382	19.459	56.357	0.536
537.000	347.053	80.004	19.993	103.383	19.455	56.659	0.511
537.500	347.330	80.004	19.995	103.383	19.455	56.722	0.515
538.000	347.562	79.999	20.001	103.384	19.456	56.609	0.522
538.500	347.858	80.000	19.994	103.378	19.455	56.694	0.519
539.000	348.092	80.004	19.990	103.375	19.453	56.839	0.529
539.500	348.317	79.996	20.001	103.373	19.451	56.975	0.495
540.000	348.571	80.008	19.990	103.371	19.447	57.356	0.469
540.500	348.803	80.002	19.996	103.371	19.449	57.132	0.482
541.000	349.065	80.006	19.996	103.374	19.445	57.492	0.490
541.500	349.323	79.998	19.996	103.375	19.444	57.554	0.507
542.000	349.569	79.995	20.001	103.376	19.443	57.618	0.512
542.500	349.846	80.009	19.995	103.384	19.441	57.813	0.514
543.000	350.089	80.006	19.996	103.386	19.438	58.025	0.522
543.500	350.353	80.000	19.993	103.392	19.436	58.211	0.513
544.000	350.597	80.011	19.990	103.398	19.433	58.425	0.507
544.500	350.897	80.002	19.993	103.402	19.432	58.497	0.526
545.000	351.135	80.004	19.988	103.403	19.431	58.586	0.541
545.500	351.374	80.002	19.997	103.405	19.431	58.576	0.508
546.000	351.634	80.008	19.994	103.404	19.425	59.110	0.488
546.500	351.900	80.001	19.991	103.403	19.427	58.895	0.512
547.000	352.134	80.003	19.994	103.403	19.422	59.337	0.513
547.500	352.377	79.999	19.996	103.403	19.421	59.418	0.489
548.000	352.615	79.999	19.999	103.404	19.417	59.733	0.479
548.500	352.908	80.003	19.994	103.404	19.418	59.623	0.506
549.000	353.116	80.000	19.995	103.405	19.412	60.106	0.516
549.500	353.386	80.003	19.993	103.405	19.411	60.164	0.490
550.000	353.669	80.002	19.995	103.404	19.408	60.403	0.516
550.500	353.897	80.005	19.996	103.403	19.409	60.356	0.532
551.000	354.119	80.000	19.999	103.405	19.406	60.639	0.480
551.500	354.420	79.999	19.992	103.404	19.401	61.017	0.487
552.000	354.651	79.998	19.999	103.404	19.399	61.152	0.528
552.500	354.940	80.005	19.992	103.403	19.399	61.152	0.526
553.000	355.201	80.004	19.993	103.404	19.390	61.853	0.535
553.500	355.427	80.003	19.997	103.403	19.393	61.634	0.519
554.000	355.652	80.000	19.996	103.403	19.391	61.838	0.469
554.501	355.934	80.004	19.992	103.402	19.386	62.199	0.479
555.000	356.179	80.006	19.992	103.405	19.386	62.193	0.517
555.500	356.455	79.999	20.001	103.406	19.380	62.672	0.524
556.000	356.724	79.999	19.991	103.405	19.376	62.976	0.533
556.500	356.923	80.007	19.991	103.407	19.375	63.054	0.507
557.000	357.200	80.004	19.995	103.410	19.373	63.229	0.472
557.500	357.460	79.996	19.998	103.411	19.371	63.383	0.506
558.000	357.709	80.006	19.993	103.409	19.372	63.335	0.523
558.500	357.963	80.004	19.995	103.410	19.367	63.714	0.507
559.000	358.189	80.008	19.990	103.408	19.363	64.006	0.492
559.500	358.457	80.007	19.992	103.409	19.362	64.130	0.487
560.000	358.691	80.006	19.993	103.408	19.356	64.586	0.498
560.500	358.969	80.001	19.999	103.413	19.356	64.584	0.506
561.000	359.220	80.005	19.994	103.414	19.354	64.792	0.520
561.500	359.489	80.000	19.995	103.419	19.351	65.007	0.525
562.000	359.736	80.008	19.995	103.421	19.346	65.409	0.518
562.500	359.987	80.000	19.999	103.421	19.342	65.734	0.507
563.000	360.257	80.001	19.995	103.419	19.339	65.980	0.510
563.500	360.462	80.009	19.993	103.422	19.337	66.085	0.498
564.000	360.739	80.002	19.991	103.426	19.333	66.430	0.479
564.500	360.989	80.007	19.992	103.427	19.327	66.899	0.504
565.000	361.236	80.003	19.995	103.433	19.326	67.027	0.512
565.500	361.497	79.997	19.995	103.438	19.321	67.398	0.503
566.000	361.762	80.002	19.994	103.439	19.319	67.575	0.517
566.500	362.018	80.001	19.994	103.438	19.313	68.047	0.523
567.000	362.233	80.002	19.994	103.435	19.315	67.860	0.496
567.500	362.481	80.008	19.993	103.431	19.310	68.239	0.467
568.000	362.770	80.003	19.999	103.426	19.309	68.311	0.500
568.500	362.988	80.004	19.991	103.427	19.300	69.044	0.523
569.000	363.259	80.003	19.992	103.429	19.300	69.092	0.498
569.500	363.509	80.002	19.994	103.435	19.298	69.210	0.505
570.000	363.719	80.004	19.995	103.440	19.294	69.583	0.490
570.500	364.010	80.002	19.996	103.444	19.287	70.081	0.481
571.000	364.257	80.001	19.996	103.445	19.283	70.438	0.520
571.500	364.526	80.009	19.992	103.444	19.282	70.502	0.527
572.000	364.733	80.001	19.995	103.445	19.282	70.521	0.496
572.500	365.003	80.002	19.999	103.445	19.274	71.112	0.476
573.000	365.265	80.001	19.995	103.444	19.276	70.972	0.505
573.500	365.521	80.011	19.997	103.445	19.271	71.361	0.525
574.000	365.745	80.004	19.995	103.445	19.270	71.440	0.499
574.500	366.033	80.001	19.998	103.444	19.266	71.782	0.496
575.000	366.309	80.001	19.999	103.443	19.263	72.019	0.538
575.500	366.553	80.008	19.991	103.443	19.263	72.043	0.541
576.000	366.771	80.004	19.997	103.444	19.257	72.478	0.491
576.500	367.044	80.005	19.993	103.444	19.255	72.629	0.476
577.000	367.297	80.000	19.992	103.445	19.252	72.918	0.509
577.500	367.553	80.001	19.993	103.446	19.251	72.973	0.518
578.000	367.786	80.002	19.998	103.449	19.246	73.392	0.499
578.500	368.080	80.008	19.994	103.447	19.246	73.402	0.508
579.000	368.319	79.997	19.991	103.448	19.241	73.728	0.530
579.500	368.542	80.013	19.993	103.448	19.240	73.821	0.497
580.000	368.815	80.003	19.996	103.448	19.237	74.073	0.479
580.500	369.058	80.006	19.990	103.446	19.234	74.305	0.506
581.000	369.317	80.000	19.992	103.448	19.233	74.436	0.509
581.500	369.593	80.009	19.988	103.447	19.228	74.777	0.518
582.000	369.833	80.000	19.997	103.447	19.229	74.742	0.525
582.500	370.077	80.005	19.991	103.447	19.225	74.997	0.500
583.000	370.349	80.010	19.990	103.449	19.223	75.199	0.500
583.500	370.564	80.005	19.998	103.449	19.221	75.371	0.502
584.000	370.814	80.005	19.990	103.448	19.221	75.318	0.475
584.500	371.040	80.006	19.987	103.449	19.216	75.773	0.470
585.001	371.271	79.999	19.995	103.451	19.215	75.788	0.467
585.500	371.580	80.005	19.986	103.449	19.215	75.788	0.499
586.000	371.830	80.007	19.994	103.449	19.216	75.759	0.550
586.500	372.079	80.000	19.996	103.450	19.212	76.057	0.529
587.000	372.343	80.007	19.993	103.448	19.214	75.921	0.506
587.500	372.600	80.004	19.996	103.446	19.212	76.019	0.517
588.000	372.877	80.004	19.998	103.446	19.214	75.925	0.527
588.501	373.115	80.000	19.993	103.445	19.212	76.087	0.524
589.000	373.363	80.002	19.999	103.445	19.214	75.909	0.501
589.500	373.645	80.001	19.991	103.444	19.208	76.334	0.508
590.000	373.911	80.005	19.995	103.444	19.210	76.246	0.539
590.500	374.144	80.005	19.995	103.444	19.211	76.102	0.523
591.000	374.411	80.002	19.994	103.444	19.209	76.279	0.499
591.500	374.660	80.003	19.993	103.443	19.214	75.924	0.508
592.000	374.924	80.003	19.989	103.444	19.215	75.817	0.515
592.500	375.136	80.008	19.994	103.442	19.214	75.874	0.495
593.000	375.422	80.006	19.995	103.436	19.213	75.959	0.488
593.500	375.664	80.005	19.994	103.429	19.214	75.919	0.513
594.000	375.899	80.004	19.995	103.423	19.213	75.945	0.502
594.500	376.166	80.001	19.996	103.417	19.214	75.861	0.489
595.000	376.425	80.006	19.992	103.413	19.218	75.582	0.514
595.500	376.662	80.004	19.991	103.412	19.218	75.530	0.511
596.000	376.913	80.006	19.989	103.411	19.220	75.352	0.492
596.500	377.180	80.004	19.998	103.411	19.224	75.038	0.504
597.000	377.453	80.003	19.994	103.411	19.229	74.695	0.529
597.500	377.698	80.003	19.995	103.409	19.225	74.940	0.529
598.000	377.945	80.003	19.992	103.407	19.229	74.661	0.505
598.500	378.200	80.001	19.995	103.407	19.233	74.290	0.497
599.000	378.440	80.001	19.995	103.406	19.236	74.110	0.498
599.500	378.745	79.999	19.994	103.406	19.240	73.776	0.520
600.000	378.971	80.005	19.993	103.406	19.242	73.605	0.538
600.500	379.205	80.005	19.990	103.406	19.244	73.457	0.496
601.000	379.443	79.998	19.996	103.406	19.250	72.995	0.466
601.500	379.763	80.005	19.985	103.405	19.254	72.644	0.515
602.000	380.004	80.005	19.995	103.404	19.263	71.933	0.560
602.500	380.274	80.004	19.994	103.405	19.267	71.569	0.536
603.000	380.510	80.000	19.998	103.404	19.273	71.141	0.508
603.500	380.781	80.011	19.995	103.402	19.277	70.816	0.507
604.000	380.983	79.993	19.997	103.399	19.282	70.378	0.490
604.500	381.263	80.002	19.993	103.392	19.284	70.224	0.477
605.000	381.538	80.005	19.992	103.384	19.291	69.699	0.519
605.500	381.758	80.000	19.996	103.378	19.294	69.474	0.525
606.000	382.044	80.009	19.990	103.370	19.302	68.813	0.500
606.500	382.307	80.000	19.996	103.368	19.308	68.296	0.527
607.000	382.560	80.003	19.992	103.367	19.311	68.115	0.533
607.500	382.792	79.995	19.996	103.365	19.318	67.514	0.501
608.000	383.014	80.000	19.998	103.359	19.323	67.130	0.469
608.500	383.345	80.005	19.995	103.355	19.332	66.372	0.503
609.001	383.564	80.001	20.000	103.347	19.337	66.025	0.552
609.500	383.778	80.007	19.996	103.339	19.344	65.470	0.492
610.000	384.031	80.005	19.998	103.333	19.350	64.919	0.450
610.500	384.322	80.005	19.993	103.329	19.360	64.130	0.505
611.000	384.581	80.007	19.993	103.327	19.366	63.692	0.547
611.500	384.849	79.986	19.995	103.326	19.378	62.766	0.539
612.000	385.073	80.000	19.995	103.325	19.381	62.527	0.509
612.500	385.372	80.004	19.997	103.325	19.391	61.698	0.507
613.000	385.633	80.008	19.992	103.322	19.397	61.247	0.542
613.500	385.841	80.004	19.994	103.320	19.404	60.642	0.514
614.000	386.127	80.005	19.993	103.318	19.415	59.753	0.481
614.500	386.349	80.007	19.991	103.315	19.423	59.095	0.501
615.000	386.606	80.005	19.991	103.309	19.433	58.315	0.494
615.500	386.886	80.001	19.996	103.306	19.439	57.859	0.508
616.000	387.180	80.004	19.996	103.299	19.448	57.179	0.556
616.500	387.407	79.999	19.998	103.293	19.458	56.352	0.548
617.000	387.671	80.003	19.995	103.290	19.467	55.594	0.506
617.500	387.948	80.002	19.994	103.288	19.477	54.849	0.516
618.000	388.167	80.004	19.997	103.286	19.485	54.226	0.518
618.500	388.467	80.002	19.993	103.282	19.496	53.344	0.508
619.000	388.713	80.006	19.989	103.274	19.504	52.688	0.532
619.500	388.956	80.006	19.993	103.268	19.514	51.908	0.517
620.000	389.203	80.009	19.996	103.261	19.524	51.055	0.489
620.500	389.437	79.997	20.002	103.253	19.537	50.089	0.486
621.000	389.725	80.002	19.994	103.249	19.546	49.328	0.502
621.500	389.956	80.002	19.994	103.249	19.553	48.786	0.521
622.000	390.200	79.995	20.002	103.248	19.563	47.954	0.497
622.500	390.497	80.011	19.991	103.247	19.575	47.040	0.508
623.000	390.714	80.000	19.996	103.245	19.586	46.187	0.527
623.500	390.950	80.004	19.992	103.242	19.596	45.388	0.484
624.000	391.189	80.004	19.993	103.238	19.605	44.675	0.464
624.500	391.489	79.999	19.995	103.230	19.619	43.568	0.507
625.000	391.712	80.000	19.994	103.224	19.628	42.841	0.531
625.500	392.014	79.996	19.995	103.218	19.637	42.064	0.524
626.000	392.278	80.005	19.991	103.214	19.647	41.308	0.546
626.500	392.518	80.002	19.996	103.212	19.659	40.342	0.535
627.000	392.763	79.999	19.996	103.211	19.667	39.707	0.495
627.500	393.047	80.001	19.992	103.211	19.679	38.752	0.507
628.000	393.307	79.998	19.997	103.211	19.686	38.187	0.536
628.500	393.576	80.003	19.992	103.212	19.701	37.040	0.537
629.000	393.843	79.999	19.995	103.208	19.707	36.507	0.532
629.500	394.085	79.997	19.995	103.208	19.717	35.758	0.522
630.000	394.337	79.998	19.998	103.208	19.728	34.879	0.502
630.500	394.596	80.003	19.991	103.203	19.739	34.013	0.503
631.000	394.863	80.002	19.995	103.198	19.749	33.183	0.519
631.500	395.103	80.002	19.994	103.194	19.757	32.528	0.517
632.000	395.373	79.999	19.996	103.187	19.766	31.868	0.508
632.500	395.636	80.001	19.995	103.181	19.776	31.055	0.521
633.000	395.844	80.002	19.997	103.180	19.779	30.778	0.502
633.500	396.126	80.002	19.995	103.179	19.795	29.542	0.481
634.000	396.395	80.000	19.995	103.178	19.803	28.929	0.521
634.500	396.651	80.003	19.995	103.178	19.811	28.297	0.538
635.000	396.882	80.001	19.995	103.178	19.817	27.830	0.506
635.500	397.162	80.003	19.993	103.176	19.826	27.058	0.499
636.000	397.388	80.002	19.995	103.176	19.834	26.467	0.508
636.500	397.671	80.002	19.995	103.176	19.840	25.950	0.507
637.000	397.923	80.002	19.996	103.175	19.847	25.404	0.522
637.500	398.172	80.001	19.996	103.174	19.855	24.808	0.518
638.000	398.433	80.003	19.994	103.173	19.859	24.438	0.505
638.500	398.658	80.001	19.994	103.172	19.868	23.722	0.498
639.000	398.906	80.004	19.994	103.172	19.875	23.157	0.480
639.500	399.203	80.001	19.995	103.172	19.883	22.549	0.509
640.000	399.456	80.002	19.995	103.171	19.887	22.216	0.547
640.500	399.722	80.003	19.993	103.171	19.892	21.864	0.534
641.000	400.004	80.003	19.994	103.171	19.900	21.230	0.534
641.500	400.211	80.003	19.998	103.171	19.904	20.855	0.519
642.000	400.491	80.002	19.996	103.170	19.910	20.432	0.488
642.500	400.745	80.006	19.994	103.170	19.918	19.786	0.510
643.000	401.005	80.006	19.992	103.171	19.921	19.561	0.524
643.500	401.291	79.998	19.992	103.169	19.927	19.057	0.530
644.000	401.514	80.002	19.992	103.168	19.933	18.570	0.528
644.500	401.777	80.002	19.996	103.168	19.934	18.472	0.498
645.001	402.026	79.999	19.999	103.167	19.939	18.087	0.499
645.501	402.287	80.004	19.991	103.167	19.943	17.791	0.511
646.000	402.534	80.004	19.996	103.169	19.948	17.371	0.509
646.500	402.790	80.003	19.996	103.171	19.952	17.032	0.506
647.000	403.032	80.002	19.995	103.171	19.954	16.876	0.501
647.500	403.309	80.004	19.996	103.173	19.958	16.545	0.509
648.000	403.574	80.000	20.002	103.173	19.966	15.916	0.530
648.500	403.829	80.006	19.994	103.171	19.966	15.916	0.531
649.000	404.079	80.005	19.995	103.171	19.973	15.418	0.513
649.500	404.336	79.998	19.995	103.172	19.974	15.275	0.506
650.000	404.605	80.004	19.993	103.172	19.976	15.176	0.516
650.500	404.829	80.008	19.991	103.172	19.975	15.206	0.509
651.000	405.093	80.001	19.995	103.174	19.983	14.598	0.490
651.500	405.340	80.000	19.997	103.172	19.988	14.222	0.500
652.000	405.614	80.004	19.994	103.169	19.988	14.192	0.516
652.500	405.833	80.005	19.994	103.167	19.987	14.248	0.507
653.000	406.097	79.997	19.999	103.166	19.993	13.809	0.488
653.500	406.392	80.004	19.994	103.161	19.992	13.878	0.521
654.000	406.607	80.001	19.996	103.161	19.995	13.605	0.534
654.500	406.874	80.005	19.994	103.163	19.996	13.538	0.496
655.000	407.083	80.001	19.996	103.161	19.998	13.384	0.480
655.500	407.397	80.002	19.990	103.159	20.002	13.079	0.500
656.000	407.629	80.007	19.993	103.162	20.003	13.013	0.534
656.500	407.874	80.005	19.994	103.163	20.006	12.745	0.511
657.000	408.114	80.002	19.995	103.163	20.009	12.543	0.480
657.500	408.366	80.002	19.995	103.166	20.005	12.876	0.488
658.000	408.638	80.005	19.995	103.167	20.008	12.645	0.508
658.500	408.926	79.999	19.996	103.165	20.012	12.330	0.542
659.000	409.160	80.003	19.996	103.163	20.011	12.408	0.542
659.500	409.387	80.002	19.995	103.160	20.016	12.010	0.491
660.000	409.640	80.003	20.000	103.159	20.015	12.088	0.470
660.500	409.943	80.006	19.993	103.157	20.017	11.934	0.518
661.000	410.161	79.999	20.000	103.160	20.015	12.072	0.539
661.500	410.454	80.002	19.994	103.162	20.015	12.031	0.516
662.000	410.692	80.003	19.999	103.165	20.018	11.804	0.521
662.500	410.960	80.003	19.998	103.166	20.016	11.966	0.518
663.000	411.216	80.003	19.995	103.168	20.019	11.739	0.515
663.500	411.463	80.002	19.999	103.169	20.022	11.479	0.514
664.000	411.701	80.004	19.994	103.168	20.019	11.769	0.495
664.500	411.950	80.001	19.998	103.168	20.018	11.786	0.486
665.000	412.211	80.003	19.996	103.167	20.023	11.410	0.498
665.500	412.493	80.004	19.996	103.166	20.023	11.446	0.526
666.000	412.743	80.007	19.995	103.165	20.021	11.585	0.537
666.501	412.979	80.000	19.997	103.166	20.021	11.579	0.509
667.000	413.211	80.004	19.994	103.160	20.021	11.609	0.477
667.500	413.515	80.003	19.992	103.158	20.027	11.133	0.502
668.000	413.752	80.003	19.997	103.157	20.023	11.431	0.539
668.501	414.004	80.003	19.993	103.156	20.024	11.372	0.515
669.000	414.232	80.004	19.988	103.157	20.022	11.470	0.484
669.500	414.475	80.007	19.996	103.164	20.022	11.507	0.475
670.000	414.769	80.004	19.999	103.166	20.022	11.522	0.504
670.500	415.002	80.002	19.998	103.167	20.022	11.524	0.532
671.000	415.269	80.001	19.996	103.168	20.023	11.422	0.513
671.500	415.514	80.006	19.995	103.167	20.025	11.227	0.506
672.000	415.774	80.001	19.999	103.166	20.025	11.242	0.509
672.500	416.047	80.003	19.995	103.165	20.024	11.300	0.519
673.000	416.276	80.000	19.997	103.166	20.026	11.147	0.518
673.500	416.549	80.005	19.995	103.164	20.026	11.143	0.502
674.000	416.802	80.007	19.993	103.164	20.030	10.849	0.514
674.500	417.036	79.999	19.999	103.163	20.030	10.871	0.506
675.000	417.292	80.000	19.996	103.160	20.029	10.966	0.489
675.500	417.576	80.004	19.995	103.160	20.033	10.637	0.515
676.000	417.810	80.002	19.993	103.162	20.030	10.897	0.529
676.500	418.076	80.004	19.995	103.163	20.033	10.598	0.509
677.000	418.335	80.004	19.994	103.164	20.031	10.746	0.512
677.500	418.587	80.002	19.993	103.165	20.030	10.876	0.518
678.000	418.814	80.004	19.991	103.164	20.033	10.653	0.495
678.500	419.088	80.002	19.997	103.165	20.033	10.597	0.491
679.000	419.320	80.002	19.995	103.162	20.033	10.616	0.503
679.500	419.570	80.005	19.993	103.158	20.035	10.427	0.494
680.000	419.852	80.004	19.995	103.162	20.034	10.549	0.507
680.500	420.120	80.002	19.993	103.163	20.036	10.388	0.541
681.000	420.371	80.000	19.990	103.160	20.034	10.559	0.534
681.500	420.602	80.001	19.996	103.159	20.034	10.540	0.500
682.000	420.874	80.002	19.990	103.160	20.035	10.434	0.493
682.500	421.099	80.003	19.994	103.154	20.035	10.485	0.500
683.000	421.339	80.002	19.995	103.153	20.036	10.407	0.481
683.500	421.618	80.001	19.995	103.154	20.032	10.721	0.492
684.000	421.884	80.004	19.990	103.157	20.033	10.634	0.532
684.500	422.142	80.001	19.994	103.159	20.035	10.472	0.534
685.000	422.409	79.999	19.998	103.163	20.037	10.286	0.525
685.500	422.647	80.003	19.993	103.164	20.036	10.403	0.515
686.000	422.893	80.003	19.993	103.165	20.034	10.564	0.494
686.500	423.137	80.003	19.994	103.166	20.034	10.536	0.487
687.001	423.417	79.999	20.000	103.167	20.034	10.581	0.507
687.500	423.702	80.004	19.992	103.167	20.034	10.562	0.544
688.000	423.940	80.006	19.992	103.168	20.035	10.437	0.544
688.500	424.175	80.000	19.995	103.169	20.037	10.341	0.498
689.000	424.454	80.004	19.994	103.170	20.036	10.403	0.494
689.500	424.729	80.003	19.995	103.171	20.037	10.334	0.534
690.000	425.003	80.002	19.993	103.169	20.037	10.306	0.552
690.500	425.253	80.003	19.995	103.168	20.042	9.888	0.536
691.000	425.513	80.005	19.992	103.168	20.038	10.200	0.517
691.500	425.755	79.998	19.998	103.167	20.039	10.133	0.506
692.000	425.999	80.003	19.995	103.164	20.040	10.087	0.494
692.500	426.244	80.000	19.993	103.167	20.036	10.403	0.488
693.000	426.481	80.003	19.992	103.165	20.040	10.102	0.486
693.500	426.773	80.004	19.994	103.163	20.039	10.123	0.505
694.000	427.039	80.002	19.995	103.158	20.041	9.974	0.544
694.500	427.294	80.001	19.997	103.160	20.039	10.121	0.540
695.000	427.531	80.000	19.994	103.159	20.042	9.882	0.507
695.500	427.766	80.003	19.994	103.159	20.042	9.882	0.482
696.000	428.052	80.005	19.993	103.160	20.041	9.949	0.496
696.500	428.318	80.005	19.993	103.164	20.042	9.895	0.537
697.000	428.510	80.002	19.994	103.166	20.040	10.068	0.505
697.500	428.751	80.002	19.992	103.168	20.040	10.080	0.446
698.000	429.024	80.002	19.994	103.171	20.042	9.892	0.474
698.500	429.317	80.002	19.994	103.172	20.041	9.948	0.540
699.000	429.567	80.001	19.994	103.172	20.042	9.889	0.554
699.500	429.788	80.002	19.993	103.169	20.042	9.926	0.507
700.000	430.057	80.000	19.996	103.166	20.040	10.076	0.481
700.500	430.266	80.002	19.994	103.164	20.045	9.688	0.485
701.000	430.546	80.000	19.994	103.162	20.042	9.931	0.484
701.500	430.797	80.003	19.996	103.163	20.041	9.976	0.510
702.000	431.032	80.002	19.995	103.167	20.043	9.820	0.508
702.500	431.320	80.000	19.994	103.164	20.044	9.738	0.504
703.000	431.582	80.004	19.992	103.163	20.039	10.132	0.536
703.500	431.803	80.002	19.992	103.159	20.042	9.931	0.517
704.000	432.068	80.000	19.995	103.157	20.042	9.897	0.485
704.500	432.339	80.008	19.991	103.152	20.044	9.774	0.511
705.000	432.604	80.001	19.992	103.155	20.042	9.917	0.536
705.500	432.831	80.004	19.995	103.158	20.044	9.730	0.514
706.000	433.082	80.002	19.995	103.164	20.043	9.858	0.485
706.500	433.342	79.998	19.996	103.166	20.045	9.672	0.494
707.000	433.622	80.002	19.996	103.169	20.045	9.685	0.525
707.500	433.852	80.004	19.992	103.166	20.047	9.507	0.525
708.000	434.166	80.001	19.995	103.164	20.043	9.829	0.527
708.500	434.369	80.002	19.993	103.157	20.045	9.699	0.530
709.000	434.666	80.000	19.995	103.156	20.045	9.705	0.509
709.500	434.916	80.000	19.999	103.154	20.044	9.779	0.524
710.000	435.164	80.002	19.994	103.155	20.045	9.653	0.522
710.500	435.420	80.000	19.998	103.156	20.044	9.727	0.501
711.000	435.685	80.002	19.994	103.157	20.046	9.623	0.513
711.500	435.925	80.001	19.991	103.156	20.046	9.550	0.513
712.000	436.190	80.001	19.994	103.156	20.045	9.688	0.505
712.500	436.445	79.999	19.994	103.154	20.046	9.619	0.512
713.001	436.682	80.003	19.989	103.150	20.044	9.738	0.506
713.500	436.945	80.003	19.992	103.155	20.046	9.573	0.496
714.000	437.144	79.998	19.995	103.157	20.045	9.699	0.481
714.500	437.436	80.012	19.990	103.159	20.046	9.625	0.476
715.000	437.673	80.007	19.996	103.166	20.048	9.452	0.509
715.500	437.945	80.005	19.996	103.170	20.046	9.619	0.519
716.000	438.178	80.002	19.991	103.168	20.048	9.409	0.508
716.500	438.444	80.006	19.989	103.169	20.048	9.460	0.502
717.000	438.686	79.999	19.996	103.169	20.046	9.568	0.503
717.500	438.925	79.999	19.997	103.166	20.047	9.486	0.494
718.000	439.179	80.004	19.998	103.166	20.048	9.400	0.487
718.500	439.454	80.005	19.995	103.163	20.052	9.149	0.511
719.000	439.716	80.005	19.991	103.162	20.050	9.300	0.533
719.500	439.957	80.003	19.996	103.159	20.049	9.368	0.520
720.000	440.194	80.001	19.994	103.155	20.052	9.104	0.491
720.500	440.439	80.004	19.994	103.153	20.051	9.220	0.480
721.000	440.724	80.005	19.993	103.155	20.050	9.292	0.506
721.500	440.956	80.004	19.993	103.156	20.052	9.073	0.523
722.001	441.215	80.003	19.996	103.157	20.049	9.337	0.504
722.500	441.467	80.004	19.995	103.159	20.052	9.144	0.501
723.000	441.714	80.005	19.994	103.159	20.053	9.049	0.505
723.500	441.961	80.005	19.995	103.159	20.054	8.936	0.497
724.000	442.254	80.005	19.994	103.156	20.051	9.196	0.517
724.500	442.473	80.004	19.995	103.157	20.055	8.868	0.526
725.000	442.722	80.008	19.995	103.153	20.053	9.054	0.490
725.500	442.974	80.009	19.995	103.152	20.053	9.065	0.484
726.000	443.259	79.999	19.991	103.153	20.054	8.953	0.519
726.500	443.467	80.004	19.994	103.154	20.053	8.999	0.515
727.000	443.713	80.004	19.995	103.151	20.051	9.196	0.474
727.500	443.993	80.005	19.997	103.151	20.051	9.195	0.490
728.000	444.253	80.004	19.993	103.147	20.054	8.917	0.533
728.501	444.473	80.000	19.995	103.147	20.054	8.930	0.510
729.000	444.698	80.005	19.996	103.149	20.054	8.954	0.463
729.500	445.009	80.002	19.994	103.150	20.054	8.943	0.491
730.000	445.251	80.006	19.994	103.153	20.053	9.044	0.545
730.500	445.514	80.005	19.993	103.160	20.055	8.861	0.529
731.000	445.795	80.003	19.997	103.159	20.058	8.662	0.524
731.500	446.038	80.003	19.993	103.152	20.056	8.811	0.534
732.000	446.308	80.007	19.989	103.152	20.059	8.560	0.518
732.500	446.569	80.002	19.995	103.154	20.059	8.582	0.522
733.000	446.803	80.003	19.994	103.153	20.056	8.772	0.513
733.500	447.046	80.001	19.995	103.152	20.055	8.896	0.486
734.000	447.354	80.004	19.993	103.152	20.057	8.679	0.514
734.500	447.592	80.004	19.994	103.148	20.056	8.819	0.549
735.000	447.824	80.002	19.996	103.143	20.058	8.645	0.508
735.501	448.059	80.004	19.994	103.137	20.057	8.674	0.468
736.000	448.343	80.002	19.995	103.135	20.059	8.563	0.493
736.500	448.577	80.005	19.994	103.138	20.061	8.379	0.519
737.000	448.821	80.005	19.992	103.145	20.059	8.565	0.498
737.500	449.079	80.002	19.996	103.149	20.059	8.533	0.490
738.000	449.352	80.003	19.994	103.151	20.061	8.421	0.516
738.500	449.628	80.004	19.994	103.155	20.058	8.598	0.540
739.000	449.850	80.003	19.995	103.152	20.063	8.267	0.524
739.500	450.118	80.003	19.995	103.148	20.063	8.269	0.494
740.000	450.347	80.005	19.993	103.148	20.062	8.304	0.493
740.500	450.592	80.005	19.993	103.147	20.061	8.429	0.485
741.000	450.858	80.003	19.994	103.146	20.061	8.381	0.492
741.500	451.122	80.003	19.994	103.149	20.065	8.074	0.521
742.000	451.366	80.005	19.994	103.148	20.062	8.349	0.519
742.500	451.643	80.004	19.995	103.150	20.065	8.044	0.514
743.000	451.908	80.005	19.994	103.152	20.066	8.025	0.531
743.500	452.154	80.004	19.995	103.154	20.065	8.071	0.527
744.000	452.414	80.005	19.994	103.152	20.067	7.952	0.509
744.500	452.663	80.006	19.995	103.151	20.069	7.770	0.507
745.000	452.926	80.006	19.994	103.147	20.064	8.136	0.510
745.500	453.177	80.004	19.994	103.144	20.066	7.997	0.513
746.000	453.462	80.006	19.994	103.138	20.065	8.075	0.525
746.500	453.681	80.004	19.995	103.138	20.064	8.142	0.520
747.000	453.942	80.003	19.994	103.138	20.069	7.745	0.492
747.500	454.211	80.003	19.993	103.136	20.068	7.804	0.504
748.000	454.452	80.004	19.994	103.137	20.070	7.665	0.520
748.500	454.717	80.004	19.995	103.139	20.070	7.695	0.508
749.000	454.964	80.005	19.994	103.140	20.067	7.899	0.509
749.500	455.233	80.005	19.993	103.141	20.070	7.665	0.514
750.000	455.518	80.004	19.993	103.141	20.069	7.783	0.536
750.500	455.748	80.005	19.995	103.138	20.067	7.912	0.535
751.000	455.989	80.003	19.995	103.137	20.071	7.612	0.493
751.500	456.249	80.001	19.995	103.134	20.070	7.702	0.486
752.000	456.543	80.005	19.994	103.132	20.068	7.810	0.527
752.500	456.771	80.003	19.995	103.131	20.068	7.849	0.537
753.000	457.038	80.002	19.996	103.136	20.068	7.834	0.509
753.500	457.309	80.003	19.997	103.142	20.068	7.816	0.517
754.000	457.548	80.002	19.996	103.146	20.068	7.803	0.524
754.500	457.795	80.002	19.996	103.149	20.071	7.578	0.498
755.000	458.061	80.002	19.995	103.153	20.070	7.682	0.500
755.500	458.319	80.001	19.995	103.152	20.070	7.648	0.519
756.000	458.565	80.002	19.995	103.148	20.072	7.505	0.514
756.500	458.859	80.004	19.997	103.145	20.071	7.611	0.522
757.000	459.138	80.002	19.995	103.144	20.073	7.429	0.556
757.500	459.394	80.000	19.996	103.141	20.075	7.310	0.554
758.000	459.662	80.002	19.994	103.139	20.069	7.784	0.529
758.500	459.899	80.001	19.995	103.138	20.072	7.544	0.514
759.000	460.129	80.000	19.995	103.138	20.071	7.615	0.486
759.500	460.375	80.003	19.994	103.137	20.072	7.490	0.472
760.000	460.656	80.003	19.995	103.138	20.076	7.243	0.502
760.501	460.924	80.001	19.995	103.141	20.077	7.146	0.538
761.000	461.160	80.002	19.994	103.145	20.074	7.390	0.526
761.500	461.416	80.000	19.996	103.145	20.074	7.371	0.498
762.000	461.705	80.003	19.996	103.144	20.073	7.433	0.519
762.500	461.934	80.006	19.994	103.142	20.077	7.148	0.532
763.000	462.173	80.003	19.993	103.138	20.076	7.241	0.493
763.500	462.434	80.002	19.995	103.134	20.075	7.297	0.484
764.000	462.727	80.002	19.995	103.133	20.077	7.139	0.527
764.500	462.953	80.002	19.994	103.134	20.074	7.334	0.537
765.000	463.253	80.003	19.994	103.135	20.077	7.102	0.522
765.500	463.483	80.002	19.993	103.136	20.076	7.230	0.527
766.000	463.711	80.001	19.994	103.135	20.079	6.986	0.494
766.500	463.982	80.001	19.993	103.136	20.079	6.997	0.479
767.000	464.245	80.001	19.994	103.136	20.079	6.973	0.517
767.500	464.510	80.003	19.992	103.135	20.081	6.787	0.531
768.000	464.727	80.001	19.993	103.135	20.078	7.005	0.505
768.500	464.990	80.001	19.994	103.135	20.081	6.841	0.481
769.000	465.253	80.002	19.992	103.134	20.077	7.120	0.503
769.500	465.513	80.002	19.994	103.135	20.080	6.917	0.525
770.000	465.750	80.004	19.995	103.137	20.077	7.092	0.510
770.501	466.042	80.002	19.993	103.136	20.079	6.999	0.513
771.000	466.289	80.003	19.995	103.137	20.079	6.932	0.534
771.500	466.516	80.002	19.993	103.138	20.077	7.144	0.507
772.000	466.806	80.004	19.994	103.136	20.078	7.023	0.495
772.500	467.005	80.004	19.994	103.136	20.081	6.845	0.503
773.000	467.319	80.002	19.994	103.135	20.080	6.886	0.501
773.500	467.527	80.002	19.994	103.134	20.081	6.774	0.517
774.000	467.841	80.003	19.994	103.134	20.078	7.051	0.521
774.500	468.067	80.005	19.993	103.134	20.079	6.973	0.531
775.000	468.322	80.003	19.992	103.134	20.081	6.802	0.511
775.500	468.598	80.000	19.993	103.135	20.082	6.737	0.506
776.001	468.844	80.000	19.992	103.136	20.085	6.475	0.526
776.500	469.106	80.002	19.993	103.137	20.086	6.436	0.515
777.000	469.291	80.000	19.993	103.137	20.084	6.544	0.478
777.500	469.598	80.003	19.992	103.139	20.085	6.496	0.470
778.000	469.814	80.000	19.994	103.140	20.085	6.451	0.507
778.500	470.106	80.001	19.992	103.139	20.089	6.135	0.515
779.000	470.377	79.999	19.997	103.140	20.087	6.321	0.536
779.500	470.610	80.002	19.992	103.139	20.089	6.141	0.533
780.000	470.876	80.003	19.992	103.138	20.088	6.215	0.501
780.500	471.151	80.000	19.995	103.139	20.087	6.291	0.520
781.000	471.408	80.002	19.995	103.140	20.090	6.079	0.537
781.500	471.656	80.002	19.993	103.140	20.094	5.737	0.518
782.000	471.873	79.999	19.995	103.141	20.091	6.048	0.485
782.500	472.145	80.003	19.994	103.143	20.092	5.947	0.477
783.000	472.393	80.003	19.995	103.143	20.091	6.005	0.505
783.500	472.672	80.002	19.994	103.141	20.090	6.131	0.524
784.000	472.922	80.002	19.994	103.142	20.092	5.901	0.528
784.500	473.159	80.003	19.993	103.142	20.093	5.856	0.508
785.000	473.429	80.004	19.994	103.140	20.091	5.992	0.497
785.501	473.676	80.002	19.994	103.139	20.095	5.702	0.513
786.001	473.924	80.003	19.995	103.140	20.094	5.806	0.506
786.500	474.194	80.003	19.994	103.140	20.091	6.005	0.506
787.000	474.472	80.000	19.994	103.139	20.093	5.854	0.533
787.500	474.736	80.002	19.994	103.139	20.092	5.906	0.545
788.000	474.998	80.002	19.995	103.137	20.090	6.057	0.534
788.500	475.240	80.002	19.994	103.135	20.093	5.877	0.515
789.000	475.537	80.003	19.994	103.135	20.091	6.033	0.521
789.500	475.800	80.003	19.995	103.135	20.093	5.823	0.549
790.000	476.039	80.001	19.996	103.134	20.095	5.689	0.531
790.500	476.309	80.002	19.994	103.133	20.094	5.763	0.506
791.000	476.538	80.004	19.994	103.133	20.094	5.765	0.504
791.500	476.836	80.001	19.994	103.132	20.094	5.810	0.513
792.000	477.098	80.002	19.994	103.132	20.096	5.633	0.544
792.500	477.355	80.002	19.993	103.132	20.093	5.854	0.539
793.000	477.562	80.004	19.995	103.132	20.092	5.916	0.492
793.500	477.867	80.000	19.994	103.132	20.093	5.886	0.488
794.000	478.130	80.001	19.994	103.133	20.092	5.931	0.540
794.500	478.342	80.001	19.994	103.133	20.093	5.873	0.521
795.000	478.608	80.002	19.993	103.133	20.092	5.914	0.476
795.500	478.868	80.006	19.994	103.134	20.094	5.771	0.502
796.000	479.135	80.002	19.993	103.133	20.094	5.776	0.526
796.500	479.421	80.002	19.995	103.133	20.094	5.743	0.540
797.000	479.598	80.001	19.994	103.133	20.094	5.754	0.508
797.500	479.922	80.005	19.993	103.134	20.096	5.641	0.482
798.000	480.171	80.003	19.992	103.134	20.095	5.670	0.537
798.500	480.465	80.003	19.994	103.135	20.095	5.715	0.558
799.000	480.648	80.006	19.995	103.135	20.098	5.490	0.510
799.500	480.921	80.005	19.993	103.135	20.095	5.659	0.466
800.000	481.223	80.003	19.995	103.135	20.096	5.615	0.515
800.500	481.477	80.005	19.993	103.135	20.098	5.483	0.565
801.000	481.699	80.005	19.992	103.133	20.096	5.618	0.516
801.500	481.958	80.003	19.993	103.133	20.098	5.464	0.478
802.000	482.191	80.005	19.993	103.133	20.094	5.767	0.486
802.500	482.499	80.006	19.993	103.134	20.095	5.674	0.517
803.000	482.700	80.005	19.994	103.134	20.098	5.427	0.525
803.500	482.956	80.005	19.993	103.134	20.098	5.449	0.482
804.000	483.244	80.006	19.993	103.133	20.100	5.297	0.500
804.500	483.477	80.004	19.994	103.133	20.098	5.466	0.533
805.000	483.726	80.004	19.993	103.132	20.099	5.367	0.502
805.500	483.989	80.004	19.994	103.132	20.102	5.172	0.497
806.000	484.271	80.005	19.994	103.131	20.100	5.334	0.529
806.500	484.483	80.004	19.993	103.131	20.100	5.313	0.520
807.000	484.770	80.004	19.993	103.131	20.100	5.269	0.497
807.500	485.017	80.003	19.993	103.132	20.100	5.302	0.517
808.000	485.261	80.005	19.993	103.132	20.103	5.057	0.512
808.500	485.519	80.003	19.994	103.133	20.098	5.481	0.496
809.000	485.769	80.003	19.994	103.133	20.099	5.345	0.505
809.500	486.022	80.003	19.994	103.133	20.101	5.183	0.506
810.000	486.285	80.002	19.994	103.132	20.100	5.274	0.509
810.500	486.520	80.003	19.994	103.131	20.101	5.204	0.507
811.000	486.841	80.003	19.993	103.131	20.103	5.094	0.527
811.500	487.036	80.005	19.993	103.131	20.101	5.252	0.536
812.000	487.303	80.003	19.993	103.131	20.099	5.369	0.489
812.500	487.550	80.004	19.995	103.132	20.101	5.189	0.488
813.000	487.805	80.003	19.994	103.132	20.098	5.423	0.508
813.500	488.097	80.004	19.994	103.132	20.100	5.312	0.524
814.000	488.307	80.005	19.995	103.132	20.102	5.174	0.524
814.500	488.571	80.002	19.995	103.132	20.103	5.081	0.488
815.000	488.859	80.003	19.993	103.132	20.103	5.025	0.513
815.500	489.102	80.004	19.993	103.132	20.106	4.793	0.542
816.000	489.352	80.002	19.994	103.132	20.103	5.064	0.512
816.500	489.606	80.004	19.995	103.132	20.104	4.984	0.498
817.001	489.880	80.002	19.994	103.132	20.104	5.012	0.516
817.500	490.147	80.004	19.995	103.132	20.103	5.051	0.535
818.000	490.405	80.003	19.994	103.132	20.105	4.891	0.533
818.500	490.667	80.004	19.995	103.132	20.106	4.834	0.522
819.000	490.899	80.004	19.994	103.132	20.103	5.023	0.507
819.500	491.187	80.004	19.994	103.132	20.106	4.789	0.507
820.000	491.408	80.005	19.994	103.132	20.105	4.893	0.514
820.500	491.708	80.002	19.994	103.132	20.107	4.722	0.515
821.000	491.972	80.003	19.994	103.132	20.104	4.943	0.542
821.500	492.187	80.004	19.993	103.132	20.103	5.038	0.522
822.000	492.445	80.003	19.996	103.133	20.102	5.172	0.477
822.501	492.731	80.003	19.995	103.132	20.104	4.966	0.509
823.000	492.988	80.004	19.994	103.132	20.104	5.012	0.543
823.500	493.227	80.002	19.995	103.131	20.102	5.103	0.519
824.000	493.490	80.002	19.994	103.131	20.104	4.951	0.499
824.500	493.779	80.005	19.994	103.130	20.105	4.891	0.527
825.000	494.005	80.003	19.993	103.131	20.104	5.018	0.534
825.500	494.265	80.004	19.994	103.132	20.103	5.053	0.501
826.000	494.516	80.006	19.993	103.134	20.105	4.906	0.498
826.500	494.737	80.004	19.995	103.134	20.103	5.092	0.491
827.000	495.042	80.005	19.994	103.134	20.105	4.901	0.499
827.500	495.309	80.005	19.994	103.135	20.106	4.856	0.549
828.000	495.550	80.003	19.993	103.135	20.106	4.841	0.540
828.500	495.859	80.006	19.994	103.134	20.102	5.131	0.529
829.000	496.093	80.005	19.994	103.133	20.101	5.228	0.546
829.500	496.357	80.004	19.996	103.134	20.102	5.129	0.520
830.000	496.602	80.005	19.993	103.133	20.103	5.096	0.504
830.500	496.858	80.003	19.995	103.132	20.107	4.744	0.505
831.000	497.172	80.004	19.995	103.132	20.109	4.566	0.536
831.500	497.389	80.004	19.994	103.132	20.106	4.813	0.550
832.000	497.626	80.003	19.994	103.132	20.104	4.940	0.492
832.500	497.894	80.005	19.994	103.133	20.105	4.938	0.479
833.000	498.125	80.006	19.995	103.133	20.103	5.092	0.502
833.500	498.400	80.004	19.994	103.133	20.103	5.070	0.502
834.000	498.655	80.005	19.994	103.133	20.107	4.774	0.518
834.500	498.938	80.005	19.994	103.133	20.106	4.854	0.534
835.000	499.156	80.005	19.993	103.133	20.105	4.891	0.520
835.500	499.400	80.003	19.995	103.132	20.103	5.088	0.481
836.000	499.669	80.004	19.995	103.132	20.105	4.904	0.487
836.500	499.932	80.003	19.994	103.132	20.105	4.915	0.522
837.000	500.189	80.002	19.993	103.132	20.102	5.153	0.526
837.500	500.433	80.002	19.994	103.132	20.104	4.988	0.511
838.000	500.682	80.002	19.995	103.132	20.101	5.209	0.497
838.500	500.959	80.001	19.995	103.132	20.098	5.423	0.509
839.000	501.165	80.003	19.995	103.132	20.102	5.159	0.504
839.500	501.433	80.001	19.995	103.132	20.102	5.144	0.478
840.000	501.708	80.003	19.994	103.134	20.105	4.917	0.508
840.500	501.980	80.001	19.995	103.135	20.105	4.932	0.545
841.000	502.198	80.002	19.994	103.135	20.103	5.057	0.519
841.500	502.474	80.000	19.995	103.135	20.104	4.997	0.493
842.000	502.738	80.002	19.995	103.135	20.105	4.875	0.517
842.500	502.993	80.001	19.994	103.135	20.103	5.092	0.529
843.000	503.228	80.002	19.996	103.135	20.106	4.828	0.504
843.500	503.483	80.001	19.995	103.135	20.102	5.133	0.490
844.001	503.713	80.001	19.996	103.135	20.105	4.901	0.488
844.500	504.002	80.003	19.994	103.135	20.104	4.990	0.502
845.000	504.235	80.003	19.994	103.135	20.106	4.797	0.521
845.500	504.493	80.003	19.996	103.135	20.108	4.648	0.507
846.000	504.762	80.002	19.994	103.136	20.105	4.938	0.509
846.500	505.021	80.000	19.995	103.136	20.105	4.927	0.527
847.000	505.281	80.002	19.995	103.136	20.104	4.992	0.523
847.500	505.561	80.001	19.994	103.136	20.106	4.849	0.530
848.000	505.786	80.002	19.995	103.136	20.108	4.648	0.523
848.500	506.024	80.002	19.994	103.136	20.105	4.897	0.484
849.000	506.287	80.000	19.998	103.136	20.107	4.756	0.481
849.500	506.541	80.002	19.995	103.135	20.106	4.791	0.509
850.000	506.787	80.003	19.996	103.135	20.109	4.586	0.509
850.500	507.031	80.003	19.995	103.134	20.109	4.603	0.495
851.000	507.307	80.000	19.996	103.134	20.105	4.936	0.505
851.500	507.542	80.000	19.996	103.132	20.111	4.451	0.516
852.000	507.774	80.003	19.995	103.132	20.109	4.549	0.489
852.500	508.039	80.002	19.995	103.132	20.109	4.614	0.482
853.000	508.292	80.003	19.994	103.131	20.109	4.592	0.508
853.500	508.557	80.002	19.994	103.133	20.108	4.700	0.518
854.000	508.805	80.001	19.995	103.133	20.110	4.473	0.515
854.500	509.124	80.004	19.994	103.133	20.106	4.798	0.540
855.000	509.356	80.002	19.995	103.133	20.108	4.694	0.559
855.500	509.607	80.002	19.994	103.133	20.111	4.438	0.517
856.000	509.862	80.004	19.995	103.131	20.108	4.642	0.494
856.500	510.134	80.002	19.994	103.131	20.107	4.752	0.516
857.000	510.369	80.003	19.994	103.131	20.105	4.860	0.517
857.500	510.603	80.002	19.994	103.131	20.107	4.746	0.488
858.000	510.885	80.004	19.994	103.132	20.107	4.739	0.493
858.500	511.143	80.003	19.995	103.132	20.106	4.791	0.528
859.000	511.400	80.002	19.993	103.132	20.107	4.730	0.527
859.500	511.649	80.006	19.994	103.131	20.105	4.875	0.510
860.000	511.898	80.005	19.993	103.132	20.106	4.826	0.502
860.500	512.134	80.002	19.995	103.133	20.106	4.845	0.492
861.000	512.427	80.002	19.995	103.134	20.103	5.094	0.507
861.500	512.639	80.003	19.994	103.135	20.105	4.932	0.517
862.000	512.895	80.004	19.993	103.135	20.105	4.895	0.487
862.500	513.207	80.001	19.994	103.135	20.107	4.735	0.519
863.000	513.448	80.004	19.994	103.135	20.104	4.975	0.561
863.500	513.687	80.003	19.994	103.133	20.106	4.819	0.516
864.000	513.950	80.002	19.994	103.133	20.105	4.936	0.491
864.500	514.243	80.003	19.995	103.133	20.104	5.012	0.529
865.000	514.483	80.002	19.993	103.132	20.105	4.936	0.544
865.501	514.737	80.003	19.995	103.132	20.106	4.798	0.514
866.001	515.022	80.002	19.995	103.133	20.105	4.901	0.517
866.500	515.272	80.003	19.994	103.132	20.104	5.012	0.537
867.000	515.527	80.002	19.994	103.133	20.103	5.053	0.520
867.500	515.795	80.000	19.995	103.132	20.102	5.142	0.514
868.000	516.039	80.002	19.995	103.132	20.105	4.869	0.518
868.500	516.296	80.001	19.994	103.132	20.101	5.213	0.507
869.000	516.548	80.002	19.995	103.132	20.102	5.098	0.505
869.500	516.809	80.000	19.994	103.132	20.104	4.966	0.510
870.000	517.106	80.002	19.993	103.132	20.104	4.984	0.535
870.500	517.310	80.003	19.993	103.132	20.107	4.720	0.530
871.000	517.558	80.001	19.992	103.133	20.106	4.825	0.476
871.500	517.826	79.999	19.996	103.133	20.109	4.613	0.484
872.000	518.068	80.003	19.994	103.132	20.107	4.776	0.513
872.500	518.313	80.001	19.996	103.132	20.107	4.724	0.498
873.000	518.588	80.001	19.993	103.131	20.107	4.709	0.503
873.500	518.830	80.002	19.994	103.129	20.109	4.611	0.519
874.000	519.111	80.003	19.993	103.129	20.109	4.581	0.520
874.500	519.355	80.003	19.993	103.129	20.107	4.718	0.524
875.000	519.630	80.001	19.993	103.129	20.106	4.826	0.522
875.500	519.882	80.000	19.992	103.130	20.104	4.951	0.524
876.000	520.090	80.004	19.994	103.132	20.106	4.858	0.494
876.500	520.401	80.002	19.996	103.133	20.109	4.614	0.490
877.000	520.700	80.000	19.996	103.132	20.109	4.585	0.564
877.500	520.941	80.004	19.991	103.132	20.110	4.531	0.574
878.000	521.164	80.002	19.992	103.132	20.106	4.793	0.502
878.500	521.435	80.002	19.995	103.132	20.110	4.521	0.480
879.000	521.664	80.001	19.994	103.132	20.108	4.698	0.497
879.500	521.947	80.005	19.993	103.132	20.108	4.633	0.505
880.000	522.158	80.006	19.993	103.132	20.108	4.683	0.503
880.500	522.426	80.002	19.996	103.131	20.107	4.715	0.487
881.000	522.721	80.003	19.995	103.131	20.108	4.666	0.521
881.500	522.962	79.998	19.995	103.130	20.106	4.808	0.550
882.000	523.222	80.006	19.994	103.129	20.108	4.624	0.518
882.500	523.471	80.002	19.993	103.129	20.106	4.798	0.505
883.000	523.739	80.002	19.992	103.129	20.107	4.724	0.513
883.500	523.964	80.002	19.994	103.130	20.106	4.847	0.505
884.000	524.260	80.004	19.995	103.132	20.104	4.964	0.507
884.500	524.510	80.004	19.995	103.134	20.105	4.908	0.534
885.000	524.795	80.004	19.995	103.134	20.109	4.607	0.540
885.500	525.042	80.004	19.994	103.134	20.104	4.964	0.533
886.000	525.307	80.002	19.995	103.132	20.106	4.815	0.522
886.500	525.550	80.002	19.995	103.131	20.108	4.637	0.510
887.000	525.801	80.004	19.994	103.132	20.107	4.739	0.501
887.500	526.076	80.004	19.995	103.132	20.106	4.849	0.510
888.000	526.317	80.005	19.994	103.133	20.108	4.648	0.521
888.500	526.565	80.005	19.993	103.133	20.107	4.726	0.502
889.000	526.859	80.006	19.993	103.134	20.109	4.605	0.516
889.500	527.100	80.005	19.994	103.134	20.108	4.622	0.539
890.000	527.367	80.004	19.993	103.135	20.108	4.691	0.521
890.500	527.617	80.005	19.995	103.134	20.108	4.700	0.512
891.000	527.903	80.004	19.993	103.134	20.107	4.765	0.526
891.500	528.136	80.004	19.994	103.133	20.109	4.594	0.528
892.000	528.377	80.002	19.995	103.133	20.107	4.728	0.497
892.500	528.652	80.007	19.995	103.132	20.106	4.810	0.495
893.000	528.924	80.002	19.993	103.132	20.107	4.748	0.532
893.500	529.171	80.005	19.996	103.132	20.107	4.711	0.533
894.000	529.414	80.004	19.993	103.134	20.105	4.906	0.505
894.500	529.642	80.001	19.995	103.134	20.106	4.813	0.480
895.000	529.949	80.003	19.995	103.135	20.102	5.148	0.503
895.500	530.173	80.002	19.995	103.135	20.102	5.135	0.533
896.000	530.438	80.002	19.994	103.134	20.106	4.849	0.510
896.500	530.751	80.004	19.994	103.134	20.106	4.821	0.533
897.000	530.918	80.003	19.994	103.134	20.107	4.747	0.529
897.500	531.171	80.000	19.995	103.133	20.105	4.914	0.450
898.000	531.429	80.001	19.996	103.132	20.104	4.946	0.466
898.500	531.731	80.001	19.996	103.132	20.103	5.039	0.536
899.000	531.981	80.004	19.995	103.131	20.103	5.067	0.556
899.500	532.202	80.004	19.995	103.131	20.104	5.011	0.511
900.000	532.500	80.004	19.995	103.130	20.105	4.884	0.495
900.500	532.769	80.007	19.995	103.130	20.106	4.823	0.543
901.000	532.990	80.003	19.994	103.130	20.105	4.888	0.529
901.500	533.264	80.001	19.994	103.130	20.107	4.715	0.493
902.000	533.551	80.003	19.996	103.129	20.104	4.999	0.528
902.500	533.753	79.999	19.995	103.130	20.107	4.732	0.525
903.000	534.033	80.004	19.996	103.131	20.107	4.765	0.485
903.500	534.306	80.001	19.997	103.131	20.103	5.044	0.517
904.000	534.572	80.002	19.994	103.132	20.107	4.715	0.546
904.500	534.801	80.003	19.996	103.132	20.107	4.717	0.517
905.000	535.081	80.004	19.995	103.131	20.105	4.879	0.502
905.500	535.319	80.004	19.995	103.131	20.108	4.641	0.514
906.000	535.595	80.005	19.994	103.131	20.106	4.858	0.516
906.500	535.838	80.003	19.995	103.128	20.107	4.728	0.516
907.000	536.103	80.003	19.994	103.124	20.109	4.611	0.513
907.501	536.355	80.008	19.996	103.123	20.108	4.678	0.512
908.000	536.623	79.999	19.993	103.119	20.107	4.737	0.519
908.500	536.851	79.999	19.993	103.115	20.105	4.927	0.509
909.000	537.104	80.001	19.995	103.113	20.107	4.726	0.489
909.500	537.370	80.002	19.994	103.118	20.109	4.609	0.500
910.000	537.643	80.002	19.994	103.120	20.109	4.555	0.529
910.500	537.883	80.008	19.993	103.123	20.107	4.706	0.526
911.000	538.109	80.004	19.993	103.126	20.109	4.611	0.489
911.500	538.382	79.996	19.996	103.132	20.107	4.749	0.483
912.000	538.648	80.005	19.994	103.129	20.106	4.780	0.519
912.500	538.887	80.004	19.994	103.129	20.109	4.553	0.522
913.000	539.150	80.003	19.994	103.130	20.108	4.659	0.503
913.500	539.385	80.002	19.994	103.126	20.108	4.652	0.500
914.000	539.657	80.006	19.996	103.125	20.108	4.624	0.503
914.500	539.893	80.003	19.993	103.125	20.107	4.706	0.508
915.000	540.149	79.999	19.995	103.124	20.107	4.745	0.500
915.500	540.430	80.006	19.996	103.122	20.106	4.834	0.515
916.000	540.698	80.003	19.995	103.124	20.109	4.592	0.543
916.500	540.931	80.003	19.994	103.123	20.108	4.626	0.525
917.000	541.168	80.005	19.994	103.123	20.103	5.055	0.486
917.500	541.435	80.003	19.994	103.125	20.109	4.609	0.487
918.000	541.698	80.002	19.996	103.127	20.108	4.672	0.517
918.500	541.974	80.005	19.995	103.128	20.106	4.834	0.534
919.000	542.186	80.005	19.992	103.129	20.106	4.813	0.513
919.500	542.447	80.002	19.995	103.131	20.105	4.890	0.480
920.000	542.692	80.000	19.993	103.129	20.109	4.590	0.490
920.500	542.987	79.999	19.995	103.126	20.107	4.704	0.524
921.000	543.215	80.002	19.994	103.125	20.110	4.497	0.531
921.500	543.476	80.003	19.994	103.123	20.106	4.838	0.506
922.000	543.728	80.004	19.991	103.119	20.108	4.693	0.501
922.500	543.963	80.001	19.995	103.120	20.104	4.944	0.500
923.000	544.239	80.003	19.993	103.122	20.108	4.700	0.499
923.500	544.499	79.999	19.996	103.123	20.108	4.656	0.523
924.000	544.724	79.999	19.995	103.125	20.109	4.568	0.511
924.500	545.034	80.003	19.993	103.127	20.107	4.747	0.511
925.000	545.257	80.002	19.994	103.129	20.108	4.646	0.534
925.500	545.511	80.000	19.994	103.129	20.110	4.477	0.505
926.000	545.762	80.000	19.995	103.129	20.109	4.617	0.491
926.500	546.010	80.002	19.994	103.129	20.107	4.758	0.502
927.000	546.269	80.003	19.994	103.127	20.109	4.611	0.503
927.500	546.533	80.004	19.992	103.124	20.110	4.524	0.515
928.000	546.808	80.004	19.993	103.125	20.110	4.514	0.531
928.500	547.047	80.001	19.995	103.127	20.110	4.507	0.527
929.000	547.349	80.001	19.994	103.128	20.108	4.646	0.528
929.500	547.547	80.002	19.995	103.128	20.109	4.589	0.520
930.000	547.796	80.003	19.996	103.130	20.113	4.230	0.473
930.500	548.013	80.002	19.994	103.128	20.110	4.509	0.456
931.000	548.298	80.004	19.994	103.127	20.112	4.356	0.483
931.500	548.561	80.004	19.995	103.127	20.112	4.303	0.525
932.000	548.831	80.002	19.993	103.127	20.112	4.303	0.541
932.501	549.068	80.005	19.994	103.125	20.115	4.113	0.520
933.000	549.335	80.002	19.995	103.121	20.113	4.273	0.505
933.500	549.595	80.002	19.995	103.120	20.111	4.411	0.515
934.000	549.833	80.002	19.994	103.120	20.113	4.286	0.513
934.500	550.104	80.001	19.994	103.121	20.110	4.503	0.504
935.000	550.355	80.000	19.994	103.122	20.111	4.459	0.516
935.500	550.604	80.003	19.995	103.122	20.112	4.319	0.511
936.000	550.843	80.003	19.997	103.120	20.114	4.169	0.494
936.500	551.097	80.003	19.996	103.115	20.112	4.353	0.490
937.000	551.334	80.003	19.996	103.113	20.112	4.323	0.492
937.500	551.654	79.999	19.996	103.113	20.112	4.325	0.524
938.000	551.873	80.003	19.995	103.118	20.112	4.312	0.548
938.500	552.149	80.000	19.996	103.117	20.110	4.490	0.517
939.000	552.381	80.000	19.995	103.120	20.114	4.169	0.502
939.500	552.656	79.999	19.998	103.119	20.111	4.425	0.508
940.000	552.897	80.002	19.996	103.121	20.114	4.200	0.512
940.500	553.159	80.002	19.995	103.120	20.113	4.236	0.509
941.000	553.441	80.001	19.995	103.122	20.111	4.410	0.523
941.500	553.662	80.002	19.996	103.119	20.110	4.470	0.524
942.000	553.964	80.002	19.997	103.120	20.114	4.219	0.513
942.500	554.169	80.002	19.995	103.115	20.115	4.122	0.514
943.000	554.510	80.010	19.993	103.113	20.112	4.381	0.526
943.500	554.747	80.002	19.995	103.110	20.115	4.137	0.563
944.000	555.005	80.005	19.994	103.110	20.113	4.291	0.536
944.500	555.291	80.005	19.994	103.112	20.114	4.195	0.519
945.000	555.533	80.003	19.994	103.116	20.113	4.278	0.536
945.500	555.812	80.004	19.993	103.119	20.114	4.211	0.525
946.001	556.017	79.997	20.000	103.120	20.115	4.081	0.502
946.500	556.284	80.006	19.995	103.122	20.112	4.345	0.478
947.000	556.511	80.005	19.993	103.121	20.113	4.254	0.483
947.500	556.800	80.000	19.995	103.117	20.112	4.334	0.506
948.000	557.076	80.003	19.991	103.116	20.114	4.203	0.541
948.500	557.314	79.999	19.998	103.119	20.111	4.412	0.539
949.000	557.531	79.997	20.001	103.120	20.114	4.172	0.484
949.500	557.834	80.000	19.996	103.118	20.112	4.332	0.488
950.000	558.057	80.002	19.994	103.119	20.112	4.380	0.523
950.500	558.337	80.001	19.995	103.118	20.111	4.429	0.514
951.000	558.566	80.002	19.994	103.116	20.112	4.310	0.506
951.500	558.828	79.999	19.999	103.117	20.112	4.343	0.500
952.000	559.081	80.002	19.992	103.119	20.113	4.228	0.503
952.500	559.310	80.001	19.992	103.119	20.112	4.358	0.499
953.000	559.585	80.002	19.997	103.118	20.112	4.341	0.493
953.500	559.845	80.004	19.991	103.116	20.112	4.380	0.519
954.000	560.101	80.004	19.996	103.117	20.113	4.280	0.525
954.500	560.365	80.003	19.995	103.115	20.110	4.514	0.519
955.000	560.593	79.999	19.997	103.118	20.111	4.410	0.506
955.500	560.886	79.997	19.997	103.121	20.108	4.626	0.506
956.000	561.134	80.002	19.994	103.124	20.109	4.570	0.531
956.500	561.386	80.004	19.993	103.124	20.108	4.678	0.521
957.000	561.661	80.002	19.992	103.128	20.109	4.565	0.514
957.500	561.885	80.004	19.995	103.131	20.111	4.431	0.513
958.000	562.160	80.003	19.994	103.132	20.110	4.490	0.499
958.500	562.418	80.006	19.988	103.133	20.113	4.269	0.516
959.000	562.645	80.005	19.991	103.134	20.109	4.572	0.509
959.500	562.892	80.003	19.992	103.135	20.109	4.598	0.479
960.000	563.137	80.001	19.997	103.135	20.115	4.101	0.483
960.500	563.424	80.001	19.994	103.134	20.111	4.451	0.512
961.000	563.662	80.003	19.994	103.132	20.110	4.516	0.529
961.500	563.879	80.004	19.993	103.129	20.109	4.607	0.490
962.000	564.172	80.006	19.994	103.124	20.109	4.568	0.482
962.500	564.389	80.001	19.998	103.123	20.108	4.698	0.510
963.000	564.624	80.006	19.995	103.123	20.108	4.691	0.482
963.500	564.872	80.000	19.993	103.125	20.108	4.671	0.468
964.000	565.129	80.006	19.996	103.128	20.107	4.730	0.493
964.500	565.342	80.004	20.002	103.130	20.109	4.611	0.487
965.000	565.620	80.005	19.994	103.128	20.109	4.574	0.481
965.500	565.861	80.006	19.989	103.127	20.110	4.520	0.505
966.000	566.143	80.005	19.996	103.128	20.111	4.388	0.521
966.500	566.391	80.004	19.995	103.125	20.109	4.544	0.527
967.000	566.651	80.002	19.996	103.123	20.109	4.598	0.519
967.500	566.888	80.002	19.994	103.122	20.110	4.505	0.502
968.000	567.161	80.003	19.997	103.121	20.112	4.323	0.503
968.501	567.375	80.004	19.989	103.116	20.110	4.525	0.498
969.000	567.633	80.001	19.991	103.118	20.107	4.719	0.480
969.500	567.916	80.005	19.992	103.120	20.108	4.639	0.507
970.000	568.140	80.008	19.991	103.125	20.112	4.364	0.524
970.500	568.377	80.005	19.991	103.130	20.113	4.230	0.484
971.000	568.669	80.001	19.993	103.135	20.112	4.373	0.495
971.500	568.918	79.998	19.999	103.135	20.112	4.328	0.535
972.000	569.178	80.003	19.994	103.136	20.110	4.468	0.525
972.500	569.419	79.997	19.997	103.136	20.112	4.306	0.505
973.000	569.672	80.004	19.995	103.130	20.111	4.453	0.498
973.500	569.922	80.005	19.994	103.123	20.113	4.299	0.498
974.000	570.190	80.002	19.997	103.120	20.113	4.251	0.511
974.500	570.414	80.003	19.992	103.118	20.115	4.085	0.505
975.000	570.638	80.002	19.995	103.116	20.112	4.338	0.469
975.500	570.906	80.002	19.993	103.115	20.115	4.071	0.469
976.000	571.200	80.003	19.992	103.116	20.116	4.043	0.527
976.500	571.411	80.001	19.994	103.120	20.110	4.500	0.534
977.000	571.675	80.004	19.996	103.121	20.113	4.288	0.490
977.500	571.914	80.004	19.994	103.122	20.115	4.109	0.489
978.000	572.175	80.001	19.996	103.128	20.112	4.303	0.502
978.500	572.405	79.997	19.997	103.132	20.115	4.117	0.495
979.000	572.697	80.003	19.995	103.130	20.111	4.397	0.506
979.500	572.981	80.003	19.995	103.129	20.113	4.290	0.549
980.000	573.206	80.004	19.995	103.127	20.112	4.364	0.543
980.500	573.476	80.001	19.996	103.124	20.113	4.232	0.502
981.000	573.734	80.003	19.994	103.124	20.111	4.388	0.511
981.500	573.963	80.001	19.999	103.125	20.113	4.264	0.507
982.000	574.281	80.007	19.993	103.125	20.115	4.109	0.517
982.500	574.536	80.003	19.995	103.128	20.113	4.228	0.560
983.000	574.780	80.001	19.995	103.130	20.113	4.226	0.536
983.500	575.067	79.999	19.997	103.128	20.112	4.380	0.515
984.000	575.315	80.005	19.996	103.125	20.114	4.193	0.533
984.500	575.594	80.007	19.994	103.122	20.114	4.150	0.531
985.000	575.822	80.003	19.998	103.114	20.116	4.059	0.517
985.500	576.108	80.005	19.995	103.109	20.114	4.176	0.511
986.000	576.344	80.004	19.995	103.106	20.116	3.999	0.518
986.500	576.614	80.004	19.995	103.102	20.115	4.140	0.514
987.000	576.868	80.006	19.994	103.100	20.114	4.168	0.515
987.500	577.150	80.006	19.995	103.102	20.115	4.075	0.530
988.000	577.379	80.006	19.994	103.106	20.118	3.906	0.523
988.500	577.605	80.004	19.996	103.111	20.117	3.936	0.483
989.000	577.893	80.004	19.997	103.115	20.114	4.159	0.484
989.500	578.131	80.005	19.995	103.118	20.114	4.200	0.520
990.000	578.387	80.005	19.995	103.119	20.110	4.473	0.510
990.500	578.650	80.003	19.994	103.113	20.116	4.044	0.506
991.000	578.907	80.005	19.997	103.109	20.114	4.191	0.520
991.500	579.190	80.005	19.992	103.110	20.114	4.163	0.530
992.000	579.410	80.005	19.997	103.113	20.113	4.277	0.522
992.500	579.632	80.007	19.994	103.115	20.114	4.167	0.472
993.000	579.888	80.006	19.995	103.121	20.114	4.154	0.460
993.500	580.155	80.005	19.994	103.123	20.115	4.122	0.501
994.000	580.403	80.003	19.994	103.125	20.114	4.195	0.519
994.500	580.686	80.003	19.993	103.125	20.118	3.845	0.523
995.000	580.940	80.003	19.997	103.125	20.112	4.312	0.533
995.500	581.166	80.008	19.994	103.124	20.115	4.066	0.508
996.001	581.414	80.007	19.995	103.125	20.117	3.975	0.477
996.501	581.715	80.001	19.996	103.125	20.114	4.191	0.511
997.000	581.953	80.004	19.995	103.127	20.112	4.353	0.544
997.500	582.207	80.003	19.996	103.129	20.113	4.258	0.516
998.000	582.487	80.004	19.994	103.131	20.114	4.159	0.513
998.500	582.740	80.001	19.996	103.132	20.116	4.051	0.534
999.000	582.974	80.004	19.995	103.131	20.111	4.436	0.510
999.500	583.227	80.003	19.994	103.130	20.112	4.303	0.487
1000.000	583.513	80.001	19.997	103.131	20.113	4.251	0.513
1000.500	583.767	80.003	19.995	103.130	20.114	4.197	0.540
1001.000	584.027	80.003	19.996	103.128	20.116	4.005	0.527
1001.500	584.251	80.003	19.995	103.127	20.117	3.916	0.499
1002.000	584.514	80.002	19.996	103.122	20.111	4.418	0.486
1002.500	584.774	80.004	19.993	103.117	20.113	4.291	0.505
1003.000	585.023	80.003	19.997	103.115	20.111	4.458	0.516
1003.500	585.281	80.003	19.993	103.113	20.113	4.280	0.507
1004.000	585.523	80.001	19.994	103.114	20.111	4.390	0.504
1004.500	585.739	80.001	19.996	103.116	20.107	4.773	0.479
1005.000	585.994	80.005	19.994	103.120	20.111	4.446	0.464
1005.500	586.282	80.004	19.994	103.122	20.108	4.632	0.507
1006.000	586.514	80.006	19.994	103.122	20.107	4.732	0.531
1006.500	586.805	80.007	19.994	103.124	20.112	4.343	0.521
1007.000	587.034	80.003	19.992	103.124	20.112	4.375	0.522
1007.500	587.282	80.001	19.999	103.123	20.112	4.332	0.499
1008.000	587.538	80.006	19.994	103.123	20.109	4.615	0.491
1008.500	587.751	80.005	19.994	103.125	20.106	4.786	0.486
1009.000	588.043	80.004	19.997	103.124	20.111	4.437	0.487
1009.500	588.249	80.005	19.993	103.124	20.106	4.835	0.502
1010.000	588.541	80.003	19.996	103.120	20.110	4.498	0.498
1010.500	588.736	80.000	19.999	103.115	20.108	4.695	0.492
1011.000	589.017	80.000	20.001	103.114	20.109	4.548	0.481
1011.500	589.292	80.007	19.992	103.112	20.110	4.539	0.516
1012.000	589.568	80.002	19.997	103.113	20.109	4.587	0.553
1012.500	589.811	80.003	19.996	103.118	20.109	4.580	0.535
1013.001	590.038	80.005	19.994	103.123	20.108	4.691	0.495
1013.500	590.308	80.002	19.994	103.126	20.109	4.580	0.484
1014.000	590.529	80.003	19.994	103.127	20.107	4.714	0.494
1014.500	590.834	80.004	19.995	103.128	20.107	4.705	0.508
1015.000	591.090	80.005	19.994	103.122	20.107	4.701	0.544
1015.500	591.363	80.005	19.994	103.120	20.107	4.768	0.545
1016.000	591.585	80.000	19.999	103.120	20.109	4.601	0.511
1016.500	591.804	80.001	19.996	103.119	20.110	4.534	0.468
1017.000	592.068	80.000	19.996	103.118	20.108	4.679	0.462
1017.500	592.328	80.003	19.995	103.125	20.108	4.677	0.504
1018.000	592.581	80.001	19.994	103.125	20.107	4.775	0.519
1018.500	592.810	80.003	19.992	103.124	20.107	4.748	0.497
1019.000	593.059	80.005	19.995	103.120	20.109	4.593	0.480
1019.500	593.328	80.002	20.000	103.115	20.112	4.365	0.498
1020.000	593.563	80.003	19.995	103.113	20.106	4.839	0.511
1020.500	593.899	80.002	19.995	103.111	20.110	4.517	0.537
1021.000	594.108	79.998	19.997	103.109	20.111	4.411	0.558
1021.500	594.352	80.003	19.996	103.111	20.110	4.524	0.499
1022.000	594.655	80.008	19.992	103.113	20.108	4.684	0.500
1022.500	594.895	80.002	19.992	103.115	20.106	4.783	0.545
1023.000	595.122	80.001	19.997	103.118	20.105	4.922	0.504
1023.500	595.380	80.003	19.995	103.118	20.107	4.740	0.476
1024.000	595.662	80.000	19.998	103.116	20.108	4.684	0.512
1024.501	595.889	80.003	19.996	103.113	20.106	4.807	0.524
1025.001	596.159	80.008	19.993	103.106	20.104	4.993	0.503
1025.500	596.418	79.999	19.997	103.102	20.105	4.926	0.514
1026.000	596.688	80.003	19.995	103.098	20.104	4.948	0.529
1026.500	596.966	80.003	19.995	103.097	20.103	5.071	0.538
1027.000	597.194	79.998	19.999	103.100	20.105	4.863	0.527
1027.500	597.497	80.002	19.996	103.102	20.104	4.997	0.519
1028.000	597.708	80.001	19.996	103.102	20.098	5.450	0.523
1028.501	597.924	79.998	19.994	103.102	20.102	5.173	0.471
1029.001	598.213	80.002	19.996	103.103	20.098	5.420	0.466
1029.500	598.466	79.998	19.997	103.100	20.098	5.463	0.523
1030.000	598.755	80.002	20.001	103.098	20.098	5.491	0.542
1030.500	599.034	79.998	19.994	103.097	20.095	5.656	0.555
1031.000	599.294	80.002	19.996	103.099	20.097	5.573	0.553
1031.500	599.554	80.002	19.998	103.098	20.094	5.779	0.529
1032.000	599.801	80.003	19.990	103.098	20.099	5.394	0.514
1032.500	600.061	80.003	19.994	103.103	20.095	5.694	0.507
1033.000	600.312	80.001	19.995	103.106	20.094	5.761	0.509
1033.500	600.583	80.000	20.001	103.108	20.098	5.456	0.516
1034.000	600.876	80.002	19.988	103.108	20.096	5.601	0.543
1034.500	601.144	80.002	19.993	103.111	20.095	5.703	0.562
1035.000	601.417	80.002	19.991	103.107	20.095	5.718	0.551
1035.500	601.650	80.000	19.994	103.106	20.091	5.993	0.524
1036.000	601.906	80.001	19.996	103.104	20.096	5.627	0.498
1036.500	602.184	80.004	19.994	103.104	20.094	5.768	0.512
1037.000	602.438	80.001	19.994	103.102	20.094	5.762	0.533
1037.500	602.715	79.999	19.995	103.103	20.094	5.743	0.532
1038.001	602.955	79.998	20.002	103.102	20.095	5.661	0.524
1038.501	603.178	79.996	19.999	103.102	20.094	5.748	0.490
1039.000	603.476	80.006	19.992	103.104	20.096	5.600	0.492
1039.501	603.739	80.004	19.997	103.108	20.099	5.358	0.541
1040.001	603.989	79.995	20.002	103.110	20.096	5.589	0.537
1040.500	604.292	80.003	19.995	103.113	20.099	5.403	0.533
1041.000	604.552	80.002	19.996	103.115	20.097	5.572	0.558
1041.500	604.836	80.008	19.992	103.114	20.095	5.726	0.553
1042.000	605.093	80.002	19.996	103.111	20.099	5.364	0.542
1042.500	605.354	80.005	19.995	103.110	20.097	5.557	0.530
1043.000	605.594	80.002	19.996	103.109	20.095	5.683	0.510
1043.500	605.873	80.006	19.995	103.107	20.098	5.486	0.510
1044.000	606.106	80.005	19.995	103.107	20.099	5.373	0.515
1044.500	606.357	80.004	19.990	103.109	20.101	5.250	0.498
1045.000	606.669	80.006	19.994	103.109	20.097	5.507	0.524
1045.500	606.915	80.000	20.000	103.106	20.100	5.280	0.561
1046.001	607.212	80.007	19.991	103.102	20.100	5.265	0.551
1046.501	607.475	80.005	19.991	103.103	20.102	5.139	0.552
1047.000	607.704	80.006	19.989	103.104	20.103	5.092	0.526
1047.500	608.007	80.004	19.993	103.109	20.101	5.224	0.512
1048.000	608.262	80.006	19.993	103.116	20.104	4.977	0.545
1048.500	608.568	80.005	19.993	103.126	20.101	5.222	0.559
1049.000	608.762	80.005	19.995	103.131	20.102	5.105	0.530
1049.501	609.051	79.996	19.999	103.133	20.106	4.821	0.492
1050.001	609.319	80.006	19.995	103.131	20.107	4.739	0.520
1050.501	609.575	80.000	19.998	103.131	20.104	5.009	0.540
1051.000	609.858	80.006	19.989	103.129	20.107	4.745	0.531
1051.500	610.138	80.005	19.991	103.129	20.104	4.942	0.551
1052.000	610.372	80.005	19.992	103.129	20.104	4.942	0.538
1052.500	610.674	80.006	19.993	103.131	20.107	4.739	0.525
1053.000	610.892	80.004	19.994	103.130	20.109	4.620	0.528
1053.501	611.214	80.011	19.990	103.133	20.108	4.629	0.530
1054.001	611.443	80.004	19.994	103.132	20.110	4.536	0.546
1054.501	611.737	80.004	19.996	103.132	20.109	4.577	0.537
1055.001	611.996	80.000	19.998	103.131	20.108	4.642	0.538
1055.501	612.245	80.001	19.990	103.131	20.106	4.795	0.530
1056.000	612.523	80.003	19.996	103.131	20.110	4.540	0.517
1056.500	612.788	80.007	19.988	103.130	20.108	4.644	0.535
1057.000	613.046	80.003	19.993	103.131	20.108	4.687	0.533
1057.500	613.320	80.001	19.998	103.132	20.107	4.756	0.527
1058.001	613.586	80.003	19.994	103.131	20.107	4.707	0.536
1058.501	613.882	80.007	19.994	103.131	20.109	4.607	0.551
1059.001	614.112	80.004	19.993	103.132	20.108	4.627	0.544
1059.501	614.371	80.001	19.995	103.131	20.108	4.689	0.507
1060.001	614.702	80.007	19.996	103.131	20.112	4.317	0.540
1060.501	614.952	80.004	19.997	103.131	20.110	4.510	0.586
1061.000	615.218	79.999	19.999	103.130	20.110	4.473	0.549
1061.500	615.543	80.000	19.995	103.128	20.111	4.397	0.553
1062.000	615.733	80.005	19.996	103.127	20.113	4.237	0.553
1062.501	616.018	80.005	19.991	103.127	20.109	4.616	0.495
1063.001	616.298	80.005	19.994	103.128	20.110	4.527	0.520
1063.500	616.589	80.001	19.996	103.130	20.110	4.484	0.568
1064.001	616.836	80.005	19.995	103.131	20.106	4.787	0.554
1064.501	617.118	80.003	19.993	103.131	20.107	4.707	0.533
1065.001	617.330	80.005	19.996	103.132	20.110	4.503	0.512
1065.501	617.644	80.006	19.993	103.131	20.109	4.542	0.510
1066.000	617.896	80.008	19.990	103.130	20.107	4.758	0.546
1066.500	618.185	80.007	19.994	103.132	20.106	4.832	0.553
1067.000	618.444	80.005	19.994	103.133	20.107	4.745	0.545
1067.501	618.697	80.006	19.991	103.132	20.110	4.488	0.530
1068.001	619.004	80.009	19.993	103.133	20.108	4.691	0.536
1068.501	619.216	80.006	19.998	103.134	20.107	4.774	0.539
1069.001	619.468	80.002	19.995	103.132	20.110	4.484	0.492
1069.500	619.750	80.005	19.993	103.131	20.108	4.665	0.499
1070.000	620.013	80.006	19.995	103.131	20.111	4.434	0.539
1070.501	620.297	80.007	19.992	103.129	20.106	4.826	0.546
1071.001	620.541	80.005	19.994	103.128	20.106	4.813	0.538
1071.501	620.841	80.007	19.989	103.129	20.106	4.787	0.536
1072.001	621.065	80.009	19.992	103.130	20.107	4.731	0.534
1072.500	621.305	80.008	19.994	103.131	20.111	4.447	0.494
1073.000	621.613	80.003	19.990	103.132	20.112	4.341	0.506
1073.500	621.902	80.010	19.986	103.133	20.109	4.544	0.572
1074.000	622.159	80.006	19.997	103.136	20.110	4.464	0.571
1074.500	622.409	80.009	19.992	103.134	20.109	4.598	0.527
1075.001	622.646	80.007	19.993	103.134	20.107	4.705	0.497
1075.501	622.954	80.007	19.995	103.135	20.104	4.953	0.516
1076.000	623.238	80.005	19.995	103.133	20.115	4.118	0.568
1076.500	623.457	80.005	19.995	103.129	20.102	5.165	0.547
1077.000	623.776	80.005	19.994	103.128	20.118	3.904	0.521
1077.500	623.929	80.006	19.992	103.128	20.117	3.949	0.505
1078.000	624.245	80.004	19.992	103.128	20.108	4.626	0.471
1078.500	624.492	80.002	19.997	103.129	20.112	4.347	0.516
1079.001	624.712	80.000	19.997	103.132	20.108	4.642	0.515
1079.501	625.036	80.000	19.998	103.133	20.114	4.198	0.505
1080.000	625.247	80.002	19.992	103.131	20.113	4.259	0.540
1080.501	625.544	80.003	19.993	103.131	20.109	4.596	0.522
1081.001	625.791	80.004	19.992	103.130	20.108	4.694	0.526
1081.500	626.072	80.005	19.995	103.131	20.115	4.077	0.536
1082.000	626.293	80.005	19.993	103.132	20.114	4.183	0.515
1082.500	626.531	80.000	19.999	103.136	20.114	4.181	0.480
1083.000	626.877	79.999	19.996	103.136	20.110	4.490	0.521
1083.500	627.125	79.995	20.001	103.136	20.115	4.099	0.589
1084.001	627.410	80.004	19.993	103.134	20.112	4.376	0.564
1084.501	627.569	79.998	19.992	103.134	20.113	4.252	0.489
1085.000	627.809	80.003	19.994	103.133	20.112	4.365	0.421
1085.501	628.151	80.008	19.990	103.132	20.112	4.347	0.491
1086.001	628.379	80.004	19.992	103.133	20.113	4.226	0.576
1086.501	628.675	80.005	19.996	103.135	20.112	4.323	0.547
1087.001	629.067	80.002	19.997	103.134	20.115	4.091	0.606
1087.501	629.070	80.003	19.991	103.132	20.113	4.256	0.541
1088.000	629.647	80.007	19.992	103.133	20.109	4.559	0.487
1088.500	629.758	80.010	19.992	103.131	20.113	4.243	0.634
1089.000	629.780	79.999	19.994	103.131	20.112	4.308	0.411
1089.500	630.068	79.999	19.994	103.132	20.110	4.492	0.222
1090.000	630.857	80.008	19.990	103.132	20.110	4.490	0.694
1090.500	630.229	80.001	19.997	103.133	20.114	4.196	0.619
1091.000	631.481	80.006	19.990	103.134	20.110	4.486	0.392
1091.500	631.109	80.007	19.992	103.133	20.111	4.384	0.752
1092.000	631.500	80.008	19.989	103.134	20.110	4.464	0.450
1092.501	631.711	80.002	19.994	103.137	20.113	4.274	0.310
1093.001	631.988	79.999	19.997	103.136	20.112	4.360	0.545
1093.500	632.493	80.001	19.996	103.137	20.114	4.168	0.635
1094.000	632.698	80.001	19.991	103.137	20.111	4.430	0.746
1094.500	632.706	80.007	19.994	103.135	20.113	4.272	0.462
1095.000	632.814	80.001	19.992	103.134	20.110	4.506	0.165
1095.500	633.501	80.004	19.994	103.134	20.107	4.709	0.455
1096.001	633.699	80.004	19.997	103.133	20.113	4.237	0.840
1096.501	633.866	80.002	19.991	103.130	20.114	4.189	0.625
1097.001	634.045	80.003	19.992	103.128	20.113	4.226	0.355
1097.500	634.337	80.001	19.997	103.124	20.115	4.124	0.408
1098.000	634.750	80.004	19.995	103.116	20.111	4.447	0.588
1098.500	634.852	80.005	19.993	103.116	20.114	4.148	0.610
1099.000	635.118	80.002	19.995	103.117	20.111	4.462	0.441
1099.500	635.396	80.001	19.994	103.119	20.110	4.466	0.456
1100.000	635.713	80.007	19.993	103.123	20.110	4.486	0.569
1100.500	635.924	80.002	19.998	103.130	20.110	4.510	0.562
1101.000	636.188	80.004	19.997	103.131	20.111	4.442	0.502
1101.500	636.449	80.003	19.994	103.133	20.114	4.161	0.500
1102.000	636.728	80.004	19.992	103.134	20.110	4.514	0.532
1102.500	636.983	80.006	19.991	103.134	20.108	4.687	0.537
1103.000	637.205	80.004	19.996	103.133	20.109	4.615	0.506
1103.500	637.520	80.002	19.992	103.132	20.107	4.702	0.507
1104.000	637.762	80.004	19.993	103.134	20.109	4.578	0.547
1104.500	638.023	80.003	19.993	103.135	20.106	4.799	0.530
1105.000	638.238	80.003	19.993	103.136	20.106	4.795	0.490
1105.500	638.525	80.001	19.997	103.136	20.110	4.486	0.489
1106.000	638.805	80.001	19.994	103.136	20.111	4.404	0.534
1106.500	639.057	80.001	19.992	103.134	20.107	4.728	0.549
1107.000	639.365	80.004	19.994	103.130	20.106	4.836	0.546
1107.500	639.616	80.002	19.993	103.124	20.106	4.810	0.559
1108.000	639.815	80.002	19.993	103.122	20.109	4.594	0.504
1108.500	640.148	80.002	19.994	103.123	20.105	4.932	0.492
1109.000	640.353	80.002	19.996	103.123	20.108	4.641	0.535
1109.500	640.631	80.003	19.992	103.127	20.107	4.752	0.510
1110.000	640.910	80.003	19.995	103.132	20.106	4.788	0.520
1110.500	641.164	80.003	19.993	103.133	20.106	4.797	0.545
1111.001	641.463	80.003	19.996	103.132	20.105	4.864	0.543
1111.501	641.714	80.002	19.995	103.130	20.106	4.804	0.551
1112.001	641.988	80.002	19.994	103.127	20.105	4.862	0.538
1112.500	642.293	80.001	19.994	103.125	20.104	4.951	0.553
1113.001	642.510	80.001	19.995	103.122	20.103	5.096	0.551
1113.501	642.756	80.003	19.994	103.120	20.108	4.663	0.492
1114.001	643.047	80.002	19.995	103.119	20.106	4.817	0.500
1114.500	643.253	80.002	19.996	103.117	20.106	4.799	0.517
1115.001	643.575	80.004	19.994	103.117	20.107	4.715	0.512
1115.501	643.835	80.004	19.994	103.120	20.106	4.851	0.555
1116.000	644.058	80.005	19.996	103.122	20.104	4.944	0.533
1116.501	644.332	80.005	19.994	103.123	20.104	4.939	0.490
1117.001	644.600	80.003	19.994	103.128	20.105	4.918	0.519
1117.500	644.845	80.002	19.995	103.129	20.108	4.645	0.527
1118.001	645.102	80.002	19.997	103.128	20.106	4.844	0.508
1118.501	645.364	80.001	19.996	103.128	20.103	5.020	0.510
1119.001	645.638	80.004	19.993	103.128	20.107	4.767	0.527
1119.501	645.916	79.998	20.000	103.129	20.108	4.687	0.544
1120.000	646.215	80.004	19.993	103.122	20.104	4.940	0.565
1120.500	646.438	80.002	19.996	103.122	20.105	4.864	0.550
1121.000	646.705	80.005	19.990	103.119	20.106	4.790	0.506
1121.500	646.956	80.010	19.991	103.117	20.103	5.022	0.504
1122.000	647.274	80.000	19.997	103.116	20.105	4.866	0.543
1122.500	647.522	79.999	19.997	103.124	20.106	4.794	0.567
1123.000	647.766	80.002	19.996	103.125	20.104	5.011	0.529
1123.500	648.031	80.003	19.992	103.128	20.109	4.610	0.500
1124.000	648.317	80.001	19.994	103.130	20.107	4.771	0.530
1124.500	648.526	80.004	19.994	103.130	20.106	4.840	0.523
1125.000	648.845	80.007	19.994	103.130	20.106	4.816	0.511
1125.500	649.083	80.007	19.993	103.127	20.106	4.786	0.542
1126.000	649.361	80.001	20.001	103.124	20.107	4.707	0.537
1126.500	649.587	80.009	19.991	103.120	20.102	5.159	0.510
1127.000	649.837	80.004	19.995	103.115	20.107	4.748	0.490
1127.500	650.156	80.008	19.994	103.113	20.109	4.558	0.522
1128.000	650.418	80.005	19.997	103.113	20.109	4.614	0.575
1128.501	650.689	80.001	19.996	103.115	20.107	4.740	0.557
1129.001	650.921	80.002	19.994	103.116	20.099	5.348	0.518
1129.501	651.185	80.003	19.996	103.117	20.111	4.426	0.500
1130.000	651.476	80.003	19.995	103.119	20.106	4.794	0.525
1130.500	651.738	80.003	19.993	103.120	20.106	4.809	0.554
1131.000	651.990	79.998	19.991	103.118	20.108	4.697	0.533
1131.500	652.210	80.009	19.992	103.118	20.108	4.649	0.493
1132.000	652.494	80.005	19.994	103.117	20.107	4.708	0.488
1132.501	652.722	80.002	19.995	103.114	20.109	4.546	0.508
1133.001	653.043	80.005	19.991	103.111	20.109	4.554	0.530
1133.500	653.314	80.003	19.995	103.112	20.109	4.604	0.570
1134.000	653.508	80.003	19.995	103.110	20.112	4.327	0.529
1134.500	653.775	80.005	19.997	103.111	20.109	4.585	0.463
1135.001	654.057	80.004	19.995	103.110	20.108	4.647	0.505
1135.501	654.294	80.002	19.994	103.107	20.108	4.680	0.534
1136.000	654.562	80.004	19.995	103.105	20.108	4.654	0.512
1136.500	654.824	80.002	19.999	103.107	20.107	4.764	0.517
1137.001	655.044	79.998	19.995	103.101	20.108	4.675	0.506
1137.501	655.365	79.998	19.999	103.099	20.110	4.539	0.512
1138.000	655.608	80.000	19.997	103.098	20.107	4.727	0.552
1138.501	655.784	80.000	19.992	103.098	20.106	4.801	0.492
1139.001	656.123	80.004	19.990	103.095	20.107	4.730	0.468
1139.500	656.370	80.003	19.992	103.099	20.109	4.609	0.551
1140.000	656.689	80.004	19.994	103.101	20.109	4.563	0.576
1140.500	656.667	80.007	19.990	103.102	20.110	4.529	0.431
1141.000	657.029	79.999	19.998	103.103	20.108	4.669	0.319
1141.500	657.571	79.998	19.996	103.106	20.105	4.920	0.622
1142.000	657.636	80.004	19.993	103.103	20.109	4.543	0.755
1142.500	658.107	80.000	19.994	103.107	20.111	4.457	0.572
1143.000	657.805	79.998	19.995	103.111	20.110	4.530	0.353
1143.500	658.432	80.001	19.996	103.112	20.109	4.543	0.247
1144.000	658.462	80.008	19.995	103.115	20.109	4.551	0.491
1144.500	658.832	80.003	19.993	103.119	20.111	4.439	0.529
1145.001	659.085	80.002	19.995	103.115	20.108	4.694	0.512
1145.501	659.287	79.999	19.994	103.114	20.111	4.424	0.539
1146.000	659.595	80.010	19.989	103.110	20.110	4.487	0.482
1146.500	659.836	80.000	20.000	103.109	20.110	4.535	0.529
1147.000	660.112	80.006	19.990	103.106	20.107	4.732	0.533
1147.501	660.316	79.999	20.000	103.108	20.106	4.796	0.498
1148.001	660.597	80.006	19.991	103.110	20.109	4.565	0.483
1148.500	660.802	80.002	19.991	103.112	20.107	4.757	0.485
1149.000	661.054	80.004	19.993	103.113	20.106	4.781	0.471
1149.500	661.299	79.999	19.992	103.120	20.109	4.589	0.477
1150.000	661.549	80.001	19.996	103.120	20.108	4.636	0.496
1150.500	661.741	80.004	19.989	103.119	20.110	4.528	0.469
1151.000	662.029	80.009	19.992	103.122	20.112	4.309	0.461
1151.500	662.289	80.007	19.993	103.119	20.112	4.376	0.514
1152.000	662.501	80.008	19.992	103.116	20.112	4.374	0.510
1152.500	662.710	80.006	19.993	103.111	20.112	4.337	0.447
1153.000	662.966	80.002	19.996	103.109	20.110	4.504	0.443
1153.500	663.217	79.999	19.996	103.105	20.112	4.365	0.486
1154.000	663.462	80.004	19.992	103.101	20.113	4.296	0.502
1154.500	663.685	80.002	19.995	103.097	20.110	4.519	0.482
1155.000	663.920	80.003	19.992	103.097	20.109	4.567	0.463
1155.500	664.202	80.002	19.989	103.097	20.111	4.453	0.488
1156.000	664.439	80.004	19.995	103.100	20.108	4.667	0.518
1156.501	664.693	80.004	19.992	103.104	20.109	4.556	0.505
1157.001	664.919	80.009	19.991	103.107	20.107	4.723	0.485
1157.501	665.155	80.004	19.993	103.110	20.107	4.734	0.471
1158.001	665.402	79.999	19.997	103.109	20.108	4.651	0.473
1158.500	665.614	80.004	19.994	103.105	20.106	4.840	0.471
1159.000	665.860	80.007	19.996	103.105	20.107	4.753	0.459
1159.500	666.122	80.005	19.992	103.105	20.107	4.716	0.483
1160.000	666.369	80.008	19.992	103.106	20.107	4.732	0.508
1160.500	666.608	80.000	19.995	103.109	20.109	4.595	0.497
1161.000	666.818	80.003	19.993	103.109	20.105	4.915	0.467
1161.501	667.086	80.001	19.992	103.108	20.104	4.946	0.463
1162.001	667.304	80.001	19.994	103.105	20.111	4.418	0.482
1162.500	667.546	80.000	19.995	103.102	20.113	4.257	0.473
1163.000	667.789	79.995	20.001	103.100	20.109	4.610	0.473
1163.501	668.024	80.005	19.991	103.099	20.110	4.491	0.482
1164.001	668.279	79.999	19.994	103.098	20.112	4.340	0.484
1164.500	668.531	80.002	19.995	103.099	20.110	4.504	0.498
1165.001	668.758	80.003	19.993	103.101	20.109	4.578	0.493
1165.501	669.016	80.001	19.993	103.104	20.112	4.377	0.482
1166.000	669.292	80.002	19.993	103.108	20.111	4.412	0.509
1166.500	669.510	80.002	19.990	103.111	20.108	4.661	0.514
1167.000	669.726	80.005	19.992	103.110	20.109	4.544	0.464
1167.500	670.028	80.008	19.987	103.109	20.109	4.557	0.476
1168.000	670.231	80.006	19.991	103.107	20.109	4.613	0.511
1168.500	670.498	80.005	19.991	103.107	20.109	4.607	0.488
1169.000	670.713	79.998	19.994	103.106	20.106	4.793	0.476
1169.500	670.944	80.006	19.993	103.108	20.107	4.736	0.464
1170.000	671.232	80.000	19.990	103.109	20.104	4.939	0.482
1170.500	671.413	80.004	19.994	103.110	20.108	4.697	0.494
1171.000	671.645	80.001	19.996	103.110	20.108	4.636	0.442
1171.500	671.906	80.004	19.992	103.108	20.107	4.710	0.453
1172.000	672.174	80.003	19.992	103.107	20.104	4.955	0.511
1172.501	672.408	80.000	19.991	103.108	20.107	4.725	0.515
1173.001	672.631	80.001	19.997	103.107	20.107	4.727	0.479
1173.501	672.908	80.001	19.997	103.103	20.107	4.770	0.478
1174.000	673.122	80.004	19.995	103.103	20.107	4.712	0.496
1174.500	673.384	80.002	19.995	103.105	20.107	4.751	0.484
1175.001	673.650	80.003	19.995	103.105	20.106	4.811	0.502
1175.501	673.878	80.004	19.994	103.108	20.107	4.720	0.511
1176.000	674.151	80.006	19.992	103.114	20.104	5.010	0.497
1176.500	674.391	80.004	19.994	103.121	20.107	4.777	0.507
1177.000	674.651	80.001	19.996	103.119	20.109	4.556	0.507
1177.500	674.900	80.001	19.994	103.120	20.103	5.041	0.505
1178.000	675.199	80.006	19.990	103.121	20.106	4.800	0.528
1178.500	675.378	80.004	19.994	103.122	20.103	5.034	0.513
1179.000	675.576	80.000	19.994	103.118	20.108	4.677	0.428
1179.500	675.905	80.005	19.993	103.120	20.105	4.893	0.453
1180.000	676.170	80.009	19.994	103.119	20.108	4.646	0.560
1180.500	676.369	80.001	19.993	103.114	20.105	4.934	0.528
1181.001	676.633	80.003	19.992	103.109	20.103	5.060	0.463
1181.501	676.871	79.997	19.998	103.108	20.106	4.850	0.483
1182.001	677.121	80.003	19.992	103.108	20.105	4.893	0.495
1182.501	677.376	80.001	19.995	103.113	20.105	4.893	0.497
1183.000	677.620	80.006	19.992	103.114	20.105	4.928	0.502
1183.500	677.847	80.000	19.998	103.114	20.107	4.775	0.485
1184.000	678.093	79.997	19.997	103.109	20.107	4.749	0.472
1184.501	678.381	80.003	19.992	103.104	20.106	4.850	0.503
1185.001	678.611	80.004	19.992	103.099	20.103	5.086	0.526
1185.501	678.858	80.002	19.992	103.098	20.104	4.991	0.498
1186.001	679.096	80.003	19.998	103.098	20.099	5.337	0.482
1186.500	679.335	80.003	19.994	103.099	20.105	4.891	0.481
1187.001	679.605	80.003	19.993	103.101	20.102	5.129	0.492
1187.501	679.869	80.001	19.995	103.104	20.105	4.861	0.521
1188.000	680.095	80.001	19.992	103.103	20.104	4.943	0.512
1188.500	680.350	80.000	19.999	103.101	20.102	5.125	0.486
1189.000	680.645	80.003	19.995	103.101	20.105	4.885	0.516
1189.500	680.886	80.002	19.993	103.099	20.104	5.013	0.543
1190.000	681.119	79.999	19.995	103.097	20.103	5.032	0.505
1190.500	681.365	80.003	19.992	103.094	20.104	4.941	0.477
1191.000	681.599	80.005	19.993	103.094	20.106	4.811	0.479
1191.500	681.836	80.003	19.991	103.095	20.105	4.861	0.476
1192.001	682.112	80.002	19.995	103.097	20.102	5.099	0.492
1192.501	682.345	79.997	19.998	103.096	20.106	4.812	0.510
1193.000	682.609	79.999	20.000	103.098	20.105	4.911	0.503
1193.500	682.884	80.003	19.993	103.098	20.107	4.764	0.518
1194.000	683.111	79.999	19.992	103.103	20.107	4.762	0.520
1194.500	683.390	79.999	19.992	103.104	20.103	5.032	0.504
1195.000	683.639	80.001	19.994	103.105	20.104	4.963	0.517
1195.500	683.939	79.997	20.000	103.105	20.106	4.805	0.538
1196.000	684.137	80.000	19.995	103.104	20.104	4.963	0.523
1196.500	684.407	80.005	19.993	103.104	20.104	4.967	0.483
1197.000	684.616	80.002	19.993	103.104	20.104	5.015	0.473
1197.500	684.882	80.004	19.991	103.103	20.103	5.032	0.477
1198.000	685.179	80.003	19.995	103.106	20.104	5.000	0.518
1198.500	685.445	80.001	19.997	103.107	20.101	5.191	0.563
1199.000	685.650	80.001	19.994	103.107	20.099	5.379	0.517
1199.500	685.561	80.003	19.993	103.108	20.101	5.243	0.294
1200.000	685.985	80.003	19.989	103.108	20.102	5.171	0.226
1200.500	686.377	80.001	20.002	103.107	20.102	5.121	0.576
1201.000	686.650	80.002	19.996	103.104	20.104	4.980	0.740
1201.500	686.942	80.002	19.993	103.103	20.103	5.041	0.615
1202.000	687.213	80.002	19.999	103.104	20.103	5.032	0.564
1202.500	687.452	80.003	19.994	103.109	20.101	5.205	0.537
1203.001	687.723	80.004	19.994	103.111	20.104	4.978	0.510
1203.501	687.969	80.001	19.995	103.113	20.103	5.075	0.513
1204.001	688.207	80.005	19.993	103.112	20.104	5.001	0.501
1204.501	688.487	80.007	19.991	103.112	20.103	5.053	0.502
1205.000	688.752	80.003	19.999	103.111	20.105	4.934	0.532
1205.500	689.008	80.002	19.997	103.109	20.100	5.291	0.533
1206.000	689.245	80.001	19.994	103.108	20.099	5.341	0.507
1206.501	689.512	80.003	19.995	103.107	20.103	5.038	0.498
1207.001	689.782	80.003	19.994	103.104	20.106	4.835	0.521
1207.501	690.020	80.001	19.991	103.105	20.104	4.997	0.523
1208.001	690.284	80.002	19.999	103.106	20.104	5.006	0.505
1208.500	690.552	80.007	19.991	103.110	20.105	4.898	0.517
1209.000	690.791	80.002	19.994	103.116	20.105	4.867	0.520
1209.500	691.075	79.999	19.995	103.120	20.104	4.991	0.515
1210.000	691.336	80.007	19.993	103.121	20.106	4.829	0.534
1210.500	691.567	80.004	19.996	103.122	20.106	4.848	0.518
1211.001	691.806	80.002	19.997	103.121	20.108	4.682	0.481
1211.501	692.086	80.003	19.993	103.113	20.104	4.989	0.495
1212.000	692.332	80.006	19.995	103.109	20.105	4.900	0.522
1212.500	692.585	80.003	19.996	103.105	20.103	5.065	0.512
1213.000	692.839	80.002	19.993	103.100	20.104	4.954	0.503
1213.500	693.084	80.007	19.989	103.098	20.105	4.933	0.503
1214.000	693.324	80.006	19.990	103.100	20.103	5.056	0.492
1214.500	693.609	80.001	19.994	103.099	20.108	4.682	0.505
1215.000	693.868	80.000	19.998	103.098	20.105	4.909	0.535
1215.500	694.169	80.011	19.994	103.097	20.105	4.874	0.553
1216.000	694.449	80.005	19.994	103.098	20.103	5.067	0.571
1216.500	694.694	80.002	19.994	103.097	20.104	5.006	0.553
1217.001	695.037	80.007	19.993	103.096	20.104	4.995	0.557
1217.501	695.172	80.001	19.998	103.097	20.103	5.084	0.533
1218.000	695.466	80.007	19.992	103.099	20.103	5.095	0.453
1218.500	695.730	80.001	19.996	103.101	20.105	4.924	0.494
1219.000	695.966	79.996	20.001	103.101	20.102	5.156	0.529
1219.500	696.235	80.002	19.995	103.100	20.104	5.002	0.503
1220.000	696.505	80.002	19.992	103.102	20.106	4.835	0.522
1220.501	696.780	79.997	19.995	103.104	20.105	4.883	0.541
1221.001	697.062	80.004	19.995	103.106	20.105	4.863	0.551
1221.500	697.309	80.003	19.995	103.106	20.104	4.952	0.543
1222.000	697.583	80.003	19.996	103.112	20.101	5.198	0.526
1222.501	697.819	80.001	19.996	103.111	20.106	4.842	0.515
1223.001	698.098	80.003	19.995	103.108	20.107	4.714	0.512
1223.500	698.340	79.996	19.997	103.105	20.104	4.976	0.518
1224.000	698.613	80.004	19.995	103.106	20.104	4.976	0.518
1224.500	698.909	80.002	19.996	103.106	20.106	4.816	0.542
1225.001	699.182	80.003	19.994	103.106	20.107	4.762	0.569
1225.501	699.454	80.002	19.994	103.107	20.104	4.959	0.557
1226.001	699.729	80.002	19.994	103.107	20.103	5.026	0.546
1226.501	699.973	80.003	19.993	103.107	20.105	4.933	0.533
1227.000	700.223	80.005	19.992	103.104	20.107	4.738	0.506
1227.500	700.486	80.003	19.994	103.105	20.103	5.026	0.503
1228.000	700.740	80.006	19.994	103.106	20.103	5.039	0.515
1228.500	701.021	80.003	19.994	103.107	20.104	4.976	0.526
1229.000	701.275	80.004	19.993	103.109	20.103	5.041	0.535
1229.500	701.567	80.004	19.994	103.110	20.104	4.965	0.540
1230.000	701.761	80.003	19.995	103.112	20.103	5.045	0.516
1230.501	702.081	80.004	19.993	103.109	20.104	5.002	0.500
1231.001	702.345	80.004	19.994	103.107	20.103	5.045	0.549
1231.500	702.583	80.003	19.993	103.103	20.103	5.045	0.543
1232.000	702.858	80.005	19.994	103.102	20.102	5.104	0.508
1232.500	703.148	80.006	19.993	103.099	20.102	5.121	0.539
1233.000	703.429	80.007	19.993	103.099	20.105	4.911	0.567
1233.500	703.648	80.003	19.993	103.102	20.103	5.056	0.535
1234.000	703.966	80.005	19.993	103.105	20.105	4.913	0.518
1234.500	704.201	80.003	19.995	103.108	20.102	5.164	0.545
1235.000	704.490	80.006	19.994	103.110	20.100	5.272	0.539
1235.500	704.736	80.004	19.992	103.114	20.105	4.920	0.530
1236.000	704.993	80.006	19.993	103.114	20.107	4.714	0.519
1236.500	705.260	80.003	19.994	103.114	20.102	5.168	0.513
1237.000	705.525	80.005	19.992	103.112	20.103	5.023	0.528
1237.500	705.809	80.005	19.991	103.113	20.102	5.099	0.541
1238.000	706.054	80.004	19.994	103.113	20.103	5.041	0.539
1238.500	706.320	80.004	19.993	103.114	20.102	5.117	0.520
1239.000	706.561	80.005	19.994	103.116	20.102	5.121	0.509
1239.500	706.860	80.003	19.995	103.116	20.101	5.186	0.524
1240.000	707.133	80.005	19.995	103.117	20.104	5.008	0.556
1240.500	707.386	80.003	19.993	103.114	20.104	5.014	0.548
1241.000	707.637	80.003	19.995	103.112	20.102	5.161	0.514
1241.501	707.908	80.002	19.994	103.109	20.102	5.133	0.513
1242.001	708.142	80.001	19.994	103.109	20.102	5.114	0.514
1242.501	708.449	80.002	19.995	103.109	20.105	4.904	0.523
1243.001	708.684	80.003	19.994	103.110	20.102	5.101	0.541
1243.500	708.965	80.004	19.994	103.112	20.103	5.084	0.529
1244.000	709.219	80.001	19.994	103.114	20.103	5.069	0.525
1244.500	709.497	80.001	19.994	103.115	20.105	4.905	0.533
1245.000	709.732	80.002	19.993	103.113	20.104	4.991	0.523
1245.500	710.004	80.002	19.992	103.109	20.101	5.222	0.510
1246.000	710.260	80.004	19.993	103.108	20.106	4.796	0.518
1246.500	710.516	80.001	19.995	103.105	20.105	4.917	0.520
1247.000	710.768	80.002	19.995	103.100	20.102	5.129	0.510
1247.500	710.995	80.002	19.995	103.100	20.104	5.002	0.494
1248.000	711.309	80.002	19.996	103.105	20.104	4.965	0.510
1248.500	711.547	80.004	19.993	103.106	20.104	5.013	0.546
1249.000	711.794	80.003	19.993	103.109	20.102	5.101	0.519
1249.500	712.103	80.002	19.995	103.108	20.104	4.957	0.520
1250.000	712.342	80.002	19.994	103.107	20.106	4.786	0.552
1250.500	712.610	80.002	19.994	103.104	20.105	4.864	0.528
1251.000	712.871	80.004	19.994	103.099	20.106	4.842	0.518
1251.500	713.116	80.002	19.996	103.097	20.105	4.883	0.518
1252.000	713.388	80.004	19.992	103.097	20.106	4.827	0.511
1252.500	713.640	80.004	19.995	103.099	20.105	4.937	0.520
1253.000	713.863	80.001	19.995	103.099	20.105	4.931	0.500
1253.500	714.162	80.003	19.993	103.102	20.107	4.742	0.499
1254.001	714.406	80.003	19.993	103.105	20.102	5.138	0.532
1254.501	714.688	80.003	19.993	103.106	20.101	5.203	0.534
1255.000	714.951	80.004	19.994	103.107	20.100	5.324	0.535
1255.500	715.197	80.004	19.994	103.108	20.102	5.157	0.527
1256.001	715.478	80.002	19.994	103.108	20.101	5.218	0.518
1256.501	715.709	80.003	19.994	103.106	20.104	4.991	0.519
1257.000	715.993	80.004	19.994	103.106	20.106	4.807	0.513
1257.500	716.237	80.004	19.993	103.103	20.099	5.350	0.522
1258.000	716.534	80.003	19.995	103.100	20.103	5.066	0.535
1258.500	716.780	80.004	19.993	103.100	20.104	4.969	0.542
1259.001	717.045	80.003	19.994	103.104	20.103	5.082	0.527
1259.501	717.300	80.001	19.995	103.107	20.105	4.880	0.516
1260.000	717.571	80.004	19.994	103.108	20.105	4.889	0.523
1260.500	717.826	80.002	19.995	103.111	20.104	4.995	0.526
1261.000	718.056	80.004	19.994	103.116	20.102	5.164	0.505
1261.500	718.334	80.004	19.992	103.116	20.102	5.138	0.497
1262.000	718.569	80.006	19.994	103.115	20.104	4.982	0.511
1262.500	718.811	80.004	19.995	103.120	20.101	5.188	0.495
1263.000	719.063	80.002	19.996	103.122	20.106	4.792	0.485
1263.500	719.327	80.004	19.996	103.117	20.105	4.928	0.505
1264.000	719.612	80.004	19.995	103.113	20.106	4.815	0.532
1264.500	719.881	80.004	19.993	103.110	20.107	4.714	0.551
1265.000	720.124	80.003	19.993	103.105	20.105	4.923	0.533
1265.500	720.361	80.003	19.995	103.101	20.106	4.852	0.496
1266.000	720.598	80.003	19.994	103.100	20.105	4.872	0.477
1266.500	720.858	80.003	19.994	103.098	20.106	4.807	0.485
1267.000	721.107	80.003	19.995	103.098	20.105	4.936	0.503
1267.500	721.364	80.004	19.994	103.098	20.106	4.843	0.508
1268.000	721.602	80.002	19.995	103.100	20.101	5.237	0.501
1268.500	721.856	80.003	19.995	103.101	20.104	5.012	0.493
1269.000	722.101	80.005	19.994	103.100	20.103	5.032	0.496
1269.500	722.380	80.003	19.993	103.100	20.102	5.151	0.512
1270.001	722.605	80.004	19.993	103.099	20.103	5.084	0.514
1270.501	722.904	80.004	19.990	103.097	20.103	5.041	0.514
1271.000	723.124	80.005	19.995	103.099	20.103	5.065	0.522
1271.501	723.370	80.005	19.989	103.102	20.104	4.972	0.492
1272.001	723.617	80.004	19.994	103.102	20.106	4.799	0.479
1272.501	723.844	80.003	19.998	103.103	20.106	4.781	0.483
1273.000	724.132	79.998	19.989	103.102	20.107	4.751	0.495
1273.500	724.357	80.003	19.993	103.101	20.104	5.006	0.515
1274.000	724.632	79.998	19.995	103.098	20.109	4.603	0.507
1274.500	724.856	80.003	19.996	103.097	20.105	4.898	0.499
1275.000	725.109	80.000	19.996	103.096	20.106	4.796	0.488
1275.500	725.368	80.000	19.994	103.097	20.105	4.932	0.495
1276.000	725.616	79.999	19.997	103.095	20.105	4.937	0.509
1276.500	725.871	80.002	19.995	103.095	20.105	4.924	0.504
1277.000	726.141	80.002	19.997	103.096	20.107	4.764	0.514
1277.500	726.396	80.001	19.994	103.097	20.105	4.909	0.526
1278.000	726.641	80.003	19.996	103.097	20.107	4.775	0.513
1278.500	726.919	80.001	19.997	103.097	20.106	4.848	0.511
1279.000	727.081	80.002	19.994	103.097	20.106	4.798	0.482
1279.500	727.367	80.000	19.996	103.096	20.106	4.839	0.444
1280.000	727.629	80.002	19.995	103.097	20.105	4.889	0.498
1280.500	727.886	80.001	19.994	103.100	20.107	4.777	0.533
1281.000	728.112	80.001	19.994	103.106	20.108	4.645	0.501
1281.500	728.377	80.001	19.995	103.110	20.107	4.740	0.487
1282.000	728.604	80.002	19.995	103.112	20.107	4.760	0.491
1282.500	728.854	80.002	19.994	103.114	20.109	4.617	0.484
1283.000	729.150	80.003	19.996	103.110	20.106	4.842	0.511
1283.500	729.364	80.003	19.996	103.104	20.104	4.963	0.528
1284.001	729.633	80.002	19.994	103.101	20.108	4.688	0.497
1284.501	729.902	80.002	19.993	103.100	20.103	5.084	0.511
1285.000	730.116	80.003	19.994	103.098	20.110	4.539	0.510
1285.500	730.405	80.001	19.996	103.098	20.106	4.794	0.493
1286.000	730.663	80.007	19.988	103.098	20.109	4.615	0.525
1286.500	730.913	80.002	19.994	103.100	20.108	4.632	0.527
1287.000	731.154	80.002	19.995	103.101	20.107	4.727	0.499
1287.500	731.416	80.003	19.997	103.106	20.108	4.640	0.497
1288.000	731.678	80.004	19.995	103.107	20.110	4.497	0.514
1288.501	731.873	79.998	20.000	103.107	20.109	4.543	0.491
1289.001	732.139	80.008	19.993	103.103	20.107	4.729	0.459
1289.500	732.412	80.006	19.990	103.102	20.109	4.547	0.500
1290.000	732.668	80.005	19.995	103.097	20.109	4.540	0.533
1290.500	732.901	80.006	19.994	103.096	20.108	4.621	0.509
1291.000	733.178	80.005	19.993	103.098	20.106	4.848	0.499
1291.500	733.466	80.001	19.995	103.104	20.107	4.716	0.538
1292.000	733.662	80.003	19.996	103.106	20.106	4.785	0.525
1292.500	733.926	80.002	19.997	103.108	20.107	4.737	0.472
1293.000	734.172	80.005	19.994	103.112	20.106	4.813	0.484
1293.500	734.430	80.005	19.994	103.112	20.105	4.874	0.507
1294.000	734.677	80.002	19.995	103.107	20.108	4.640	0.505
1294.500	734.974	80.003	19.994	103.104	20.106	4.822	0.524
1295.000	735.225	80.004	19.994	103.101	20.108	4.682	0.546
1295.500	735.486	80.003	19.995	103.098	20.104	4.969	0.530
1296.000	735.707	80.003	19.994	103.100	20.108	4.645	0.497
1296.500	735.971	80.002	19.994	103.105	20.107	4.718	0.484
1297.000	736.245	80.003	19.993	103.107	20.105	4.889	0.511
1297.500	736.471	80.005	19.995	103.107	20.107	4.757	0.519
1298.000	736.675	80.003	19.993	103.106	20.104	4.946	0.465
1298.500	736.965	80.003	19.993	103.104	20.105	4.911	0.462
1299.000	737.230	80.002	19.994	103.099	20.108	4.671	0.524
1299.500	737.482	80.003	19.992	103.096	20.104	4.956	0.536
1300.000	737.742	80.001	19.997	103.096	20.107	4.722	0.515
1300.500	738.009	80.005	19.996	103.095	20.107	4.720	0.520
1301.000	738.255	80.003	19.994	103.094	20.108	4.688	0.520
1301.500	738.519	80.006	19.993	103.094	20.106	4.822	0.511
1302.001	738.754	80.005	19.994	103.095	20.104	5.014	0.504
1302.501	739.046	79.999	19.996	103.095	20.107	4.713	0.513
1303.000	739.292	80.003	19.996	103.095	20.105	4.910	0.532
1303.500	739.555	80.004	19.996	103.095	20.104	4.941	0.524
1304.000	739.746	80.002	19.995	103.095	20.105	4.869	0.482
1304.501	740.042	80.002	19.995	103.096	20.106	4.848	0.471
1305.001	740.279	80.002	19.991	103.099	20.106	4.815	0.510
1305.501	740.535	80.005	19.995	103.104	20.102	5.105	0.513
1306.001	740.768	80.004	19.996	103.104	20.106	4.835	0.491
1306.500	741.052	80.004	19.995	103.104	20.105	4.893	0.503
1307.000	741.321	80.003	19.993	103.104	20.101	5.198	0.535
1307.501	741.567	80.003	19.996	103.101	20.106	4.856	0.534
1308.001	741.808	80.002	19.994	103.099	20.106	4.807	0.501
1308.500	742.051	80.004	19.991	103.104	20.103	5.031	0.486
1309.000	742.314	80.004	19.996	103.105	20.104	4.975	0.495
1309.501	742.586	79.999	20.000	103.104	20.105	4.923	0.520
1310.001	742.831	80.003	19.998	103.101	20.105	4.876	0.526
1310.500	743.080	80.002	20.000	103.104	20.104	4.958	0.505
1311.000	743.311	80.002	19.994	103.099	20.106	4.781	0.487
