Sample ID:	C:\MCC\MCC Cal\Test\FDNY_LDF_MCC_30K_min_211208_R2.txt
Sample Weight (mg):	4.55
Heating Rate (C/s):	0.5
Combustor Temp (C):	900
N2 Flow Rate (cc/min):	80
O2 Flow Rate (cc/min):	20
Calibration File:	C:\MCC\MCC Cal\Coeff1 JN10440_30_210304.txt.txt
T Correction Coefficients:	0	1.024463	0
Time Shift (s):	14
*
Time (s)	Temperature (C)	N2 flow rate (cc/min)	O2 flow rate (cc/min)	Flow Rate (cc/min)	Oxygen (%)	HRR (W/g)	Heating rate (C/s)
0.000	108.843	80.009	19.996	103.067	20.224	-0.455	-0.004
0.500	108.848	80.006	19.996	103.067	20.220	-0.146	-0.003
1.000	108.860	80.005	19.997	103.067	20.221	-0.178	0.013
1.500	108.873	80.006	19.995	103.067	20.220	-0.135	0.021
2.001	108.846	80.006	19.995	103.068	20.219	-0.047	0.006
2.501	108.867	80.006	19.995	103.065	20.216	0.146	-0.010
3.000	108.848	80.005	19.995	103.064	20.218	-0.020	-0.003
3.500	108.820	80.005	19.995	103.065	20.216	0.125	-0.023
4.000	108.865	80.005	19.995	103.065	20.216	0.178	-0.015
4.500	108.839	80.006	19.997	103.062	20.219	-0.062	0.018
5.000	108.873	80.005	19.995	103.059	20.219	-0.070	0.014
5.500	108.848	80.006	19.996	103.060	20.216	0.176	0.009
6.000	108.851	80.006	19.997	103.066	20.218	-0.027	-0.007
6.500	108.842	80.007	19.995	103.072	20.218	0.021	-0.014
7.000	108.852	80.006	19.995	103.078	20.216	0.131	-0.002
7.500	108.830	80.007	19.993	103.083	20.216	0.160	-0.005
8.000	108.874	80.007	19.994	103.088	20.217	0.061	0.005
8.500	108.844	80.006	19.996	103.089	20.215	0.197	0.018
9.000	108.887	80.007	19.993	103.092	20.216	0.152	0.014
9.500	108.894	80.008	19.994	103.100	20.216	0.168	0.032
10.001	108.867	80.007	19.996	103.108	20.214	0.314	0.015
10.501	108.856	80.006	19.996	103.116	20.213	0.387	-0.029
11.000	108.872	80.006	19.996	103.122	20.212	0.455	-0.016
11.500	108.885	80.008	19.992	103.119	20.208	0.732	0.017
12.000	108.893	80.006	19.997	103.098	20.210	0.562	0.025
12.500	108.888	80.006	19.994	103.089	20.208	0.685	0.012
13.000	108.890	80.006	19.994	103.086	20.212	0.436	-0.000
13.501	108.926	80.008	19.993	103.086	20.210	0.590	0.017
14.001	108.930	80.007	19.994	103.096	20.207	0.752	0.039
14.500	108.918	80.007	19.994	103.133	20.208	0.680	0.016
15.000	108.916	80.009	19.996	103.170	20.210	0.588	-0.011
15.500	108.928	80.007	19.995	103.175	20.211	0.483	-0.002
16.000	108.947	80.008	19.995	103.175	20.209	0.635	0.021
16.500	108.919	80.008	19.995	103.175	20.209	0.627	0.011
17.001	108.970	80.008	19.995	103.161	20.207	0.756	0.007
17.502	108.950	80.007	19.994	103.139	20.208	0.733	0.027
18.000	109.000	80.007	19.993	103.139	20.206	0.883	0.030
18.500	108.990	80.006	19.996	103.141	20.208	0.717	0.034
19.000	109.026	80.007	19.995	103.146	20.206	0.821	0.033
19.500	109.036	80.008	19.994	103.151	20.207	0.780	0.036
20.000	109.069	80.008	19.995	103.150	20.205	0.901	0.045
20.500	109.088	80.006	19.995	103.155	20.203	1.030	0.048
21.000	109.093	80.007	19.995	103.159	20.204	1.022	0.038
21.500	109.117	80.007	19.994	103.161	20.204	1.022	0.026
22.000	109.114	80.008	19.993	103.163	20.203	1.049	0.025
22.500	109.162	80.007	19.996	103.169	20.203	1.079	0.033
23.000	109.201	80.008	19.994	103.178	20.200	1.278	0.066
23.500	109.211	80.008	19.993	103.189	20.200	1.294	0.068
24.001	109.267	80.006	19.995	103.207	20.197	1.505	0.057
24.501	109.300	80.007	19.996	103.221	20.195	1.650	0.078
25.000	109.294	80.005	19.995	103.230	20.198	1.394	0.058
25.500	109.358	80.006	19.993	103.235	20.197	1.460	0.042
26.000	109.356	80.006	19.996	103.238	20.197	1.515	0.060
26.500	109.419	80.007	19.994	103.238	20.190	2.005	0.061
27.000	109.441	80.008	19.995	103.239	20.192	1.845	0.073
27.500	109.479	80.007	19.995	103.245	20.190	1.951	0.073
28.000	109.538	80.007	19.993	103.247	20.191	1.880	0.079
28.500	109.614	80.006	19.994	103.251	20.190	1.957	0.116
29.000	109.654	80.006	19.995	103.252	20.189	2.029	0.125
29.500	109.732	80.008	19.994	103.252	20.188	2.092	0.117
30.000	109.751	80.006	19.993	103.252	20.189	2.049	0.108
30.500	109.807	80.008	19.993	103.252	20.187	2.227	0.086
31.000	109.865	80.006	19.994	103.252	20.188	2.133	0.094
31.500	109.934	80.007	19.994	103.253	20.185	2.315	0.120
32.001	109.991	80.007	19.995	103.254	20.187	2.162	0.126
32.501	110.063	80.007	19.994	103.256	20.186	2.299	0.128
33.001	110.139	80.007	19.994	103.259	20.186	2.235	0.139
33.500	110.195	80.007	19.993	103.263	20.185	2.338	0.140
34.000	110.287	80.007	19.993	103.269	20.185	2.358	0.140
34.500	110.338	80.007	19.994	103.275	20.184	2.411	0.145
35.000	110.384	80.007	19.995	103.281	20.184	2.401	0.119
35.500	110.472	80.008	19.995	103.279	20.185	2.368	0.115
36.000	110.546	80.008	19.995	103.279	20.184	2.377	0.148
36.500	110.630	80.008	19.996	103.278	20.187	2.209	0.160
37.000	110.700	80.007	19.993	103.278	20.183	2.463	0.156
37.501	110.768	80.007	19.994	103.279	20.182	2.547	0.146
38.002	110.831	80.007	19.995	103.287	20.183	2.461	0.134
38.501	110.916	80.008	19.994	103.291	20.179	2.749	0.139
39.000	111.059	80.009	19.994	103.294	20.175	3.034	0.188
39.500	111.095	80.008	19.993	103.295	20.179	2.770	0.204
40.000	111.185	80.010	19.994	103.296	20.176	2.953	0.152
40.501	111.244	80.010	19.994	103.302	20.177	2.896	0.138
41.001	111.376	80.009	19.996	103.310	20.180	2.700	0.170
41.500	111.474	80.008	19.993	103.314	20.179	2.790	0.210
42.000	111.580	80.006	19.994	103.319	20.174	3.086	0.217
42.500	111.665	80.007	19.994	103.320	20.179	2.745	0.198
43.000	111.743	80.006	19.995	103.317	20.176	2.947	0.177
43.500	111.862	80.007	19.995	103.315	20.177	2.930	0.180
44.000	111.969	80.008	19.995	103.310	20.175	3.028	0.211
44.500	112.113	80.009	19.995	103.311	20.176	2.977	0.238
45.000	112.193	80.007	19.995	103.311	20.175	3.027	0.237
45.500	112.287	80.007	19.994	103.309	20.178	2.854	0.199
46.001	112.418	80.008	19.994	103.305	20.174	3.085	0.200
46.501	112.486	80.008	19.993	103.308	20.174	3.112	0.212
47.000	112.605	80.007	19.994	103.304	20.179	2.796	0.193
47.500	112.726	80.007	19.993	103.307	20.175	3.060	0.213
48.000	112.873	80.006	19.996	103.311	20.174	3.097	0.254
48.501	112.970	80.006	19.995	103.310	20.177	2.929	0.255
49.001	113.104	80.005	19.996	103.312	20.175	3.082	0.237
49.500	113.202	80.005	19.995	103.320	20.174	3.121	0.232
50.000	113.369	80.006	19.995	103.307	20.173	3.223	0.249
50.500	113.477	80.007	19.996	103.280	20.170	3.404	0.269
51.000	113.598	80.006	19.997	103.266	20.172	3.242	0.251
51.500	113.750	80.006	19.994	103.253	20.172	3.262	0.251
52.000	113.865	80.004	19.995	103.236	20.173	3.158	0.270
52.500	113.960	80.005	19.994	103.244	20.175	3.047	0.239
53.000	114.069	80.005	19.995	103.280	20.174	3.115	0.207
53.500	114.248	80.006	19.995	103.328	20.172	3.273	0.246
54.000	114.364	80.007	19.997	103.349	20.174	3.123	0.291
54.500	114.476	80.006	19.995	103.362	20.172	3.254	0.261
55.000	114.641	80.005	19.995	103.364	20.173	3.162	0.253
55.500	114.754	80.005	19.995	103.353	20.174	3.129	0.278
56.000	114.917	80.005	19.996	103.319	20.174	3.135	0.277
56.500	115.050	80.005	19.995	103.306	20.174	3.100	0.286
57.001	115.178	80.005	19.996	103.301	20.174	3.098	0.279
57.501	115.344	80.006	19.995	103.306	20.174	3.150	0.277
58.000	115.485	80.006	19.994	103.309	20.172	3.270	0.301
58.501	115.611	80.006	19.993	103.315	20.174	3.105	0.287
59.001	115.754	80.005	19.996	103.322	20.173	3.166	0.268
59.501	115.905	80.005	19.995	103.327	20.175	3.035	0.281
60.000	116.072	80.006	19.996	103.328	20.175	3.064	0.306
60.500	116.212	80.006	19.996	103.329	20.174	3.103	0.313
61.000	116.362	80.007	19.996	103.329	20.173	3.181	0.299
61.500	116.491	80.006	19.995	103.329	20.175	3.078	0.284
62.000	116.697	80.006	19.995	103.328	20.174	3.115	0.307
62.500	116.841	80.004	19.996	103.327	20.173	3.187	0.343
63.000	117.007	80.006	19.996	103.327	20.172	3.271	0.330
63.500	117.135	80.005	19.995	103.328	20.174	3.101	0.302
64.000	117.297	80.005	19.995	103.327	20.172	3.262	0.292
64.500	117.444	80.005	19.997	103.326	20.174	3.107	0.299
65.000	117.629	80.005	19.994	103.327	20.171	3.305	0.321
65.500	117.789	80.007	19.997	103.328	20.174	3.146	0.338
66.001	117.953	80.006	19.995	103.333	20.173	3.158	0.335
66.501	118.107	80.006	19.996	103.338	20.173	3.193	0.321
67.000	118.233	80.005	19.994	103.341	20.172	3.256	0.299
67.500	118.484	80.005	19.995	103.342	20.177	2.894	0.328
68.000	118.632	80.006	19.996	103.341	20.174	3.090	0.388
68.501	118.782	80.006	19.996	103.335	20.173	3.178	0.349
69.001	118.956	80.005	19.994	103.332	20.170	3.381	0.312
69.500	119.123	80.005	19.996	103.331	20.171	3.299	0.332
70.000	119.323	80.006	19.995	103.330	20.174	3.092	0.354
70.500	119.437	80.005	19.997	103.329	20.172	3.260	0.341
71.000	119.627	80.006	19.997	103.330	20.174	3.138	0.309
71.500	119.800	80.006	19.996	103.330	20.174	3.115	0.333
72.000	119.971	80.004	19.995	103.327	20.173	3.219	0.353
72.500	120.180	80.005	19.996	103.328	20.171	3.299	0.362
73.000	120.334	80.005	19.995	103.328	20.172	3.256	0.371
73.500	120.557	80.006	19.996	103.328	20.171	3.303	0.370
74.000	120.697	80.005	19.995	103.328	20.170	3.399	0.370
74.500	120.868	80.005	19.995	103.328	20.174	3.133	0.337
75.000	121.073	80.005	19.995	103.328	20.173	3.187	0.344
75.500	121.292	80.005	19.994	103.327	20.173	3.170	0.400
76.000	121.421	80.006	19.993	103.327	20.174	3.099	0.386
76.500	121.622	80.004	19.996	103.327	20.172	3.264	0.338
77.000	121.797	80.005	19.994	103.327	20.170	3.397	0.353
77.500	121.983	80.006	19.997	103.327	20.171	3.356	0.369
78.000	122.189	80.004	19.997	103.327	20.168	3.553	0.377
78.500	122.405	80.005	19.996	103.328	20.171	3.344	0.407
79.000	122.579	80.006	19.996	103.329	20.170	3.422	0.406
79.500	122.816	80.006	19.996	103.329	20.170	3.379	0.401
80.001	123.011	80.005	19.997	103.329	20.170	3.436	0.422
80.501	123.178	80.004	19.995	103.329	20.170	3.416	0.397
81.000	123.397	80.004	19.996	103.329	20.172	3.248	0.374
81.500	123.606	80.005	19.996	103.328	20.170	3.424	0.407
82.000	123.789	80.005	19.997	103.327	20.170	3.414	0.410
82.500	123.908	80.005	19.995	103.328	20.167	3.590	0.347
83.000	124.130	80.005	19.995	103.329	20.172	3.291	0.322
83.501	124.295	80.006	19.996	103.330	20.171	3.365	0.364
84.001	124.538	80.004	19.994	103.331	20.174	3.103	0.398
84.500	124.744	80.004	19.995	103.331	20.172	3.238	0.428
85.000	124.943	80.005	19.995	103.331	20.173	3.180	0.426
85.500	125.143	80.005	19.995	103.331	20.173	3.215	0.402
86.000	125.294	80.004	19.995	103.330	20.171	3.311	0.375
86.500	125.539	80.005	19.996	103.330	20.173	3.221	0.373
87.001	125.728	80.006	19.996	103.331	20.176	3.002	0.415
87.501	125.933	80.005	19.996	103.335	20.174	3.123	0.414
88.000	126.093	80.005	19.995	103.336	20.173	3.213	0.380
88.500	126.325	80.006	19.994	103.336	20.175	3.062	0.379
89.000	126.524	80.004	19.995	103.336	20.176	2.951	0.411
89.500	126.740	80.007	19.995	103.336	20.176	2.998	0.423
90.000	126.991	80.005	19.995	103.336	20.174	3.090	0.441
90.500	127.169	80.006	19.995	103.336	20.174	3.129	0.448
91.000	127.372	80.005	19.995	103.336	20.168	3.526	0.405
91.500	127.542	80.006	19.995	103.336	20.173	3.158	0.378
92.000	127.716	80.008	19.994	103.336	20.171	3.340	0.358
92.500	127.967	80.007	19.994	103.334	20.173	3.213	0.384
93.000	128.170	80.007	19.995	103.334	20.172	3.277	0.440
93.500	128.389	80.005	19.995	103.335	20.173	3.221	0.439
94.000	128.601	80.006	19.994	103.336	20.171	3.340	0.427
94.500	128.829	80.006	19.995	103.336	20.169	3.459	0.435
95.000	129.003	80.006	19.995	103.335	20.173	3.203	0.421
95.500	129.234	80.007	19.996	103.335	20.169	3.483	0.403
96.000	129.442	80.008	19.995	103.337	20.171	3.307	0.422
96.500	129.654	80.008	19.995	103.340	20.170	3.436	0.430
97.000	129.845	80.008	19.997	103.341	20.168	3.559	0.412
97.500	130.119	80.007	19.992	103.340	20.169	3.498	0.435
98.000	130.300	80.008	19.995	103.340	20.168	3.516	0.460
98.500	130.549	80.007	19.994	103.339	20.168	3.545	0.442
99.000	130.793	80.007	19.994	103.337	20.166	3.696	0.461
99.500	130.941	80.007	19.994	103.335	20.165	3.755	0.443
100.000	131.171	80.006	19.994	103.336	20.167	3.586	0.385
100.500	131.369	80.006	19.994	103.339	20.162	3.954	0.403
101.000	131.628	80.006	19.996	103.339	20.166	3.680	0.442
101.500	131.870	80.006	19.994	103.338	20.164	3.796	0.479
102.000	132.079	80.007	19.995	103.339	20.168	3.520	0.476
102.501	132.272	80.006	19.995	103.339	20.168	3.559	0.427
103.001	132.535	80.006	19.995	103.337	20.168	3.571	0.429
103.500	132.758	80.005	19.995	103.336	20.166	3.655	0.471
104.000	132.958	80.007	19.996	103.335	20.167	3.584	0.454
104.500	133.197	80.006	19.994	103.334	20.165	3.743	0.431
105.000	133.379	80.006	19.993	103.336	20.168	3.541	0.430
105.500	133.591	80.006	19.994	103.336	20.170	3.420	0.407
106.000	133.855	80.007	19.994	103.336	20.169	3.496	0.435
106.500	134.072	80.006	19.994	103.335	20.173	3.203	0.479
107.000	134.302	80.004	19.994	103.334	20.171	3.342	0.464
107.501	134.515	80.005	19.995	103.332	20.169	3.446	0.445
108.001	134.715	80.006	19.993	103.332	20.169	3.501	0.428
108.500	134.929	80.006	19.995	103.332	20.168	3.557	0.414
109.000	135.181	80.007	19.995	103.333	20.168	3.522	0.440
109.500	135.402	80.006	19.995	103.334	20.167	3.589	0.469
110.000	135.617	80.006	19.993	103.333	20.170	3.373	0.454
110.500	135.857	80.005	19.995	103.334	20.171	3.305	0.446
111.001	136.088	80.008	19.996	103.334	20.172	3.231	0.463
111.501	136.304	80.007	19.994	103.333	20.172	3.266	0.459
112.000	136.533	80.006	19.994	103.332	20.169	3.442	0.446
112.500	136.766	80.007	19.994	103.334	20.172	3.228	0.453
113.001	137.005	80.007	19.994	103.334	20.170	3.379	0.467
113.501	137.215	80.006	19.995	103.334	20.170	3.367	0.460
114.000	137.467	80.007	19.995	103.333	20.168	3.531	0.456
114.500	137.669	80.008	19.994	103.333	20.170	3.381	0.458
115.000	137.919	80.007	19.995	103.331	20.169	3.445	0.453
115.500	138.175	80.007	19.992	103.331	20.172	3.232	0.479
116.000	138.361	80.006	19.995	103.330	20.169	3.461	0.474
116.500	138.621	80.007	19.992	103.329	20.170	3.381	0.444
117.000	138.863	80.008	19.997	103.329	20.171	3.340	0.474
117.501	139.105	80.007	19.995	103.329	20.172	3.277	0.493
118.001	139.350	80.008	19.993	103.328	20.173	3.170	0.485
118.500	139.536	80.008	19.993	103.333	20.172	3.291	0.459
119.000	139.824	80.007	19.994	103.338	20.170	3.432	0.453
119.500	140.048	80.009	19.994	103.339	20.172	3.289	0.493
120.001	140.274	80.007	19.993	103.341	20.171	3.307	0.481
120.501	140.534	80.009	19.995	103.342	20.169	3.496	0.468
121.001	140.780	80.009	19.995	103.340	20.168	3.516	0.496
121.501	141.015	80.007	19.995	103.335	20.170	3.377	0.494
122.001	141.243	80.009	19.993	103.335	20.171	3.357	0.472
122.501	141.460	80.008	19.994	103.335	20.172	3.283	0.454
123.001	141.712	80.008	19.996	103.333	20.174	3.103	0.457
123.500	141.941	80.008	19.993	103.331	20.172	3.250	0.475
124.000	142.188	80.008	19.993	103.331	20.172	3.295	0.479
124.500	142.473	80.008	19.994	103.330	20.172	3.277	0.504
125.000	142.740	80.007	19.993	103.328	20.172	3.285	0.542
125.500	142.928	80.006	19.996	103.328	20.170	3.367	0.503
126.000	143.204	80.008	19.996	103.329	20.170	3.412	0.460
126.500	143.421	80.007	19.995	103.329	20.171	3.326	0.479
127.000	143.661	80.007	19.996	103.329	20.172	3.246	0.474
127.500	143.936	80.007	19.998	103.329	20.172	3.269	0.486
128.000	144.163	80.009	19.995	103.329	20.171	3.344	0.509
128.500	144.413	80.008	19.997	103.327	20.172	3.271	0.489
129.000	144.688	80.007	19.995	103.327	20.174	3.093	0.501
129.500	144.914	80.007	19.995	103.330	20.171	3.357	0.513
130.000	145.141	80.008	19.994	103.333	20.170	3.416	0.477
130.500	145.389	80.006	19.994	103.334	20.172	3.281	0.463
131.000	145.671	80.005	19.996	103.332	20.175	3.017	0.503
131.500	145.893	80.006	19.996	103.332	20.168	3.524	0.518
132.000	146.162	80.005	19.996	103.330	20.171	3.338	0.497
132.501	146.404	80.006	19.997	103.326	20.169	3.455	0.500
133.001	146.645	80.006	19.994	103.325	20.169	3.443	0.497
133.500	146.839	80.006	19.995	103.327	20.169	3.455	0.459
134.000	147.103	80.006	19.995	103.327	20.170	3.375	0.446
134.500	147.326	80.006	19.996	103.328	20.167	3.619	0.473
135.000	147.608	80.006	19.996	103.328	20.169	3.504	0.496
135.500	147.853	80.007	19.995	103.328	20.168	3.539	0.516
136.000	148.095	80.006	19.995	103.329	20.168	3.514	0.507
136.500	148.354	80.007	19.997	103.329	20.168	3.539	0.494
137.000	148.621	80.006	19.995	103.329	20.170	3.383	0.513
137.500	148.890	80.006	19.996	103.328	20.170	3.373	0.531
138.000	149.090	80.006	19.996	103.328	20.172	3.281	0.503
138.500	149.347	80.006	19.995	103.327	20.169	3.437	0.463
139.000	149.604	80.005	19.996	103.327	20.173	3.162	0.485
139.500	149.849	80.006	19.995	103.327	20.172	3.228	0.508
140.000	150.079	80.006	19.997	103.327	20.173	3.201	0.489
140.500	150.345	80.005	19.997	103.326	20.172	3.275	0.486
141.000	150.573	80.006	19.994	103.326	20.170	3.390	0.495
141.500	150.840	80.004	19.998	103.326	20.170	3.379	0.495
142.000	151.097	80.007	19.998	103.325	20.171	3.304	0.509
142.500	151.322	80.005	19.995	103.325	20.170	3.385	0.502
143.000	151.584	80.006	19.997	103.326	20.169	3.471	0.484
143.500	151.811	80.006	19.998	103.325	20.171	3.336	0.488
144.000	152.111	80.005	19.996	103.323	20.168	3.555	0.508
144.500	152.348	80.007	19.995	103.323	20.170	3.369	0.532
145.000	152.559	80.006	19.994	103.323	20.170	3.402	0.492
145.500	152.855	80.004	19.997	103.322	20.169	3.455	0.477
146.000	153.092	80.005	19.995	103.323	20.171	3.326	0.520
146.500	153.309	80.006	19.995	103.325	20.170	3.408	0.494
147.000	153.578	80.007	19.995	103.325	20.174	3.109	0.470
147.500	153.820	80.005	19.995	103.325	20.170	3.410	0.499
148.000	154.069	80.004	19.995	103.326	20.174	3.130	0.501
148.500	154.297	80.005	19.994	103.325	20.170	3.427	0.484
149.000	154.542	80.005	19.996	103.322	20.169	3.461	0.475
149.500	154.816	80.006	19.994	103.321	20.169	3.472	0.496
150.000	155.046	80.006	19.996	103.321	20.170	3.388	0.512
150.500	155.292	80.006	19.997	103.321	20.172	3.294	0.490
151.000	155.552	80.006	19.996	103.321	20.171	3.298	0.491
151.500	155.786	80.004	19.996	103.323	20.168	3.562	0.500
152.000	156.057	80.006	19.994	103.322	20.171	3.365	0.499
152.500	156.308	80.005	19.996	103.322	20.170	3.412	0.514
153.000	156.550	80.005	19.996	103.320	20.168	3.519	0.508
153.500	156.843	80.005	19.997	103.320	20.169	3.498	0.514
154.000	157.108	80.004	19.995	103.320	20.172	3.261	0.546
154.500	157.317	80.006	19.995	103.323	20.169	3.494	0.516
155.000	157.572	80.005	19.995	103.323	20.171	3.312	0.469
155.500	157.825	80.006	19.995	103.324	20.170	3.415	0.486
156.000	158.054	80.004	19.994	103.323	20.171	3.359	0.495
156.500	158.302	80.005	19.995	103.320	20.170	3.372	0.480
157.000	158.555	80.006	19.995	103.313	20.168	3.562	0.489
157.500	158.787	80.005	19.995	103.310	20.169	3.505	0.493
158.000	159.050	80.007	19.995	103.312	20.167	3.580	0.490
158.500	159.330	80.005	19.995	103.312	20.167	3.634	0.519
159.000	159.557	80.005	19.995	103.309	20.165	3.775	0.524
159.500	159.779	80.004	19.995	103.314	20.171	3.308	0.478
160.000	160.064	80.004	19.994	103.315	20.169	3.453	0.478
160.500	160.327	80.004	19.994	103.311	20.170	3.421	0.528
161.000	160.642	80.005	19.995	103.310	20.168	3.558	0.563
161.500	160.842	80.005	19.995	103.314	20.168	3.525	0.546
162.000	161.074	80.004	19.994	103.314	20.167	3.586	0.473
162.500	161.353	80.004	19.995	103.315	20.168	3.562	0.472
163.000	161.597	80.005	19.996	103.316	20.168	3.553	0.517
163.500	161.830	80.005	19.996	103.317	20.171	3.310	0.500
164.000	162.070	80.004	19.995	103.315	20.170	3.426	0.475
164.501	162.340	80.004	19.996	103.311	20.170	3.384	0.492
165.001	162.626	80.004	19.995	103.309	20.169	3.466	0.533
165.501	162.833	80.004	19.995	103.307	20.168	3.515	0.524
166.000	163.075	80.004	19.996	103.305	20.170	3.369	0.471
166.500	163.331	80.004	19.995	103.304	20.168	3.517	0.474
167.000	163.586	80.004	19.996	103.305	20.169	3.462	0.505
167.500	163.849	80.005	19.995	103.306	20.167	3.593	0.514
168.000	164.137	80.004	19.995	103.305	20.168	3.542	0.534
168.500	164.363	80.003	19.996	103.306	20.167	3.591	0.532
169.000	164.590	80.004	19.996	103.308	20.169	3.497	0.484
169.500	164.818	80.004	19.996	103.309	20.170	3.405	0.454
170.000	165.097	80.005	19.996	103.308	20.170	3.384	0.481
170.500	165.404	80.003	19.995	103.312	20.170	3.421	0.546
171.000	165.618	80.005	19.994	103.314	20.169	3.485	0.553
171.500	165.853	80.003	19.995	103.313	20.167	3.647	0.485
172.000	166.103	80.004	19.997	103.313	20.167	3.610	0.467
172.500	166.382	80.007	19.996	103.313	20.164	3.808	0.507
173.000	166.612	80.005	19.993	103.315	20.167	3.626	0.519
173.500	166.880	80.006	19.997	103.316	20.166	3.677	0.503
174.000	167.140	80.007	19.995	103.319	20.167	3.597	0.513
174.500	167.409	80.005	19.996	103.320	20.168	3.550	0.529
175.000	167.645	80.006	19.995	103.322	20.170	3.431	0.517
175.500	167.904	80.006	19.993	103.316	20.169	3.442	0.500
176.000	168.150	80.007	19.996	103.312	20.169	3.503	0.500
176.500	168.405	80.005	19.993	103.312	20.168	3.554	0.503
177.000	168.662	80.007	19.993	103.309	20.166	3.665	0.506
177.500	168.933	80.007	19.996	103.304	20.167	3.644	0.520
178.000	169.128	80.008	19.995	103.302	20.165	3.777	0.497
178.500	169.422	80.005	19.995	103.300	20.168	3.536	0.478
179.000	169.639	80.006	19.996	103.295	20.168	3.548	0.500
179.500	169.922	80.007	19.996	103.294	20.168	3.571	0.506
180.000	170.187	80.007	19.995	103.294	20.167	3.614	0.524
180.500	170.417	80.006	19.995	103.293	20.165	3.761	0.522
181.000	170.655	80.007	19.995	103.291	20.168	3.560	0.481
181.500	170.939	80.005	19.994	103.292	20.168	3.573	0.494
182.000	171.133	80.007	19.992	103.291	20.165	3.738	0.500
182.500	171.411	80.006	19.994	103.290	20.169	3.446	0.475
183.000	171.635	80.008	19.994	103.289	20.167	3.581	0.487
183.500	171.911	80.008	19.995	103.289	20.166	3.685	0.501
184.000	172.142	80.007	19.994	103.288	20.167	3.608	0.503
184.500	172.419	80.007	19.994	103.288	20.165	3.761	0.507
185.000	172.640	80.006	19.993	103.288	20.169	3.489	0.503
185.500	172.886	80.009	19.997	103.289	20.167	3.644	0.483
186.000	173.145	80.006	19.996	103.292	20.166	3.690	0.486
186.500	173.385	80.006	19.995	103.295	20.168	3.577	0.502
187.000	173.631	80.005	19.998	103.297	20.168	3.542	0.493
187.500	173.914	80.006	19.995	103.299	20.168	3.555	0.508
188.000	174.173	80.007	19.996	103.300	20.166	3.649	0.535
188.500	174.385	80.007	19.994	103.298	20.167	3.612	0.506
189.000	174.653	80.006	19.994	103.297	20.168	3.555	0.476
189.500	174.922	80.007	19.996	103.296	20.170	3.405	0.509
190.000	175.138	80.007	19.997	103.294	20.171	3.296	0.511
190.500	175.407	80.006	19.994	103.292	20.170	3.382	0.485
191.000	175.641	80.006	19.994	103.294	20.172	3.284	0.494
191.500	175.853	80.007	19.995	103.294	20.167	3.612	0.474
192.000	176.121	80.006	19.997	103.294	20.166	3.673	0.463
192.500	176.380	80.007	19.993	103.294	20.166	3.675	0.503
193.000	176.632	80.006	19.995	103.294	20.169	3.505	0.519
193.500	176.844	80.005	19.995	103.292	20.165	3.751	0.488
194.000	177.121	80.007	19.995	103.290	20.166	3.657	0.477
194.500	177.363	80.008	19.995	103.290	20.168	3.567	0.504
195.000	177.639	80.007	19.996	103.291	20.163	3.874	0.518
195.500	177.847	80.008	19.997	103.291	20.167	3.614	0.501
196.000	178.140	80.007	19.997	103.290	20.165	3.757	0.492
196.500	178.387	80.009	19.994	103.291	20.166	3.684	0.521
197.000	178.620	80.007	19.998	103.290	20.168	3.559	0.510
197.500	178.904	80.007	19.997	103.288	20.166	3.663	0.498
198.000	179.153	80.008	19.995	103.288	20.166	3.714	0.525
198.500	179.367	80.008	19.995	103.288	20.167	3.616	0.498
199.001	179.605	80.008	19.996	103.287	20.166	3.675	0.458
199.501	179.868	80.007	19.994	103.288	20.164	3.815	0.477
200.000	180.095	80.009	19.994	103.288	20.166	3.718	0.496
200.500	180.367	80.008	19.994	103.288	20.166	3.718	0.495
201.000	180.602	80.008	19.995	103.287	20.166	3.681	0.503
201.500	180.841	80.008	19.993	103.288	20.166	3.681	0.490
202.000	181.106	80.008	19.994	103.287	20.161	4.017	0.489
202.500	181.358	80.008	19.995	103.287	20.161	4.032	0.511
203.000	181.628	80.009	19.994	103.288	20.163	3.923	0.519
203.500	181.886	80.009	19.994	103.288	20.161	4.017	0.525
204.000	182.146	80.008	19.994	103.288	20.162	3.933	0.523
204.501	182.386	80.008	19.994	103.288	20.160	4.105	0.509
205.000	182.643	80.008	19.993	103.288	20.163	3.894	0.499
205.500	182.880	80.009	19.995	103.288	20.163	3.882	0.496
206.001	183.117	80.008	19.998	103.284	20.164	3.810	0.484
206.500	183.333	80.009	19.993	103.283	20.162	3.956	0.463
207.000	183.612	80.007	19.997	103.282	20.161	4.064	0.474
207.500	183.845	80.008	19.994	103.282	20.161	4.042	0.503
208.000	184.097	80.009	19.993	103.281	20.160	4.128	0.499
208.500	184.375	80.008	19.997	103.286	20.161	4.030	0.508
209.000	184.588	80.007	19.996	103.286	20.163	3.870	0.511
209.500	184.830	80.007	19.994	103.287	20.160	4.101	0.473
210.000	185.088	80.005	19.994	103.287	20.161	4.048	0.477
210.500	185.354	80.006	19.994	103.288	20.160	4.140	0.512
211.000	185.591	80.006	19.996	103.287	20.162	3.956	0.513
211.500	185.854	80.005	19.993	103.287	20.158	4.249	0.501
212.000	186.104	80.006	19.994	103.288	20.158	4.226	0.507
212.500	186.376	80.006	19.995	103.286	20.160	4.136	0.518
213.000	186.623	80.005	19.996	103.286	20.158	4.278	0.521
213.500	186.887	80.007	19.995	103.286	20.157	4.304	0.515
214.000	187.112	80.005	19.993	103.286	20.157	4.291	0.500
214.500	187.376	80.007	19.994	103.286	20.158	4.244	0.489
215.000	187.579	80.006	19.997	103.288	20.157	4.329	0.478
215.500	187.841	80.007	19.993	103.288	20.159	4.152	0.466
216.001	188.087	80.007	19.994	103.289	20.158	4.261	0.487
216.501	188.351	80.007	19.994	103.290	20.159	4.171	0.509
217.000	188.589	80.008	19.994	103.288	20.157	4.327	0.506
217.500	188.806	80.007	19.994	103.289	20.158	4.218	0.478
218.000	189.037	80.006	19.993	103.288	20.159	4.179	0.452
218.500	189.329	80.008	19.994	103.285	20.155	4.495	0.486
219.000	189.545	80.005	19.993	103.284	20.157	4.290	0.516
219.500	189.805	80.007	19.994	103.285	20.158	4.282	0.492
220.000	190.090	80.005	19.995	103.286	20.157	4.298	0.510
220.500	190.316	80.006	19.994	103.288	20.158	4.251	0.528
221.000	190.562	80.006	19.993	103.290	20.157	4.286	0.492
221.500	190.775	80.006	19.994	103.289	20.155	4.453	0.466
222.000	191.047	80.005	19.993	103.285	20.158	4.255	0.472
222.500	191.264	80.008	19.994	103.282	20.155	4.491	0.487
223.000	191.516	80.007	19.994	103.280	20.158	4.269	0.479
223.500	191.749	80.005	19.995	103.281	20.154	4.530	0.477
224.000	192.010	80.006	19.994	103.282	20.157	4.345	0.490
224.500	192.265	80.007	19.995	103.287	20.159	4.188	0.505
225.000	192.507	80.006	19.994	103.290	20.156	4.396	0.506
225.500	192.780	80.006	19.997	103.287	20.156	4.376	0.506
226.000	192.982	80.007	19.993	103.286	20.156	4.406	0.495
226.500	193.243	80.004	19.995	103.286	20.157	4.286	0.469
227.000	193.463	80.006	19.995	103.285	20.158	4.253	0.473
227.500	193.715	80.006	19.994	103.282	20.159	4.186	0.477
228.000	194.007	80.006	19.995	103.284	20.158	4.222	0.508
228.500	194.221	80.004	19.994	103.286	20.159	4.185	0.525
229.000	194.479	80.005	19.996	103.282	20.156	4.374	0.489
229.500	194.725	80.006	19.994	103.278	20.156	4.376	0.488
230.000	194.981	80.005	19.996	103.279	20.156	4.410	0.503
230.500	195.259	80.006	19.995	103.277	20.153	4.597	0.518
231.000	195.483	80.005	19.995	103.276	20.159	4.183	0.518
231.500	195.720	80.004	19.995	103.279	20.155	4.496	0.481
232.000	195.972	80.004	19.994	103.284	20.156	4.382	0.475
232.500	196.204	80.006	19.994	103.284	20.154	4.562	0.487
233.000	196.446	80.005	19.993	103.285	20.154	4.530	0.479
233.500	196.715	80.003	19.996	103.281	20.157	4.351	0.493
234.000	196.961	80.005	19.993	103.277	20.153	4.601	0.513
234.500	197.205	80.004	19.996	103.276	20.153	4.601	0.503
235.000	197.404	80.004	19.995	103.278	20.155	4.462	0.467
235.501	197.650	80.004	19.993	103.280	20.149	4.853	0.444
236.000	197.898	80.005	19.993	103.286	20.152	4.662	0.469
236.500	198.197	80.006	19.995	103.288	20.151	4.724	0.520
237.000	198.421	80.006	19.996	103.283	20.157	4.325	0.535
237.501	198.644	80.004	19.993	103.280	20.156	4.400	0.485
238.001	198.880	80.005	19.994	103.278	20.156	4.411	0.453
238.500	199.196	80.005	19.996	103.277	20.157	4.333	0.505
239.000	199.421	80.005	19.994	103.277	20.155	4.489	0.546
239.500	199.669	80.005	19.995	103.282	20.153	4.599	0.507
240.000	199.911	80.006	19.996	103.284	20.152	4.669	0.482
240.500	200.176	80.004	19.995	103.286	20.153	4.607	0.498
241.000	200.440	80.004	19.997	103.285	20.153	4.585	0.518
241.500	200.674	80.004	19.996	103.283	20.152	4.707	0.514
242.001	200.940	80.004	19.995	103.285	20.149	4.863	0.499
242.500	201.156	80.006	19.995	103.285	20.150	4.841	0.490
243.000	201.394	80.004	19.997	103.283	20.150	4.816	0.468
243.500	201.646	80.005	19.997	103.280	20.151	4.740	0.473
244.000	201.894	80.007	19.995	103.278	20.148	4.958	0.495
244.500	202.121	80.004	19.994	103.278	20.151	4.726	0.487
245.000	202.430	80.005	19.994	103.278	20.152	4.693	0.505
245.500	202.606	80.004	19.996	103.279	20.153	4.579	0.510
246.000	202.886	80.005	19.996	103.282	20.149	4.876	0.471
246.500	203.136	80.005	19.996	103.283	20.151	4.730	0.493
247.000	203.366	80.004	19.996	103.282	20.152	4.710	0.505
247.500	203.640	80.005	19.996	103.281	20.152	4.710	0.492
248.000	203.883	80.006	19.995	103.280	20.152	4.671	0.510
248.500	204.124	80.005	19.995	103.282	20.149	4.853	0.501
249.000	204.384	80.006	19.995	103.285	20.149	4.882	0.493
249.500	204.598	80.005	19.997	103.281	20.149	4.865	0.488
250.000	204.835	80.006	19.996	103.277	20.147	5.062	0.462
250.500	205.082	80.005	19.995	103.279	20.148	4.976	0.467
251.000	205.351	80.006	19.996	103.279	20.146	5.128	0.500
251.501	205.624	80.005	19.994	103.279	20.149	4.915	0.529
252.001	205.852	80.006	19.994	103.282	20.148	4.932	0.522
252.500	206.141	80.006	19.996	103.286	20.151	4.745	0.510
253.000	206.343	80.006	19.996	103.286	20.148	4.944	0.504
253.500	206.613	80.006	19.995	103.284	20.150	4.817	0.481
254.000	206.846	80.006	19.995	103.279	20.150	4.798	0.487
254.500	207.097	80.006	19.995	103.278	20.149	4.876	0.493
255.000	207.342	80.006	19.996	103.276	20.147	5.042	0.490
255.500	207.599	80.006	19.995	103.274	20.147	5.047	0.499
256.000	207.850	80.007	19.996	103.275	20.145	5.190	0.505
256.500	208.109	80.006	19.997	103.276	20.145	5.202	0.509
257.000	208.346	80.006	19.997	103.277	20.148	4.977	0.503
257.500	208.593	80.006	19.994	103.278	20.143	5.304	0.490
258.000	208.837	80.006	19.995	103.277	20.145	5.182	0.488
258.500	209.090	80.006	19.996	103.274	20.145	5.138	0.494
259.000	209.347	80.006	19.995	103.277	20.144	5.265	0.504
259.500	209.573	80.006	19.996	103.277	20.145	5.177	0.497
260.000	209.846	80.006	19.995	103.277	20.144	5.222	0.491
260.500	210.057	80.006	19.996	103.278	20.145	5.142	0.491
261.000	210.320	80.006	19.995	103.277	20.145	5.165	0.479
261.500	210.563	80.006	19.998	103.277	20.145	5.171	0.490
262.000	210.826	80.006	19.995	103.272	20.142	5.353	0.506
262.500	211.042	80.007	19.994	103.266	20.144	5.226	0.492
263.000	211.289	80.006	19.996	103.264	20.143	5.324	0.471
263.500	211.557	80.005	19.996	103.269	20.143	5.304	0.489
264.000	211.793	80.005	19.996	103.269	20.142	5.386	0.509
264.500	212.021	80.006	19.996	103.271	20.144	5.206	0.484
265.000	212.306	80.006	19.994	103.271	20.143	5.343	0.489
265.500	212.522	80.007	19.995	103.272	20.144	5.251	0.507
266.000	212.756	80.007	19.998	103.265	20.141	5.472	0.476
266.500	213.042	80.006	19.996	103.259	20.141	5.454	0.485
267.000	213.269	80.006	19.997	103.258	20.139	5.564	0.516
267.500	213.496	80.004	19.998	103.260	20.143	5.319	0.483
268.000	213.801	80.006	19.996	103.258	20.140	5.526	0.493
268.500	214.047	80.007	19.996	103.261	20.143	5.288	0.542
269.000	214.250	80.007	19.995	103.262	20.141	5.425	0.500
269.500	214.520	80.006	19.997	103.265	20.142	5.412	0.461
270.001	214.767	80.006	19.996	103.267	20.142	5.418	0.495
270.501	215.015	80.006	19.996	103.272	20.142	5.359	0.506
271.000	215.254	80.006	19.994	103.274	20.142	5.400	0.491
271.500	215.518	80.006	19.997	103.275	20.142	5.367	0.495
272.000	215.764	80.006	19.994	103.273	20.140	5.492	0.507
272.500	216.021	80.006	19.996	103.274	20.142	5.396	0.506
273.000	216.284	80.006	19.996	103.274	20.140	5.506	0.511
273.500	216.469	80.006	19.996	103.274	20.144	5.222	0.484
274.000	216.781	80.007	19.995	103.276	20.140	5.531	0.472
274.500	217.010	80.006	19.995	103.274	20.142	5.390	0.519
275.000	217.282	80.006	19.994	103.272	20.144	5.230	0.521
275.500	217.515	80.007	19.995	103.269	20.138	5.693	0.503
276.000	217.712	80.006	19.995	103.270	20.140	5.513	0.467
276.500	217.984	80.007	19.992	103.269	20.144	5.263	0.450
277.000	218.233	80.006	19.995	103.268	20.142	5.374	0.496
277.500	218.458	80.006	19.994	103.267	20.141	5.425	0.497
278.000	218.725	80.006	19.994	103.267	20.141	5.453	0.483
278.500	218.970	80.007	19.993	103.265	20.138	5.648	0.502
279.000	219.231	80.008	19.994	103.263	20.138	5.640	0.509
279.500	219.481	80.007	19.994	103.266	20.137	5.744	0.509
280.000	219.736	80.006	19.996	103.270	20.136	5.775	0.509
280.501	219.976	80.007	19.993	103.273	20.138	5.691	0.500
281.001	220.215	80.008	19.994	103.278	20.138	5.683	0.487
281.500	220.471	80.008	19.995	103.282	20.136	5.785	0.487
282.000	220.746	80.008	19.995	103.280	20.137	5.752	0.513
282.500	220.973	80.009	19.992	103.278	20.138	5.693	0.516
283.000	221.230	80.010	19.992	103.275	20.135	5.866	0.493
283.500	221.478	80.009	19.995	103.275	20.135	5.901	0.494
284.000	221.717	80.009	19.993	103.276	20.139	5.594	0.496
284.500	221.983	80.009	19.995	103.280	20.137	5.769	0.496
285.000	222.235	80.008	19.993	103.279	20.138	5.693	0.511
285.500	222.483	80.009	19.994	103.275	20.134	5.941	0.509
286.000	222.752	80.007	19.994	103.271	20.134	5.922	0.508
286.500	223.013	80.008	19.993	103.265	20.138	5.664	0.523
287.000	223.243	80.008	19.996	103.262	20.136	5.836	0.510
287.500	223.524	80.008	19.993	103.265	20.136	5.808	0.501
288.000	223.740	80.007	19.994	103.268	20.138	5.632	0.504
288.500	223.996	80.008	19.993	103.271	20.135	5.892	0.485
289.000	224.226	80.007	19.993	103.273	20.137	5.746	0.479
289.500	224.496	80.007	19.996	103.275	20.139	5.623	0.493
290.000	224.732	80.006	19.994	103.273	20.138	5.679	0.503
290.500	224.982	80.007	19.992	103.273	20.139	5.629	0.496
291.000	225.220	80.005	19.996	103.274	20.135	5.896	0.487
291.500	225.482	80.006	19.994	103.273	20.135	5.883	0.494
292.000	225.731	80.005	19.995	103.272	20.137	5.758	0.505
292.500	225.980	80.005	19.994	103.276	20.136	5.826	0.505
293.000	226.258	80.004	19.993	103.276	20.137	5.762	0.513
293.500	226.500	80.006	19.994	103.279	20.135	5.881	0.523
294.000	226.730	80.005	19.995	103.283	20.134	5.975	0.496
294.500	226.976	80.006	19.993	103.280	20.135	5.856	0.474
295.000	227.225	80.005	19.994	103.275	20.134	5.963	0.486
295.500	227.447	80.005	19.995	103.274	20.133	6.006	0.483
296.000	227.724	80.004	19.995	103.274	20.135	5.862	0.485
296.500	227.974	80.005	19.994	103.271	20.132	6.076	0.513
297.000	228.235	80.005	19.994	103.271	20.131	6.148	0.519
297.500	228.484	80.004	19.993	103.270	20.131	6.195	0.511
298.000	228.764	80.006	19.993	103.272	20.128	6.349	0.520
298.500	229.006	80.006	19.994	103.272	20.131	6.183	0.525
299.000	229.290	80.004	19.993	103.271	20.131	6.186	0.524
299.500	229.534	80.005	19.995	103.274	20.128	6.379	0.527
300.000	229.783	80.005	19.993	103.277	20.131	6.170	0.511
300.500	230.072	80.004	19.995	103.272	20.129	6.292	0.516
301.000	230.317	80.004	19.994	103.270	20.130	6.215	0.536
301.500	230.525	80.004	19.996	103.274	20.131	6.197	0.494
302.000	230.787	80.004	19.995	103.276	20.131	6.197	0.462
302.500	231.108	80.004	19.997	103.275	20.128	6.392	0.526
303.000	231.343	80.005	19.992	103.280	20.125	6.564	0.569
303.500	231.585	80.005	19.994	103.281	20.126	6.536	0.516
304.000	231.841	80.006	19.994	103.277	20.127	6.468	0.488
304.500	232.078	80.004	19.993	103.276	20.128	6.374	0.496
305.000	232.344	80.004	19.994	103.278	20.122	6.791	0.498
305.500	232.597	80.005	19.997	103.278	20.121	6.871	0.511
306.000	232.840	80.005	19.992	103.279	20.123	6.752	0.508
306.500	233.095	80.005	19.996	103.281	20.122	6.835	0.498
307.000	233.327	80.006	19.994	103.280	20.123	6.748	0.493
307.500	233.583	80.005	19.994	103.277	20.122	6.811	0.487
308.000	233.846	80.005	19.993	103.272	20.122	6.772	0.503
308.500	234.101	80.006	19.995	103.267	20.121	6.891	0.519
309.000	234.347	80.007	19.993	103.266	20.120	6.918	0.510
309.500	234.599	80.006	19.994	103.269	20.121	6.899	0.499
310.000	234.822	80.006	19.993	103.272	20.118	7.048	0.486
310.500	235.051	80.006	19.994	103.275	20.120	6.954	0.464
311.000	235.311	80.005	19.995	103.280	20.120	6.932	0.471
311.500	235.584	80.007	19.995	103.282	20.119	7.034	0.512
312.000	235.800	80.006	19.994	103.276	20.118	7.077	0.511
312.501	236.061	80.006	19.994	103.270	20.117	7.132	0.483
313.000	236.302	80.006	19.994	103.266	20.116	7.231	0.489
313.500	236.544	80.006	19.995	103.260	20.115	7.282	0.492
314.000	236.826	80.007	19.994	103.255	20.118	7.072	0.503
314.500	237.049	80.006	19.994	103.254	20.117	7.140	0.515
315.000	237.320	80.006	19.994	103.256	20.115	7.290	0.500
315.500	237.543	80.004	19.994	103.259	20.117	7.177	0.494
316.000	237.786	80.006	19.994	103.260	20.115	7.327	0.480
316.500	238.039	80.006	19.994	103.266	20.116	7.237	0.481
317.000	238.277	80.005	19.994	103.272	20.115	7.303	0.494
317.500	238.553	80.005	19.996	103.275	20.113	7.448	0.503
318.000	238.789	80.005	19.993	103.272	20.112	7.515	0.513
318.500	239.031	80.005	19.994	103.272	20.113	7.435	0.495
319.000	239.260	80.007	19.995	103.268	20.112	7.478	0.475
319.500	239.533	80.006	19.994	103.266	20.111	7.592	0.487
320.000	239.750	80.005	19.994	103.269	20.109	7.748	0.496
320.500	239.999	80.005	19.994	103.274	20.110	7.646	0.478
321.000	240.243	80.005	19.994	103.275	20.107	7.863	0.480
321.500	240.465	80.005	19.995	103.276	20.109	7.715	0.480
322.000	240.750	80.006	19.994	103.277	20.109	7.688	0.486
322.500	240.990	80.005	19.994	103.274	20.107	7.828	0.516
323.000	241.253	80.005	19.994	103.272	20.105	8.006	0.514
323.500	241.483	80.004	19.995	103.274	20.105	8.021	0.498
324.000	241.751	80.005	19.996	103.278	20.105	7.997	0.495
324.500	241.965	80.005	19.995	103.280	20.106	7.899	0.490
325.001	242.240	80.007	19.994	103.282	20.104	8.103	0.486
325.501	242.518	80.005	19.996	103.284	20.105	7.988	0.521
326.000	242.760	80.005	19.995	103.278	20.102	8.223	0.537
326.500	242.988	80.005	19.995	103.277	20.102	8.234	0.495
327.000	243.265	80.005	19.995	103.274	20.102	8.182	0.488
327.500	243.506	80.005	19.994	103.272	20.103	8.160	0.511
328.000	243.755	80.005	19.995	103.270	20.100	8.338	0.504
328.501	244.003	80.005	19.996	103.277	20.101	8.268	0.493
329.001	244.219	80.006	19.997	103.277	20.101	8.295	0.481
329.500	244.497	80.004	19.996	103.280	20.102	8.204	0.479
330.000	244.771	80.004	19.995	103.281	20.098	8.497	0.523
330.500	245.016	80.005	19.995	103.285	20.098	8.473	0.535
331.000	245.246	80.004	19.996	103.285	20.100	8.360	0.497
331.500	245.478	80.005	19.995	103.286	20.099	8.452	0.469
332.000	245.748	80.003	19.996	103.286	20.097	8.563	0.482
332.500	245.945	80.003	19.993	103.288	20.096	8.625	0.484
333.000	246.236	80.006	19.995	103.287	20.096	8.676	0.477
333.500	246.480	80.006	19.995	103.285	20.095	8.678	0.512
334.000	246.746	80.005	19.995	103.279	20.092	8.890	0.522
334.500	246.956	80.006	19.995	103.274	20.093	8.839	0.493
335.000	247.190	80.004	19.994	103.272	20.095	8.716	0.460
335.501	247.452	80.005	19.995	103.271	20.090	9.052	0.470
336.001	247.752	80.006	19.997	103.273	20.090	9.087	0.529
336.500	247.983	80.008	19.994	103.279	20.092	8.931	0.547
337.000	248.169	80.006	19.994	103.282	20.089	9.160	0.474
337.500	248.450	80.008	19.995	103.280	20.087	9.291	0.442
338.000	248.730	80.007	19.994	103.282	20.089	9.115	0.514
338.500	248.991	80.007	19.996	103.282	20.088	9.195	0.551
339.000	249.235	80.007	19.994	103.282	20.086	9.357	0.523
339.500	249.475	80.008	19.995	103.283	20.089	9.161	0.494
340.000	249.721	80.007	19.996	103.287	20.087	9.247	0.485
340.500	249.978	80.007	19.995	103.287	20.084	9.526	0.495
341.000	250.244	80.007	19.996	103.288	20.086	9.382	0.513
341.500	250.481	80.007	19.995	103.286	20.083	9.538	0.513
342.000	250.757	80.006	19.994	103.284	20.087	9.294	0.508
342.500	250.965	80.008	19.996	103.284	20.082	9.609	0.498
343.000	251.233	80.007	19.996	103.282	20.083	9.562	0.480
343.500	251.505	80.006	19.995	103.280	20.081	9.687	0.508
344.000	251.774	80.006	19.996	103.282	20.080	9.806	0.541
344.500	252.024	80.007	19.995	103.285	20.082	9.631	0.530
345.000	252.290	80.006	19.995	103.286	20.078	9.951	0.518
345.500	252.504	80.007	19.996	103.287	20.077	10.021	0.498
346.000	252.785	80.006	19.995	103.290	20.076	10.086	0.487
346.500	252.998	80.006	19.994	103.289	20.078	9.916	0.495
347.000	253.276	80.007	19.994	103.289	20.076	10.074	0.493
347.500	253.505	80.005	19.995	103.289	20.078	9.914	0.499
348.000	253.783	80.005	19.994	103.289	20.077	10.002	0.507
348.500	254.005	80.006	19.995	103.289	20.075	10.102	0.504
349.000	254.274	80.006	19.996	103.289	20.070	10.450	0.495
349.500	254.516	80.005	19.996	103.288	20.070	10.489	0.501
350.000	254.760	80.006	19.995	103.288	20.069	10.563	0.499
350.500	255.042	80.006	19.995	103.286	20.069	10.520	0.506
351.000	255.246	80.005	19.994	103.282	20.066	10.761	0.506
351.500	255.521	80.005	19.996	103.279	20.067	10.661	0.483
352.000	255.777	80.003	19.995	103.280	20.068	10.632	0.505
352.500	256.010	80.004	19.996	103.280	20.063	10.948	0.510
353.001	256.275	80.004	19.995	103.282	20.065	10.814	0.493
353.501	256.509	80.005	19.996	103.286	20.064	10.917	0.498
354.000	256.750	80.005	19.996	103.290	20.063	10.970	0.487
354.500	257.028	80.007	19.996	103.289	20.062	11.048	0.497
355.000	257.270	80.007	19.995	103.288	20.059	11.252	0.519
355.500	257.522	80.006	19.994	103.288	20.059	11.267	0.507
356.000	257.753	80.004	19.995	103.288	20.059	11.244	0.488
356.500	258.045	80.008	19.996	103.288	20.056	11.496	0.503
357.000	258.277	80.005	19.995	103.289	20.059	11.244	0.523
357.500	258.515	80.006	19.995	103.290	20.057	11.371	0.497
358.000	258.774	80.005	19.996	103.291	20.052	11.793	0.484
358.500	259.025	80.007	19.993	103.292	20.053	11.711	0.503
359.000	259.286	80.005	19.995	103.292	20.053	11.678	0.511
359.501	259.528	80.005	19.997	103.293	20.053	11.691	0.507
360.000	259.785	80.005	19.996	103.292	20.051	11.831	0.501
360.500	260.056	80.005	19.995	103.292	20.050	11.931	0.514
361.000	260.253	80.005	19.995	103.290	20.050	11.910	0.498
361.500	260.521	80.007	19.994	103.290	20.046	12.215	0.466
362.000	260.742	80.007	19.994	103.290	20.049	11.980	0.477
362.500	261.024	80.007	19.995	103.290	20.048	12.062	0.496
363.000	261.231	80.007	19.995	103.291	20.044	12.354	0.496
363.500	261.518	80.007	19.994	103.291	20.043	12.372	0.491
364.000	261.732	80.008	19.993	103.294	20.041	12.560	0.498
364.500	262.023	80.007	19.994	103.294	20.042	12.481	0.503
365.000	262.236	80.007	19.995	103.295	20.036	12.879	0.505
365.500	262.476	80.007	19.996	103.295	20.036	12.887	0.479
366.000	262.758	80.007	19.995	103.294	20.039	12.695	0.487
366.500	262.994	80.008	19.995	103.292	20.033	13.141	0.519
367.000	263.236	80.007	19.994	103.294	20.035	12.940	0.498
367.500	263.465	80.008	19.994	103.295	20.030	13.299	0.474
368.000	263.781	80.008	19.992	103.295	20.031	13.274	0.508
368.500	263.988	80.009	19.994	103.295	20.031	13.256	0.534
369.000	264.252	80.008	19.993	103.295	20.029	13.391	0.497
369.500	264.494	80.010	19.995	103.292	20.029	13.409	0.488
370.000	264.756	80.007	19.994	103.292	20.025	13.654	0.505
370.500	264.984	80.007	19.993	103.293	20.026	13.616	0.497
371.000	265.255	80.007	19.993	103.297	20.025	13.641	0.495
371.500	265.507	80.007	19.993	103.301	20.022	13.920	0.511
372.000	265.737	80.006	19.994	103.305	20.022	13.872	0.502
372.500	265.984	80.008	19.995	103.305	20.020	14.020	0.479
373.000	266.221	80.007	19.995	103.304	20.020	14.023	0.480
373.500	266.472	80.006	19.994	103.299	20.021	13.947	0.486
374.000	266.710	80.006	19.993	103.296	20.018	14.171	0.489
374.500	266.993	80.005	19.993	103.294	20.018	14.156	0.506
375.000	267.285	80.006	19.995	103.297	20.018	14.164	0.548
375.500	267.522	80.006	19.995	103.296	20.014	14.426	0.551
376.000	267.744	80.006	19.993	103.299	20.013	14.515	0.494
376.500	268.024	80.005	19.995	103.303	20.014	14.430	0.481
377.000	268.208	80.004	19.995	103.304	20.013	14.557	0.483
377.500	268.491	80.004	19.993	103.305	20.009	14.805	0.465
378.000	268.715	80.006	19.994	103.304	20.012	14.571	0.487
378.500	268.954	80.006	19.996	103.303	20.007	14.917	0.485
379.000	269.174	80.005	19.995	103.302	20.008	14.891	0.461
379.500	269.489	80.006	19.996	103.302	20.004	15.146	0.497
380.000	269.730	80.005	19.995	103.302	20.002	15.296	0.546
380.500	269.955	80.005	19.995	103.305	20.005	15.112	0.511
381.000	270.210	80.006	19.996	103.311	20.003	15.204	0.473
381.500	270.497	80.006	19.994	103.315	20.003	15.206	0.511
382.000	270.733	80.004	19.994	103.313	20.002	15.308	0.532
382.500	270.957	80.004	19.995	103.313	19.997	15.662	0.491
383.000	271.253	80.006	19.994	103.317	19.996	15.713	0.490
383.500	271.464	80.004	19.996	103.312	19.995	15.819	0.513
384.000	271.747	80.006	19.995	103.305	19.994	15.887	0.501
384.500	272.018	80.006	19.995	103.304	19.995	15.825	0.524
385.000	272.262	80.005	19.995	103.301	19.993	15.948	0.535
385.500	272.499	80.006	19.993	103.295	19.988	16.318	0.498
386.000	272.756	80.007	19.995	103.295	19.987	16.357	0.487
386.500	272.994	80.005	19.995	103.296	19.988	16.292	0.495
387.000	273.243	80.005	19.994	103.302	19.984	16.556	0.491
387.500	273.505	80.006	19.996	103.305	19.983	16.624	0.499
388.000	273.743	80.005	19.995	103.306	19.981	16.814	0.505
388.500	273.982	80.006	19.993	103.307	19.983	16.632	0.488
389.000	274.263	80.007	19.994	103.308	19.977	17.106	0.498
389.500	274.515	80.005	19.995	103.306	19.979	16.967	0.526
390.000	274.757	80.007	19.994	103.308	19.978	17.012	0.514
390.500	275.024	80.007	19.994	103.313	19.978	17.031	0.501
391.000	275.280	80.005	19.995	103.317	19.973	17.326	0.516
391.500	275.507	80.007	19.994	103.321	19.973	17.366	0.503
392.000	275.766	80.006	19.993	103.321	19.971	17.524	0.484
392.500	276.010	80.006	19.994	103.322	19.969	17.671	0.494
393.000	276.308	80.007	19.994	103.321	19.969	17.634	0.523
393.500	276.533	80.006	19.994	103.321	19.965	17.931	0.533
394.000	276.752	80.005	19.993	103.322	19.966	17.837	0.484
394.500	277.034	80.006	19.995	103.325	19.962	18.140	0.472
395.001	277.287	80.006	19.995	103.326	19.963	18.052	0.518
395.501	277.521	80.007	19.994	103.327	19.960	18.313	0.511
396.000	277.811	80.006	19.994	103.327	19.960	18.264	0.506
396.500	278.032	80.008	19.994	103.326	19.957	18.469	0.518
397.000	278.284	80.006	19.995	103.325	19.956	18.556	0.492
397.500	278.518	80.005	19.993	103.326	19.958	18.434	0.479
398.000	278.791	80.006	19.994	103.326	19.955	18.618	0.497
398.500	279.028	80.007	19.994	103.326	19.953	18.747	0.508
399.000	279.302	80.006	19.993	103.327	19.950	19.007	0.510
399.500	279.500	80.007	19.995	103.326	19.950	19.011	0.492
400.000	279.758	80.006	19.994	103.326	19.945	19.341	0.464
400.500	280.025	80.007	19.994	103.326	19.948	19.132	0.491
401.000	280.248	80.006	19.994	103.326	19.945	19.358	0.507
401.500	280.509	80.006	19.996	103.327	19.945	19.319	0.487
402.000	280.741	80.005	19.995	103.326	19.943	19.487	0.489
402.500	281.045	80.005	19.996	103.326	19.941	19.644	0.515
403.000	281.266	80.006	19.994	103.326	19.938	19.877	0.530
403.500	281.538	80.004	19.996	103.327	19.938	19.874	0.509
404.000	281.765	80.006	19.994	103.326	19.938	19.816	0.496
404.500	282.022	80.004	19.995	103.328	19.933	20.175	0.491
405.000	282.281	80.004	19.993	103.328	19.932	20.287	0.500
405.500	282.512	80.005	19.995	103.328	19.928	20.541	0.503
406.000	282.804	80.004	19.993	103.328	19.931	20.316	0.507
406.500	283.020	80.005	19.994	103.329	19.925	20.757	0.516
407.000	283.325	80.005	19.994	103.330	19.929	20.484	0.515
407.500	283.552	80.006	19.994	103.331	19.921	21.039	0.526
408.000	283.816	80.005	19.994	103.332	19.919	21.184	0.512
408.500	284.064	80.005	19.994	103.332	19.916	21.425	0.502
409.001	284.305	80.005	19.995	103.332	19.916	21.372	0.500
409.501	284.545	80.005	19.994	103.332	19.914	21.522	0.485
410.000	284.789	80.004	19.995	103.332	19.914	21.536	0.483
410.500	285.062	80.004	19.994	103.330	19.910	21.795	0.500
411.000	285.318	80.005	19.994	103.331	19.906	22.095	0.522
411.500	285.538	80.006	19.996	103.332	19.907	22.017	0.503
412.000	285.806	80.005	19.994	103.334	19.904	22.276	0.482
412.500	286.079	80.005	19.993	103.336	19.902	22.364	0.514
413.000	286.341	80.006	19.995	103.337	19.901	22.447	0.538
413.500	286.546	80.007	19.994	103.338	19.901	22.447	0.500
414.000	286.830	80.005	19.995	103.338	19.900	22.564	0.478
414.500	287.069	80.005	19.993	103.336	19.900	22.548	0.506
415.000	287.347	80.005	19.995	103.337	19.894	22.944	0.521
415.500	287.569	80.005	19.993	103.336	19.895	22.863	0.509
416.000	287.862	80.005	19.995	103.335	19.893	23.060	0.507
416.500	288.065	80.005	19.995	103.334	19.891	23.154	0.505
417.000	288.340	80.006	19.994	103.334	19.889	23.324	0.487
417.500	288.579	80.006	19.994	103.331	19.886	23.537	0.496
418.000	288.808	80.007	19.994	103.331	19.882	23.818	0.491
418.500	289.096	80.006	19.996	103.333	19.880	23.943	0.493
419.000	289.344	80.007	19.995	103.335	19.877	24.182	0.526
419.501	289.583	80.007	19.994	103.335	19.881	23.881	0.512
420.000	289.847	80.007	19.994	103.335	19.878	24.113	0.495
420.500	290.070	80.006	19.995	103.334	19.874	24.407	0.495
421.000	290.308	80.006	19.996	103.332	19.872	24.551	0.475
421.501	290.563	80.007	19.995	103.331	19.873	24.417	0.477
422.001	290.801	80.006	19.996	103.332	19.870	24.649	0.492
422.501	291.097	80.004	19.995	103.334	19.869	24.767	0.513
423.001	291.387	80.004	19.995	103.338	19.865	25.012	0.560
423.501	291.584	80.005	19.994	103.345	19.862	25.223	0.537
424.000	291.825	80.005	19.995	103.352	19.862	25.208	0.462
424.500	292.062	80.006	19.995	103.358	19.862	25.241	0.458
425.000	292.358	80.005	19.994	103.360	19.864	25.125	0.505
425.500	292.572	80.006	19.996	103.355	19.860	25.372	0.521
426.000	292.802	80.005	19.995	103.350	19.857	25.603	0.477
426.500	293.061	80.006	19.997	103.347	19.856	25.669	0.467
427.000	293.315	80.006	19.995	103.343	19.853	25.868	0.501
427.500	293.590	80.005	19.995	103.347	19.850	26.093	0.521
428.000	293.866	80.006	19.995	103.355	19.849	26.161	0.540
428.500	294.086	80.006	19.995	103.362	19.847	26.319	0.523
429.000	294.356	80.005	19.994	103.360	19.843	26.553	0.493
429.500	294.623	80.006	19.995	103.357	19.843	26.614	0.514
430.000	294.856	80.006	19.996	103.351	19.841	26.686	0.519
430.500	295.111	80.005	19.995	103.346	19.839	26.838	0.494
431.000	295.384	80.004	19.994	103.342	19.837	26.981	0.508
431.500	295.598	80.003	19.996	103.344	19.834	27.241	0.508
432.000	295.848	80.006	19.994	103.347	19.832	27.360	0.475
432.500	296.102	80.006	19.995	103.352	19.830	27.530	0.483
433.000	296.349	80.006	19.995	103.357	19.826	27.782	0.502
433.500	296.591	80.005	19.995	103.361	19.824	27.928	0.495
434.000	296.867	80.006	19.996	103.364	19.819	28.252	0.504
434.500	297.079	80.005	19.994	103.369	19.819	28.284	0.503
435.000	297.375	80.007	19.995	103.370	19.815	28.586	0.498
435.500	297.636	80.006	19.996	103.370	19.813	28.688	0.532
436.000	297.875	80.006	19.996	103.370	19.810	28.943	0.528
436.500	298.137	80.006	19.995	103.369	19.809	28.986	0.501
437.000	298.374	80.006	19.994	103.369	19.809	29.013	0.501
437.500	298.626	80.006	19.995	103.369	19.807	29.104	0.494
438.000	298.880	80.006	19.994	103.369	19.808	29.090	0.497
438.500	299.159	80.007	19.996	103.368	19.807	29.150	0.519
439.000	299.413	80.007	19.994	103.363	19.802	29.499	0.533
439.500	299.651	80.007	19.996	103.363	19.798	29.801	0.512
440.000	299.903	80.007	19.995	103.362	19.798	29.747	0.491
440.500	300.145	80.007	19.995	103.362	19.793	30.128	0.492
441.000	300.396	80.006	19.994	103.363	19.791	30.276	0.494
441.500	300.607	80.008	19.995	103.366	19.788	30.472	0.478
442.000	300.912	80.007	19.995	103.366	19.787	30.526	0.489
442.500	301.181	80.008	19.995	103.366	19.786	30.603	0.545
443.000	301.406	80.006	19.995	103.365	19.781	30.986	0.534
443.500	301.657	80.007	19.996	103.365	19.779	31.134	0.485
444.000	301.940	80.006	19.995	103.365	19.777	31.259	0.505
444.500	302.167	80.006	19.995	103.366	19.778	31.225	0.522
445.000	302.400	80.007	19.995	103.366	19.775	31.382	0.485
445.500	302.667	80.006	19.995	103.368	19.772	31.590	0.480
446.000	302.929	80.008	19.995	103.371	19.770	31.788	0.515
446.500	303.144	80.008	19.994	103.373	19.766	32.029	0.503
447.000	303.428	80.008	19.997	103.374	19.765	32.113	0.488
447.500	303.667	80.007	19.994	103.374	19.760	32.499	0.511
448.001	303.936	80.007	19.996	103.372	19.757	32.685	0.515
448.500	304.146	80.008	19.994	103.370	19.756	32.764	0.493
449.000	304.388	80.007	19.996	103.367	19.753	32.955	0.466
449.500	304.630	80.008	19.995	103.366	19.749	33.246	0.468
450.000	304.870	80.007	19.995	103.367	19.746	33.438	0.483
450.500	305.167	80.007	19.995	103.370	19.747	33.400	0.510
451.000	305.394	80.008	19.995	103.375	19.743	33.670	0.531
451.500	305.668	80.007	19.995	103.378	19.743	33.665	0.512
452.000	305.927	80.007	19.996	103.384	19.738	34.038	0.517
452.500	306.183	80.007	19.995	103.390	19.735	34.215	0.524
453.000	306.439	80.007	19.995	103.394	19.731	34.507	0.513
453.500	306.737	80.007	19.995	103.390	19.732	34.486	0.533
454.000	306.978	80.004	19.996	103.388	19.728	34.779	0.547
454.500	307.200	80.004	19.997	103.388	19.728	34.713	0.500
455.001	307.440	80.005	19.994	103.386	19.720	35.304	0.462
455.501	307.678	80.004	19.995	103.384	19.720	35.343	0.470
456.000	307.947	80.006	19.995	103.390	19.718	35.470	0.493
456.500	308.212	80.006	19.995	103.394	19.715	35.654	0.521
457.000	308.425	80.006	19.994	103.393	19.716	35.576	0.506
457.500	308.683	80.005	19.995	103.394	19.709	36.098	0.475
458.000	308.948	80.006	19.994	103.396	19.710	36.016	0.497
458.500	309.218	80.006	19.994	103.396	19.707	36.247	0.528
459.000	309.426	80.005	19.994	103.398	19.702	36.580	0.506
459.500	309.720	80.006	19.995	103.401	19.699	36.772	0.490
460.000	309.935	80.005	19.994	103.402	19.698	36.895	0.506
460.500	310.223	80.005	19.993	103.403	19.694	37.148	0.506
461.000	310.473	80.006	19.995	103.403	19.693	37.216	0.520
461.500	310.739	80.005	19.995	103.401	19.690	37.412	0.527
462.000	311.010	80.006	19.995	103.401	19.687	37.680	0.527
462.500	311.258	80.005	19.994	103.401	19.685	37.795	0.528
463.000	311.482	80.006	19.994	103.401	19.683	37.921	0.496
463.500	311.739	80.007	19.994	103.402	19.680	38.140	0.477
464.000	311.970	80.007	19.994	103.404	19.679	38.199	0.484
464.500	312.246	80.006	19.994	103.405	19.676	38.410	0.497
465.000	312.510	80.005	19.994	103.404	19.674	38.569	0.523
465.501	312.779	80.005	19.994	103.406	19.671	38.795	0.536
466.000	313.031	80.006	19.995	103.406	19.668	39.031	0.527
466.500	313.258	80.006	19.994	103.406	19.667	39.101	0.500
467.000	313.533	80.006	19.994	103.406	19.663	39.346	0.490
467.500	313.748	80.004	19.994	103.406	19.661	39.516	0.496
468.000	313.980	80.005	19.994	103.406	19.659	39.641	0.469
468.500	314.238	80.007	19.994	103.405	19.654	40.013	0.469
469.000	314.511	80.005	19.995	103.406	19.652	40.112	0.511
469.500	314.738	80.005	19.994	103.405	19.648	40.412	0.515
470.000	315.022	80.005	19.994	103.406	19.647	40.517	0.505
470.500	315.318	80.005	19.997	103.406	19.643	40.741	0.545
471.000	315.516	80.006	19.995	103.407	19.642	40.867	0.537
471.500	315.744	80.005	19.995	103.406	19.640	41.003	0.460
472.000	316.010	80.005	19.994	103.407	19.639	41.043	0.460
472.500	316.242	80.004	19.995	103.406	19.630	41.676	0.496
473.000	316.490	80.006	19.994	103.406	19.632	41.547	0.489
473.500	316.736	80.005	19.995	103.406	19.629	41.746	0.487
474.000	317.024	80.006	19.995	103.407	19.628	41.814	0.514
474.500	317.297	80.005	19.994	103.408	19.628	41.845	0.548
475.000	317.537	80.007	19.996	103.408	19.619	42.448	0.537
475.501	317.773	80.006	19.995	103.408	19.619	42.506	0.495
476.001	318.015	80.005	19.995	103.409	19.615	42.773	0.478
476.500	318.283	80.005	19.996	103.410	19.615	42.792	0.494
477.000	318.552	80.005	19.994	103.409	19.612	42.962	0.523
477.500	318.773	80.006	19.995	103.412	19.609	43.216	0.513
478.000	319.030	80.006	19.993	103.413	19.609	43.211	0.484
478.500	319.276	80.005	19.994	103.413	19.604	43.576	0.490
479.000	319.534	80.006	19.995	103.412	19.605	43.459	0.503
479.500	319.811	80.006	19.993	103.412	19.604	43.523	0.519
480.000	320.020	80.007	19.996	103.410	19.597	44.012	0.511
480.500	320.286	80.006	19.994	103.412	19.599	43.888	0.481
481.000	320.572	80.005	19.996	103.411	19.596	44.106	0.514
481.500	320.781	80.006	19.994	103.412	19.593	44.312	0.523
482.000	321.000	80.006	19.994	103.414	19.590	44.547	0.461
482.500	321.288	80.006	19.994	103.416	19.591	44.457	0.468
483.000	321.521	80.005	19.994	103.415	19.583	45.035	0.514
483.500	321.780	80.005	19.994	103.416	19.581	45.183	0.507
484.000	322.012	80.006	19.995	103.422	19.583	45.046	0.492
484.500	322.273	80.005	19.995	103.424	19.581	45.171	0.492
485.000	322.504	80.005	19.993	103.423	19.579	45.336	0.492
485.500	322.765	80.005	19.995	103.423	19.574	45.711	0.492
486.000	323.008	80.005	19.996	103.427	19.571	45.870	0.498
486.500	323.250	80.005	19.993	103.426	19.572	45.823	0.494
487.000	323.548	80.004	19.994	103.424	19.572	45.812	0.512
487.500	323.744	80.005	19.995	103.427	19.568	46.136	0.517
488.000	324.059	80.004	19.995	103.430	19.564	46.420	0.503
488.500	324.291	80.005	19.995	103.430	19.562	46.502	0.529
489.000	324.533	80.005	19.992	103.432	19.563	46.467	0.510
489.500	324.755	80.006	19.994	103.430	19.562	46.529	0.469
490.000	324.988	80.004	19.993	103.426	19.558	46.800	0.460
490.500	325.226	80.004	19.994	103.425	19.556	46.949	0.463
491.000	325.510	80.004	19.994	103.423	19.554	47.075	0.497
491.500	325.735	80.004	19.994	103.422	19.551	47.307	0.515
492.000	326.002	80.004	19.995	103.428	19.552	47.264	0.500
492.500	326.289	80.004	19.995	103.431	19.545	47.741	0.523
493.000	326.514	80.003	19.994	103.430	19.542	47.958	0.533
493.500	326.763	80.004	19.995	103.429	19.546	47.667	0.493
494.000	327.036	80.005	19.993	103.433	19.543	47.890	0.498
494.500	327.273	80.004	19.995	103.435	19.540	48.062	0.516
495.000	327.538	80.005	19.993	103.438	19.539	48.161	0.506
495.500	327.817	80.005	19.993	103.444	19.541	48.041	0.523
496.000	328.032	80.005	19.996	103.449	19.538	48.199	0.519
496.500	328.278	80.005	19.996	103.447	19.536	48.363	0.478
497.000	328.516	80.006	19.995	103.447	19.539	48.160	0.473
497.501	328.746	80.006	19.994	103.447	19.535	48.447	0.476
498.001	329.078	80.006	19.995	103.444	19.534	48.536	0.515
498.500	329.271	80.007	19.995	103.438	19.532	48.687	0.544
499.000	329.533	80.007	19.994	103.439	19.530	48.793	0.489
499.500	329.761	80.006	19.993	103.437	19.528	48.957	0.472
500.000	330.034	80.007	19.994	103.434	19.529	48.851	0.496
500.500	330.295	80.008	19.994	103.438	19.527	49.033	0.518
501.000	330.547	80.007	19.995	103.443	19.527	49.034	0.524
501.500	330.777	80.007	19.993	103.443	19.522	49.369	0.498
502.000	331.014	80.007	19.994	103.446	19.522	49.389	0.474
502.500	331.272	80.008	19.994	103.448	19.520	49.499	0.481
503.000	331.494	80.007	19.994	103.444	19.517	49.707	0.488
503.500	331.785	80.007	19.994	103.442	19.522	49.384	0.496
504.000	332.034	80.007	19.994	103.442	19.518	49.625	0.526
504.500	332.245	80.006	19.994	103.439	19.515	49.888	0.500
505.000	332.489	80.007	19.993	103.438	19.515	49.843	0.458
505.500	332.776	80.006	19.994	103.437	19.510	50.241	0.493
506.000	332.991	80.007	19.996	103.437	19.507	50.417	0.517
506.500	333.282	80.008	19.994	103.435	19.506	50.480	0.504
507.000	333.516	80.007	19.995	103.438	19.504	50.639	0.515
507.500	333.746	80.007	19.994	103.437	19.505	50.568	0.494
508.000	334.017	80.007	19.995	103.437	19.505	50.569	0.482
508.500	334.273	80.007	19.995	103.437	19.504	50.644	0.514
509.000	334.524	80.008	19.994	103.439	19.503	50.751	0.517
509.500	334.779	80.007	19.995	103.439	19.502	50.790	0.507
510.000	335.015	80.007	19.994	103.440	19.500	50.908	0.499
510.500	335.302	80.006	19.994	103.442	19.500	50.912	0.507
511.000	335.560	80.006	19.994	103.441	19.496	51.243	0.534
511.500	335.830	80.006	19.995	103.441	19.500	50.935	0.536
512.000	336.040	80.005	19.995	103.437	19.500	50.928	0.504
512.500	336.334	80.006	19.995	103.436	19.494	51.349	0.492
513.000	336.560	80.006	19.995	103.437	19.490	51.636	0.512
513.500	336.809	80.006	19.995	103.438	19.490	51.675	0.497
514.001	337.065	80.006	19.993	103.439	19.487	51.846	0.490
514.501	337.310	80.006	19.996	103.444	19.488	51.789	0.503
515.000	337.590	80.008	19.996	103.445	19.489	51.715	0.513
515.500	337.834	80.005	19.995	103.444	19.487	51.844	0.524
516.000	338.104	80.007	19.996	103.444	19.485	51.964	0.519
516.500	338.324	80.005	19.996	103.443	19.485	51.979	0.502
517.000	338.559	80.005	19.995	103.442	19.486	51.939	0.472
517.500	338.848	80.006	19.995	103.439	19.483	52.155	0.489
518.000	339.104	80.007	19.995	103.439	19.481	52.299	0.535
518.500	339.321	80.006	19.996	103.439	19.480	52.366	0.509
519.000	339.577	80.006	19.995	103.440	19.477	52.586	0.473
519.500	339.811	80.006	19.994	103.442	19.480	52.347	0.481
520.000	340.075	80.006	19.996	103.445	19.478	52.504	0.494
520.500	340.352	80.006	19.994	103.445	19.478	52.471	0.519
521.000	340.598	80.006	19.995	103.445	19.473	52.812	0.532
521.500	340.828	80.006	19.995	103.445	19.470	53.027	0.500
522.000	341.049	80.006	19.993	103.445	19.469	53.161	0.464
522.500	341.370	80.007	19.995	103.446	19.469	53.117	0.496
523.000	341.612	80.007	19.995	103.445	19.470	53.078	0.553
523.500	341.854	80.009	19.993	103.446	19.470	53.054	0.524
524.000	342.112	80.008	19.995	103.445	19.466	53.320	0.492
524.500	342.360	80.008	19.996	103.445	19.468	53.194	0.503
525.000	342.603	80.008	19.995	103.446	19.463	53.554	0.498
525.500	342.886	80.008	19.996	103.446	19.463	53.541	0.508
526.000	343.143	80.008	19.996	103.446	19.456	54.086	0.533
526.500	343.363	80.007	19.995	103.446	19.458	53.920	0.508
527.000	343.611	80.008	19.993	103.446	19.452	54.313	0.473
527.500	343.864	80.008	19.994	103.445	19.457	53.987	0.485
528.000	344.140	80.006	19.994	103.445	19.453	54.282	0.514
528.500	344.343	80.009	19.996	103.449	19.450	54.483	0.504
529.000	344.602	80.008	19.996	103.452	19.450	54.521	0.471
529.500	344.883	80.008	19.995	103.451	19.450	54.493	0.501
530.000	345.127	80.007	19.995	103.451	19.447	54.722	0.533
530.500	345.410	80.008	19.995	103.450	19.445	54.846	0.526
531.000	345.656	80.008	19.995	103.446	19.444	54.906	0.528
531.500	345.920	80.007	19.995	103.443	19.438	55.313	0.519
532.001	346.138	80.008	19.997	103.445	19.437	55.442	0.496
532.500	346.402	80.006	19.994	103.447	19.437	55.386	0.482
533.000	346.667	80.008	19.994	103.449	19.437	55.415	0.506
533.501	346.917	80.007	19.994	103.451	19.432	55.775	0.522
534.000	347.194	80.007	19.995	103.451	19.429	55.966	0.521
534.500	347.428	80.006	19.994	103.451	19.423	56.438	0.519
535.000	347.675	80.006	19.995	103.450	19.423	56.437	0.496
535.500	347.932	80.006	19.995	103.456	19.417	56.813	0.492
536.000	348.192	80.007	19.995	103.458	19.418	56.772	0.510
536.500	348.454	80.005	19.995	103.460	19.414	57.062	0.519
537.000	348.721	80.005	19.996	103.462	19.414	57.081	0.525
537.500	348.983	80.006	19.994	103.466	19.411	57.273	0.529
538.000	349.241	80.004	19.994	103.466	19.407	57.584	0.525
538.500	349.501	80.004	19.995	103.468	19.406	57.655	0.519
539.000	349.762	80.004	19.995	103.473	19.405	57.718	0.519
539.500	350.023	80.005	19.995	103.479	19.403	57.849	0.521
540.000	350.275	80.004	19.996	103.482	19.400	58.030	0.517
540.500	350.486	80.007	19.996	103.480	19.397	58.292	0.488
541.000	350.760	80.005	19.995	103.479	19.396	58.311	0.474
541.500	351.033	80.005	19.996	103.476	19.392	58.590	0.515
542.000	351.290	80.004	19.995	103.476	19.387	58.961	0.538
542.500	351.515	80.004	19.996	103.475	19.387	58.955	0.507
543.000	351.807	80.004	19.995	103.475	19.383	59.266	0.500
543.500	352.057	80.006	19.996	103.477	19.379	59.573	0.529
544.000	352.302	80.004	19.994	103.480	19.378	59.611	0.518
544.500	352.593	80.005	19.996	103.480	19.374	59.882	0.515
545.000	352.835	80.003	19.995	103.481	19.369	60.258	0.535
545.500	353.064	80.005	19.996	103.485	19.365	60.510	0.502
546.000	353.326	80.004	19.998	103.485	19.361	60.799	0.480
546.500	353.607	80.005	19.997	103.485	19.359	60.991	0.517
547.000	353.893	80.004	19.996	103.486	19.358	61.025	0.555
547.500	354.104	80.005	19.997	103.486	19.355	61.287	0.531
548.000	354.343	80.006	19.995	103.486	19.351	61.521	0.473
548.500	354.609	80.005	19.998	103.485	19.349	61.676	0.478
549.001	354.828	80.005	19.995	103.485	19.347	61.821	0.495
549.501	355.111	80.005	19.995	103.486	19.343	62.099	0.494
550.000	355.346	80.005	19.996	103.486	19.337	62.544	0.510
550.500	355.620	80.006	19.997	103.486	19.336	62.607	0.513
551.000	355.852	80.004	19.995	103.488	19.330	63.016	0.507
551.500	356.106	80.005	19.995	103.490	19.328	63.203	0.496
552.000	356.398	80.006	19.995	103.489	19.324	63.443	0.516
552.500	356.638	80.005	19.995	103.490	19.322	63.608	0.539
553.000	356.904	80.004	19.995	103.492	19.318	63.873	0.519
553.500	357.178	80.005	19.994	103.492	19.314	64.202	0.523
554.000	357.441	80.005	19.995	103.491	19.310	64.465	0.539
554.500	357.653	80.006	19.994	103.491	19.309	64.525	0.506
555.000	357.927	80.005	19.993	103.491	19.304	64.859	0.481
555.500	358.198	80.005	19.995	103.489	19.299	65.267	0.516
556.000	358.433	80.005	19.994	103.492	19.297	65.363	0.525
556.501	358.685	80.006	19.995	103.499	19.296	65.466	0.496
557.001	358.939	80.005	19.994	103.504	19.289	65.951	0.497
557.500	359.180	80.005	19.994	103.508	19.288	66.011	0.501
558.000	359.452	80.005	19.994	103.511	19.283	66.401	0.504
558.500	359.728	80.004	19.994	103.508	19.278	66.706	0.530
559.000	359.914	80.005	19.994	103.502	19.278	66.762	0.504
559.500	360.187	80.006	19.994	103.500	19.271	67.211	0.461
560.000	360.455	80.005	19.994	103.496	19.271	67.221	0.501
560.500	360.720	80.005	19.994	103.500	19.268	67.423	0.537
561.000	360.968	80.004	19.994	103.506	19.265	67.654	0.523
561.500	361.226	80.004	19.994	103.511	19.262	67.866	0.509
562.000	361.480	80.005	19.994	103.510	19.258	68.152	0.508
562.500	361.721	80.003	19.993	103.512	19.255	68.329	0.503
563.000	362.012	80.005	19.994	103.510	19.251	68.613	0.514
563.500	362.253	80.004	19.994	103.511	19.251	68.637	0.532
564.000	362.522	80.003	19.994	103.511	19.245	69.040	0.521
564.500	362.740	80.006	19.994	103.514	19.243	69.208	0.499
565.000	362.991	80.005	19.995	103.518	19.240	69.394	0.478
565.500	363.240	80.005	19.994	103.518	19.236	69.725	0.485
566.000	363.466	80.004	19.995	103.518	19.236	69.722	0.487
566.500	363.742	80.005	19.995	103.520	19.232	70.025	0.488
567.000	364.016	80.004	19.995	103.522	19.228	70.309	0.526
567.500	364.251	80.004	19.995	103.524	19.225	70.492	0.529
568.000	364.512	80.004	19.995	103.526	19.226	70.435	0.502
568.500	364.772	80.005	19.996	103.526	19.221	70.762	0.508
569.000	365.018	80.005	19.993	103.525	19.218	70.979	0.513
569.500	365.300	80.004	19.995	103.524	19.217	71.062	0.517
570.000	365.500	80.003	19.995	103.524	19.213	71.323	0.505
570.500	365.778	80.005	19.994	103.524	19.210	71.537	0.481
571.000	366.042	80.005	19.995	103.524	19.211	71.470	0.510
571.500	366.318	80.005	19.993	103.525	19.207	71.768	0.540
572.000	366.548	80.005	19.995	103.525	19.205	71.856	0.523
572.500	366.815	80.007	19.994	103.524	19.206	71.827	0.502
573.000	367.066	80.004	19.995	103.524	19.202	72.113	0.507
573.500	367.322	80.004	19.995	103.523	19.201	72.145	0.512
574.000	367.590	80.005	19.995	103.522	19.200	72.216	0.515
574.500	367.835	80.005	19.996	103.523	19.201	72.165	0.519
575.000	368.098	80.006	19.997	103.522	19.197	72.457	0.511
575.500	368.357	80.004	19.994	103.522	19.197	72.455	0.515
576.000	368.578	80.006	19.995	103.522	19.198	72.363	0.501
576.500	368.852	80.006	19.997	103.521	19.195	72.622	0.487
577.000	369.123	80.004	19.996	103.521	19.194	72.649	0.520
577.500	369.356	80.007	19.996	103.521	19.191	72.891	0.525
578.000	369.620	80.006	19.995	103.522	19.197	72.482	0.501
578.500	369.836	80.006	19.995	103.523	19.193	72.760	0.488
579.000	370.099	80.006	19.996	103.523	19.193	72.729	0.479
579.500	370.390	80.008	19.994	103.523	19.193	72.714	0.517
580.000	370.601	80.005	19.993	103.519	19.194	72.655	0.528
580.501	370.895	80.007	19.993	103.511	19.193	72.710	0.503
581.001	371.130	80.006	19.996	103.506	19.196	72.497	0.517
581.500	371.390	80.007	19.995	103.501	19.200	72.227	0.512
582.000	371.639	80.006	19.997	103.495	19.198	72.356	0.502
582.500	371.918	80.007	19.995	103.493	19.200	72.201	0.518
583.000	372.192	80.008	19.995	103.492	19.201	72.168	0.541
583.500	372.420	80.007	19.992	103.493	19.203	72.008	0.528
584.000	372.663	80.008	19.995	103.490	19.204	71.913	0.487
584.500	372.945	80.007	19.995	103.489	19.204	71.905	0.498
585.000	373.192	80.007	19.994	103.487	19.208	71.620	0.527
585.500	373.486	80.006	19.995	103.487	19.207	71.679	0.536
586.000	373.728	80.006	19.995	103.483	19.208	71.611	0.538
586.500	374.004	80.006	19.995	103.484	19.212	71.315	0.527
587.000	374.251	80.007	19.995	103.484	19.217	71.007	0.520
587.500	374.526	80.007	19.994	103.484	19.217	71.013	0.522
588.000	374.753	80.007	19.995	103.484	19.222	70.630	0.512
588.500	375.020	80.007	19.995	103.483	19.224	70.486	0.498
589.000	375.269	80.008	19.995	103.482	19.227	70.237	0.505
589.500	375.516	80.008	19.995	103.482	19.232	69.890	0.506
590.000	375.801	80.007	19.994	103.481	19.236	69.648	0.514
590.500	376.026	80.008	19.995	103.475	19.240	69.345	0.521
591.000	376.284	80.006	19.994	103.469	19.241	69.287	0.497
591.500	376.551	80.006	19.994	103.462	19.251	68.575	0.504
592.000	376.783	80.007	19.995	103.455	19.251	68.558	0.512
592.500	377.020	80.007	19.995	103.449	19.258	68.021	0.484
593.000	377.302	80.007	19.996	103.448	19.263	67.664	0.494
593.500	377.577	80.008	19.995	103.448	19.270	67.210	0.538
594.000	377.824	80.007	19.994	103.448	19.276	66.767	0.540
594.501	378.102	80.007	19.995	103.447	19.281	66.387	0.524
595.001	378.340	80.007	19.996	103.445	19.290	65.810	0.520
595.500	378.602	80.006	19.995	103.444	19.296	65.334	0.508
596.000	378.858	80.006	19.995	103.441	19.299	65.155	0.509
596.500	379.115	80.008	19.995	103.436	19.303	64.870	0.515
597.001	379.333	80.007	19.995	103.432	19.309	64.448	0.494
597.500	379.624	80.008	19.995	103.426	19.319	63.738	0.492
598.000	379.831	80.006	19.994	103.419	19.326	63.227	0.504
598.500	380.122	80.007	19.995	103.415	19.335	62.568	0.498
599.000	380.368	80.007	19.995	103.412	19.344	61.962	0.518
599.500	380.633	80.008	19.994	103.408	19.349	61.571	0.524
600.000	380.887	80.007	19.995	103.407	19.358	60.905	0.515
600.500	381.111	80.007	19.994	103.407	19.363	60.550	0.499
601.000	381.375	80.007	19.995	103.404	19.376	59.678	0.483
601.500	381.597	80.008	19.995	103.401	19.381	59.297	0.487
602.000	381.874	80.006	19.995	103.397	19.390	58.657	0.492
602.500	382.122	80.007	19.994	103.391	19.397	58.169	0.512
603.000	382.399	80.006	19.994	103.386	19.407	57.452	0.525
603.501	382.618	80.007	19.994	103.382	19.418	56.706	0.511
604.000	382.889	80.006	19.995	103.377	19.425	56.154	0.493
604.500	383.138	80.007	19.995	103.375	19.433	55.617	0.505
605.000	383.395	80.006	19.995	103.374	19.443	54.901	0.513
605.500	383.640	80.007	19.995	103.372	19.453	54.207	0.504
606.000	383.892	80.007	19.996	103.370	19.464	53.376	0.499
606.500	384.157	80.006	19.995	103.368	19.473	52.739	0.507
607.000	384.417	80.006	19.997	103.363	19.484	52.021	0.521
607.500	384.678	80.008	19.995	103.358	19.493	51.384	0.523
608.000	384.916	80.008	19.996	103.354	19.503	50.664	0.510
608.500	385.191	80.006	19.995	103.347	19.515	49.787	0.506
609.000	385.427	80.006	19.995	103.343	19.524	49.153	0.511
609.500	385.695	80.007	19.995	103.339	19.536	48.327	0.508
610.000	385.958	80.008	19.995	103.336	19.545	47.627	0.518
610.500	386.162	80.006	19.995	103.333	19.554	47.053	0.499
611.000	386.438	80.007	19.995	103.332	19.568	46.036	0.473
611.500	386.717	80.006	19.995	103.329	19.578	45.297	0.518
612.000	386.960	80.008	19.995	103.329	19.587	44.687	0.539
612.500	387.225	80.008	19.995	103.327	19.597	43.985	0.515
613.000	387.504	80.008	19.994	103.323	19.609	43.140	0.526
613.500	387.741	80.005	19.995	103.321	19.619	42.419	0.530
614.000	388.009	80.008	19.995	103.314	19.633	41.417	0.511
614.500	388.257	80.006	19.995	103.310	19.641	40.852	0.511
615.000	388.555	80.008	19.995	103.308	19.650	40.237	0.531
615.501	388.757	80.005	19.996	103.306	19.657	39.701	0.523
616.001	389.026	80.006	19.994	103.300	19.670	38.827	0.485
616.500	389.238	80.005	19.995	103.300	19.681	38.043	0.476
617.000	389.517	80.005	19.994	103.297	19.687	37.589	0.486
617.500	389.790	80.004	19.994	103.294	19.701	36.599	0.522
618.000	390.042	80.005	19.995	103.292	19.710	35.964	0.539
618.500	390.275	80.006	19.995	103.292	19.719	35.301	0.505
619.000	390.520	80.005	19.995	103.292	19.730	34.561	0.482
619.500	390.796	80.005	19.993	103.292	19.739	33.911	0.499
620.000	391.054	80.006	19.995	103.287	19.750	33.144	0.527
620.500	391.331	80.004	19.995	103.281	19.760	32.418	0.535
621.000	391.584	80.006	19.996	103.275	19.769	31.817	0.533
621.500	391.806	80.004	19.996	103.269	19.781	30.933	0.503
622.000	392.057	80.004	19.994	103.261	19.790	30.302	0.474
622.501	392.331	80.005	19.994	103.261	19.799	29.638	0.499
623.001	392.597	80.005	19.994	103.261	19.809	28.951	0.532
623.500	392.836	80.005	19.995	103.258	19.815	28.497	0.522
624.000	393.077	80.003	19.995	103.257	19.826	27.727	0.493
624.500	393.327	80.004	19.995	103.257	19.835	27.135	0.485
625.000	393.619	80.004	19.995	103.254	19.840	26.769	0.516
625.500	393.901	80.005	19.994	103.253	19.852	25.937	0.558
626.000	394.148	80.005	19.995	103.253	19.859	25.402	0.551
626.500	394.385	80.004	19.995	103.253	19.867	24.813	0.506
627.000	394.647	80.003	19.995	103.252	19.876	24.218	0.492
627.500	394.901	80.005	19.995	103.251	19.886	23.524	0.508
628.000	395.177	80.004	19.994	103.247	19.893	22.972	0.523
628.500	395.392	80.004	19.995	103.246	19.898	22.659	0.511
629.000	395.679	80.005	19.996	103.244	19.907	22.017	0.496
629.500	395.900	80.005	19.994	103.243	19.913	21.575	0.505
630.000	396.177	80.004	19.995	103.239	19.918	21.212	0.503
630.500	396.420	80.004	19.995	103.235	19.926	20.638	0.509
631.000	396.682	80.006	19.995	103.231	19.937	19.915	0.512
631.500	396.876	80.005	19.996	103.231	19.938	19.852	0.481
632.000	397.175	80.005	19.995	103.228	19.947	19.206	0.474
632.500	397.405	80.004	19.996	103.226	19.952	18.856	0.511
633.000	397.663	80.005	19.995	103.226	19.959	18.331	0.509
633.500	397.921	80.006	19.996	103.227	19.966	17.821	0.502
634.000	398.200	80.005	19.995	103.220	19.971	17.477	0.527
634.500	398.436	80.005	19.995	103.217	19.977	17.042	0.526
635.000	398.702	80.005	19.995	103.218	19.983	16.659	0.508
635.500	398.968	80.007	19.995	103.216	19.987	16.349	0.517
636.000	399.184	80.005	19.995	103.213	19.993	15.931	0.507
636.500	399.428	80.006	19.996	103.213	19.994	15.864	0.471
637.000	399.739	80.004	19.996	103.213	19.997	15.655	0.507
637.500	400.010	80.005	19.995	103.211	20.001	15.375	0.568
638.000	400.249	80.006	19.996	103.211	20.006	15.010	0.546
638.500	400.474	80.006	19.996	103.211	20.010	14.748	0.487
639.000	400.746	80.005	19.995	103.211	20.014	14.465	0.481
639.500	401.000	80.005	19.996	103.212	20.015	14.354	0.511
640.000	401.256	80.005	19.996	103.212	20.023	13.834	0.518
640.500	401.456	80.006	19.996	103.212	20.023	13.819	0.483
641.000	401.746	80.004	19.996	103.212	20.026	13.602	0.473
641.500	402.030	80.006	19.996	103.212	20.028	13.481	0.532
642.000	402.275	80.007	19.995	103.212	20.030	13.272	0.552
642.500	402.493	80.006	19.996	103.211	20.032	13.200	0.496
643.000	402.775	80.005	19.996	103.211	20.035	12.944	0.481
643.500	403.014	80.005	19.995	103.211	20.041	12.508	0.510
644.000	403.252	80.005	19.994	103.211	20.042	12.483	0.499
644.500	403.554	80.006	19.995	103.211	20.045	12.247	0.509
645.000	403.788	80.006	19.995	103.213	20.047	12.137	0.538
645.500	403.994	80.006	19.996	103.213	20.049	11.985	0.488
646.000	404.259	80.004	19.995	103.214	20.049	11.946	0.455
646.500	404.565	80.006	19.995	103.214	20.054	11.604	0.521
647.000	404.794	80.005	19.994	103.214	20.053	11.706	0.553
647.500	405.078	80.004	19.995	103.212	20.056	11.442	0.524
648.000	405.296	80.006	19.994	103.212	20.057	11.381	0.508
648.500	405.574	80.006	19.996	103.210	20.059	11.235	0.499
649.000	405.835	80.006	19.995	103.210	20.063	10.977	0.517
649.500	406.090	80.006	19.994	103.210	20.063	10.955	0.528
650.000	406.279	80.004	19.995	103.211	20.061	11.100	0.480
650.500	406.548	80.006	19.995	103.211	20.060	11.153	0.451
651.000	406.796	80.006	19.995	103.210	20.066	10.762	0.487
651.500	407.060	80.005	19.994	103.211	20.065	10.817	0.515
652.000	407.301	80.005	19.993	103.211	20.064	10.872	0.509
652.500	407.564	80.006	19.994	103.211	20.064	10.866	0.504
653.000	407.830	80.007	19.994	103.211	20.068	10.641	0.517
653.500	408.099	80.007	19.995	103.212	20.066	10.731	0.532
654.000	408.346	80.006	19.995	103.212	20.066	10.791	0.526
654.500	408.578	80.006	19.994	103.212	20.069	10.526	0.498
655.000	408.806	80.006	19.994	103.212	20.067	10.680	0.470
655.500	409.067	80.006	19.994	103.212	20.071	10.418	0.474
656.000	409.291	80.006	19.995	103.211	20.072	10.362	0.487
656.500	409.602	80.006	19.995	103.211	20.074	10.211	0.510
657.000	409.788	80.005	19.995	103.212	20.071	10.379	0.516
657.501	410.108	80.006	19.994	103.213	20.072	10.324	0.502
658.000	410.347	80.006	19.995	103.213	20.075	10.157	0.533
658.500	410.579	80.007	19.994	103.213	20.075	10.125	0.515
659.000	410.833	80.008	19.994	103.213	20.074	10.197	0.478
659.500	411.073	80.007	19.993	103.212	20.075	10.117	0.490
660.000	411.323	80.008	19.995	103.211	20.075	10.147	0.492
660.500	411.581	80.006	19.994	103.211	20.076	10.039	0.499
661.000	411.862	80.006	19.995	103.210	20.078	9.908	0.523
661.500	412.124	80.007	19.994	103.211	20.077	9.998	0.541
662.000	412.339	80.008	19.994	103.214	20.079	9.871	0.510
662.500	412.626	80.006	19.994	103.214	20.074	10.209	0.489
663.000	412.878	80.007	19.994	103.214	20.077	9.979	0.521
663.500	413.095	80.008	19.994	103.215	20.081	9.729	0.504
664.000	413.345	80.006	19.994	103.213	20.079	9.850	0.468
664.500	413.607	80.007	19.995	103.212	20.080	9.770	0.489
665.000	413.859	80.007	19.993	103.212	20.079	9.864	0.513
665.500	414.107	80.008	19.994	103.211	20.078	9.913	0.507
666.000	414.281	80.007	19.996	103.212	20.078	9.926	0.461
666.500	414.552	80.007	19.996	103.211	20.078	9.932	0.434
667.000	414.830	80.006	19.995	103.211	20.081	9.672	0.497
667.500	415.100	80.009	19.994	103.211	20.076	10.032	0.549
668.000	415.296	80.007	19.994	103.211	20.081	9.713	0.507
668.500	415.556	80.007	19.995	103.210	20.082	9.643	0.461
669.000	415.829	80.007	19.995	103.211	20.082	9.643	0.494
669.500	416.082	80.006	19.994	103.210	20.083	9.547	0.529
670.000	416.314	80.008	19.994	103.210	20.083	9.532	0.505
670.500	416.601	80.007	19.995	103.210	20.083	9.541	0.502
671.000	416.841	80.007	19.995	103.210	20.083	9.524	0.523
671.500	417.068	80.007	19.993	103.208	20.083	9.559	0.497
672.000	417.362	80.007	19.995	103.208	20.084	9.495	0.494
672.500	417.612	80.006	19.994	103.209	20.083	9.526	0.533
673.000	417.905	80.007	19.994	103.210	20.085	9.401	0.544
673.500	418.130	80.008	19.995	103.210	20.086	9.329	0.531
674.000	418.413	80.008	19.994	103.212	20.087	9.264	0.513
674.500	418.658	80.006	19.995	103.211	20.084	9.469	0.518
675.000	418.908	80.007	19.994	103.212	20.084	9.465	0.512
675.500	419.151	80.007	19.995	103.212	20.084	9.469	0.494
676.000	419.370	80.006	19.994	103.213	20.084	9.463	0.477
676.500	419.649	80.007	19.994	103.214	20.084	9.461	0.480
677.000	419.889	80.005	19.995	103.215	20.087	9.289	0.508
677.500	420.175	80.006	19.995	103.214	20.084	9.460	0.523
678.000	420.410	80.006	19.996	103.214	20.085	9.385	0.524
678.500	420.653	80.006	19.993	103.213	20.087	9.278	0.499
679.000	420.920	80.008	19.994	103.213	20.084	9.452	0.494
679.500	421.162	80.005	19.994	103.213	20.085	9.446	0.509
680.000	421.378	80.007	19.995	103.213	20.086	9.377	0.483
680.500	421.662	80.005	19.993	103.213	20.082	9.623	0.479
681.000	421.923	80.007	19.994	103.213	20.087	9.268	0.522
681.500	422.155	80.008	19.995	103.213	20.086	9.346	0.519
682.000	422.393	80.007	19.994	103.213	20.085	9.393	0.482
682.500	422.654	80.008	19.996	103.213	20.087	9.262	0.485
683.000	422.943	80.006	19.995	103.213	20.087	9.248	0.525
683.500	423.187	80.007	19.994	103.213	20.086	9.334	0.542
684.000	423.428	80.007	19.994	103.214	20.087	9.303	0.509
684.500	423.682	80.007	19.993	103.214	20.087	9.295	0.490
685.000	423.971	80.007	19.994	103.214	20.088	9.211	0.519
685.500	424.211	80.007	19.994	103.214	20.088	9.233	0.536
686.000	424.467	80.007	19.994	103.212	20.089	9.139	0.512
686.500	424.699	80.008	19.994	103.210	20.090	9.043	0.492
687.000	424.953	80.009	19.995	103.210	20.091	8.986	0.487
687.500	425.210	80.008	19.994	103.211	20.090	9.092	0.498
688.000	425.491	80.009	19.994	103.211	20.090	9.027	0.524
688.500	425.710	80.008	19.993	103.213	20.091	8.986	0.519
689.000	425.964	80.009	19.994	103.216	20.093	8.828	0.487
689.500	426.204	80.009	19.994	103.215	20.092	8.910	0.484
690.000	426.445	80.009	19.993	103.214	20.091	9.010	0.487
690.500	426.727	80.006	19.993	103.213	20.092	8.932	0.502
691.000	426.968	80.008	19.993	103.213	20.091	8.979	0.523
691.500	427.199	80.008	19.993	103.212	20.092	8.910	0.498
692.000	427.493	80.008	19.994	103.213	20.092	8.953	0.498
692.500	427.738	80.008	19.993	103.214	20.092	8.934	0.531
693.000	427.946	80.007	19.993	103.213	20.092	8.940	0.496
693.500	428.235	80.008	19.994	103.212	20.094	8.744	0.476
694.000	428.447	80.007	19.995	103.213	20.093	8.865	0.499
694.500	428.742	80.007	19.994	103.212	20.091	8.980	0.504
695.000	428.987	80.006	19.994	103.212	20.092	8.922	0.523
695.500	429.266	80.007	19.996	103.212	20.092	8.895	0.532
696.000	429.486	80.007	19.994	103.211	20.093	8.871	0.512
696.500	429.790	80.007	19.995	103.211	20.093	8.842	0.512
697.000	430.007	80.007	19.994	103.210	20.092	8.932	0.522
697.500	430.257	80.006	19.994	103.209	20.094	8.756	0.494
698.000	430.531	80.006	19.995	103.209	20.093	8.822	0.495
698.500	430.780	80.006	19.994	103.209	20.094	8.771	0.523
699.000	431.033	80.005	19.995	103.208	20.093	8.867	0.513
699.500	431.285	80.006	19.995	103.209	20.093	8.860	0.504
700.000	431.529	80.007	19.996	103.209	20.094	8.748	0.501
700.500	431.836	80.005	19.996	103.209	20.097	8.582	0.524
701.000	432.071	80.004	19.996	103.209	20.094	8.761	0.546
701.500	432.346	80.006	19.995	103.209	20.094	8.761	0.526
702.000	432.606	80.006	19.996	103.210	20.098	8.501	0.523
702.500	432.858	80.006	19.996	103.209	20.097	8.583	0.523
703.000	433.107	80.006	19.994	103.209	20.097	8.560	0.506
703.500	433.335	80.005	19.995	103.209	20.098	8.519	0.489
704.000	433.602	80.006	19.996	103.209	20.094	8.781	0.486
704.500	433.851	80.005	19.996	103.207	20.098	8.501	0.505
705.000	434.166	80.005	19.997	103.207	20.097	8.534	0.540
705.500	434.380	80.006	19.995	103.207	20.098	8.516	0.546
706.000	434.661	80.005	19.994	103.207	20.096	8.602	0.512
706.500	434.882	80.006	19.996	103.208	20.100	8.346	0.499
707.000	435.149	80.006	19.994	103.210	20.100	8.370	0.495
707.500	435.436	80.005	19.997	103.209	20.100	8.344	0.521
708.000	435.670	80.007	19.995	103.208	20.103	8.157	0.537
708.500	435.906	80.005	19.995	103.207	20.100	8.340	0.496
709.000	436.154	80.005	19.996	103.206	20.101	8.286	0.477
709.500	436.429	80.005	19.995	103.206	20.102	8.203	0.503
710.000	436.703	80.004	19.996	103.207	20.102	8.242	0.535
710.500	436.909	80.005	19.995	103.210	20.103	8.115	0.515
711.000	437.213	80.006	19.995	103.210	20.104	8.063	0.495
711.500	437.408	80.005	19.994	103.205	20.103	8.139	0.504
712.000	437.706	80.005	19.995	103.202	20.104	8.051	0.496
712.500	437.935	80.005	19.995	103.202	20.104	8.041	0.510
713.000	438.180	80.006	19.995	103.201	20.104	8.082	0.501
713.500	438.427	80.006	19.994	103.200	20.104	8.054	0.483
714.000	438.690	80.006	19.995	103.204	20.104	8.047	0.501
714.500	438.950	80.006	19.995	103.206	20.105	7.986	0.517
715.000	439.220	80.006	19.994	103.203	20.107	7.883	0.526
715.500	439.471	80.005	19.995	103.196	20.109	7.743	0.525
716.000	439.716	80.006	19.995	103.194	20.106	7.936	0.508
716.500	439.998	80.007	19.995	103.192	20.109	7.713	0.512
717.000	440.232	80.006	19.995	103.190	20.107	7.840	0.522
717.500	440.484	80.007	19.995	103.187	20.109	7.733	0.501
718.000	440.703	80.006	19.995	103.190	20.107	7.871	0.478
718.500	440.993	80.004	19.996	103.185	20.106	7.935	0.490
719.000	441.217	80.007	19.995	103.188	20.108	7.752	0.512
719.501	441.498	80.006	19.995	103.191	20.107	7.889	0.509
720.000	441.744	80.006	19.995	103.198	20.112	7.512	0.515
720.500	442.018	80.006	19.995	103.202	20.110	7.658	0.524
721.000	442.239	80.006	19.995	103.210	20.112	7.490	0.508
721.500	442.534	80.006	19.995	103.211	20.112	7.508	0.505
722.000	442.822	80.005	19.995	103.211	20.110	7.615	0.550
722.500	443.040	80.006	19.996	103.209	20.109	7.732	0.545
723.000	443.282	80.006	19.995	103.205	20.111	7.576	0.483
723.500	443.546	80.006	19.996	103.204	20.109	7.738	0.483
724.000	443.781	80.005	19.996	103.203	20.110	7.630	0.502
724.500	444.056	80.006	19.996	103.203	20.114	7.334	0.505
725.000	444.344	80.004	19.995	103.205	20.112	7.496	0.537
725.500	444.572	80.005	19.997	103.209	20.114	7.379	0.539
726.000	444.812	80.005	19.995	103.211	20.115	7.307	0.492
726.500	445.111	80.006	19.996	103.214	20.114	7.348	0.504
727.000	445.338	80.003	19.996	103.215	20.116	7.248	0.532
727.500	445.611	80.006	19.995	103.212	20.115	7.301	0.513
728.000	445.833	80.006	19.995	103.211	20.119	7.039	0.497
728.500	446.092	80.005	19.996	103.210	20.115	7.297	0.488
729.000	446.388	80.004	19.996	103.207	20.116	7.225	0.518
729.500	446.634	80.004	19.996	103.207	20.117	7.155	0.548
730.000	446.867	80.003	19.996	103.210	20.118	7.063	0.511
730.500	447.159	80.006	19.995	103.211	20.114	7.346	0.502
731.000	447.352	80.006	19.996	103.211	20.117	7.153	0.505
731.500	447.629	80.004	19.996	103.210	20.116	7.211	0.478
732.000	447.856	80.004	19.996	103.208	20.119	7.039	0.487
732.500	448.107	80.005	19.996	103.206	20.115	7.324	0.491
733.000	448.370	80.005	19.996	103.203	20.118	7.043	0.495
733.500	448.639	80.003	19.996	103.201	20.118	7.076	0.523
734.001	448.908	80.004	19.997	103.202	20.115	7.314	0.536
734.501	449.143	80.005	19.994	103.203	20.126	6.541	0.522
735.000	449.402	80.004	19.997	103.202	20.116	7.221	0.499
735.500	449.661	80.004	19.995	103.206	20.119	6.986	0.505
736.000	449.899	80.003	19.995	103.208	20.127	6.469	0.507
736.500	450.198	80.005	19.996	103.209	20.120	6.920	0.517
737.000	450.392	80.005	19.995	103.211	20.122	6.801	0.515
737.500	450.682	80.006	19.996	103.213	20.120	6.930	0.489
738.000	450.915	80.004	19.996	103.213	20.122	6.823	0.503
738.500	451.188	80.005	19.995	103.213	20.128	6.371	0.514
739.000	451.518	80.006	19.995	103.213	20.124	6.662	0.554
739.500	451.674	80.006	19.995	103.212	20.121	6.835	0.545
740.000	452.022	80.007	19.995	103.214	20.124	6.636	0.495
740.500	452.210	80.007	19.993	103.214	20.124	6.677	0.520
741.000	452.477	80.007	19.995	103.213	20.123	6.694	0.496
741.500	452.775	80.006	19.995	103.213	20.123	6.704	0.510
742.000	453.020	80.006	19.995	103.210	20.124	6.627	0.554
742.500	453.262	80.006	19.995	103.207	20.124	6.670	0.515
743.000	453.536	80.008	19.994	103.207	20.125	6.589	0.501
743.500	453.704	80.008	19.994	103.207	20.128	6.351	0.479
744.000	454.088	80.008	19.994	103.202	20.129	6.298	0.497
744.500	454.169	80.008	19.995	103.204	20.126	6.480	0.509
745.000	454.568	80.009	19.994	103.207	20.127	6.475	0.473
745.500	454.673	80.007	19.994	103.205	20.130	6.239	0.492
746.000	455.177	80.008	19.995	103.205	20.128	6.341	0.556
746.500	455.181	80.008	19.993	103.209	20.129	6.298	0.558
747.000	455.532	80.007	19.994	103.209	20.131	6.146	0.432
747.500	455.615	80.006	19.994	103.209	20.132	6.085	0.395
748.000	455.984	80.008	19.993	103.211	20.129	6.285	0.443
748.500	456.484	80.007	19.993	103.213	20.132	6.072	0.660
749.000	456.254	80.008	19.994	103.212	20.131	6.182	0.569
749.500	457.102	80.007	19.994	103.210	20.130	6.263	0.444
750.000	457.535	80.007	19.994	103.203	20.130	6.256	0.950
750.500	457.353	80.006	19.994	103.198	20.132	6.084	0.766
751.000	457.397	80.006	19.994	103.198	20.130	6.234	0.056
751.500	457.779	80.007	19.994	103.197	20.133	6.007	0.144
752.001	458.133	80.007	19.994	103.194	20.134	5.960	0.581
752.501	458.504	80.007	19.994	103.198	20.133	6.023	0.731
753.000	458.518	80.007	19.995	103.202	20.132	6.087	0.555
753.500	458.707	80.008	19.994	103.202	20.130	6.195	0.293
754.000	459.144	80.007	19.993	103.201	20.136	5.798	0.415
754.500	459.420	80.006	19.994	103.201	20.135	5.890	0.670
755.000	459.558	80.007	19.994	103.198	20.136	5.801	0.563
755.500	459.847	80.006	19.994	103.195	20.136	5.776	0.421
756.000	460.226	80.007	19.995	103.190	20.137	5.705	0.548
756.500	460.324	80.006	19.993	103.186	20.138	5.647	0.573
757.000	460.605	80.006	19.994	103.187	20.139	5.587	0.428
757.500	460.965	80.006	19.994	103.191	20.140	5.536	0.510
758.000	461.193	80.006	19.994	103.193	20.142	5.403	0.614
758.500	461.379	80.006	19.993	103.195	20.143	5.324	0.501
759.000	461.642	80.007	19.994	103.202	20.144	5.234	0.432
759.500	461.898	80.007	19.994	103.206	20.145	5.197	0.485
760.000	462.146	80.007	19.995	103.206	20.145	5.179	0.512
760.500	462.397	80.005	19.994	103.205	20.144	5.208	0.501
761.000	462.681	80.006	19.993	103.208	20.144	5.218	0.517
761.500	462.937	80.006	19.994	103.205	20.146	5.105	0.537
762.000	463.170	80.009	19.995	103.204	20.145	5.168	0.514
762.500	463.437	80.007	19.994	103.201	20.145	5.170	0.495
763.000	463.678	80.010	19.994	103.199	20.145	5.185	0.504
763.500	463.898	80.008	19.995	103.199	20.147	5.031	0.484
764.000	464.152	80.006	19.993	103.198	20.146	5.068	0.468
764.500	464.392	80.009	19.994	103.197	20.145	5.189	0.484
765.000	464.671	80.008	19.995	103.195	20.148	4.982	0.506
765.500	464.918	80.008	19.993	103.192	20.146	5.103	0.523
766.000	465.211	80.008	19.994	103.186	20.148	4.962	0.533
766.500	465.360	80.008	19.994	103.180	20.149	4.863	0.491
767.000	465.717	80.009	19.994	103.175	20.143	5.286	0.474
767.500	465.925	80.008	19.994	103.177	20.148	4.968	0.535
768.000	466.200	80.008	19.994	103.183	20.150	4.847	0.524
768.501	466.457	80.009	19.993	103.190	20.150	4.820	0.507
769.000	466.704	80.008	19.993	103.192	20.149	4.906	0.518
769.500	466.941	80.009	19.994	103.194	20.147	5.000	0.494
770.000	467.207	80.009	19.995	103.195	20.148	4.933	0.493
770.500	467.454	80.008	19.995	103.193	20.150	4.806	0.508
771.000	467.742	80.010	19.995	103.191	20.148	4.970	0.524
771.500	467.999	80.009	19.995	103.190	20.148	4.972	0.540
772.000	468.234	80.007	19.995	103.195	20.146	5.073	0.518
772.500	468.468	80.008	19.994	103.198	20.147	5.007	0.480
773.001	468.747	80.009	19.992	103.201	20.149	4.896	0.491
773.501	469.016	80.008	19.994	103.203	20.149	4.876	0.530
774.000	469.270	80.009	19.995	103.206	20.150	4.788	0.535
774.500	469.529	80.009	19.994	103.205	20.152	4.705	0.518
775.000	469.728	80.008	19.994	103.203	20.150	4.828	0.486
775.500	470.011	80.008	19.994	103.200	20.151	4.744	0.471
776.000	470.284	80.006	19.991	103.200	20.151	4.765	0.519
776.500	470.527	80.008	19.994	103.201	20.152	4.669	0.536
777.000	470.748	80.008	19.994	103.197	20.149	4.892	0.490
777.500	471.014	80.009	19.992	103.193	20.149	4.850	0.475
778.000	471.212	80.007	19.995	103.190	20.152	4.688	0.475
778.500	471.516	80.006	19.995	103.189	20.154	4.550	0.483
779.000	471.788	80.006	19.994	103.188	20.154	4.540	0.539
779.500	472.028	80.006	19.994	103.194	20.153	4.575	0.544
780.000	472.249	80.007	19.993	103.198	20.146	5.073	0.487
780.500	472.497	80.006	19.995	103.200	20.153	4.606	0.465
781.000	472.762	80.006	19.994	103.199	20.155	4.448	0.491
781.500	473.002	80.006	19.996	103.197	20.155	4.440	0.509
782.000	473.301	80.005	19.996	103.192	20.152	4.641	0.522
782.500	473.550	80.006	19.996	103.189	20.152	4.700	0.544
783.000	473.797	80.006	19.995	103.190	20.150	4.809	0.522
783.500	474.022	80.006	19.993	103.187	20.154	4.499	0.484
784.000	474.312	80.007	19.994	103.189	20.153	4.585	0.493
784.500	474.581	80.006	19.994	103.192	20.152	4.660	0.537
785.000	474.728	80.005	19.994	103.194	20.155	4.465	0.488
785.500	475.062	80.007	19.994	103.197	20.156	4.388	0.449
786.000	475.282	80.006	19.995	103.200	20.155	4.468	0.518
786.500	475.560	80.006	19.995	103.195	20.154	4.534	0.526
787.000	475.820	80.006	19.996	103.191	20.156	4.364	0.518
787.500	476.049	80.006	19.995	103.189	20.157	4.294	0.514
788.000	476.298	80.006	19.994	103.186	20.159	4.189	0.484
788.500	476.515	80.006	19.995	103.181	20.158	4.214	0.472
789.000	476.798	80.006	19.994	103.182	20.157	4.302	0.483
789.500	477.027	80.006	19.995	103.184	20.157	4.296	0.505
790.000	477.279	80.007	19.995	103.183	20.159	4.189	0.497
790.500	477.553	80.005	19.994	103.181	20.157	4.300	0.504
791.000	477.771	80.007	19.994	103.180	20.157	4.305	0.508
791.500	478.064	80.005	19.996	103.177	20.159	4.180	0.501
792.000	478.330	80.006	19.996	103.175	20.158	4.230	0.535
792.500	478.565	80.005	19.995	103.173	20.158	4.275	0.530
793.000	478.809	80.005	19.995	103.172	20.158	4.242	0.490
793.500	479.050	80.006	19.994	103.175	20.160	4.076	0.482
794.000	479.318	80.006	19.994	103.180	20.162	3.992	0.497
794.500	479.578	80.006	19.995	103.188	20.160	4.103	0.519
795.000	479.774	80.005	19.994	103.196	20.159	4.209	0.492
795.500	480.025	80.005	19.995	103.202	20.162	3.994	0.452
796.000	480.280	80.005	19.995	103.205	20.161	4.023	0.476
796.500	480.526	80.005	19.995	103.203	20.163	3.925	0.503
797.000	480.781	80.006	19.995	103.197	20.159	4.145	0.501
797.500	481.047	80.005	19.995	103.192	20.162	3.950	0.511
798.000	481.303	80.006	19.994	103.188	20.159	4.171	0.522
798.500	481.522	80.006	19.993	103.188	20.163	3.868	0.499
799.000	481.805	80.006	19.996	103.188	20.162	3.991	0.488
799.500	482.066	80.006	19.996	103.186	20.161	4.054	0.523
800.001	482.319	80.006	19.995	103.189	20.159	4.150	0.529
800.501	482.565	80.005	19.994	103.194	20.161	4.060	0.507
801.000	482.803	80.005	19.996	103.195	20.162	3.989	0.492
801.500	483.097	80.006	19.996	103.199	20.162	3.935	0.508
802.000	483.341	80.006	19.996	103.205	20.161	4.042	0.535
802.500	483.578	80.006	19.995	103.204	20.162	3.984	0.510
803.000	483.827	80.005	19.995	103.202	20.163	3.900	0.483
803.500	484.078	80.007	19.994	103.201	20.163	3.902	0.493
804.000	484.343	80.005	19.994	103.200	20.162	3.941	0.508
804.500	484.547	80.006	19.994	103.198	20.162	3.974	0.492
805.000	484.827	80.006	19.995	103.199	20.160	4.079	0.477
805.500	485.082	80.006	19.995	103.201	20.163	3.876	0.510
806.000	485.346	80.004	19.996	103.199	20.162	3.940	0.527
806.500	485.579	80.005	19.994	103.196	20.165	3.761	0.508
807.000	485.802	80.006	19.995	103.192	20.165	3.751	0.477
807.500	486.085	80.004	19.993	103.187	20.165	3.782	0.481
808.000	486.343	80.004	19.994	103.181	20.164	3.853	0.523
808.500	486.582	80.005	19.995	103.178	20.163	3.896	0.519
809.000	486.800	80.005	19.994	103.181	20.162	3.941	0.477
809.500	487.089	80.004	19.994	103.184	20.165	3.765	0.482
810.000	487.327	80.007	19.993	103.187	20.165	3.740	0.517
810.500	487.563	80.005	19.995	103.187	20.160	4.085	0.500
811.000	487.806	80.005	19.994	103.187	20.163	3.902	0.477
811.500	488.098	80.004	19.995	103.184	20.162	3.933	0.507
812.000	488.339	80.005	19.995	103.184	20.164	3.820	0.534
812.500	488.590	80.004	19.994	103.184	20.164	3.823	0.513
813.000	488.810	80.004	19.995	103.191	20.165	3.761	0.481
813.500	489.105	80.005	19.995	103.191	20.163	3.890	0.493
814.000	489.341	80.004	19.994	103.190	20.166	3.691	0.523
814.500	489.589	80.005	19.994	103.189	20.166	3.663	0.508
815.000	489.844	80.004	19.996	103.187	20.163	3.882	0.494
815.500	490.146	80.005	19.994	103.183	20.165	3.730	0.530
816.000	490.372	80.004	19.994	103.184	20.164	3.798	0.542
816.500	490.605	80.003	19.995	103.183	20.163	3.909	0.494
817.000	490.871	80.005	19.995	103.183	20.164	3.804	0.479
817.500	491.093	80.005	19.995	103.185	20.163	3.913	0.493
818.000	491.300	80.005	19.995	103.188	20.163	3.859	0.459
818.500	491.625	80.004	19.995	103.188	20.166	3.679	0.481
819.000	491.855	80.005	19.995	103.189	20.162	3.966	0.543
819.500	492.123	80.007	19.996	103.191	20.161	4.038	0.526
820.000	492.365	80.004	19.996	103.191	20.168	3.517	0.504
820.500	492.624	80.006	19.996	103.191	20.167	3.599	0.506
821.000	492.882	80.004	19.995	103.194	20.164	3.797	0.509
821.500	493.153	80.005	19.995	103.194	20.167	3.613	0.523
822.000	493.416	80.005	19.995	103.192	20.165	3.726	0.532
822.500	493.645	80.006	19.995	103.192	20.168	3.548	0.513
823.000	493.885	80.006	19.996	103.191	20.168	3.511	0.480
823.500	494.158	80.007	19.995	103.188	20.168	3.528	0.491
824.001	494.426	80.006	19.996	103.185	20.168	3.509	0.527
824.500	494.685	80.008	19.997	103.186	20.171	3.345	0.534
825.000	494.924	80.007	19.995	103.186	20.168	3.565	0.512
825.500	495.150	80.008	19.996	103.183	20.169	3.499	0.482
826.000	495.434	80.006	19.996	103.182	20.168	3.544	0.488
826.500	495.681	80.007	19.996	103.185	20.169	3.478	0.521
827.000	495.920	80.007	19.995	103.182	20.170	3.380	0.508
827.500	496.225	80.008	19.997	103.178	20.171	3.359	0.515
828.000	496.455	80.007	19.995	103.184	20.170	3.408	0.539
828.500	496.703	80.007	19.996	103.188	20.173	3.195	0.507
829.000	496.983	80.007	19.995	103.186	20.169	3.441	0.503
829.500	497.233	80.007	19.995	103.190	20.172	3.285	0.529
830.000	497.452	80.007	19.995	103.195	20.170	3.394	0.499
830.500	497.705	80.008	19.995	103.192	20.167	3.599	0.470
831.000	497.984	80.006	19.994	103.193	20.171	3.316	0.502
831.500	498.234	80.006	19.995	103.197	20.170	3.427	0.531
832.000	498.460	80.006	19.994	103.198	20.168	3.535	0.502
832.501	498.699	80.007	19.995	103.191	20.167	3.591	0.471
833.000	498.975	80.007	19.995	103.190	20.167	3.605	0.490
833.500	499.250	80.007	19.995	103.184	20.166	3.670	0.533
834.000	499.505	80.007	19.994	103.177	20.167	3.632	0.540
834.500	499.752	80.006	19.995	103.173	20.166	3.699	0.516
835.000	499.978	80.008	19.994	103.176	20.166	3.701	0.488
835.500	500.276	80.007	19.994	103.175	20.167	3.640	0.498
836.001	500.506	80.006	19.994	103.175	20.167	3.591	0.526
836.501	500.757	80.007	19.994	103.176	20.169	3.493	0.505
837.000	501.039	80.008	19.995	103.181	20.169	3.468	0.507
837.500	501.303	80.008	19.995	103.184	20.169	3.450	0.540
838.000	501.558	80.007	19.996	103.186	20.171	3.341	0.532
838.500	501.808	80.005	19.995	103.189	20.167	3.639	0.512
839.000	502.078	80.008	19.995	103.194	20.168	3.522	0.513
839.500	502.303	80.006	19.995	103.197	20.169	3.485	0.508
840.000	502.549	80.007	19.995	103.197	20.168	3.530	0.483
840.500	502.825	80.008	19.995	103.195	20.171	3.310	0.497
841.000	503.088	80.008	19.994	103.199	20.171	3.349	0.531
841.500	503.348	80.007	19.994	103.199	20.169	3.472	0.531
842.000	503.584	80.007	19.995	103.199	20.168	3.519	0.509
842.500	503.844	80.007	19.994	103.198	20.168	3.564	0.496
843.000	504.103	80.007	19.994	103.199	20.167	3.591	0.507
843.500	504.387	80.007	19.995	103.198	20.167	3.599	0.531
844.000	504.629	80.008	19.993	103.199	20.169	3.441	0.535
844.500	504.877	80.008	19.994	103.197	20.170	3.396	0.508
845.000	505.139	80.007	19.994	103.195	20.166	3.673	0.500
845.500	505.334	80.007	19.995	103.192	20.168	3.550	0.484
846.000	505.636	80.009	19.995	103.191	20.167	3.636	0.477
846.500	505.880	80.009	19.996	103.189	20.167	3.634	0.522
847.001	506.122	80.008	19.995	103.183	20.167	3.603	0.516
847.501	506.383	80.008	19.994	103.183	20.169	3.488	0.494
848.001	506.648	80.010	19.995	103.183	20.170	3.377	0.514
848.500	506.906	80.006	19.994	103.179	20.169	3.449	0.525
849.000	507.151	80.008	19.995	103.174	20.169	3.478	0.513
849.500	507.389	80.009	19.994	103.175	20.169	3.455	0.493
850.001	507.658	80.007	19.994	103.176	20.169	3.476	0.495
850.501	507.899	80.008	19.994	103.180	20.174	3.128	0.508
851.000	508.194	80.007	19.994	103.183	20.172	3.290	0.523
851.500	508.465	80.005	19.994	103.185	20.173	3.199	0.550
852.000	508.704	80.010	19.995	103.188	20.171	3.322	0.538
852.500	508.930	80.007	19.995	103.186	20.170	3.416	0.488
853.000	509.182	80.012	19.994	103.181	20.168	3.529	0.472
853.500	509.473	80.008	19.994	103.183	20.170	3.412	0.510
854.000	509.739	80.008	19.994	103.181	20.168	3.506	0.550
854.500	509.974	80.008	19.995	103.180	20.169	3.484	0.529
855.000	510.211	80.008	19.994	103.184	20.170	3.426	0.486
855.500	510.495	80.006	19.995	103.187	20.168	3.557	0.496
856.000	510.745	80.007	19.993	103.183	20.167	3.613	0.528
856.500	511.013	80.007	19.994	103.189	20.166	3.668	0.526
857.000	511.258	80.008	19.996	103.194	20.170	3.406	0.516
857.500	511.497	80.007	19.996	103.196	20.166	3.648	0.498
858.000	511.772	80.007	19.994	103.199	20.166	3.673	0.499
858.500	512.002	80.008	19.994	103.203	20.170	3.414	0.509
859.000	512.250	80.006	19.994	103.202	20.170	3.408	0.492
859.500	512.538	80.006	19.995	103.198	20.171	3.328	0.507
860.000	512.788	80.007	19.995	103.197	20.169	3.504	0.537
860.500	513.018	80.004	19.994	103.195	20.171	3.351	0.509
861.000	513.265	80.006	19.994	103.193	20.168	3.523	0.479
861.500	513.551	80.007	19.994	103.187	20.165	3.723	0.504
862.000	513.802	80.007	19.996	103.189	20.168	3.543	0.535
862.500	514.075	80.005	19.996	103.189	20.171	3.344	0.531
863.000	514.370	80.006	19.994	103.189	20.167	3.613	0.546
863.500	514.620	80.006	19.995	103.193	20.169	3.490	0.556
864.000	514.903	80.007	19.995	103.199	20.168	3.531	0.539
864.500	515.174	80.006	19.994	103.202	20.167	3.593	0.544
865.000	515.395	80.006	19.995	103.205	20.167	3.622	0.523
865.500	515.673	80.006	19.995	103.208	20.167	3.607	0.495
866.000	515.892	80.005	19.994	103.209	20.170	3.417	0.498
866.500	516.164	80.007	19.995	103.209	20.168	3.537	0.494
867.000	516.442	80.006	19.995	103.205	20.169	3.486	0.520
867.500	516.692	80.006	19.995	103.199	20.169	3.486	0.539
868.000	516.952	80.007	19.994	103.196	20.167	3.622	0.519
868.500	517.222	80.006	19.997	103.192	20.172	3.247	0.520
869.000	517.455	80.006	19.995	103.190	20.169	3.443	0.516
869.500	517.752	80.005	19.994	103.191	20.167	3.579	0.517
870.000	517.971	80.005	19.994	103.191	20.168	3.525	0.522
870.500	518.275	80.006	19.995	103.194	20.169	3.435	0.519
871.001	518.482	80.006	19.995	103.199	20.166	3.650	0.517
871.501	518.763	80.006	19.996	103.201	20.168	3.536	0.500
872.000	519.049	80.006	19.995	103.203	20.170	3.394	0.527
872.500	519.295	80.006	19.995	103.206	20.167	3.638	0.549
873.000	519.586	80.006	19.994	103.204	20.170	3.376	0.535
873.500	519.848	80.007	19.996	103.200	20.167	3.583	0.545
874.000	520.083	80.005	19.995	103.193	20.168	3.519	0.525
874.501	520.358	80.006	19.994	103.190	20.169	3.445	0.504
875.001	520.599	80.005	19.994	103.186	20.169	3.501	0.513
875.500	520.864	80.006	19.995	103.186	20.171	3.297	0.511
876.000	521.133	80.006	19.995	103.185	20.169	3.433	0.520
876.500	521.380	80.006	19.996	103.189	20.171	3.333	0.525
877.000	521.608	80.005	19.994	103.192	20.169	3.492	0.496
877.500	521.908	80.006	19.995	103.195	20.167	3.599	0.502
878.000	522.142	80.005	19.995	103.192	20.168	3.525	0.531
878.500	522.397	80.006	19.995	103.193	20.168	3.558	0.511
879.000	522.642	80.007	19.995	103.191	20.169	3.443	0.495
879.500	522.909	80.005	19.994	103.187	20.168	3.564	0.506
880.000	523.166	80.006	19.995	103.187	20.167	3.617	0.518
880.500	523.455	80.005	19.994	103.189	20.170	3.372	0.535
881.000	523.711	80.006	19.994	103.190	20.169	3.441	0.545
881.500	523.971	80.006	19.992	103.191	20.171	3.335	0.531
882.000	524.222	80.006	19.995	103.190	20.171	3.360	0.514
882.500	524.483	80.006	19.995	103.189	20.173	3.175	0.511
883.000	524.753	80.006	19.994	103.191	20.171	3.308	0.521
883.500	525.009	80.005	19.994	103.191	20.170	3.368	0.528
884.000	525.256	80.006	19.995	103.188	20.171	3.337	0.515
884.500	525.526	80.008	19.995	103.190	20.169	3.440	0.510
885.000	525.787	80.006	19.994	103.194	20.169	3.454	0.524
885.500	526.053	80.007	19.997	103.193	20.172	3.282	0.529
886.000	526.314	80.005	19.995	103.193	20.172	3.255	0.527
886.500	526.586	80.004	19.995	103.197	20.175	3.066	0.530
887.000	526.827	80.006	19.995	103.193	20.171	3.294	0.524
887.500	527.060	80.006	19.996	103.189	20.171	3.359	0.494
888.000	527.344	80.006	19.995	103.188	20.170	3.402	0.495
888.500	527.615	80.006	19.996	103.187	20.171	3.335	0.536
889.000	527.825	80.005	19.996	103.186	20.170	3.397	0.518
889.500	528.108	80.007	19.995	103.192	20.172	3.271	0.487
890.000	528.419	80.006	19.995	103.196	20.172	3.253	0.544
890.500	528.665	80.005	19.996	103.194	20.168	3.515	0.576
891.000	528.907	80.004	19.996	103.190	20.171	3.322	0.522
891.500	529.114	80.006	19.997	103.187	20.171	3.306	0.469
892.000	529.400	80.006	19.996	103.183	20.172	3.240	0.471
892.500	529.634	80.005	19.996	103.179	20.170	3.411	0.507
893.000	529.883	80.005	19.997	103.180	20.169	3.450	0.502
893.500	530.194	80.005	19.995	103.181	20.172	3.263	0.521
894.000	530.445	80.005	19.997	103.179	20.170	3.374	0.561
894.500	530.715	80.006	19.995	103.176	20.171	3.312	0.541
895.000	530.983	80.006	19.995	103.177	20.170	3.374	0.529
895.500	531.195	80.003	19.995	103.179	20.172	3.228	0.509
896.000	531.493	80.006	19.995	103.178	20.174	3.105	0.495
896.500	531.760	80.005	19.996	103.180	20.168	3.538	0.537
897.000	532.043	80.004	19.995	103.186	20.168	3.505	0.558
897.500	532.274	80.008	19.997	103.188	20.172	3.232	0.533
898.000	532.505	80.004	19.995	103.188	20.171	3.335	0.488
898.500	532.808	80.007	19.995	103.190	20.168	3.505	0.497
899.000	533.026	80.004	19.995	103.189	20.169	3.468	0.527
899.500	533.320	80.006	19.995	103.184	20.169	3.464	0.517
900.000	533.587	80.006	19.997	103.179	20.171	3.361	0.537
900.500	533.838	80.004	19.996	103.181	20.173	3.181	0.540
901.000	534.090	80.006	19.997	103.183	20.169	3.499	0.510
901.500	534.373	80.005	19.994	103.184	20.170	3.407	0.519
902.000	534.643	80.006	19.995	103.186	20.171	3.314	0.544
902.500	534.884	80.006	19.996	103.190	20.170	3.378	0.532
903.000	535.146	80.007	19.994	103.186	20.170	3.417	0.507
903.500	535.421	80.006	19.996	103.184	20.169	3.458	0.520
904.000	535.689	80.007	19.996	103.183	20.171	3.322	0.540
904.500	535.934	80.008	19.995	103.181	20.169	3.484	0.528
905.000	536.192	80.005	19.995	103.177	20.170	3.409	0.508
905.500	536.441	80.006	19.996	103.178	20.173	3.175	0.505
906.000	536.704	80.008	19.996	103.179	20.171	3.294	0.509
906.500	536.939	80.009	19.996	103.180	20.170	3.378	0.505
907.000	537.196	80.007	19.996	103.180	20.168	3.526	0.495
907.500	537.480	80.007	19.996	103.184	20.171	3.360	0.516
908.000	537.719	80.008	19.996	103.187	20.171	3.308	0.532
908.500	537.981	80.007	19.996	103.186	20.170	3.366	0.513
909.000	538.241	80.008	19.995	103.185	20.174	3.132	0.511
909.500	538.502	80.007	19.996	103.189	20.173	3.169	0.521
910.000	538.775	80.007	19.996	103.190	20.169	3.444	0.527
910.500	539.018	80.007	19.995	103.186	20.170	3.406	0.525
911.000	539.272	80.007	19.995	103.188	20.174	3.095	0.507
911.500	539.525	80.008	19.996	103.189	20.176	2.986	0.502
912.000	539.773	80.005	19.997	103.185	20.172	3.234	0.504
912.500	540.033	80.007	19.995	103.180	20.174	3.113	0.505
913.000	540.310	80.006	19.996	103.178	20.172	3.228	0.523
913.500	540.554	80.006	19.995	103.176	20.172	3.254	0.529
914.000	540.810	80.006	19.995	103.178	20.171	3.345	0.510
914.500	541.042	80.006	19.996	103.182	20.169	3.497	0.493
915.000	541.348	80.006	19.995	103.185	20.171	3.338	0.513
915.500	541.599	80.004	19.996	103.184	20.173	3.201	0.548
916.000	541.855	80.006	19.996	103.181	20.175	3.071	0.532
916.501	542.094	80.006	19.996	103.180	20.172	3.228	0.501
917.001	542.389	80.006	19.995	103.178	20.173	3.200	0.515
917.500	542.654	80.005	19.996	103.177	20.170	3.370	0.547
918.000	542.911	80.005	19.996	103.179	20.173	3.173	0.541
918.500	543.146	80.005	19.995	103.180	20.170	3.406	0.507
919.000	543.366	80.006	19.996	103.178	20.173	3.173	0.473
919.500	543.655	80.006	19.996	103.178	20.176	2.997	0.482
920.000	543.942	80.006	19.996	103.180	20.171	3.321	0.543
920.500	544.165	80.007	19.996	103.182	20.173	3.161	0.543
921.000	544.427	80.007	19.996	103.182	20.174	3.081	0.497
921.500	544.688	80.008	19.997	103.187	20.175	3.052	0.504
922.000	544.936	80.006	19.996	103.188	20.173	3.198	0.516
922.500	545.214	80.005	19.997	103.186	20.173	3.151	0.518
923.000	545.511	80.006	19.995	103.189	20.172	3.224	0.550
923.500	545.774	80.005	19.995	103.194	20.175	3.069	0.567
924.000	545.965	80.006	19.996	103.199	20.173	3.198	0.507
924.500	546.216	80.006	19.995	103.203	20.171	3.333	0.448
925.000	546.491	80.007	19.995	103.185	20.173	3.160	0.484
925.500	546.782	80.007	19.995	103.166	20.173	3.214	0.546
926.000	547.039	80.007	19.996	103.152	20.171	3.349	0.558
926.500	547.280	80.008	19.995	103.142	20.172	3.288	0.523
927.000	547.539	80.006	19.995	103.158	20.172	3.228	0.499
927.500	547.787	80.006	19.995	103.201	20.172	3.276	0.504
928.000	548.074	80.007	19.995	103.226	20.174	3.126	0.521
928.500	548.354	80.007	19.997	103.233	20.173	3.210	0.551
929.000	548.548	80.006	19.993	103.234	20.176	2.966	0.520
929.500	548.837	80.006	19.996	103.212	20.175	3.032	0.478
930.000	549.117	80.008	19.995	103.185	20.176	2.978	0.525
930.500	549.312	80.008	19.993	103.174	20.175	3.046	0.522
931.000	549.603	80.009	19.993	103.174	20.175	3.046	0.481
931.500	549.848	80.010	19.993	103.176	20.175	3.056	0.511
932.000	550.096	80.009	19.993	103.177	20.174	3.101	0.514
932.500	550.375	80.008	19.994	103.179	20.174	3.146	0.510
933.000	550.665	80.008	19.995	103.178	20.175	3.071	0.548
933.500	550.880	80.008	19.994	103.177	20.174	3.083	0.537
934.000	551.137	80.008	19.994	103.175	20.172	3.226	0.489
934.500	551.436	80.009	19.994	103.176	20.173	3.214	0.515
935.000	551.679	80.008	19.994	103.179	20.171	3.300	0.549
935.500	551.941	80.009	19.994	103.186	20.171	3.329	0.523
936.000	552.173	80.009	19.994	103.187	20.172	3.233	0.500
936.500	552.446	80.007	19.993	103.189	20.173	3.163	0.500
937.000	552.681	80.009	19.992	103.186	20.170	3.413	0.506
937.500	552.932	80.008	19.994	103.183	20.171	3.335	0.497
938.000	553.204	80.008	19.994	103.177	20.171	3.323	0.505
938.500	553.452	80.008	19.995	103.178	20.169	3.464	0.522
939.000	553.699	80.007	19.992	103.177	20.167	3.626	0.507
939.500	553.974	80.007	19.993	103.179	20.169	3.448	0.508
940.000	554.217	80.008	19.994	103.179	20.173	3.171	0.520
940.500	554.465	80.006	19.995	103.179	20.172	3.276	0.505
941.001	554.735	80.007	19.993	103.176	20.173	3.196	0.504
941.501	554.962	80.006	19.994	103.176	20.170	3.401	0.507
942.000	555.267	80.005	19.993	103.177	20.169	3.460	0.515
942.500	555.517	80.006	19.994	103.178	20.169	3.460	0.544
943.000	555.786	80.006	19.995	103.178	20.172	3.282	0.537
943.500	556.048	80.006	19.993	103.179	20.171	3.306	0.525
944.000	556.326	80.006	19.995	103.182	20.173	3.218	0.536
944.500	556.582	80.005	19.995	103.181	20.171	3.317	0.537
945.000	556.824	80.006	19.995	103.182	20.170	3.399	0.516
945.500	557.081	80.005	19.994	103.182	20.171	3.350	0.498
946.000	557.343	80.004	19.994	103.182	20.175	3.058	0.508
946.500	557.577	80.005	19.992	103.179	20.170	3.366	0.507
947.000	557.825	80.004	19.995	103.179	20.173	3.179	0.489
947.500	558.093	80.004	19.996	103.177	20.171	3.298	0.499
948.000	558.355	80.006	19.993	103.180	20.171	3.298	0.523
948.500	558.578	80.006	19.995	103.182	20.169	3.452	0.508
949.000	558.818	80.004	19.994	103.183	20.172	3.243	0.474
949.500	559.087	80.006	19.994	103.184	20.172	3.257	0.486
950.000	559.303	80.004	19.993	103.183	20.171	3.302	0.497
950.500	559.601	80.005	19.995	103.181	20.172	3.290	0.500
951.000	559.833	80.005	19.993	103.178	20.170	3.366	0.522
951.501	560.104	80.004	19.994	103.177	20.171	3.335	0.516
952.001	560.358	80.006	19.994	103.179	20.174	3.146	0.514
952.500	560.571	80.005	19.994	103.181	20.172	3.284	0.496
953.000	560.831	80.005	19.995	103.180	20.171	3.294	0.470
953.500	561.119	80.004	19.994	103.182	20.173	3.171	0.511
954.000	561.353	80.006	19.995	103.181	20.173	3.167	0.535
954.500	561.653	80.004	19.995	103.178	20.174	3.122	0.528
955.000	561.901	80.004	19.995	103.176	20.175	3.038	0.541
955.500	562.138	80.006	19.994	103.176	20.173	3.163	0.517
956.000	562.408	80.006	19.995	103.174	20.171	3.339	0.496
956.500	562.646	80.004	19.994	103.175	20.172	3.281	0.507
957.000	562.864	80.005	19.995	103.174	20.172	3.267	0.482
957.500	563.148	80.007	19.994	103.174	20.172	3.253	0.479
958.000	563.453	80.006	19.993	103.174	20.174	3.134	0.546
958.501	563.657	80.004	19.994	103.175	20.175	3.009	0.549
959.001	563.901	80.004	19.994	103.178	20.172	3.245	0.478
959.500	564.184	80.007	19.996	103.179	20.170	3.399	0.488
960.000	564.392	80.004	19.996	103.178	20.174	3.087	0.509
960.500	564.694	80.006	19.993	103.179	20.172	3.238	0.500
961.000	564.932	80.007	19.995	103.177	20.169	3.470	0.525
961.500	565.186	80.006	19.994	103.174	20.172	3.255	0.516
962.000	565.393	80.004	19.994	103.174	20.169	3.433	0.477
962.500	565.689	80.006	19.995	103.177	20.171	3.306	0.482
963.000	565.924	80.008	19.994	103.176	20.171	3.359	0.517
963.500	566.228	80.006	19.994	103.177	20.171	3.361	0.535
964.000	566.432	80.006	19.993	103.182	20.170	3.363	0.523
964.500	566.691	80.006	19.995	103.184	20.170	3.371	0.486
965.000	566.963	80.005	19.993	103.182	20.172	3.224	0.497
965.501	567.215	80.006	19.996	103.183	20.172	3.244	0.527
966.001	567.438	80.004	19.995	103.184	20.173	3.197	0.500
966.500	567.713	80.008	19.996	103.182	20.170	3.378	0.486
967.000	567.985	80.006	19.995	103.182	20.172	3.275	0.522
967.500	568.240	80.006	19.993	103.185	20.174	3.130	0.537
968.000	568.503	80.005	19.995	103.187	20.174	3.112	0.523
968.500	568.745	80.007	19.994	103.186	20.177	2.902	0.511
969.000	569.011	80.005	19.994	103.185	20.175	3.011	0.506
969.500	569.279	80.005	19.993	103.185	20.175	3.033	0.521
970.000	569.510	80.006	19.995	103.182	20.173	3.193	0.516
970.500	569.760	80.006	19.994	103.180	20.172	3.248	0.490
971.000	570.010	80.005	19.994	103.184	20.173	3.220	0.491
971.500	570.274	80.006	19.995	103.188	20.173	3.169	0.507
972.000	570.528	80.007	19.995	103.190	20.171	3.298	0.516
972.500	570.774	80.004	19.996	103.193	20.174	3.101	0.509
973.000	570.984	80.004	19.993	103.193	20.172	3.251	0.478
973.500	571.282	80.004	19.994	103.191	20.177	2.902	0.482
974.000	571.514	80.003	19.995	103.187	20.176	2.982	0.519
974.500	571.769	80.005	19.995	103.187	20.174	3.121	0.508
975.000	572.021	80.004	19.995	103.189	20.174	3.097	0.497
975.500	572.262	80.005	19.994	103.190	20.177	2.902	0.500
976.001	572.553	80.005	19.995	103.188	20.172	3.249	0.513
976.501	572.819	80.007	19.995	103.189	20.177	2.882	0.545
977.000	573.063	80.005	19.993	103.184	20.172	3.286	0.534
977.500	573.294	80.006	19.994	103.181	20.172	3.286	0.492
978.000	573.567	80.004	19.996	103.180	20.175	3.036	0.489
978.500	573.825	80.005	19.994	103.181	20.171	3.314	0.517
979.000	574.100	80.006	19.996	103.181	20.173	3.177	0.532
979.500	574.354	80.004	19.996	103.185	20.173	3.197	0.531
980.000	574.639	80.004	19.996	103.189	20.173	3.173	0.535
980.500	574.884	80.006	19.996	103.195	20.173	3.179	0.534
981.000	575.137	80.006	19.996	103.194	20.176	2.960	0.514
981.500	575.430	80.006	19.996	103.195	20.175	3.066	0.522
982.000	575.707	80.006	19.996	103.196	20.174	3.116	0.558
982.500	575.944	80.006	19.994	103.191	20.175	3.019	0.542
983.000	576.209	80.004	19.996	103.185	20.176	2.964	0.508
983.500	576.432	80.005	19.995	103.188	20.178	2.833	0.495
984.000	576.722	80.006	19.996	103.193	20.175	3.040	0.500
984.500	576.943	80.005	19.996	103.191	20.175	3.068	0.512
985.000	577.207	80.004	19.995	103.191	20.178	2.843	0.498
985.500	577.458	80.006	19.996	103.192	20.176	2.982	0.500
986.000	577.709	80.005	19.996	103.187	20.177	2.890	0.508
986.500	577.960	80.006	19.995	103.181	20.177	2.921	0.503
987.000	578.237	80.007	19.995	103.178	20.174	3.101	0.515
987.500	578.490	80.005	19.997	103.178	20.173	3.153	0.529
988.000	578.760	80.006	19.996	103.177	20.174	3.101	0.526
988.500	579.018	80.007	19.996	103.178	20.175	3.017	0.526
989.000	579.274	80.008	19.996	103.180	20.174	3.083	0.521
989.500	579.517	80.007	19.997	103.185	20.176	2.945	0.506
990.001	579.792	80.007	19.994	103.187	20.177	2.876	0.508
990.500	580.028	80.007	19.996	103.188	20.175	3.046	0.515
991.000	580.278	80.008	19.994	103.189	20.177	2.868	0.498
991.500	580.516	80.008	19.996	103.188	20.177	2.921	0.487
992.000	580.762	80.006	19.995	103.185	20.174	3.093	0.486
992.500	581.037	80.007	19.995	103.183	20.175	3.044	0.503
993.000	581.259	80.006	19.996	103.181	20.176	2.976	0.510
993.500	581.554	80.008	19.996	103.180	20.174	3.118	0.507
994.000	581.773	80.007	19.994	103.179	20.174	3.110	0.515
994.500	582.040	80.007	19.995	103.179	20.173	3.186	0.500
995.000	582.316	80.008	19.994	103.182	20.174	3.126	0.515
995.500	582.568	80.006	19.995	103.186	20.175	3.028	0.536
996.000	582.846	80.007	19.994	103.188	20.178	2.827	0.529
996.500	583.079	80.006	19.996	103.188	20.175	3.022	0.520
997.000	583.359	80.006	19.995	103.188	20.175	3.050	0.512
997.500	583.588	80.008	19.995	103.182	20.177	2.925	0.511
998.000	583.844	80.007	19.997	103.179	20.177	2.917	0.497
998.500	584.117	80.006	19.994	103.177	20.176	2.990	0.507
999.000	584.376	80.005	19.995	103.179	20.175	3.044	0.531
999.500	584.603	80.006	19.994	103.183	20.176	2.987	0.509
1000.000	584.903	80.005	19.996	103.183	20.174	3.116	0.507
1000.501	585.127	80.007	19.996	103.187	20.176	2.997	0.525
1001.000	585.419	80.006	19.996	103.185	20.172	3.274	0.520
1001.500	585.629	80.005	19.996	103.183	20.174	3.079	0.509
1002.000	585.847	80.005	19.995	103.179	20.172	3.235	0.465
1002.500	586.120	80.005	19.996	103.180	20.174	3.095	0.459
1003.000	586.376	80.006	19.995	103.176	20.171	3.311	0.510
1003.500	586.639	80.004	19.995	103.176	20.173	3.202	0.524
1004.000	586.904	80.005	19.996	103.177	20.178	2.816	0.524
1004.500	587.156	80.007	19.995	103.177	20.176	2.947	0.523
1005.000	587.448	80.005	19.996	103.175	20.171	3.327	0.531
1005.500	587.654	80.006	19.995	103.175	20.173	3.202	0.521
1006.000	587.923	80.006	19.995	103.174	20.176	2.976	0.487
1006.500	588.152	80.006	19.994	103.173	20.173	3.152	0.487
1007.000	588.371	80.003	19.996	103.173	20.175	3.027	0.473
1007.500	588.663	80.005	19.997	103.174	20.179	2.783	0.479
1008.000	588.949	80.006	19.997	103.176	20.176	2.964	0.544
1008.500	589.177	80.005	19.996	103.177	20.176	3.005	0.546
1009.000	589.395	80.007	19.996	103.181	20.173	3.200	0.480
1009.500	589.685	80.007	19.996	103.183	20.176	2.946	0.477
1010.000	589.933	80.005	19.994	103.182	20.173	3.188	0.523
1010.500	590.218	80.006	19.996	103.180	20.175	3.046	0.535
1011.001	590.485	80.007	19.994	103.180	20.175	3.019	0.543
1011.501	590.724	80.006	19.994	103.176	20.176	2.964	0.530
1012.000	590.981	80.006	19.994	103.174	20.175	3.062	0.501
1012.500	591.243	80.008	19.995	103.174	20.172	3.232	0.507
1013.000	591.473	80.005	19.995	103.174	20.174	3.146	0.506
1013.500	591.732	80.008	19.995	103.174	20.174	3.134	0.491
1014.000	591.970	80.009	19.997	103.174	20.174	3.143	0.493
1014.500	592.266	80.007	19.995	103.179	20.174	3.086	0.516
1015.000	592.515	80.007	19.997	103.181	20.175	3.068	0.540
1015.500	592.796	80.009	19.995	103.182	20.171	3.318	0.537
1016.000	593.002	80.006	19.994	103.183	20.173	3.157	0.508
1016.500	593.256	80.007	19.995	103.187	20.169	3.471	0.473
1017.000	593.533	80.007	19.995	103.186	20.170	3.401	0.495
1017.500	593.789	80.005	19.996	103.184	20.172	3.278	0.532
1018.000	594.096	80.007	19.995	103.183	20.170	3.405	0.548
1018.500	594.345	80.007	19.996	103.182	20.171	3.342	0.560
1019.001	594.618	80.008	19.993	103.177	20.174	3.107	0.539
1019.501	594.883	80.008	19.995	103.174	20.173	3.204	0.529
1020.000	595.158	80.007	19.992	103.174	20.173	3.200	0.539
1020.500	595.373	80.007	19.995	103.173	20.174	3.122	0.515
1021.000	595.652	80.007	19.995	103.173	20.174	3.087	0.492
1021.500	595.913	80.006	19.995	103.173	20.175	3.052	0.517
1022.000	596.177	80.007	19.994	103.175	20.173	3.206	0.533
1022.500	596.429	80.007	19.994	103.175	20.173	3.188	0.521
1023.000	596.674	80.007	19.994	103.180	20.170	3.399	0.506
1023.500	596.937	80.006	19.994	103.187	20.171	3.294	0.502
1024.000	597.188	80.005	19.994	103.188	20.172	3.286	0.511
1024.501	597.436	80.006	19.994	103.171	20.172	3.282	0.506
1025.001	597.742	80.006	19.994	103.155	20.173	3.194	0.526
1025.500	597.942	80.005	19.996	103.142	20.173	3.163	0.530
1026.000	598.211	80.006	19.993	103.133	20.172	3.239	0.488
1026.500	598.471	80.004	19.996	103.130	20.173	3.149	0.499
1027.000	598.704	80.006	19.995	103.158	20.174	3.114	0.511
1027.500	598.956	80.006	19.991	103.207	20.174	3.106	0.489
1028.000	599.264	80.006	19.995	103.228	20.178	2.808	0.522
1028.500	599.486	80.007	19.994	103.234	20.175	3.015	0.545
1029.000	599.750	80.006	19.994	103.236	20.174	3.136	0.508
1029.500	599.998	80.006	19.993	103.223	20.178	2.808	0.499
1030.000	600.288	80.005	19.995	103.192	20.176	3.005	0.525
1030.500	600.546	80.007	19.995	103.180	20.177	2.895	0.543
1031.000	600.787	80.006	19.994	103.177	20.176	2.946	0.524
1031.500	601.041	80.004	19.995	103.177	20.175	3.054	0.497
1032.000	601.317	80.007	19.994	103.178	20.174	3.095	0.513
1032.500	601.563	80.006	19.996	103.176	20.175	3.036	0.527
1033.000	601.794	80.005	19.993	103.174	20.175	3.036	0.499
1033.500	602.055	80.006	19.994	103.173	20.173	3.218	0.484
1034.000	602.334	80.009	19.996	103.172	20.172	3.251	0.516
1034.500	602.580	80.004	19.995	103.172	20.168	3.526	0.532
1035.000	602.862	80.007	19.994	103.173	20.176	2.970	0.526
1035.501	603.135	80.007	19.995	103.173	20.177	2.917	0.542
1036.001	603.390	80.006	19.997	103.173	20.176	2.979	0.542
1036.501	603.652	80.003	19.995	103.174	20.174	3.118	0.522
1037.001	603.907	80.006	19.994	103.174	20.175	3.034	0.517
1037.500	604.153	80.008	19.995	103.173	20.170	3.388	0.509
1038.000	604.403	80.006	19.993	103.173	20.175	3.056	0.499
1038.501	604.661	80.007	19.994	103.176	20.175	3.013	0.502
1039.001	604.960	80.007	19.995	103.178	20.175	3.013	0.532
1039.500	605.185	80.006	19.995	103.178	20.175	3.052	0.541
1040.000	605.433	80.006	19.995	103.178	20.175	3.066	0.498
1040.500	605.692	80.007	19.996	103.178	20.174	3.105	0.490
1041.000	605.935	80.006	19.995	103.174	20.176	2.958	0.504
1041.500	606.184	80.006	19.994	103.172	20.171	3.298	0.497
1042.000	606.471	80.006	19.993	103.172	20.173	3.189	0.514
1042.501	606.726	80.007	19.994	103.176	20.174	3.134	0.538
1043.001	607.011	80.006	19.996	103.178	20.173	3.192	0.541
1043.500	607.282	80.006	19.995	103.181	20.173	3.202	0.549
1044.000	607.498	80.005	19.996	103.182	20.177	2.923	0.522
1044.500	607.763	80.006	19.997	103.182	20.172	3.282	0.484
1045.000	608.021	80.006	19.994	103.178	20.173	3.204	0.502
1045.500	608.258	80.005	19.995	103.177	20.171	3.300	0.509
1046.000	608.564	80.007	19.993	103.174	20.172	3.232	0.519
1046.500	608.808	80.007	19.994	103.172	20.173	3.189	0.546
1047.000	609.083	80.008	19.996	103.172	20.172	3.267	0.534
1047.500	609.312	80.007	19.995	103.171	20.171	3.298	0.512
1048.000	609.553	80.006	19.994	103.171	20.169	3.440	0.487
1048.500	609.832	80.007	19.993	103.175	20.172	3.284	0.495
1049.000	610.051	80.006	19.993	103.175	20.171	3.300	0.509
1049.500	610.379	80.006	19.994	103.177	20.171	3.304	0.523
1050.000	610.595	80.006	19.995	103.181	20.175	3.009	0.545
1050.500	610.838	80.007	19.996	103.188	20.171	3.337	0.501
1051.000	611.102	80.005	19.997	103.187	20.174	3.126	0.483
1051.500	611.382	80.006	19.993	103.186	20.174	3.122	0.525
1052.000	611.642	80.006	19.995	103.188	20.175	3.050	0.542
1052.500	611.921	80.007	19.996	103.184	20.172	3.249	0.540
1053.000	612.163	80.008	19.995	103.177	20.174	3.107	0.530
1053.500	612.404	80.004	19.995	103.175	20.175	3.052	0.502
1054.000	612.655	80.007	19.993	103.176	20.172	3.241	0.487
1054.500	612.934	80.004	19.993	103.174	20.176	2.956	0.511
1055.000	613.186	80.007	19.995	103.175	20.173	3.179	0.531
1055.500	613.411	80.004	19.994	103.177	20.175	3.066	0.504
1056.000	613.688	80.006	19.995	103.180	20.172	3.290	0.489
1056.501	613.931	80.007	19.994	103.180	20.173	3.206	0.511
1057.001	614.218	80.006	19.995	103.181	20.174	3.085	0.525
1057.500	614.426	80.005	19.992	103.180	20.172	3.267	0.512
1058.000	614.703	80.004	19.994	103.180	20.172	3.271	0.490
1058.500	615.038	80.006	19.995	103.177	20.178	2.864	0.549
1059.000	615.265	80.008	19.995	103.178	20.177	2.921	0.587
1059.500	615.532	80.005	19.993	103.178	20.174	3.146	0.528
1060.000	615.773	80.007	19.994	103.179	20.175	3.067	0.501
1060.500	616.015	80.005	19.995	103.181	20.171	3.360	0.495
1061.000	616.311	80.005	19.995	103.183	20.175	3.050	0.510
1061.500	616.542	80.007	19.995	103.182	20.176	2.980	0.533
1062.000	616.782	80.006	19.994	103.182	20.173	3.165	0.499
1062.500	617.043	80.006	19.992	103.184	20.173	3.189	0.486
1063.001	617.307	80.005	19.996	103.183	20.176	2.997	0.513
1063.501	617.587	80.005	19.996	103.181	20.175	3.056	0.535
1064.000	617.832	80.005	19.996	103.181	20.172	3.239	0.535
1064.500	618.088	80.004	19.992	103.181	20.173	3.190	0.513
1065.000	618.343	80.006	19.995	103.178	20.172	3.243	0.506
1065.500	618.588	80.006	19.995	103.176	20.173	3.218	0.505
1066.000	618.878	80.005	19.993	103.177	20.169	3.497	0.517
1066.500	619.120	80.004	19.994	103.177	20.171	3.306	0.534
1067.000	619.380	80.008	19.995	103.176	20.173	3.169	0.517
1067.500	619.653	80.006	19.995	103.176	20.172	3.276	0.517
1068.000	619.900	80.005	19.994	103.180	20.173	3.163	0.526
1068.500	620.116	80.008	19.994	103.180	20.171	3.306	0.492
1069.000	620.412	80.007	19.994	103.180	20.174	3.093	0.488
1069.500	620.663	80.007	19.994	103.179	20.171	3.329	0.530
1070.000	620.918	80.007	19.995	103.181	20.174	3.128	0.527
1070.501	621.211	80.007	19.994	103.179	20.176	2.950	0.527
1071.001	621.415	80.007	19.993	103.177	20.174	3.143	0.522
1071.500	621.682	80.006	19.994	103.178	20.173	3.188	0.484
1072.001	621.936	80.006	19.994	103.179	20.171	3.317	0.496
1072.501	622.225	80.006	19.995	103.176	20.169	3.466	0.532
1073.000	622.438	80.008	19.993	103.177	20.173	3.183	0.523
1073.500	622.678	80.007	19.994	103.178	20.173	3.153	0.477
1074.000	622.941	80.007	19.996	103.177	20.171	3.347	0.478
1074.500	623.217	80.005	19.995	103.178	20.174	3.126	0.520
1075.000	623.494	80.005	19.994	103.178	20.175	3.075	0.546
1075.500	623.712	80.005	19.994	103.176	20.177	2.931	0.524
1076.000	623.968	80.007	19.995	103.174	20.174	3.085	0.484
1076.501	624.213	80.007	19.995	103.174	20.177	2.882	0.487
1077.001	624.464	80.007	19.994	103.174	20.173	3.206	0.499
1077.500	624.737	80.006	19.996	103.175	20.176	2.983	0.510
1078.000	624.970	80.004	19.996	103.175	20.172	3.231	0.515
1078.500	625.216	80.008	19.995	103.175	20.173	3.153	0.493
1079.001	625.475	80.005	19.994	103.176	20.174	3.102	0.493
1079.501	625.733	80.007	19.994	103.175	20.175	3.058	0.511
1080.000	625.970	80.006	19.994	103.173	20.175	3.040	0.506
1080.500	626.206	80.006	19.995	103.173	20.172	3.235	0.484
1081.001	626.486	80.008	19.993	103.173	20.176	2.991	0.494
1081.501	626.722	80.005	19.994	103.173	20.172	3.237	0.516
1082.000	627.015	80.005	19.996	103.174	20.172	3.272	0.522
1082.500	627.245	80.006	19.995	103.174	20.171	3.296	0.526
1083.000	627.511	80.007	19.994	103.174	20.172	3.255	0.510
1083.500	627.752	80.005	19.996	103.173	20.173	3.157	0.502
1084.000	627.995	80.008	19.995	103.173	20.171	3.300	0.496
1084.500	628.274	80.007	19.996	103.172	20.173	3.161	0.503
1085.000	628.522	80.006	19.995	103.172	20.175	3.009	0.525
1085.500	628.782	80.006	19.995	103.172	20.174	3.132	0.518
1086.000	629.039	80.007	19.995	103.175	20.174	3.140	0.513
1086.500	629.291	80.007	19.997	103.176	20.173	3.212	0.513
1087.000	629.521	80.007	19.995	103.176	20.172	3.272	0.495
1087.500	629.769	80.007	19.994	103.176	20.174	3.099	0.480
1088.000	630.042	80.006	19.993	103.177	20.173	3.212	0.500
1088.500	630.305	80.007	19.997	103.175	20.172	3.263	0.529
1089.000	630.570	80.009	19.996	103.173	20.172	3.241	0.532
1089.500	630.832	80.007	19.994	103.173	20.174	3.083	0.528
1090.000	631.079	80.008	19.995	103.172	20.175	3.065	0.518
1090.500	631.328	80.008	19.997	103.171	20.177	2.931	0.503
1091.000	631.592	80.007	19.992	103.170	20.173	3.218	0.505
1091.500	631.849	80.007	19.994	103.172	20.176	2.985	0.517
1092.000	632.114	80.009	19.994	103.174	20.174	3.134	0.521
1092.500	632.365	80.007	19.995	103.176	20.174	3.104	0.519
1093.000	632.652	80.009	19.996	103.177	20.174	3.112	0.527
1093.500	632.902	80.005	19.994	103.179	20.174	3.087	0.538
1094.000	633.139	80.008	19.995	103.178	20.173	3.216	0.512
1094.500	633.431	80.009	19.996	103.176	20.174	3.099	0.508
1095.000	633.623	80.007	19.997	103.174	20.173	3.218	0.506
1095.500	633.852	80.008	19.994	103.173	20.175	3.040	0.453
1096.000	634.171	80.010	19.993	103.171	20.172	3.239	0.484
1096.500	634.400	80.008	19.994	103.170	20.173	3.169	0.547
1097.000	634.657	80.010	19.996	103.171	20.174	3.114	0.517
1097.500	634.905	80.007	19.995	103.171	20.173	3.171	0.496
1098.000	635.176	80.006	19.997	103.171	20.175	3.059	0.512
1098.501	635.423	80.009	19.994	103.171	20.172	3.245	0.518
1099.001	635.663	80.008	19.994	103.172	20.174	3.104	0.502
1099.500	635.945	80.008	19.996	103.171	20.171	3.358	0.505
1100.000	636.206	80.009	19.995	103.170	20.172	3.249	0.533
1100.500	636.457	80.007	19.995	103.171	20.171	3.348	0.527
1101.000	636.751	80.007	19.994	103.171	20.174	3.102	0.528
1101.500	636.963	80.008	19.995	103.170	20.172	3.282	0.525
1102.001	637.282	80.008	19.994	103.171	20.172	3.225	0.519
1102.501	637.490	80.008	19.996	103.171	20.173	3.163	0.529
1103.001	637.743	80.010	19.996	103.170	20.174	3.130	0.494
1103.500	637.965	80.006	19.996	103.169	20.174	3.145	0.468
1104.000	638.231	80.006	19.996	103.170	20.174	3.130	0.482
1104.500	638.488	80.007	19.994	103.172	20.172	3.268	0.506
1105.000	638.760	80.007	19.994	103.172	20.172	3.259	0.526
1105.501	638.998	80.006	19.995	103.173	20.171	3.315	0.519
1106.001	639.287	80.005	19.995	103.174	20.176	2.960	0.519
1106.500	639.528	80.007	19.993	103.177	20.174	3.093	0.529
1107.000	639.830	80.005	19.996	103.175	20.172	3.222	0.536
1107.500	640.020	80.006	19.996	103.175	20.173	3.186	0.517
1108.000	640.259	80.005	19.996	103.174	20.173	3.175	0.460
1108.500	640.533	80.004	19.996	103.173	20.171	3.343	0.471
1109.000	640.777	80.005	19.997	103.171	20.170	3.411	0.515
1109.500	641.030	80.006	19.994	103.170	20.173	3.218	0.508
1110.000	641.316	80.005	19.995	103.169	20.171	3.319	0.518
1110.501	641.567	80.004	19.995	103.169	20.173	3.212	0.538
1111.002	641.827	80.007	19.995	103.169	20.167	3.585	0.524
1111.501	642.079	80.005	19.995	103.169	20.171	3.323	0.512
1112.000	642.317	80.004	19.995	103.170	20.169	3.489	0.501
1112.501	642.573	80.005	19.995	103.170	20.170	3.385	0.492
1113.001	642.854	80.006	19.994	103.170	20.172	3.233	0.515
1113.500	643.084	80.006	19.994	103.171	20.168	3.508	0.524
1114.000	643.354	80.007	19.994	103.170	20.167	3.620	0.506
1114.500	643.624	80.005	19.995	103.170	20.167	3.581	0.520
1115.000	643.854	80.006	19.993	103.170	20.167	3.579	0.520
1115.500	644.086	80.005	19.998	103.170	20.167	3.634	0.481
1116.001	644.377	80.007	19.994	103.170	20.173	3.163	0.493
1116.501	644.614	80.005	19.995	103.170	20.171	3.302	0.526
1117.000	644.868	80.005	19.994	103.171	20.168	3.516	0.509
1117.501	645.130	80.007	19.994	103.171	20.171	3.294	0.503
1118.001	645.412	80.004	19.992	103.171	20.170	3.362	0.530
1118.500	645.647	80.008	19.995	103.171	20.168	3.507	0.531
1119.000	645.902	80.006	19.992	103.171	20.170	3.364	0.504
1119.500	646.151	80.007	19.995	103.171	20.169	3.432	0.497
1120.001	646.414	80.007	19.995	103.171	20.171	3.321	0.507
1120.501	646.620	80.006	19.995	103.172	20.167	3.610	0.490
1121.001	646.922	80.007	19.992	103.173	20.169	3.477	0.489
1121.500	647.131	80.006	19.995	103.174	20.167	3.626	0.510
1122.000	647.397	80.007	19.993	103.174	20.169	3.438	0.493
1122.501	647.649	80.007	19.995	103.170	20.166	3.659	0.496
1123.002	647.949	80.006	19.995	103.166	20.166	3.667	0.535
1123.501	648.165	80.006	19.993	103.166	20.171	3.308	0.534
1124.000	648.420	80.007	19.996	103.166	20.169	3.435	0.493
1124.500	648.696	80.007	19.994	103.166	20.167	3.579	0.501
1125.000	648.928	80.005	19.994	103.170	20.169	3.446	0.520
1125.500	649.185	80.006	19.993	103.173	20.165	3.764	0.499
1126.000	649.462	80.006	19.996	103.173	20.167	3.612	0.511
1126.500	649.704	80.007	19.994	103.173	20.170	3.427	0.526
1127.000	649.950	80.008	19.996	103.173	20.170	3.415	0.503
1127.500	650.205	80.007	19.995	103.174	20.165	3.733	0.495
1128.000	650.464	80.007	19.996	103.174	20.169	3.436	0.508
1128.500	650.668	80.006	19.994	103.174	20.169	3.491	0.489
1129.000	650.958	80.007	19.995	103.174	20.168	3.511	0.478
1129.500	651.228	80.008	19.994	103.173	20.168	3.517	0.527
1130.000	651.499	80.006	19.996	103.170	20.167	3.610	0.551
1130.500	651.716	80.005	19.995	103.168	20.170	3.411	0.515
1131.000	651.984	80.005	19.995	103.168	20.170	3.427	0.486
1131.500	652.209	80.006	19.995	103.168	20.166	3.688	0.488
1132.000	652.467	80.005	19.993	103.168	20.170	3.399	0.488
1132.500	652.713	80.006	19.992	103.170	20.169	3.442	0.494
1133.000	653.000	80.005	19.994	103.174	20.167	3.575	0.519
1133.500	653.253	80.006	19.994	103.176	20.171	3.337	0.536
1134.000	653.519	80.006	19.997	103.176	20.170	3.421	0.529
1134.500	653.760	80.005	19.992	103.177	20.168	3.509	0.513
1135.000	654.018	80.005	19.993	103.177	20.167	3.603	0.503
1135.500	654.270	80.007	19.996	103.175	20.172	3.222	0.504
1136.000	654.518	80.005	19.995	103.173	20.170	3.417	0.505
1136.500	654.782	80.005	19.996	103.173	20.169	3.445	0.506
1137.000	655.015	80.004	19.997	103.173	20.171	3.345	0.505
1137.500	655.286	80.007	19.995	103.173	20.168	3.548	0.501
1138.000	655.514	80.005	19.994	103.174	20.171	3.298	0.501
1138.500	655.809	80.005	19.993	103.176	20.168	3.544	0.510
1139.000	656.039	80.005	19.994	103.177	20.170	3.401	0.524
1139.500	656.310	80.005	19.994	103.178	20.172	3.227	0.513
1140.000	656.574	80.005	19.993	103.177	20.172	3.266	0.518
1140.501	656.817	80.005	19.993	103.177	20.170	3.395	0.521
1141.001	657.030	80.005	19.994	103.176	20.169	3.434	0.482
1141.500	657.299	80.005	19.993	103.175	20.171	3.329	0.469
1142.000	657.577	80.006	19.996	103.175	20.172	3.235	0.514
1142.500	657.860	80.005	19.995	103.175	20.167	3.585	0.554
1143.000	658.096	80.006	19.998	103.175	20.171	3.342	0.540
1143.500	658.316	80.006	19.994	103.175	20.171	3.309	0.487
1144.001	658.622	80.005	19.994	103.174	20.173	3.190	0.491
1144.501	658.859	80.006	19.995	103.174	20.174	3.090	0.535
1145.001	659.103	80.007	19.993	103.173	20.173	3.159	0.512
1145.500	659.340	80.005	19.995	103.174	20.172	3.276	0.481
1146.000	659.625	80.005	19.995	103.179	20.172	3.286	0.501
1146.500	659.884	80.006	19.995	103.181	20.174	3.128	0.533
1147.000	660.095	80.007	19.996	103.185	20.173	3.212	0.507
1147.500	660.408	80.005	19.994	103.186	20.170	3.393	0.497
1148.000	660.626	80.007	19.993	103.187	20.170	3.423	0.528
1148.500	660.894	80.007	19.994	103.183	20.168	3.524	0.509
1149.000	661.165	80.006	19.994	103.181	20.168	3.530	0.512
1149.500	661.394	80.007	19.994	103.177	20.172	3.282	0.519
1150.000	661.651	80.007	19.994	103.176	20.170	3.374	0.493
1150.500	661.929	80.008	19.994	103.175	20.173	3.198	0.510
1151.001	662.197	80.009	19.994	103.173	20.171	3.339	0.540
1151.501	662.380	80.008	19.992	103.173	20.167	3.608	0.499
1152.000	662.660	80.009	19.995	103.172	20.170	3.372	0.457
1152.500	662.874	80.007	19.994	103.171	20.170	3.401	0.479
1153.000	663.216	80.010	19.993	103.171	20.170	3.376	0.525
1153.500	663.431	80.008	19.993	103.171	20.170	3.366	0.556
1154.000	663.686	80.008	19.994	103.167	20.166	3.680	0.513
1154.500	663.922	80.007	19.991	103.163	20.170	3.391	0.481
1155.000	664.209	80.008	19.992	103.161	20.171	3.354	0.507
1155.500	664.475	80.008	19.993	103.160	20.171	3.313	0.538
1156.000	664.717	80.009	19.996	103.159	20.171	3.325	0.531
1156.500	664.942	80.009	19.990	103.163	20.167	3.592	0.487
1157.000	665.231	80.008	19.994	103.167	20.166	3.713	0.490
1157.500	665.479	80.007	19.994	103.169	20.166	3.653	0.525
1158.000	665.719	80.007	19.993	103.170	20.167	3.594	0.512
1158.500	665.993	80.007	19.993	103.170	20.168	3.544	0.501
1159.000	666.253	80.007	19.994	103.170	20.167	3.616	0.525
1159.500	666.458	80.009	19.992	103.170	20.166	3.655	0.500
1160.000	666.747	80.009	19.995	103.171	20.168	3.516	0.479
1160.500	667.009	80.008	19.997	103.171	20.167	3.594	0.523
1161.000	667.227	80.008	19.995	103.171	20.168	3.512	0.516
1161.500	667.470	80.007	19.995	103.170	20.168	3.520	0.471
1162.000	667.730	80.007	19.994	103.170	20.168	3.565	0.482
1162.500	667.962	80.007	19.993	103.170	20.167	3.596	0.497
1163.000	668.234	80.007	19.994	103.170	20.169	3.450	0.497
1163.500	668.496	80.008	19.994	103.170	20.173	3.190	0.519
1164.000	668.716	80.008	19.995	103.171	20.171	3.358	0.508
1164.500	669.048	80.006	19.993	103.171	20.168	3.559	0.517
1165.000	669.290	80.008	19.993	103.171	20.168	3.512	0.563
1165.500	669.496	80.007	19.994	103.170	20.169	3.436	0.511
1166.000	669.798	80.007	19.995	103.170	20.170	3.399	0.478
1166.500	670.016	80.007	19.996	103.169	20.167	3.581	0.514
1167.000	670.294	80.007	19.994	103.169	20.168	3.561	0.508
1167.500	670.534	80.007	19.992	103.169	20.169	3.489	0.507
1168.001	670.776	80.007	19.992	103.169	20.170	3.424	0.500
1168.502	671.009	80.008	19.995	103.169	20.167	3.577	0.479
1169.001	671.286	80.008	19.995	103.169	20.164	3.856	0.493
1169.500	671.537	80.006	19.994	103.169	20.165	3.741	0.519
1170.000	671.781	80.007	19.995	103.169	20.166	3.663	0.511
1170.500	672.029	80.008	19.995	103.169	20.165	3.725	0.494
1171.000	672.301	80.007	19.995	103.169	20.169	3.464	0.506
1171.500	672.536	80.010	19.994	103.169	20.168	3.542	0.513
1172.001	672.793	80.007	19.995	103.169	20.166	3.676	0.500
1172.501	673.103	80.008	19.994	103.169	20.166	3.663	0.530
1173.000	673.335	80.007	19.996	103.169	20.166	3.686	0.554
1173.500	673.556	80.008	19.995	103.169	20.166	3.676	0.497
1174.000	673.862	80.007	19.995	103.167	20.165	3.786	0.490
1174.500	674.121	80.009	19.996	103.166	20.167	3.626	0.546
1175.000	674.333	80.007	19.994	103.165	20.169	3.436	0.518
1175.500	674.623	80.009	19.993	103.166	20.168	3.518	0.487
1176.000	674.893	80.007	19.995	103.165	20.171	3.317	0.531
1176.501	675.106	80.010	19.994	103.167	20.171	3.325	0.522
1177.001	675.396	80.008	19.995	103.168	20.169	3.438	0.493
1177.501	675.650	80.009	19.995	103.168	20.169	3.483	0.523
1178.001	675.918	80.008	19.994	103.168	20.170	3.405	0.533
1178.500	676.177	80.010	19.995	103.168	20.169	3.432	0.524
1179.000	676.433	80.011	19.994	103.168	20.170	3.380	0.521
1179.500	676.661	80.008	19.994	103.166	20.171	3.360	0.500
1180.000	676.919	80.009	19.994	103.165	20.172	3.263	0.485
1180.500	677.170	80.011	19.993	103.165	20.169	3.493	0.498
1181.000	677.402	80.009	19.993	103.165	20.172	3.282	0.496
1181.500	677.703	80.007	19.995	103.166	20.170	3.413	0.508
1182.000	677.958	80.009	19.995	103.169	20.171	3.346	0.545
1182.500	678.164	80.008	19.992	103.172	20.169	3.470	0.508
1183.000	678.415	80.009	19.994	103.172	20.169	3.464	0.459
1183.500	678.661	80.005	19.995	103.172	20.168	3.544	0.477
1184.000	678.983	80.007	19.995	103.173	20.170	3.407	0.533
1184.500	679.223	80.009	19.995	103.171	20.166	3.653	0.565
1185.001	679.464	80.010	19.994	103.170	20.168	3.520	0.521
1185.501	679.725	80.007	19.992	103.171	20.168	3.516	0.491
1186.001	679.939	80.008	19.994	103.171	20.165	3.725	0.489
1186.501	680.226	80.006	19.994	103.171	20.167	3.608	0.489
1187.001	680.430	80.007	19.994	103.172	20.170	3.405	0.496
1187.501	680.721	80.006	19.995	103.171	20.168	3.550	0.493
1188.000	680.968	80.008	19.994	103.170	20.170	3.421	0.516
1188.500	681.226	80.007	19.996	103.170	20.171	3.307	0.522
1189.000	681.485	80.007	19.995	103.170	20.172	3.274	0.511
1189.501	681.761	80.006	19.997	103.171	20.169	3.499	0.526
1190.001	681.981	80.005	19.994	103.171	20.172	3.253	0.515
1190.500	682.249	80.006	19.995	103.172	20.169	3.501	0.491
1191.000	682.516	80.006	19.995	103.171	20.167	3.577	0.511
1191.500	682.830	80.007	19.994	103.171	20.171	3.335	0.558
1192.000	683.057	80.007	19.995	103.171	20.169	3.448	0.561
1192.500	683.292	80.007	19.996	103.171	20.168	3.530	0.502
1193.000	683.507	80.006	19.996	103.172	20.167	3.633	0.456
1193.500	683.794	80.005	19.993	103.173	20.161	4.006	0.476
1194.000	684.020	80.005	19.995	103.174	20.164	3.819	0.507
1194.500	684.305	80.006	19.995	103.174	20.166	3.674	0.512
1195.000	684.553	80.006	19.994	103.174	20.166	3.651	0.522
1195.501	684.786	80.005	19.994	103.174	20.163	3.891	0.507
1196.001	685.021	80.006	19.995	103.172	20.169	3.468	0.474
1196.501	685.319	80.006	19.996	103.172	20.167	3.626	0.500
1197.001	685.542	80.006	19.997	103.172	20.167	3.589	0.527
1197.500	685.775	80.006	19.996	103.171	20.167	3.581	0.488
1198.000	686.059	80.005	19.994	103.171	20.165	3.735	0.487
1198.500	686.335	80.006	19.995	103.171	20.167	3.581	0.539
1199.000	686.559	80.004	19.995	103.171	20.166	3.655	0.530
1199.500	686.803	80.004	19.994	103.172	20.167	3.643	0.484
1200.000	687.043	80.004	19.994	103.172	20.163	3.907	0.476
1200.500	687.293	80.006	19.996	103.172	20.167	3.608	0.487
1201.000	687.562	80.003	19.995	103.172	20.165	3.747	0.504
1201.500	687.846	80.007	19.994	103.171	20.164	3.827	0.536
1202.000	688.073	80.006	19.996	103.170	20.170	3.405	0.532
1202.500	688.349	80.005	19.995	103.170	20.165	3.731	0.507
1203.000	688.582	80.007	19.996	103.169	20.166	3.651	0.506
1203.500	688.860	80.005	19.995	103.171	20.168	3.518	0.510
1204.000	689.090	80.007	19.995	103.171	20.168	3.536	0.509
1204.500	689.342	80.006	19.994	103.169	20.161	4.020	0.495
1205.000	689.598	80.004	19.993	103.169	20.163	3.883	0.495
1205.500	689.858	80.006	19.996	103.170	20.166	3.645	0.512
1206.001	690.115	80.006	19.995	103.169	20.163	3.905	0.517
1206.501	690.337	80.005	19.998	103.170	20.166	3.708	0.498
1207.000	690.578	80.006	19.997	103.172	20.165	3.754	0.471
1207.500	690.799	80.005	19.996	103.173	20.163	3.881	0.463
1208.000	691.082	80.005	19.995	103.173	20.163	3.877	0.483
1208.500	691.349	80.005	19.996	103.174	20.165	3.741	0.526
1209.000	691.564	80.006	19.996	103.174	20.162	3.932	0.516
1209.500	691.855	80.005	19.996	103.174	20.163	3.885	0.494
1210.000	692.107	80.004	19.996	103.174	20.166	3.708	0.525
1210.500	692.371	80.006	19.996	103.173	20.167	3.598	0.530
1211.000	692.615	80.005	19.994	103.170	20.164	3.825	0.512
1211.500	692.876	80.007	19.994	103.170	20.165	3.717	0.506
1212.000	693.112	80.005	19.995	103.169	20.164	3.792	0.501
1212.500	693.413	80.006	19.995	103.170	20.167	3.600	0.517
1213.000	693.678	80.006	19.995	103.170	20.163	3.862	0.552
1213.500	693.874	80.003	19.993	103.172	20.171	3.337	0.514
1214.000	694.153	80.004	19.992	103.172	20.168	3.509	0.468
1214.500	694.357	80.006	19.995	103.171	20.165	3.747	0.479
1215.000	694.634	80.007	19.993	103.171	20.167	3.594	0.482
1215.500	694.899	80.005	19.992	103.171	20.164	3.848	0.511
1216.000	695.132	80.006	19.994	103.172	20.165	3.766	0.520
1216.500	695.378	80.006	19.993	103.171	20.163	3.860	0.489
1217.000	695.624	80.006	19.995	103.170	20.163	3.889	0.485
1217.501	695.933	80.005	19.997	103.170	20.164	3.792	0.523
1218.001	696.155	80.005	19.995	103.170	20.165	3.729	0.543
1218.501	696.376	80.005	19.995	103.170	20.163	3.901	0.487
1219.001	696.678	80.006	19.996	103.169	20.164	3.819	0.483
1219.500	696.887	80.007	19.996	103.169	20.166	3.669	0.517
1220.000	697.163	80.005	19.995	103.170	20.165	3.723	0.499
1220.500	697.424	80.006	19.994	103.170	20.166	3.667	0.511
1221.000	697.632	80.006	19.995	103.170	20.162	3.981	0.503
1221.500	697.891	80.007	19.995	103.171	20.163	3.893	0.468
1222.000	698.174	80.004	19.994	103.171	20.160	4.100	0.504
1222.500	698.368	80.005	19.994	103.170	20.162	3.948	0.510
1223.000	698.644	80.004	19.994	103.171	20.163	3.895	0.474
1223.500	698.900	80.005	19.995	103.171	20.158	4.215	0.501
1224.000	699.132	80.007	19.994	103.171	20.165	3.764	0.510
1224.500	699.384	80.007	19.995	103.170	20.163	3.864	0.486
1225.000	699.680	80.005	19.993	103.171	20.164	3.850	0.516
1225.500	699.939	80.005	19.996	103.171	20.161	4.053	0.551
1226.000	700.188	80.006	19.995	103.171	20.164	3.842	0.532
1226.500	700.434	80.006	19.994	103.171	20.161	4.016	0.502
1227.000	700.683	80.006	19.995	103.171	20.164	3.848	0.495
1227.500	700.957	80.006	19.995	103.171	20.165	3.733	0.509
1228.000	701.199	80.006	19.995	103.171	20.159	4.203	0.519
1228.500	701.459	80.007	19.992	103.172	20.163	3.907	0.509
1229.000	701.693	80.005	19.995	103.172	20.163	3.858	0.498
1229.500	701.934	80.004	19.994	103.172	20.162	3.971	0.484
1230.000	702.206	80.007	19.995	103.172	20.164	3.789	0.494
1230.500	702.474	80.007	19.994	103.172	20.163	3.922	0.526
1231.000	702.694	80.007	19.992	103.172	20.165	3.743	0.514
1231.501	702.947	80.007	19.993	103.171	20.160	4.120	0.480
1232.001	703.180	80.008	19.994	103.171	20.161	4.008	0.480
1232.500	703.417	80.008	19.995	103.171	20.162	3.971	0.478
1233.000	703.654	80.009	19.995	103.170	20.160	4.088	0.472
1233.500	703.935	80.009	19.995	103.170	20.165	3.772	0.496
1234.000	704.203	80.009	19.994	103.170	20.164	3.856	0.533
1234.500	704.447	80.009	19.993	103.170	20.163	3.877	0.531
1235.000	704.651	80.008	19.993	103.170	20.167	3.635	0.480
1235.500	704.914	80.009	19.996	103.170	20.160	4.078	0.458
1236.000	705.173	80.007	19.995	103.171	20.163	3.920	0.494
1236.500	705.436	80.007	19.994	103.169	20.163	3.875	0.522
1237.000	705.690	80.007	19.996	103.169	20.162	3.963	0.520
1237.500	705.927	80.008	19.995	103.169	20.160	4.125	0.504
1238.000	706.156	80.009	19.995	103.166	20.165	3.749	0.478
1238.500	706.424	80.008	19.993	103.166	20.165	3.766	0.481
1239.000	706.692	80.008	19.995	103.167	20.165	3.772	0.517
1239.500	706.936	80.009	19.993	103.167	20.164	3.794	0.524
1240.000	707.152	80.010	19.995	103.165	20.164	3.852	0.486
1240.500	707.461	80.009	19.993	103.166	20.161	4.063	0.492
1241.000	707.698	80.008	19.994	103.166	20.162	3.951	0.535
1241.500	707.914	80.009	19.996	103.166	20.162	3.949	0.500
1242.001	708.186	80.007	19.994	103.167	20.159	4.146	0.470
1242.501	708.429	80.008	19.994	103.169	20.161	3.998	0.501
1243.000	708.703	80.008	19.994	103.170	20.168	3.526	0.517
1243.500	708.964	80.009	19.994	103.170	20.157	4.295	0.526
1244.000	709.199	80.008	19.993	103.169	20.163	3.911	0.515
1244.500	709.454	80.008	19.995	103.167	20.167	3.639	0.493
1245.000	709.663	80.008	19.993	103.168	20.163	3.876	0.477
1245.500	709.917	80.008	19.994	103.167	20.162	3.967	0.463
1246.000	710.213	80.007	19.994	103.167	20.162	3.987	0.506
1246.500	710.464	80.008	19.995	103.165	20.160	4.079	0.548
1247.000	710.698	80.008	19.993	103.167	20.161	4.005	0.516
1247.500	710.933	80.008	19.994	103.168	20.163	3.860	0.477
1248.000	711.179	80.008	19.993	103.168	20.161	4.065	0.475
1248.500	711.478	80.008	19.993	103.168	20.166	3.696	0.513
1249.000	711.688	80.007	19.995	103.170	20.161	4.067	0.527
1249.500	711.951	80.009	19.994	103.171	20.160	4.079	0.490
1250.000	712.237	80.008	19.994	103.170	20.161	4.012	0.511
1250.500	712.468	80.009	19.993	103.169	20.163	3.899	0.534
1251.000	712.751	80.007	19.993	103.164	20.165	3.764	0.515
1251.500	712.938	80.008	19.993	103.162	20.162	3.989	0.492
1252.000	713.263	80.008	19.992	103.159	20.163	3.870	0.491
1252.500	713.507	80.009	19.994	103.158	20.165	3.737	0.540
1253.000	713.733	80.005	19.994	103.159	20.163	3.926	0.520
1253.500	713.981	80.008	19.994	103.164	20.160	4.106	0.472
1254.000	714.247	80.009	19.993	103.168	20.159	4.145	0.494
1254.500	714.513	80.009	19.993	103.171	20.160	4.092	0.523
1255.000	714.760	80.009	19.994	103.172	20.158	4.213	0.522
1255.500	715.046	80.009	19.994	103.173	20.161	4.067	0.523
1256.001	715.282	80.009	19.993	103.173	20.156	4.356	0.528
1256.501	715.540	80.008	19.994	103.173	20.161	4.034	0.508
1257.000	715.824	80.009	19.993	103.174	20.162	3.948	0.518
1257.500	716.056	80.009	19.993	103.174	20.159	4.178	0.529
1258.000	716.334	80.010	19.993	103.174	20.156	4.366	0.513
1258.500	716.617	80.010	19.994	103.173	20.161	4.010	0.535
1259.000	716.817	80.009	19.994	103.170	20.157	4.309	0.522
1259.500	717.074	80.009	19.993	103.169	20.158	4.225	0.470
1260.000	717.317	80.009	19.994	103.168	20.157	4.282	0.478
1260.500	717.595	80.009	19.994	103.168	20.159	4.171	0.510
1261.000	717.858	80.008	19.992	103.169	20.161	4.048	0.531
1261.500	718.133	80.009	19.994	103.171	20.159	4.157	0.539
1262.000	718.362	80.009	19.993	103.172	20.161	4.044	0.521
1262.500	718.601	80.009	19.994	103.171	20.163	3.897	0.486
1263.000	718.891	80.007	19.995	103.171	20.161	4.057	0.498
1263.500	719.133	80.008	19.996	103.170	20.160	4.098	0.530
1264.000	719.386	80.008	19.995	103.169	20.159	4.184	0.514
1264.500	719.649	80.008	19.993	103.169	20.162	3.971	0.506
1265.000	719.934	80.008	19.994	103.169	20.161	4.018	0.532
1265.500	720.175	80.008	19.995	103.169	20.162	3.934	0.537
1266.000	720.458	80.009	19.995	103.171	20.161	4.034	0.525
1266.501	720.684	80.007	19.996	103.173	20.164	3.846	0.517
1267.001	720.923	80.008	19.994	103.173	20.163	3.923	0.487
1267.500	721.205	80.008	19.994	103.172	20.168	3.557	0.492
1268.000	721.462	80.007	19.994	103.172	20.164	3.799	0.530
1268.500	721.699	80.006	19.995	103.172	20.159	4.151	0.517
1269.000	721.962	80.007	19.995	103.171	20.159	4.159	0.497
1269.500	722.229	80.008	19.997	103.171	20.165	3.717	0.515
1270.001	722.490	80.006	19.995	103.171	20.163	3.907	0.529
1270.501	722.730	80.005	19.996	103.171	20.160	4.116	0.514
1271.001	722.955	80.005	19.994	103.172	20.160	4.110	0.483
1271.500	723.277	80.005	19.995	103.176	20.162	3.960	0.506
1272.000	723.496	80.006	19.995	103.177	20.158	4.262	0.544
1272.500	723.721	80.006	19.994	103.177	20.161	4.006	0.493
1273.000	724.001	80.005	19.995	103.178	20.161	4.004	0.474
1273.500	724.269	80.008	19.993	103.177	20.163	3.924	0.526
1274.000	724.496	80.007	19.995	103.173	20.161	4.049	0.522
1274.500	724.780	80.007	19.995	103.173	20.161	4.028	0.503
1275.000	725.020	80.008	19.994	103.172	20.158	4.248	0.517
1275.500	725.316	80.005	19.994	103.172	20.152	4.694	0.530
1276.000	725.551	80.007	19.994	103.172	20.159	4.153	0.534
1276.500	725.795	80.006	19.995	103.173	20.161	4.006	0.505
1277.000	726.054	80.009	19.994	103.173	20.155	4.475	0.491
1277.501	726.301	80.007	19.994	103.174	20.158	4.276	0.505
1278.001	726.531	80.007	19.994	103.173	20.159	4.207	0.491
1278.500	726.837	80.007	19.993	103.173	20.156	4.385	0.506
1279.000	727.077	80.007	19.994	103.173	20.155	4.469	0.541
1279.500	727.320	80.006	19.994	103.173	20.154	4.508	0.515
1280.000	727.531	80.006	19.994	103.172	20.155	4.485	0.469
1280.500	727.817	80.008	19.994	103.172	20.153	4.592	0.476
1281.000	728.107	80.006	19.994	103.172	20.152	4.668	0.537
1281.500	728.349	80.007	19.994	103.172	20.156	4.383	0.554
1282.000	728.612	80.007	19.994	103.172	20.159	4.198	0.518
1282.500	728.810	80.007	19.994	103.171	20.153	4.617	0.483
1283.000	729.076	80.006	19.994	103.171	20.152	4.635	0.463
1283.500	729.349	80.007	19.994	103.170	20.153	4.576	0.502
1284.001	729.557	80.008	19.994	103.171	20.152	4.656	0.510
1284.501	729.796	80.007	19.993	103.170	20.153	4.592	0.464
1285.000	730.050	80.008	19.994	103.170	20.149	4.852	0.470
1285.500	730.285	80.006	19.994	103.169	20.151	4.735	0.491
1286.000	730.558	80.006	19.995	103.170	20.155	4.489	0.498
1286.500	730.826	80.005	19.993	103.170	20.154	4.518	0.524
1287.000	731.074	80.006	19.996	103.170	20.152	4.688	0.529
1287.501	731.292	80.007	19.995	103.170	20.156	4.418	0.491
1288.001	731.512	80.006	19.994	103.170	20.156	4.375	0.452
1288.500	731.814	80.007	19.994	103.169	20.153	4.582	0.481
1289.000	732.064	80.006	19.993	103.166	20.156	4.366	0.537
1289.500	732.316	80.006	19.993	103.166	20.156	4.391	0.527
1290.000	732.543	80.007	19.995	103.166	20.151	4.735	0.491
1290.500	732.814	80.006	19.994	103.166	20.153	4.621	0.489
1291.001	733.028	80.005	19.995	103.166	20.152	4.656	0.491
1291.501	733.286	80.006	19.995	103.169	20.154	4.514	0.479
1292.000	733.550	80.007	19.995	103.169	20.152	4.678	0.497
1292.500	733.797	80.007	19.995	103.169	20.155	4.492	0.516
1293.000	734.048	80.007	19.995	103.168	20.153	4.627	0.505
1293.500	734.326	80.007	19.995	103.168	20.154	4.510	0.514
1294.000	734.528	80.005	19.994	103.169	20.156	4.395	0.504
1294.501	734.774	80.006	19.995	103.169	20.151	4.721	0.464
1295.001	735.011	80.006	19.993	103.169	20.151	4.709	0.466
1295.500	735.253	80.006	19.995	103.169	20.158	4.268	0.481
1296.000	735.528	80.006	19.996	103.169	20.159	4.194	0.498
1296.500	735.767	80.007	19.995	103.169	20.152	4.703	0.516
1297.000	735.996	80.006	19.995	103.168	20.155	4.449	0.491
1297.500	736.253	80.006	19.995	103.167	20.152	4.693	0.477
1298.000	736.501	80.005	19.995	103.167	20.157	4.318	0.496
1298.500	736.767	80.006	19.995	103.167	20.153	4.605	0.510
1299.001	737.020	80.007	19.996	103.166	20.153	4.590	0.516
1299.501	737.277	80.004	19.994	103.167	20.152	4.682	0.515
1300.000	737.542	80.006	19.995	103.168	20.152	4.672	0.516
1300.500	737.775	80.006	19.994	103.169	20.153	4.600	0.510
1301.000	738.010	80.005	19.995	103.169	20.152	4.674	0.483
1301.500	738.277	80.005	19.996	103.168	20.155	4.456	0.485
1302.000	738.535	80.005	19.996	103.169	20.156	4.411	0.513
1302.500	738.809	80.005	19.995	103.168	20.154	4.542	0.528
1303.000	739.022	80.006	19.994	103.168	20.155	4.452	0.509
1303.500	739.268	80.006	19.994	103.167	20.153	4.625	0.473
1304.000	739.576	80.006	19.995	103.166	20.154	4.518	0.507
1304.500	739.768	80.006	19.996	103.165	20.153	4.610	0.527
1305.000	740.049	80.006	19.995	103.166	20.150	4.823	0.486
1305.500	740.304	80.005	19.995	103.165	20.150	4.795	0.504
1306.000	740.523	80.006	19.993	103.166	20.148	4.924	0.505
1306.501	740.796	80.005	19.994	103.168	20.155	4.432	0.483
1307.001	741.045	80.005	19.994	103.168	20.155	4.438	0.507
1307.500	741.339	80.006	19.997	103.167	20.148	4.967	0.533
1308.000	741.557	80.007	19.995	103.161	20.155	4.434	0.528
1308.500	741.785	80.005	19.994	103.158	20.147	5.015	0.479
1309.000	742.059	80.008	19.994	103.157	20.149	4.912	0.474
1309.500	742.282	80.005	19.994	103.156	20.152	4.705	0.499
1310.000	742.552	80.008	19.996	103.159	20.149	4.879	0.494
1310.500	742.758	80.004	19.995	103.164	20.152	4.705	0.484
1311.000	743.042	80.006	19.995	103.168	20.148	4.940	0.483
1311.500	743.281	80.008	19.993	103.171	20.153	4.598	0.507
1312.000	743.565	80.006	19.994	103.173	20.153	4.627	0.523
