Sample ID:	C:\MCC\MCC Cal\Test\PVC_Pipe_MCC_30K_min_211119_R3.txt
Sample Weight (mg):	4.28
Heating Rate (C/s):	0.5
Combustor Temp (C):	900
N2 Flow Rate (cc/min):	80
O2 Flow Rate (cc/min):	20
Calibration File:	C:\MCC\MCC Cal\Coeff1 JN10440_30_210304.txt.txt
T Correction Coefficients:	0	1.024463	0
Time Shift (s):	14
*
Time (s)	Temperature (C)	N2 flow rate (cc/min)	O2 flow rate (cc/min)	Flow Rate (cc/min)	Oxygen (%)	HRR (W/g)	Heating rate (C/s)
0.000	108.904	80.003	19.994	103.075	20.158	-0.206	-0.011
0.500	108.905	80.003	19.994	103.068	20.156	-0.069	-0.015
1.000	108.908	80.001	19.995	103.060	20.156	-0.055	-0.000
1.500	108.889	80.001	19.996	103.060	20.156	-0.075	-0.006
2.000	108.898	80.004	19.995	103.060	20.158	-0.192	-0.013
2.500	108.877	80.003	19.995	103.060	20.154	0.088	-0.011
3.000	108.900	80.003	19.995	103.061	20.157	-0.110	-0.005
3.500	108.865	80.002	19.994	103.068	20.155	0.045	-0.005
4.000	108.873	80.003	19.995	103.069	20.157	-0.122	-0.020
4.500	108.863	80.003	19.995	103.068	20.158	-0.190	-0.015
5.000	108.900	80.004	19.994	103.068	20.156	-0.047	0.012
5.500	108.900	80.003	19.996	103.067	20.157	-0.137	0.032
6.000	108.895	80.002	19.995	103.063	20.156	-0.051	0.016
6.500	108.890	80.003	19.996	103.062	20.157	-0.094	-0.008
7.000	108.874	80.004	19.994	103.063	20.157	-0.094	-0.016
7.500	108.861	80.002	19.995	103.063	20.158	-0.178	-0.025
8.000	108.885	80.003	19.994	103.065	20.152	0.239	-0.009
8.499	108.891	80.002	19.995	103.066	20.156	-0.069	0.020
8.999	108.905	80.003	19.995	103.067	20.156	-0.033	0.025
9.499	108.877	80.003	19.995	103.066	20.154	0.141	0.003
9.999	108.867	80.004	19.994	103.071	20.156	-0.061	-0.026
10.499	108.899	80.003	19.995	103.076	20.154	0.092	-0.008
10.999	108.901	80.003	19.995	103.083	20.152	0.239	0.028
11.499	108.893	80.002	19.995	103.090	20.154	0.135	0.014
11.999	108.905	80.003	19.994	103.098	20.153	0.182	-0.001
12.499	108.896	80.003	19.994	103.100	20.152	0.298	0.004
12.999	108.869	80.002	19.995	103.106	20.149	0.504	-0.016
13.499	108.933	80.002	19.996	103.109	20.151	0.347	0.000
13.999	108.918	80.002	19.996	103.111	20.149	0.478	0.042
14.499	108.932	80.003	19.996	103.112	20.152	0.239	0.024
14.999	108.912	80.003	19.995	103.112	20.152	0.251	-0.003
15.499	108.932	80.003	19.996	103.109	20.150	0.392	-0.003
15.999	108.919	80.003	19.996	103.111	20.151	0.351	0.004
16.499	108.945	80.002	19.996	103.117	20.148	0.582	0.010
16.999	108.923	80.002	19.996	103.123	20.153	0.163	0.008
17.499	108.947	80.002	19.996	103.130	20.149	0.484	0.002
18.000	108.944	80.003	19.996	103.135	20.151	0.341	0.011
18.500	108.957	80.002	19.995	103.138	20.148	0.588	0.016
18.999	108.972	80.001	19.995	103.140	20.148	0.558	0.019
19.499	109.004	80.003	19.995	103.142	20.147	0.625	0.038
19.999	108.981	80.003	19.996	103.142	20.145	0.784	0.028
20.499	109.024	80.005	19.996	103.147	20.146	0.745	0.014
20.999	109.028	80.004	19.996	103.153	20.146	0.741	0.033
21.499	109.053	80.005	19.996	103.160	20.142	0.993	0.038
21.999	109.057	80.004	19.998	103.167	20.141	1.089	0.029
22.499	109.077	80.003	19.996	103.174	20.142	0.999	0.026
22.999	109.126	80.002	19.995	103.178	20.144	0.895	0.046
23.499	109.118	80.004	19.995	103.180	20.140	1.130	0.055
23.999	109.133	80.005	19.996	103.185	20.137	1.393	0.024
24.499	109.182	80.004	19.996	103.192	20.137	1.381	0.035
24.999	109.186	80.004	19.996	103.199	20.140	1.160	0.058
25.500	109.205	80.004	19.994	103.206	20.136	1.481	0.038
26.000	109.238	80.006	19.995	103.212	20.136	1.483	0.038
26.499	109.255	80.004	19.995	103.214	20.136	1.481	0.051
26.999	109.281	80.004	19.995	103.215	20.132	1.744	0.046
27.499	109.333	80.005	19.995	103.215	20.136	1.497	0.060
27.999	109.394	80.003	19.996	103.216	20.134	1.626	0.095
28.499	109.410	80.004	19.995	103.216	20.130	1.904	0.095
28.999	109.463	80.004	19.996	103.216	20.131	1.845	0.073
29.499	109.486	80.004	19.994	103.216	20.130	1.943	0.072
30.000	109.571	80.004	19.995	103.216	20.127	2.145	0.092
30.500	109.547	80.004	19.995	103.216	20.132	1.804	0.085
30.999	109.609	80.005	19.995	103.216	20.131	1.878	0.050
31.499	109.666	80.004	19.996	103.217	20.128	2.068	0.079
31.999	109.692	80.003	19.994	103.218	20.129	2.019	0.101
32.499	109.757	80.005	19.994	103.219	20.130	1.931	0.087
32.999	109.836	80.004	19.994	103.222	20.128	2.094	0.117
33.499	109.876	80.004	19.994	103.224	20.124	2.333	0.132
33.999	109.916	80.004	19.994	103.224	20.125	2.292	0.100
34.499	109.984	80.004	19.994	103.226	20.124	2.380	0.094
34.999	110.012	80.004	19.994	103.225	20.127	2.129	0.102
35.499	110.080	80.004	19.994	103.224	20.128	2.080	0.095
35.999	110.124	80.003	19.994	103.226	20.126	2.248	0.104
36.499	110.219	80.003	19.993	103.226	20.122	2.507	0.126
36.999	110.259	80.003	19.994	103.227	20.126	2.240	0.137
37.499	110.317	80.005	19.995	103.226	20.125	2.299	0.117
37.999	110.380	80.003	19.994	103.226	20.123	2.475	0.110
38.499	110.439	80.004	19.994	103.224	20.123	2.450	0.121
38.999	110.522	80.003	19.994	103.227	20.125	2.295	0.132
39.499	110.598	80.004	19.994	103.231	20.122	2.524	0.151
39.999	110.640	80.004	19.993	103.237	20.125	2.311	0.138
40.499	110.759	80.004	19.994	103.242	20.121	2.612	0.140
40.999	110.805	80.003	19.996	103.248	20.123	2.448	0.163
41.500	110.896	80.005	19.993	103.251	20.121	2.575	0.151
42.000	110.946	80.004	19.994	103.251	20.122	2.549	0.139
42.499	111.052	80.003	19.995	103.251	20.120	2.690	0.148
42.999	111.133	80.004	19.994	103.251	20.116	2.987	0.172
43.499	111.192	80.004	19.994	103.251	20.118	2.819	0.164
44.000	111.262	80.005	19.993	103.250	20.122	2.506	0.134
44.500	111.347	80.004	19.994	103.252	20.120	2.690	0.142
44.999	111.456	80.004	19.994	103.253	20.120	2.670	0.174
45.499	111.495	80.006	19.993	103.255	20.119	2.772	0.170
45.999	111.647	80.004	19.994	103.258	20.121	2.577	0.170
46.499	111.697	80.006	19.994	103.261	20.116	2.962	0.197
46.999	111.817	80.005	19.995	103.264	20.119	2.733	0.186
47.499	111.873	80.004	19.994	103.271	20.120	2.682	0.173
47.999	111.994	80.005	19.994	103.279	20.117	2.933	0.177
48.499	112.083	80.004	19.994	103.280	20.114	3.103	0.193
49.000	112.190	80.005	19.994	103.281	20.116	2.952	0.203
49.500	112.257	80.005	19.992	103.282	20.118	2.804	0.185
50.000	112.370	80.006	19.994	103.280	20.117	2.870	0.177
50.500	112.455	80.004	19.994	103.274	20.117	2.929	0.189
51.000	112.574	80.006	19.994	103.272	20.113	3.187	0.201
51.500	112.691	80.004	19.993	103.277	20.112	3.260	0.220
51.999	112.787	80.005	19.994	103.281	20.113	3.193	0.224
52.499	112.861	80.006	19.993	103.284	20.115	3.031	0.191
53.000	113.008	80.005	19.994	103.290	20.114	3.134	0.195
53.500	113.117	80.005	19.995	103.299	20.112	3.240	0.238
53.999	113.241	80.003	19.994	103.308	20.114	3.138	0.245
54.499	113.332	80.005	19.993	103.310	20.113	3.226	0.224
54.999	113.419	80.003	19.994	103.310	20.111	3.340	0.196
55.499	113.575	80.003	19.995	103.310	20.112	3.263	0.210
55.999	113.668	80.003	19.993	103.307	20.109	3.471	0.246
56.499	113.810	80.003	19.994	103.300	20.109	3.475	0.242
56.999	113.904	80.003	19.995	103.300	20.110	3.447	0.236
57.499	114.081	80.003	19.994	103.300	20.112	3.246	0.253
57.999	114.155	80.002	19.993	103.300	20.111	3.334	0.261
58.499	114.316	80.002	19.994	103.301	20.111	3.346	0.243
58.999	114.421	80.003	19.994	103.301	20.109	3.506	0.251
59.500	114.591	80.002	19.994	103.299	20.110	3.448	0.270
60.000	114.690	80.002	19.995	103.299	20.108	3.546	0.272
60.499	114.846	80.003	19.994	103.299	20.108	3.561	0.262
60.999	114.959	80.002	19.995	103.299	20.107	3.675	0.262
61.499	115.101	80.002	19.994	103.299	20.108	3.602	0.262
61.999	115.240	80.002	19.995	103.299	20.108	3.581	0.268
62.500	115.369	80.003	19.995	103.300	20.106	3.701	0.274
63.000	115.484	80.002	19.994	103.300	20.108	3.539	0.256
63.499	115.664	80.003	19.994	103.301	20.110	3.450	0.270
63.999	115.749	80.003	19.995	103.303	20.107	3.676	0.280
64.499	115.908	80.003	19.994	103.303	20.106	3.760	0.255
64.999	116.032	80.002	19.994	103.304	20.108	3.543	0.263
65.499	116.207	80.003	19.994	103.304	20.109	3.528	0.291
65.999	116.320	80.003	19.995	103.307	20.108	3.544	0.294
66.500	116.454	80.003	19.995	103.312	20.108	3.604	0.268
67.000	116.645	80.003	19.994	103.312	20.107	3.670	0.286
67.499	116.781	80.003	19.995	103.311	20.109	3.465	0.326
67.999	116.900	80.002	19.994	103.312	20.108	3.540	0.292
68.499	117.051	80.003	19.994	103.308	20.109	3.500	0.263
68.999	117.186	80.003	19.995	103.303	20.109	3.491	0.278
69.500	117.366	80.002	19.994	103.302	20.114	3.158	0.300
70.000	117.511	80.004	19.994	103.301	20.108	3.599	0.320
70.499	117.665	80.003	19.994	103.299	20.109	3.520	0.312
70.999	117.848	80.002	19.994	103.298	20.110	3.432	0.318
71.499	117.986	80.003	19.993	103.297	20.108	3.608	0.329
71.999	118.126	80.004	19.994	103.299	20.107	3.649	0.299
72.499	118.294	80.003	19.994	103.310	20.109	3.465	0.293
72.999	118.421	80.003	19.994	103.301	20.107	3.681	0.302
73.499	118.579	80.003	19.994	103.274	20.108	3.577	0.290
73.999	118.753	80.004	19.994	103.252	20.109	3.498	0.309
74.499	118.918	80.003	19.994	103.234	20.105	3.802	0.336
74.999	119.042	80.004	19.994	103.215	20.109	3.494	0.314
75.499	119.206	80.003	19.995	103.224	20.111	3.359	0.288
75.999	119.440	80.004	19.995	103.256	20.107	3.684	0.343
76.499	119.571	80.002	19.994	103.313	20.108	3.600	0.381
76.999	119.716	80.004	19.994	103.352	20.106	3.741	0.320
77.499	119.891	80.004	19.994	103.370	20.106	3.719	0.298
77.999	120.060	80.004	19.995	103.379	20.109	3.508	0.332
78.499	120.217	80.004	19.994	103.376	20.107	3.623	0.335
78.999	120.364	80.004	19.994	103.341	20.107	3.688	0.315
79.499	120.563	80.004	19.995	103.318	20.106	3.748	0.325
79.999	120.722	80.003	19.994	103.308	20.105	3.776	0.352
80.499	120.895	80.003	19.995	103.300	20.107	3.660	0.345
80.999	121.077	80.004	19.995	103.298	20.106	3.762	0.344
81.499	121.249	80.004	19.995	103.298	20.104	3.866	0.354
82.000	121.408	80.005	19.995	103.298	20.107	3.655	0.342
82.500	121.594	80.003	19.995	103.299	20.107	3.627	0.338
82.999	121.787	80.004	19.995	103.299	20.103	3.940	0.362
83.499	121.939	80.003	19.996	103.299	20.103	3.942	0.362
83.999	122.136	80.002	19.995	103.300	20.106	3.715	0.347
84.499	122.299	80.003	19.995	103.305	20.107	3.652	0.355
84.999	122.491	80.004	19.995	103.309	20.104	3.848	0.358
85.499	122.663	80.004	19.995	103.311	20.105	3.818	0.360
86.000	122.833	80.003	19.995	103.311	20.106	3.750	0.353
86.500	123.053	80.004	19.995	103.309	20.107	3.638	0.366
86.999	123.208	80.002	19.994	103.306	20.105	3.777	0.382
87.499	123.395	80.003	19.994	103.307	20.103	3.947	0.358
87.999	123.564	80.002	19.995	103.311	20.105	3.802	0.349
88.499	123.731	80.002	19.993	103.317	20.105	3.795	0.346
88.999	123.917	80.004	19.995	103.324	20.106	3.759	0.344
89.499	124.115	80.003	19.995	103.331	20.103	3.926	0.369
89.999	124.308	80.003	19.994	103.328	20.105	3.799	0.388
90.499	124.460	80.003	19.995	103.328	20.104	3.852	0.368
90.999	124.645	80.004	19.995	103.329	20.103	3.987	0.341
91.499	124.859	80.004	19.995	103.328	20.102	4.034	0.368
91.999	125.079	80.004	19.995	103.326	20.102	4.052	0.417
92.500	125.258	80.003	19.996	103.327	20.103	3.936	0.416
93.000	125.430	80.003	19.995	103.321	20.102	4.052	0.375
93.499	125.619	80.004	19.996	103.317	20.101	4.075	0.356
93.999	125.762	80.003	19.994	103.318	20.103	3.970	0.346
94.500	126.008	80.004	19.995	103.321	20.105	3.784	0.361
95.000	126.182	80.003	19.995	103.325	20.105	3.772	0.405
95.499	126.360	80.004	19.994	103.331	20.101	4.091	0.386
95.999	126.545	80.003	19.995	103.338	20.102	4.050	0.357
96.499	126.752	80.004	19.996	103.341	20.104	3.862	0.377
97.000	126.949	80.003	19.994	103.340	20.103	3.975	0.398
97.501	127.178	80.003	19.996	103.341	20.105	3.832	0.415
98.000	127.350	80.003	19.995	103.346	20.101	4.114	0.413
98.499	127.558	80.003	19.995	103.351	20.104	3.909	0.391
98.999	127.753	80.003	19.995	103.349	20.102	4.010	0.392
99.499	127.987	80.005	19.995	103.349	20.101	4.134	0.416
99.999	128.159	80.002	19.995	103.349	20.101	4.067	0.418
100.499	128.363	80.003	19.996	103.345	20.102	4.028	0.391
100.999	128.590	80.003	19.995	103.336	20.100	4.187	0.404
101.500	128.786	80.004	19.994	103.333	20.101	4.081	0.427
102.000	128.983	80.003	19.994	103.333	20.101	4.099	0.407
102.499	129.198	80.004	19.995	103.332	20.101	4.073	0.402
102.999	129.390	80.003	19.994	103.329	20.102	4.022	0.410
103.499	129.599	80.003	19.995	103.330	20.102	4.046	0.405
103.999	129.814	80.004	19.994	103.331	20.105	3.805	0.412
104.499	130.013	80.004	19.995	103.324	20.103	3.981	0.418
104.999	130.232	80.004	19.993	103.323	20.100	4.181	0.416
105.499	130.432	80.003	19.994	103.326	20.102	4.022	0.419
105.999	130.646	80.005	19.995	103.326	20.102	4.022	0.416
106.499	130.827	80.004	19.995	103.327	20.103	3.944	0.404
106.999	131.051	80.004	19.995	103.333	20.102	4.032	0.400
107.499	131.254	80.004	19.995	103.332	20.101	4.132	0.417
107.999	131.517	80.004	19.995	103.329	20.099	4.220	0.446
108.499	131.693	80.003	19.995	103.328	20.102	4.012	0.452
108.999	131.907	80.004	19.995	103.327	20.101	4.091	0.414
109.499	132.117	80.004	19.993	103.329	20.103	3.972	0.407
110.000	132.274	80.003	19.995	103.333	20.102	4.040	0.395
110.500	132.533	80.003	19.996	103.333	20.102	4.040	0.392
110.999	132.752	80.002	19.996	103.330	20.103	3.924	0.447
111.499	132.962	80.003	19.995	103.330	20.103	3.985	0.453
112.000	133.177	80.003	19.996	103.329	20.100	4.153	0.426
112.500	133.394	80.002	19.996	103.326	20.101	4.132	0.428
112.999	133.579	80.002	19.995	103.327	20.100	4.200	0.417
113.499	133.846	80.003	19.996	103.332	20.103	3.944	0.427
113.999	134.054	80.003	19.995	103.331	20.106	3.698	0.464
114.499	134.281	80.002	19.995	103.329	20.101	4.134	0.455
114.999	134.466	80.003	19.996	103.332	20.100	4.179	0.423
115.499	134.658	80.002	19.996	103.332	20.102	4.015	0.395
116.000	134.901	80.003	19.994	103.332	20.102	4.054	0.406
116.500	135.103	80.002	19.995	103.329	20.103	3.966	0.440
117.000	135.316	80.002	19.996	103.331	20.101	4.093	0.429
117.500	135.549	80.002	19.995	103.331	20.100	4.167	0.430
117.999	135.778	80.002	19.995	103.332	20.102	4.012	0.454
118.499	135.988	80.003	19.995	103.333	20.101	4.132	0.451
119.000	136.170	80.002	19.996	103.334	20.105	3.840	0.415
119.500	136.438	80.003	19.995	103.330	20.099	4.259	0.421
120.000	136.653	80.001	19.995	103.328	20.099	4.218	0.467
120.500	136.849	80.003	19.994	103.325	20.103	3.928	0.447
121.000	137.126	80.002	19.995	103.326	20.102	4.008	0.442
121.500	137.338	80.003	19.996	103.327	20.105	3.777	0.481
121.999	137.561	80.003	19.994	103.332	20.101	4.106	0.462
122.499	137.766	80.003	19.995	103.336	20.102	4.022	0.432
122.999	138.015	80.002	19.995	103.339	20.100	4.181	0.441
123.499	138.281	80.003	19.996	103.338	20.100	4.177	0.484
124.000	138.456	80.003	19.994	103.334	20.102	4.033	0.478
124.500	138.679	80.003	19.995	103.330	20.104	3.909	0.419
124.999	138.935	80.003	19.995	103.323	20.102	3.998	0.438
125.499	139.162	80.004	19.995	103.319	20.104	3.865	0.481
125.999	139.396	80.004	19.995	103.319	20.100	4.164	0.473
126.499	139.591	80.004	19.994	103.319	20.102	4.017	0.445
126.999	139.848	80.004	19.995	103.322	20.101	4.133	0.440
127.499	140.084	80.005	19.993	103.328	20.102	4.011	0.473
127.999	140.331	80.004	19.994	103.333	20.102	4.011	0.488
128.500	140.566	80.005	19.993	103.334	20.101	4.115	0.482
129.000	140.784	80.004	19.994	103.337	20.099	4.234	0.468
129.500	140.996	80.005	19.993	103.338	20.101	4.089	0.442
130.000	141.213	80.005	19.994	103.339	20.102	4.016	0.430
130.500	141.448	80.005	19.995	103.340	20.099	4.275	0.441
131.000	141.663	80.007	19.993	103.338	20.101	4.138	0.451
131.500	141.911	80.005	19.994	103.337	20.099	4.226	0.456
132.000	142.145	80.006	19.994	103.335	20.100	4.202	0.473
132.500	142.401	80.004	19.994	103.333	20.099	4.277	0.486
133.000	142.605	80.006	19.994	103.330	20.098	4.336	0.475
133.500	142.847	80.005	19.993	103.329	20.100	4.215	0.453
134.000	143.040	80.005	19.993	103.328	20.099	4.287	0.440
134.500	143.299	80.005	19.996	103.321	20.102	4.031	0.443
135.000	143.525	80.004	19.994	103.314	20.104	3.869	0.469
135.500	143.790	80.005	19.995	103.310	20.103	3.982	0.488
136.000	143.993	80.005	19.994	103.308	20.103	3.951	0.479
136.500	144.239	80.005	19.994	103.304	20.106	3.761	0.458
137.000	144.484	80.005	19.994	103.305	20.102	4.019	0.470
137.500	144.716	80.003	19.994	103.305	20.102	4.037	0.484
138.000	144.941	80.004	19.994	103.306	20.102	4.039	0.467
138.500	145.184	80.004	19.994	103.305	20.100	4.188	0.462
139.000	145.455	80.004	19.994	103.310	20.102	4.017	0.491
139.500	145.661	80.002	19.993	103.316	20.103	3.978	0.496
140.000	145.910	80.003	19.995	103.322	20.102	4.051	0.466
140.500	146.099	80.003	19.995	103.325	20.102	4.027	0.446
141.000	146.344	80.003	19.994	103.329	20.102	4.052	0.436
141.500	146.621	80.003	19.994	103.329	20.105	3.799	0.478
142.000	146.846	80.003	19.994	103.329	20.102	4.022	0.512
142.500	147.047	80.002	19.994	103.330	20.099	4.261	0.464
143.000	147.307	80.004	19.996	103.331	20.099	4.267	0.443
143.500	147.532	80.003	19.994	103.326	20.102	4.053	0.473
144.000	147.779	80.003	19.995	103.319	20.103	3.983	0.479
144.500	148.017	80.004	19.995	103.314	20.104	3.848	0.479
145.000	148.240	80.001	19.995	103.308	20.101	4.089	0.473
145.500	148.439	80.003	19.995	103.301	20.104	3.882	0.442
146.000	148.718	80.003	19.994	103.299	20.102	4.031	0.450
146.500	148.920	80.002	19.995	103.302	20.099	4.231	0.479
147.000	149.172	80.003	19.995	103.305	20.101	4.098	0.468
147.500	149.423	80.002	19.995	103.308	20.103	3.925	0.479
148.000	149.651	80.003	19.994	103.308	20.100	4.152	0.491
148.500	149.924	80.002	19.994	103.310	20.103	3.952	0.490
149.000	150.155	80.002	19.995	103.310	20.100	4.144	0.503
149.500	150.387	80.003	19.996	103.307	20.101	4.087	0.484
150.000	150.631	80.003	19.994	103.302	20.104	3.913	0.469
150.500	150.859	80.003	19.995	103.302	20.101	4.103	0.474
151.000	151.106	80.003	19.994	103.304	20.101	4.079	0.473
151.500	151.344	80.003	19.996	103.308	20.100	4.173	0.480
152.000	151.560	80.002	19.995	103.314	20.102	4.038	0.470
152.500	151.820	80.002	19.995	103.321	20.103	3.972	0.465
153.000	152.084	80.004	19.995	103.329	20.102	4.007	0.500
153.500	152.304	80.003	19.994	103.333	20.100	4.181	0.504
154.000	152.551	80.004	19.995	103.333	20.101	4.138	0.476
154.500	152.790	80.005	19.994	103.333	20.100	4.171	0.477
155.000	153.056	80.003	19.995	103.328	20.102	4.057	0.496
155.500	153.273	80.002	19.996	103.320	20.099	4.224	0.495
156.000	153.487	80.002	19.994	103.313	20.097	4.435	0.457
156.500	153.745	80.003	19.994	103.308	20.099	4.257	0.451
157.000	153.965	80.003	19.994	103.302	20.100	4.165	0.475
157.500	154.204	80.003	19.994	103.300	20.098	4.347	0.469
158.000	154.442	80.004	19.994	103.301	20.097	4.396	0.468
158.500	154.677	80.003	19.994	103.304	20.099	4.237	0.475
159.000	154.929	80.003	19.994	103.310	20.096	4.453	0.480
159.500	155.145	80.004	19.994	103.318	20.097	4.381	0.478
160.000	155.378	80.005	19.994	103.325	20.102	4.048	0.458
160.500	155.635	80.004	19.994	103.328	20.100	4.168	0.469
161.000	155.890	80.003	19.994	103.324	20.100	4.148	0.501
161.500	156.132	80.003	19.994	103.320	20.099	4.240	0.505
162.000	156.370	80.003	19.995	103.319	20.103	3.989	0.489
162.500	156.570	80.003	19.993	103.318	20.102	4.060	0.459
163.000	156.831	80.004	19.994	103.315	20.102	4.026	0.449
163.500	157.116	80.003	19.994	103.318	20.101	4.140	0.503
164.000	157.347	80.004	19.994	103.323	20.100	4.205	0.531
164.500	157.559	80.004	19.994	103.324	20.099	4.217	0.480
165.000	157.811	80.003	19.994	103.325	20.100	4.141	0.453
165.500	158.061	80.004	19.994	103.331	20.102	4.041	0.483
166.000	158.313	80.003	19.995	103.335	20.100	4.215	0.502
166.500	158.559	80.003	19.995	103.335	20.100	4.187	0.500
167.000	158.751	80.003	19.994	103.335	20.100	4.169	0.468
167.500	159.035	80.003	19.995	103.335	20.101	4.128	0.457
168.000	159.268	80.003	19.995	103.336	20.104	3.858	0.496
168.500	159.501	80.002	19.994	103.336	20.102	4.018	0.492
169.000	159.749	80.003	19.994	103.337	20.101	4.075	0.474
169.500	159.971	80.002	19.994	103.337	20.099	4.228	0.475
170.000	160.212	80.001	19.994	103.332	20.096	4.481	0.466
170.500	160.467	80.003	19.993	103.325	20.097	4.395	0.479
171.000	160.780	80.002	19.995	103.318	20.100	4.182	0.532
171.500	160.989	80.003	19.994	103.313	20.100	4.200	0.545
172.000	161.246	80.002	19.995	103.313	20.099	4.221	0.494
172.500	161.477	80.003	19.994	103.318	20.098	4.362	0.477
173.000	161.739	80.001	19.993	103.325	20.099	4.268	0.491
173.500	161.968	80.001	19.995	103.327	20.101	4.094	0.492
174.000	162.217	80.003	19.994	103.324	20.098	4.302	0.484
174.500	162.462	80.002	19.995	103.317	20.102	4.037	0.486
175.000	162.709	80.003	19.995	103.309	20.102	4.016	0.494
175.500	162.967	80.002	19.995	103.302	20.100	4.166	0.498
176.000	163.262	80.001	19.994	103.300	20.098	4.292	0.529
176.500	163.472	80.001	19.996	103.307	20.098	4.292	0.529
177.000	163.767	80.002	19.996	103.315	20.095	4.521	0.505
177.500	163.944	80.003	19.995	103.324	20.099	4.262	0.488
178.000	164.213	80.003	19.995	103.329	20.096	4.456	0.459
178.500	164.438	80.002	19.995	103.331	20.098	4.303	0.470
179.000	164.715	80.002	19.995	103.331	20.098	4.358	0.498
179.500	164.998	80.002	19.996	103.329	20.098	4.295	0.531
180.000	165.244	80.002	19.995	103.322	20.096	4.512	0.545
180.500	165.494	80.004	19.994	103.318	20.095	4.555	0.513
181.000	165.743	80.002	19.996	103.317	20.097	4.429	0.498
181.500	165.977	80.003	19.994	103.309	20.098	4.296	0.491
182.000	166.235	80.002	19.995	103.303	20.094	4.606	0.487
182.500	166.512	80.004	19.995	103.301	20.097	4.439	0.513
183.000	166.719	80.004	19.995	103.296	20.097	4.424	0.510
183.500	166.989	80.004	19.995	103.295	20.098	4.359	0.481
184.000	167.186	80.004	19.995	103.294	20.097	4.389	0.472
184.500	167.484	80.003	19.994	103.294	20.096	4.463	0.481
185.000	167.702	80.004	19.995	103.294	20.099	4.228	0.505
185.500	167.963	80.004	19.995	103.298	20.099	4.221	0.497
186.000	168.214	80.003	19.995	103.298	20.096	4.452	0.495
186.500	168.445	80.003	19.995	103.299	20.099	4.235	0.497
187.000	168.701	80.004	19.995	103.300	20.099	4.249	0.485
187.500	168.962	80.005	19.994	103.300	20.100	4.200	0.502
188.000	169.205	80.004	19.995	103.301	20.099	4.218	0.510
188.500	169.531	80.004	19.995	103.300	20.102	4.036	0.537
189.000	169.718	80.005	19.995	103.300	20.099	4.222	0.541
189.500	170.002	80.003	19.995	103.300	20.096	4.463	0.492
190.000	170.223	80.004	19.993	103.303	20.101	4.104	0.488
190.500	170.465	80.004	19.994	103.307	20.099	4.264	0.484
191.000	170.715	80.003	19.994	103.313	20.101	4.072	0.478
191.500	170.924	80.004	19.995	103.320	20.102	4.022	0.476
192.000	171.207	80.004	19.994	103.328	20.103	3.943	0.475
192.500	171.462	80.003	19.994	103.327	20.102	4.063	0.515
193.000	171.724	80.003	19.994	103.329	20.104	3.886	0.528
193.500	171.950	80.003	19.995	103.324	20.103	3.972	0.502
194.000	172.191	80.003	19.995	103.319	20.103	3.961	0.477
194.500	172.428	80.004	19.994	103.319	20.104	3.912	0.473
195.000	172.717	80.003	19.995	103.322	20.102	3.994	0.502
195.500	172.957	80.003	19.995	103.316	20.100	4.168	0.527
196.000	173.207	80.004	19.995	103.315	20.100	4.145	0.510
196.500	173.446	80.004	19.996	103.309	20.100	4.151	0.490
197.000	173.702	80.005	19.995	103.295	20.099	4.235	0.492
197.500	173.984	80.003	19.996	103.288	20.102	4.047	0.516
198.000	174.217	80.003	19.995	103.283	20.101	4.123	0.527
198.500	174.474	80.004	19.994	103.279	20.099	4.262	0.503
199.000	174.752	80.003	19.995	103.275	20.101	4.105	0.512
199.500	174.974	80.003	19.995	103.279	20.100	4.181	0.518
200.000	175.194	80.004	19.995	103.280	20.099	4.270	0.471
200.500	175.485	80.004	19.994	103.284	20.103	3.957	0.476
201.000	175.756	80.003	19.996	103.287	20.101	4.139	0.536
201.500	175.978	80.002	19.996	103.294	20.100	4.196	0.528
202.000	176.275	80.003	19.995	103.296	20.103	3.973	0.506
202.500	176.461	80.003	19.995	103.296	20.100	4.185	0.501
203.000	176.766	80.003	19.996	103.297	20.100	4.208	0.487
203.500	177.009	80.003	19.995	103.297	20.099	4.267	0.519
204.000	177.282	80.004	19.996	103.300	20.099	4.253	0.531
204.500	177.491	80.005	19.994	103.302	20.098	4.338	0.499
205.000	177.782	80.003	19.995	103.301	20.102	4.005	0.491
205.500	177.979	80.004	19.995	103.301	20.101	4.066	0.494
206.000	178.277	80.004	19.995	103.301	20.102	4.034	0.492
206.500	178.538	80.003	19.995	103.298	20.101	4.124	0.527
207.000	178.733	80.003	19.994	103.295	20.101	4.128	0.507
207.500	179.009	80.005	19.995	103.294	20.103	3.987	0.464
208.000	179.271	80.005	19.995	103.293	20.099	4.257	0.505
208.500	179.527	80.004	19.995	103.296	20.100	4.161	0.528
209.000	179.764	80.004	19.995	103.303	20.097	4.427	0.505
209.500	180.003	80.003	19.995	103.311	20.095	4.566	0.485
210.000	180.259	80.004	19.995	103.315	20.101	4.109	0.486
210.500	180.534	80.004	19.996	103.315	20.102	4.022	0.513
211.000	180.774	80.004	19.995	103.310	20.099	4.259	0.523
211.500	181.011	80.005	19.994	103.303	20.099	4.281	0.496
212.000	181.281	80.004	19.996	103.294	20.099	4.277	0.492
212.500	181.527	80.004	19.995	103.287	20.096	4.470	0.511
213.000	181.783	80.004	19.996	103.285	20.100	4.173	0.509
213.500	182.026	80.004	19.995	103.284	20.098	4.348	0.501
214.000	182.293	80.004	19.995	103.282	20.101	4.125	0.504
214.500	182.546	80.005	19.995	103.282	20.100	4.161	0.515
215.000	182.768	80.005	19.995	103.281	20.098	4.337	0.498
215.500	183.017	80.004	19.994	103.276	20.100	4.198	0.473
216.000	183.296	80.005	19.996	103.271	20.098	4.356	0.499
216.500	183.508	80.005	19.995	103.266	20.102	3.992	0.510
217.000	183.765	80.005	19.995	103.265	20.097	4.419	0.480
217.500	184.016	80.006	19.995	103.269	20.099	4.234	0.489
218.000	184.269	80.006	19.994	103.275	20.098	4.348	0.506
218.500	184.519	80.004	19.994	103.283	20.099	4.222	0.503
219.000	184.774	80.006	19.994	103.288	20.098	4.322	0.504
219.500	185.029	80.003	19.995	103.290	20.101	4.118	0.507
220.000	185.316	80.004	19.995	103.292	20.099	4.285	0.526
220.500	185.562	80.005	19.995	103.301	20.099	4.224	0.538
221.000	185.820	80.005	19.995	103.313	20.102	4.046	0.519
221.500	186.073	80.005	19.994	103.326	20.100	4.187	0.507
222.000	186.332	80.005	19.994	103.333	20.099	4.257	0.511
222.500	186.607	80.004	19.995	103.332	20.102	4.007	0.523
223.000	186.867	80.004	19.995	103.318	20.101	4.064	0.534
223.500	187.099	80.003	19.994	103.298	20.100	4.154	0.514
224.000	187.357	80.003	19.994	103.278	20.098	4.338	0.491
224.500	187.570	80.003	19.994	103.261	20.101	4.097	0.481
225.000	187.861	80.004	19.995	103.248	20.100	4.197	0.488
225.500	188.114	80.004	19.995	103.241	20.100	4.171	0.524
226.000	188.331	80.004	19.994	103.242	20.096	4.508	0.507
226.500	188.574	80.004	19.994	103.243	20.098	4.343	0.465
227.000	188.877	80.003	19.995	103.246	20.099	4.257	0.503
227.500	189.105	80.003	19.994	103.254	20.097	4.408	0.538
228.000	189.359	80.005	19.994	103.259	20.094	4.629	0.506
228.500	189.619	80.003	19.994	103.264	20.099	4.235	0.498
229.000	189.868	80.004	19.994	103.268	20.097	4.392	0.511
229.500	190.111	80.003	19.994	103.269	20.100	4.159	0.501
230.000	190.409	80.002	19.995	103.273	20.100	4.201	0.516
230.500	190.649	80.003	19.995	103.275	20.097	4.436	0.539
231.000	190.918	80.004	19.994	103.275	20.096	4.444	0.524
231.500	191.169	80.004	19.993	103.276	20.098	4.293	0.515
232.000	191.424	80.003	19.995	103.282	20.098	4.316	0.513
232.500	191.658	80.003	19.994	103.283	20.099	4.290	0.497
233.000	191.903	80.002	19.994	103.281	20.096	4.507	0.484
233.500	192.156	80.003	19.994	103.278	20.099	4.218	0.489
234.000	192.440	80.003	19.994	103.273	20.098	4.296	0.517
234.500	192.677	80.003	19.994	103.266	20.099	4.277	0.529
235.000	192.903	80.003	19.995	103.261	20.099	4.289	0.492
235.500	193.160	80.003	19.994	103.263	20.098	4.297	0.473
236.000	193.433	80.003	19.993	103.268	20.101	4.117	0.506
236.500	193.694	80.002	19.995	103.268	20.100	4.172	0.532
237.000	193.944	80.003	19.996	103.273	20.100	4.183	0.523
237.500	194.182	80.003	19.995	103.279	20.097	4.428	0.500
238.000	194.457	80.003	19.995	103.281	20.095	4.575	0.500
238.500	194.654	80.003	19.995	103.282	20.099	4.221	0.492
239.000	194.945	80.004	19.995	103.287	20.099	4.238	0.480
239.500	195.155	80.003	19.994	103.289	20.100	4.191	0.495
240.000	195.432	80.003	19.994	103.284	20.100	4.152	0.494
240.500	195.678	80.003	19.995	103.281	20.100	4.181	0.505
241.000	195.903	80.004	19.994	103.275	20.101	4.097	0.497
241.500	196.139	80.003	19.995	103.272	20.101	4.130	0.466
242.000	196.424	80.004	19.994	103.269	20.100	4.209	0.491
242.500	196.649	80.003	19.995	103.274	20.099	4.246	0.516
243.000	196.900	80.002	19.995	103.281	20.100	4.160	0.493
243.500	197.115	80.004	19.995	103.286	20.100	4.187	0.471
244.000	197.401	80.003	19.994	103.288	20.104	3.896	0.483
244.500	197.635	80.004	19.994	103.289	20.100	4.205	0.510
245.000	197.887	80.003	19.995	103.283	20.100	4.150	0.503
245.500	198.140	80.002	19.995	103.276	20.100	4.152	0.496
246.000	198.384	80.003	19.994	103.271	20.102	4.009	0.502
246.500	198.694	80.003	19.995	103.267	20.102	4.049	0.526
247.000	198.911	80.004	19.994	103.263	20.100	4.207	0.540
247.500	199.196	80.002	19.994	103.263	20.102	4.027	0.514
248.000	199.382	80.004	19.995	103.263	20.100	4.150	0.486
248.500	199.638	80.002	19.995	103.261	20.101	4.123	0.457
249.000	199.921	80.003	19.995	103.262	20.102	3.988	0.491
249.500	200.148	80.003	19.995	103.262	20.099	4.262	0.524
250.000	200.409	80.003	19.994	103.261	20.098	4.303	0.499
250.500	200.627	80.002	19.994	103.262	20.096	4.467	0.484
251.000	200.858	80.002	19.995	103.265	20.101	4.091	0.464
251.500	201.115	80.003	19.995	103.264	20.101	4.103	0.468
252.000	201.365	80.003	19.994	103.264	20.103	3.950	0.497
252.500	201.634	80.003	19.995	103.265	20.101	4.084	0.514
253.000	201.896	80.002	19.994	103.263	20.100	4.211	0.525
253.500	202.125	80.001	19.995	103.261	20.100	4.199	0.511
254.000	202.400	80.002	19.994	103.260	20.103	3.972	0.497
254.500	202.632	80.003	19.995	103.259	20.099	4.242	0.505
255.000	202.886	80.003	19.995	103.259	20.102	3.995	0.497
255.500	203.123	80.002	19.995	103.259	20.099	4.279	0.489
256.000	203.376	80.002	19.995	103.259	20.099	4.218	0.490
256.500	203.614	80.002	19.994	103.257	20.098	4.313	0.491
257.000	203.852	80.001	19.993	103.255	20.097	4.369	0.484
257.500	204.106	80.001	19.995	103.251	20.100	4.154	0.484
258.000	204.329	80.003	19.994	103.250	20.098	4.342	0.485
258.500	204.576	80.001	19.994	103.251	20.097	4.414	0.474
259.000	204.838	80.002	19.993	103.254	20.094	4.628	0.490
259.500	205.098	80.001	19.994	103.255	20.097	4.373	0.515
260.000	205.313	80.001	19.994	103.258	20.097	4.438	0.498
260.500	205.567	80.001	19.993	103.260	20.094	4.608	0.472
261.000	205.841	80.002	19.994	103.260	20.098	4.357	0.499
261.500	206.072	80.004	19.995	103.261	20.093	4.695	0.516
262.000	206.328	80.003	19.993	103.262	20.095	4.580	0.496
262.500	206.577	80.004	19.994	103.262	20.094	4.601	0.496
263.000	206.847	80.003	19.994	103.261	20.094	4.623	0.512
263.500	207.085	80.003	19.995	103.260	20.093	4.684	0.513
264.000	207.304	80.002	19.994	103.260	20.095	4.555	0.482
264.500	207.583	80.003	19.996	103.261	20.094	4.618	0.478
265.000	207.792	80.002	19.995	103.267	20.095	4.534	0.494
265.500	208.080	80.004	19.994	103.269	20.097	4.427	0.493
266.000	208.262	80.005	19.994	103.269	20.095	4.525	0.483
266.500	208.542	80.002	19.995	103.271	20.100	4.181	0.466
267.000	208.828	80.004	19.994	103.269	20.096	4.508	0.514
267.500	209.036	80.003	19.995	103.264	20.097	4.386	0.530
268.000	209.330	80.004	19.995	103.267	20.095	4.523	0.498
268.500	209.540	80.003	19.994	103.267	20.096	4.445	0.503
269.000	209.765	80.005	19.994	103.265	20.095	4.517	0.470
269.500	210.055	80.003	19.994	103.264	20.095	4.521	0.476
270.000	210.290	80.004	19.995	103.264	20.096	4.462	0.520
270.500	210.554	80.004	19.994	103.265	20.092	4.765	0.512
271.000	210.761	80.005	19.994	103.273	20.097	4.405	0.485
271.500	211.047	80.005	19.994	103.280	20.095	4.542	0.482
272.000	211.293	80.004	19.995	103.289	20.090	4.912	0.512
272.500	211.525	80.005	19.994	103.296	20.091	4.869	0.505
273.000	211.755	80.004	19.994	103.297	20.094	4.662	0.470
273.500	212.012	80.005	19.994	103.294	20.092	4.783	0.474
274.000	212.249	80.005	19.995	103.289	20.089	5.032	0.490
274.500	212.516	80.005	19.995	103.282	20.091	4.869	0.499
275.000	212.748	80.004	19.994	103.275	20.089	4.981	0.502
275.500	212.974	80.003	19.994	103.268	20.090	4.963	0.478
276.000	213.222	80.004	19.995	103.262	20.088	5.088	0.466
276.500	213.466	80.003	19.995	103.254	20.087	5.145	0.483
277.000	213.728	80.003	19.995	103.244	20.086	5.243	0.499
277.500	213.995	80.004	19.995	103.235	20.085	5.306	0.517
278.000	214.252	80.004	19.996	103.234	20.087	5.171	0.526
278.500	214.514	80.004	19.994	103.235	20.086	5.261	0.522
279.000	214.758	80.003	19.995	103.240	20.087	5.169	0.513
279.500	215.014	80.003	19.994	103.246	20.087	5.138	0.503
280.000	215.217	80.003	19.994	103.254	20.083	5.424	0.479
280.500	215.458	80.004	19.994	103.255	20.085	5.281	0.451
281.000	215.738	80.003	19.995	103.255	20.086	5.240	0.482
281.500	215.968	80.003	19.994	103.256	20.086	5.244	0.516
282.000	216.225	80.003	19.995	103.257	20.083	5.465	0.499
282.500	216.468	80.003	19.995	103.257	20.081	5.615	0.493
283.000	216.689	80.002	19.995	103.254	20.082	5.533	0.482
283.500	216.956	80.004	19.994	103.254	20.084	5.382	0.476
284.000	217.178	80.003	19.995	103.255	20.077	5.899	0.489
284.500	217.445	80.004	19.995	103.256	20.082	5.545	0.489
285.000	217.697	80.002	19.994	103.258	20.081	5.627	0.504
285.500	217.920	80.004	19.995	103.262	20.079	5.771	0.497
286.000	218.157	80.003	19.995	103.262	20.080	5.708	0.468
286.500	218.390	80.003	19.995	103.261	20.081	5.583	0.465
287.000	218.647	80.004	19.994	103.260	20.081	5.597	0.480
287.500	218.864	80.003	19.995	103.258	20.082	5.505	0.482
288.000	219.168	80.004	19.995	103.256	20.077	5.869	0.497
288.500	219.396	80.004	19.995	103.253	20.078	5.825	0.526
289.000	219.596	80.005	19.994	103.251	20.078	5.814	0.480
289.500	219.892	80.005	19.994	103.251	20.077	5.937	0.463
290.000	220.100	80.005	19.995	103.251	20.076	6.017	0.500
290.500	220.391	80.005	19.996	103.251	20.077	5.870	0.501
291.000	220.610	80.004	19.994	103.248	20.075	6.031	0.505
291.500	220.835	80.005	19.996	103.249	20.072	6.317	0.477
292.000	221.102	80.004	19.995	103.248	20.074	6.119	0.467
292.500	221.348	80.005	19.995	103.248	20.077	5.943	0.502
293.000	221.600	80.004	19.995	103.250	20.070	6.428	0.506
293.500	221.836	80.004	19.994	103.256	20.073	6.201	0.493
294.000	222.090	80.005	19.994	103.257	20.073	6.236	0.489
294.500	222.322	80.005	19.995	103.256	20.073	6.238	0.488
295.000	222.575	80.005	19.995	103.255	20.073	6.224	0.486
295.500	222.823	80.005	19.994	103.256	20.073	6.228	0.494
296.000	223.108	80.005	19.993	103.250	20.070	6.422	0.517
296.500	223.352	80.004	19.995	103.243	20.069	6.520	0.531
297.000	223.554	80.005	19.995	103.244	20.067	6.641	0.487
297.500	223.787	80.004	19.994	103.242	20.063	6.935	0.440
298.000	224.041	80.005	19.994	103.236	20.065	6.806	0.461
298.500	224.302	80.005	19.994	103.241	20.068	6.594	0.501
299.000	224.542	80.004	19.994	103.247	20.066	6.745	0.508
299.500	224.791	80.005	19.995	103.248	20.065	6.784	0.495
300.000	225.031	80.005	19.994	103.249	20.063	6.982	0.489
300.500	225.304	80.006	19.994	103.255	20.063	6.986	0.501
301.000	225.525	80.006	19.995	103.254	20.060	7.192	0.503
301.500	225.821	80.005	19.996	103.255	20.064	6.896	0.505
302.000	226.028	80.003	19.995	103.254	20.060	7.164	0.510
302.500	226.279	80.005	19.995	103.253	20.063	6.935	0.481
303.000	226.554	80.004	19.995	103.254	20.061	7.082	0.492
303.500	226.794	80.002	19.996	103.254	20.063	6.978	0.520
304.000	227.034	80.003	19.995	103.257	20.064	6.916	0.498
304.500	227.262	80.003	19.995	103.259	20.061	7.097	0.475
305.000	227.482	80.003	19.995	103.262	20.060	7.169	0.458
305.500	227.778	80.002	19.995	103.262	20.059	7.232	0.482
306.000	227.989	80.002	19.995	103.264	20.061	7.101	0.512
306.500	228.278	80.000	19.996	103.263	20.064	6.916	0.504
307.000	228.510	80.002	19.995	103.263	20.062	7.041	0.511
307.500	228.788	80.002	19.995	103.264	20.064	6.918	0.515
308.000	229.010	80.003	19.995	103.266	20.062	7.037	0.505
308.500	229.272	80.001	19.995	103.266	20.062	7.058	0.491
309.000	229.528	80.001	19.996	103.264	20.061	7.111	0.501
309.500	229.755	80.001	19.995	103.265	20.066	6.721	0.501
310.000	230.014	80.001	19.995	103.263	20.062	7.050	0.485
310.500	230.262	80.001	19.995	103.261	20.064	6.855	0.496
311.000	230.519	80.001	19.996	103.259	20.064	6.878	0.505
311.500	230.750	80.002	19.995	103.260	20.062	7.055	0.496
312.000	231.031	80.001	19.995	103.258	20.061	7.127	0.500
312.500	231.246	80.000	19.996	103.259	20.065	6.814	0.504
313.000	231.514	80.001	19.995	103.260	20.060	7.153	0.489
313.500	231.740	80.000	19.995	103.260	20.061	7.100	0.489
314.000	232.008	80.003	19.994	103.260	20.061	7.130	0.495
314.500	232.262	80.002	19.995	103.260	20.066	6.771	0.508
315.000	232.501	80.002	19.993	103.255	20.063	6.969	0.507
315.500	232.727	80.001	19.995	103.250	20.060	7.214	0.479
316.000	233.011	80.003	19.995	103.250	20.061	7.149	0.488
316.500	233.254	80.002	19.993	103.249	20.061	7.133	0.519
317.000	233.467	80.002	19.995	103.249	20.060	7.178	0.491
317.500	233.744	80.002	19.994	103.255	20.062	7.067	0.473
318.000	234.009	80.002	19.995	103.259	20.059	7.239	0.516
318.500	234.221	80.001	19.994	103.260	20.057	7.401	0.510
319.000	234.473	80.002	19.995	103.265	20.061	7.137	0.471
319.500	234.730	80.002	19.994	103.266	20.061	7.125	0.486
320.000	234.948	80.002	19.994	103.267	20.061	7.090	0.492
320.500	235.218	80.002	19.994	103.267	20.061	7.100	0.482
321.000	235.478	80.002	19.994	103.267	20.060	7.192	0.509
321.500	235.708	80.002	19.995	103.261	20.064	6.908	0.510
322.000	235.923	80.003	19.994	103.261	20.063	6.991	0.467
322.500	236.198	80.002	19.992	103.260	20.062	7.011	0.467
323.000	236.451	80.001	19.995	103.257	20.064	6.886	0.510
323.500	236.691	80.003	19.995	103.256	20.066	6.734	0.511
324.000	236.939	80.002	19.993	103.257	20.064	6.912	0.490
324.500	237.194	80.001	19.994	103.256	20.065	6.830	0.495
325.000	237.491	80.002	19.996	103.251	20.067	6.649	0.527
325.500	237.707	80.002	19.996	103.249	20.066	6.735	0.532
326.000	237.950	80.003	19.995	103.251	20.068	6.600	0.486
326.500	238.169	80.003	19.994	103.250	20.068	6.606	0.460
327.000	238.438	80.003	19.995	103.250	20.066	6.737	0.475
327.500	238.667	80.004	19.995	103.256	20.065	6.796	0.493
328.000	238.923	80.003	19.995	103.259	20.066	6.711	0.492
328.500	239.207	80.003	19.993	103.260	20.069	6.490	0.513
329.000	239.432	80.004	19.995	103.259	20.068	6.550	0.524
329.500	239.655	80.004	19.993	103.261	20.067	6.630	0.479
330.000	239.909	80.003	19.994	103.264	20.068	6.548	0.463
330.500	240.160	80.004	19.995	103.263	20.069	6.534	0.491
331.000	240.418	80.003	19.995	103.262	20.068	6.581	0.507
331.500	240.661	80.003	19.994	103.262	20.066	6.746	0.504
332.000	240.890	80.003	19.994	103.259	20.068	6.552	0.487
332.500	241.136	80.004	19.995	103.251	20.064	6.850	0.474
333.000	241.385	80.003	19.995	103.247	20.063	6.952	0.485
333.500	241.617	80.003	19.995	103.240	20.063	6.978	0.488
334.000	241.862	80.003	19.994	103.232	20.067	6.696	0.479
334.500	242.134	80.003	19.995	103.227	20.063	6.925	0.497
335.000	242.377	80.003	19.994	103.226	20.062	7.060	0.516
335.500	242.631	80.001	19.995	103.225	20.065	6.815	0.506
336.000	242.852	80.003	19.995	103.229	20.064	6.922	0.486
336.500	243.120	80.003	19.994	103.231	20.064	6.918	0.482
337.000	243.383	80.002	19.995	103.233	20.063	6.996	0.510
337.500	243.616	80.003	19.994	103.232	20.064	6.873	0.513
338.000	243.872	80.003	19.994	103.230	20.063	6.934	0.492
338.500	244.139	80.003	19.995	103.233	20.062	7.051	0.506
339.000	244.375	80.003	19.996	103.239	20.060	7.208	0.513
339.500	244.610	80.002	19.994	103.244	20.060	7.156	0.488
340.000	244.851	80.003	19.995	103.250	20.060	7.211	0.474
340.500	245.124	80.003	19.994	103.257	20.060	7.182	0.495
341.000	245.354	80.003	19.995	103.258	20.060	7.172	0.508
341.500	245.613	80.003	19.995	103.259	20.059	7.232	0.496
342.000	245.858	80.001	19.995	103.259	20.060	7.179	0.497
342.500	246.106	80.002	19.993	103.255	20.058	7.316	0.498
343.000	246.380	80.002	19.995	103.253	20.062	7.059	0.507
343.500	246.619	80.002	19.994	103.252	20.061	7.144	0.517
344.000	246.852	80.002	19.995	103.248	20.058	7.315	0.493
344.500	247.124	80.004	19.994	103.242	20.059	7.242	0.489
345.000	247.349	80.003	19.994	103.241	20.061	7.122	0.501
345.500	247.585	80.002	19.996	103.244	20.058	7.326	0.479
346.000	247.812	80.003	19.995	103.245	20.058	7.302	0.462
346.500	248.089	80.003	19.994	103.248	20.059	7.276	0.484
347.000	248.304	80.004	19.994	103.254	20.061	7.135	0.499
347.500	248.549	80.004	19.994	103.259	20.058	7.372	0.476
348.000	248.828	80.003	19.994	103.258	20.061	7.145	0.492
348.500	249.054	80.003	19.994	103.258	20.058	7.323	0.514
349.000	249.340	80.004	19.995	103.256	20.055	7.545	0.508
349.500	249.591	80.003	19.994	103.252	20.057	7.437	0.524
350.000	249.842	80.003	19.994	103.249	20.058	7.363	0.520
350.500	250.087	80.005	19.995	103.241	20.058	7.330	0.499
351.000	250.360	80.004	19.994	103.238	20.055	7.553	0.507
351.500	250.625	80.005	19.996	103.237	20.059	7.234	0.528
352.000	250.875	80.005	19.995	103.241	20.057	7.390	0.527
352.500	251.095	80.004	19.995	103.242	20.057	7.436	0.493
353.000	251.326	80.005	19.993	103.250	20.057	7.449	0.460
353.500	251.584	80.007	19.994	103.251	20.055	7.590	0.470
354.000	251.843	80.004	19.994	103.248	20.057	7.429	0.503
354.500	252.097	80.005	19.994	103.242	20.054	7.619	0.515
355.000	252.373	80.006	19.993	103.242	20.058	7.374	0.521
355.500	252.591	80.006	19.994	103.242	20.056	7.453	0.512
356.000	252.869	80.005	19.993	103.244	20.054	7.628	0.495
356.500	253.100	80.005	19.995	103.248	20.055	7.550	0.503
357.000	253.342	80.006	19.994	103.254	20.054	7.652	0.491
357.500	253.625	80.005	19.995	103.256	20.053	7.690	0.498
358.000	253.858	80.005	19.993	103.257	20.056	7.517	0.520
358.500	254.103	80.005	19.994	103.256	20.055	7.554	0.497
359.000	254.350	80.005	19.995	103.257	20.051	7.836	0.486
359.500	254.564	80.005	19.995	103.256	20.054	7.603	0.476
360.000	254.876	80.003	19.995	103.254	20.054	7.650	0.493
360.500	255.124	80.005	19.995	103.254	20.054	7.648	0.543
361.000	255.344	80.005	19.994	103.255	20.052	7.786	0.514
361.500	255.607	80.006	19.994	103.250	20.054	7.676	0.475
362.000	255.867	80.005	19.994	103.249	20.052	7.803	0.503
362.500	256.121	80.004	19.994	103.251	20.052	7.817	0.519
363.000	256.334	80.002	19.995	103.249	20.052	7.807	0.490
363.500	256.586	80.004	19.994	103.247	20.052	7.811	0.466
364.000	256.861	80.003	19.993	103.251	20.051	7.848	0.496
364.500	257.101	80.004	19.995	103.253	20.053	7.686	0.521
365.000	257.355	80.003	19.994	103.254	20.048	8.105	0.504
365.500	257.637	80.003	19.994	103.256	20.047	8.134	0.515
366.000	257.852	80.003	19.994	103.254	20.044	8.389	0.517
366.500	258.111	80.003	19.994	103.248	20.049	8.017	0.486
367.000	258.334	80.003	19.995	103.241	20.048	8.101	0.478
367.500	258.595	80.003	19.994	103.234	20.047	8.138	0.483
368.000	258.856	80.003	19.994	103.228	20.044	8.393	0.503
368.500	259.100	80.001	19.995	103.228	20.045	8.352	0.513
369.000	259.340	80.003	19.995	103.229	20.047	8.183	0.494
369.500	259.571	80.002	19.996	103.230	20.046	8.250	0.478
370.000	259.864	80.004	19.995	103.232	20.047	8.201	0.498
370.500	260.092	80.003	19.995	103.233	20.045	8.336	0.522
371.000	260.352	80.003	19.996	103.236	20.044	8.375	0.504
371.500	260.574	80.004	19.994	103.242	20.043	8.475	0.485
372.000	260.846	80.003	19.994	103.248	20.043	8.461	0.488
372.500	261.099	80.003	19.995	103.253	20.042	8.543	0.509
373.000	261.369	80.003	19.995	103.256	20.038	8.835	0.524
373.500	261.650	80.004	19.996	103.257	20.042	8.575	0.537
374.000	261.867	80.004	19.994	103.257	20.041	8.606	0.524
374.500	262.109	80.004	19.996	103.257	20.041	8.653	0.479
375.000	262.355	80.004	19.994	103.257	20.041	8.632	0.474
375.500	262.572	80.005	19.994	103.258	20.041	8.630	0.475
376.000	262.828	80.004	19.995	103.256	20.039	8.734	0.468
376.500	263.081	80.005	19.994	103.256	20.037	8.926	0.491
377.000	263.341	80.005	19.995	103.251	20.039	8.740	0.511
377.500	263.595	80.004	19.994	103.249	20.040	8.665	0.514
378.000	263.837	80.004	19.994	103.251	20.036	8.978	0.505
378.500	264.045	80.006	19.994	103.252	20.033	9.186	0.473
379.000	264.353	80.004	19.995	103.252	20.039	8.780	0.483
379.500	264.628	80.004	19.996	103.256	20.031	9.348	0.549
380.000	264.867	80.007	19.995	103.258	20.034	9.137	0.548
380.500	265.089	80.006	19.994	103.258	20.040	8.659	0.487
381.000	265.358	80.005	19.994	103.258	20.042	8.549	0.476
381.500	265.626	80.006	19.994	103.258	20.033	9.184	0.515
382.000	265.876	80.005	19.994	103.259	20.035	9.050	0.528
382.500	266.088	80.004	19.995	103.260	20.037	8.942	0.490
383.000	266.389	80.005	19.994	103.260	20.031	9.388	0.488
383.500	266.604	80.004	19.993	103.260	20.033	9.192	0.514
384.000	266.892	80.005	19.993	103.260	20.038	8.816	0.509
384.500	267.135	80.005	19.993	103.260	20.033	9.232	0.517
385.000	267.412	80.004	19.994	103.259	20.037	8.919	0.525
385.500	267.667	80.004	19.994	103.259	20.036	9.000	0.526
386.000	267.904	80.004	19.993	103.257	20.034	9.123	0.512
386.500	268.145	80.005	19.994	103.252	20.032	9.270	0.485
387.000	268.397	80.003	19.993	103.250	20.037	8.935	0.485
387.500	268.656	80.003	19.994	103.251	20.035	9.098	0.502
388.000	268.924	80.003	19.995	103.252	20.040	8.729	0.519
388.500	269.201	80.002	19.994	103.254	20.038	8.817	0.536
389.000	269.389	80.002	19.994	103.259	20.036	9.007	0.505
389.500	269.665	80.002	19.995	103.261	20.039	8.778	0.464
390.000	269.942	80.002	19.994	103.261	20.040	8.721	0.508
390.500	270.169	80.001	19.995	103.261	20.039	8.781	0.529
391.000	270.352	80.002	19.995	103.260	20.037	8.905	0.458
391.500	270.759	80.002	19.994	103.261	20.040	8.664	0.500
392.000	270.943	80.002	19.995	103.261	20.042	8.556	0.590
392.500	271.091	80.002	19.995	103.261	20.039	8.786	0.462
393.000	271.541	80.002	19.994	103.265	20.036	9.026	0.465
393.500	271.493	80.002	19.995	103.273	20.038	8.836	0.499
394.000	271.933	80.002	19.994	103.277	20.037	8.886	0.397
394.500	272.424	80.002	19.995	103.279	20.036	8.988	0.662
395.000	272.471	80.002	19.996	103.278	20.036	8.995	0.735
395.500	272.617	80.003	19.995	103.274	20.038	8.844	0.366
396.000	273.231	80.004	19.996	103.265	20.038	8.819	0.477
396.500	273.085	80.003	19.995	103.261	20.038	8.858	0.614
397.000	273.558	80.004	19.996	103.259	20.037	8.950	0.397
397.500	273.497	80.002	19.995	103.258	20.036	8.991	0.370
398.000	273.968	80.002	19.996	103.258	20.036	8.993	0.411
398.500	274.212	80.003	19.996	103.258	20.037	8.886	0.563
399.000	274.599	80.002	19.995	103.260	20.034	9.116	0.673
399.500	274.684	80.003	19.996	103.263	20.034	9.175	0.551
400.000	275.062	80.002	19.995	103.264	20.033	9.210	0.467
400.500	275.259	80.002	19.996	103.266	20.034	9.151	0.519
401.000	275.495	80.001	19.996	103.268	20.034	9.178	0.504
401.500	275.751	80.003	19.996	103.272	20.033	9.210	0.462
402.000	276.062	80.002	19.996	103.268	20.037	8.893	0.530
402.500	276.335	80.003	19.996	103.268	20.033	9.219	0.576
403.000	276.537	80.002	19.996	103.267	20.035	9.063	0.529
403.500	276.862	80.003	19.996	103.268	20.033	9.221	0.501
404.000	277.082	80.004	19.995	103.269	20.034	9.177	0.536
404.500	277.317	80.002	19.996	103.276	20.032	9.275	0.500
405.000	277.541	80.004	19.995	103.279	20.032	9.265	0.457
405.500	277.816	80.003	19.995	103.286	20.032	9.316	0.479
406.000	278.099	80.003	19.995	103.289	20.030	9.432	0.529
406.500	278.328	80.003	19.995	103.290	20.033	9.219	0.535
407.000	278.531	80.004	19.994	103.289	20.032	9.303	0.472
407.500	278.832	80.002	19.996	103.290	20.031	9.412	0.468
408.000	279.077	80.003	19.995	103.290	20.026	9.731	0.525
408.500	279.326	80.002	19.995	103.290	20.028	9.618	0.520
409.000	279.580	80.004	19.994	103.289	20.029	9.559	0.498
409.500	279.827	80.003	19.996	103.288	20.026	9.764	0.502
410.000	280.079	80.004	19.996	103.291	20.027	9.663	0.501
410.500	280.324	80.003	19.995	103.292	20.023	10.009	0.498
411.000	280.543	80.002	19.995	103.298	20.025	9.866	0.480
411.500	280.812	80.003	19.995	103.302	20.026	9.734	0.476
412.000	281.102	80.003	19.995	103.307	20.023	9.969	0.524
412.500	281.340	80.004	19.994	103.314	20.027	9.684	0.543
413.000	281.586	80.003	19.995	103.320	20.023	9.993	0.505
413.500	281.775	80.004	19.994	103.323	20.022	10.038	0.460
414.000	282.054	80.004	19.995	103.325	20.023	10.010	0.452
414.500	282.327	80.003	19.995	103.323	20.021	10.154	0.509
415.000	282.576	80.002	19.995	103.319	20.021	10.155	0.537
415.500	282.847	80.002	19.995	103.319	20.020	10.174	0.521
416.000	283.060	80.003	19.993	103.319	20.017	10.463	0.502
416.500	283.316	80.003	19.996	103.321	20.018	10.362	0.477
417.000	283.570	80.002	19.996	103.328	20.017	10.405	0.490
417.500	283.820	80.003	19.994	103.333	20.017	10.404	0.507
418.000	284.056	80.004	19.995	103.334	20.016	10.501	0.494
418.500	284.295	80.003	19.995	103.336	20.016	10.505	0.480
419.000	284.558	80.004	19.994	103.336	20.013	10.756	0.489
419.500	284.797	80.003	19.995	103.336	20.012	10.831	0.502
420.000	285.082	80.003	19.995	103.335	20.011	10.910	0.513
420.500	285.320	80.004	19.994	103.336	20.010	10.946	0.523
421.000	285.541	80.004	19.994	103.336	20.005	11.332	0.491
421.500	285.811	80.001	19.995	103.339	20.008	11.119	0.476
422.000	286.037	80.003	19.995	103.342	20.004	11.441	0.494
422.500	286.294	80.003	19.995	103.345	20.002	11.574	0.489
423.000	286.535	80.001	19.995	103.350	20.004	11.404	0.490
423.500	286.792	80.002	19.994	103.356	20.001	11.674	0.498
424.000	287.039	80.002	19.996	103.361	19.998	11.858	0.501
424.500	287.326	80.003	19.994	103.366	19.998	11.899	0.519
425.000	287.567	80.002	19.995	103.373	19.996	12.079	0.531
425.500	287.800	80.002	19.994	103.379	19.994	12.230	0.500
426.000	288.055	80.002	19.995	103.387	19.994	12.200	0.481
426.500	288.281	80.003	19.995	103.393	19.989	12.577	0.485
427.000	288.532	80.002	19.995	103.401	19.986	12.814	0.480
427.500	288.785	80.002	19.994	103.407	19.989	12.580	0.491
428.000	289.027	80.002	19.995	103.412	19.986	12.816	0.500
428.500	289.264	80.002	19.994	103.417	19.981	13.182	0.487
429.000	289.512	80.003	19.995	103.427	19.980	13.272	0.481
429.500	289.785	80.001	19.994	103.433	19.979	13.318	0.503
430.000	290.022	80.002	19.995	103.442	19.976	13.567	0.516
430.500	290.278	80.003	19.994	103.456	19.972	13.863	0.502
431.000	290.561	80.003	19.995	103.468	19.967	14.242	0.516
431.500	290.789	80.003	19.994	103.476	19.966	14.345	0.525
432.000	291.045	80.003	19.995	103.487	19.963	14.511	0.498
432.500	291.301	80.003	19.994	103.501	19.959	14.839	0.498
433.000	291.508	80.004	19.995	103.512	19.956	15.085	0.487
433.500	291.797	80.004	19.994	103.527	19.954	15.197	0.479
434.000	292.038	80.004	19.994	103.543	19.950	15.489	0.513
434.500	292.288	80.004	19.995	103.558	19.947	15.741	0.511
435.000	292.554	80.003	19.995	103.574	19.945	15.900	0.503
435.500	292.829	80.003	19.994	103.588	19.942	16.092	0.529
436.000	293.025	80.004	19.994	103.603	19.938	16.403	0.507
436.500	293.278	80.004	19.994	103.619	19.932	16.880	0.460
437.000	293.559	80.004	19.994	103.638	19.931	16.889	0.491
437.500	293.805	80.005	19.994	103.652	19.928	17.142	0.530
438.000	294.032	80.004	19.995	103.667	19.922	17.626	0.500
438.500	294.266	80.005	19.995	103.679	19.921	17.643	0.467
439.000	294.531	80.005	19.994	103.694	19.918	17.850	0.480
439.500	294.759	80.005	19.993	103.705	19.915	18.131	0.496
440.000	295.035	80.004	19.994	103.714	19.910	18.454	0.499
440.500	295.288	80.005	19.995	103.722	19.908	18.629	0.517
441.000	295.493	80.005	19.994	103.726	19.905	18.877	0.494
441.500	295.725	80.004	19.994	103.718	19.901	19.159	0.447
442.000	295.994	80.005	19.993	103.710	19.900	19.221	0.469
442.500	296.243	80.004	19.996	103.698	19.897	19.439	0.510
443.000	296.474	80.004	19.993	103.683	19.893	19.700	0.499
443.500	296.763	80.003	19.994	103.667	19.893	19.723	0.500
444.000	297.002	80.004	19.994	103.651	19.888	20.051	0.524
444.500	297.230	80.004	19.994	103.631	19.888	20.092	0.497
445.000	297.477	80.005	19.994	103.609	19.883	20.438	0.471
445.500	297.692	80.003	19.995	103.583	19.883	20.421	0.468
446.000	297.949	80.003	19.994	103.553	19.882	20.529	0.467
446.500	298.214	80.004	19.994	103.523	19.879	20.756	0.497
447.000	298.472	80.004	19.994	103.493	19.881	20.613	0.523
447.500	298.711	80.003	19.994	103.463	19.877	20.938	0.510
448.000	298.964	80.004	19.993	103.433	19.876	20.947	0.494
448.500	299.184	80.003	19.994	103.403	19.878	20.814	0.482
449.000	299.472	80.003	19.995	103.373	19.878	20.849	0.490
449.500	299.682	80.003	19.994	103.344	19.878	20.856	0.503
450.000	299.971	80.004	19.994	103.312	19.877	20.884	0.498
450.500	300.224	80.005	19.993	103.278	19.872	21.269	0.520
451.000	300.492	80.004	19.993	103.244	19.876	20.961	0.532
451.500	300.749	80.003	19.993	103.211	19.878	20.857	0.523
452.000	300.962	80.004	19.993	103.178	19.877	20.914	0.497
452.500	301.214	80.003	19.994	103.148	19.878	20.826	0.468
453.000	301.464	80.004	19.995	103.122	19.877	20.883	0.483
453.500	301.664	80.004	19.993	103.097	19.880	20.719	0.476
454.000	301.948	80.004	19.994	103.073	19.881	20.651	0.467
454.500	302.211	80.004	19.995	103.046	19.883	20.458	0.516
455.000	302.444	80.004	19.993	103.023	19.885	20.295	0.522
455.500	302.713	80.004	19.995	103.005	19.886	20.271	0.499
456.000	302.977	80.004	19.995	102.989	19.888	20.076	0.517
456.500	303.224	80.005	19.994	102.977	19.888	20.126	0.522
457.000	303.455	80.004	19.994	102.976	19.893	19.730	0.495
457.500	303.698	80.005	19.994	102.972	19.894	19.696	0.477
458.000	303.963	80.004	19.994	102.970	19.893	19.738	0.491
458.500	304.194	80.005	19.994	102.974	19.895	19.555	0.502
459.000	304.455	80.004	19.994	102.976	19.901	19.171	0.494
459.500	304.720	80.006	19.994	102.975	19.903	18.989	0.509
460.000	304.999	80.005	19.995	102.979	19.903	19.029	0.535
460.500	305.215	80.005	19.993	102.983	19.905	18.850	0.519
461.000	305.432	80.006	19.994	102.988	19.907	18.714	0.464
461.500	305.725	80.004	19.995	102.998	19.908	18.625	0.472
462.000	305.981	80.006	19.994	103.007	19.910	18.435	0.530
462.500	306.249	80.005	19.995	103.015	19.913	18.282	0.536
463.000	306.487	80.007	19.994	103.026	19.917	17.947	0.515
463.500	306.769	80.004	19.994	103.035	19.917	17.937	0.513
464.000	306.990	80.005	19.995	103.047	19.920	17.746	0.511
464.500	307.233	80.005	19.995	103.061	19.923	17.493	0.483
465.000	307.490	80.006	19.995	103.077	19.924	17.393	0.482
465.500	307.713	80.005	19.995	103.093	19.924	17.422	0.490
466.000	307.983	80.007	19.995	103.111	19.927	17.224	0.486
466.500	308.210	80.005	19.996	103.125	19.931	16.926	0.495
467.000	308.472	80.005	19.995	103.141	19.930	16.973	0.494
467.500	308.768	80.006	19.996	103.155	19.933	16.773	0.524
468.000	308.996	80.005	19.995	103.165	19.935	16.581	0.541
468.500	309.224	80.005	19.995	103.171	19.938	16.375	0.490
469.000	309.492	80.004	19.996	103.176	19.937	16.466	0.476
469.500	309.773	80.004	19.995	103.184	19.939	16.257	0.522
470.000	310.029	80.003	19.995	103.191	19.939	16.253	0.543
470.500	310.268	80.005	19.995	103.198	19.943	15.961	0.516
471.000	310.545	80.004	19.995	103.206	19.943	15.975	0.505
471.500	310.764	80.004	19.995	103.213	19.944	15.886	0.506
472.000	311.033	80.002	19.997	103.215	19.945	15.860	0.492
472.500	311.316	80.003	19.995	103.218	19.948	15.649	0.520
473.000	311.542	80.003	19.996	103.219	19.949	15.563	0.530
473.500	311.822	80.003	19.995	103.219	19.947	15.672	0.508
474.000	312.053	80.002	19.995	103.219	19.948	15.590	0.509
474.500	312.349	80.003	19.995	103.219	19.948	15.613	0.519
475.000	312.591	80.004	19.995	103.219	19.953	15.257	0.532
475.500	312.845	80.003	19.996	103.219	19.953	15.249	0.517
476.000	313.105	80.003	19.995	103.219	19.957	14.965	0.505
476.500	313.384	80.003	19.995	103.220	19.954	15.175	0.527
477.000	313.597	80.003	19.995	103.220	19.954	15.144	0.516
477.500	313.878	80.002	19.996	103.220	19.955	15.065	0.493
478.000	314.097	80.003	19.995	103.223	19.954	15.195	0.497
478.500	314.362	80.002	19.995	103.224	19.956	14.997	0.492
479.000	314.682	80.003	19.996	103.225	19.959	14.785	0.534
479.500	314.928	80.003	19.995	103.228	19.960	14.676	0.576
480.000	315.146	80.003	19.996	103.230	19.959	14.758	0.515
480.500	315.392	80.003	19.994	103.229	19.962	14.531	0.464
481.000	315.674	80.003	19.996	103.229	19.967	14.165	0.496
481.500	315.939	80.003	19.995	103.228	19.967	14.210	0.538
482.000	316.199	80.004	19.996	103.225	19.966	14.239	0.536
482.500	316.405	80.002	19.996	103.222	19.967	14.151	0.496
483.000	316.681	80.003	19.994	103.221	19.971	13.863	0.474
483.500	316.946	80.002	19.995	103.221	19.972	13.820	0.512
484.000	317.221	80.003	19.995	103.221	19.972	13.801	0.540
484.500	317.459	80.003	19.995	103.220	19.973	13.734	0.526
485.000	317.689	80.002	19.995	103.221	19.974	13.617	0.490
485.500	317.973	80.002	19.996	103.222	19.975	13.542	0.491
486.000	318.244	80.002	19.995	103.221	19.975	13.566	0.535
486.500	318.470	80.003	19.994	103.220	19.976	13.536	0.526
487.000	318.762	80.002	19.996	103.220	19.978	13.328	0.507
487.500	318.987	80.004	19.995	103.219	19.979	13.295	0.518
488.000	319.236	80.003	19.995	103.218	19.978	13.362	0.496
488.500	319.490	80.003	19.995	103.218	19.981	13.150	0.488
489.000	319.746	80.002	19.996	103.217	19.980	13.195	0.506
489.500	319.979	80.004	19.995	103.217	19.985	12.805	0.500
490.000	320.237	80.002	19.996	103.218	19.980	13.179	0.490
490.500	320.500	80.002	19.997	103.217	19.983	13.014	0.506
491.000	320.748	80.002	19.995	103.215	19.983	12.975	0.516
491.500	320.981	80.002	19.996	103.214	19.985	12.838	0.496
492.000	321.255	80.002	19.996	103.214	19.987	12.666	0.494
492.500	321.499	80.002	19.996	103.214	19.988	12.577	0.512
493.000	321.774	80.003	19.995	103.213	19.989	12.515	0.519
493.500	322.035	80.003	19.995	103.214	19.988	12.580	0.528
494.000	322.306	80.002	19.995	103.214	19.988	12.586	0.534
494.500	322.572	80.003	19.996	103.214	19.990	12.413	0.535
495.000	322.777	80.002	19.996	103.210	19.991	12.372	0.504
495.500	323.063	80.003	19.995	103.209	19.992	12.280	0.481
496.000	323.301	80.003	19.995	103.208	19.995	12.068	0.507
496.500	323.592	80.003	19.997	103.209	19.996	12.012	0.526
497.000	323.861	80.002	19.997	103.209	19.998	11.829	0.545
497.500	324.100	80.003	19.996	103.212	19.998	11.859	0.534
498.000	324.359	80.003	19.996	103.211	19.997	11.885	0.503
498.500	324.585	80.001	19.996	103.211	20.001	11.634	0.492
499.000	324.852	80.003	19.995	103.209	20.000	11.713	0.489
499.500	325.081	80.003	19.996	103.209	20.002	11.581	0.494
500.000	325.377	80.003	19.996	103.207	20.003	11.436	0.511
500.500	325.622	80.003	19.996	103.208	20.003	11.489	0.533
501.000	325.862	80.004	19.995	103.211	20.005	11.350	0.513
501.500	326.107	80.002	19.996	103.213	20.005	11.316	0.485
502.000	326.358	80.003	19.997	103.214	20.004	11.366	0.490
502.500	326.577	80.003	19.995	103.215	20.008	11.113	0.483
503.000	326.827	80.003	19.995	103.211	20.009	11.032	0.470
503.500	327.064	80.003	19.996	103.204	20.010	10.978	0.478
504.000	327.332	80.003	19.995	103.197	20.010	10.937	0.496
504.500	327.584	80.002	19.995	103.194	20.013	10.753	0.513
505.000	327.867	80.003	19.995	103.192	20.014	10.651	0.527
505.500	328.049	80.003	19.995	103.192	20.011	10.859	0.499
506.000	328.333	80.003	19.995	103.194	20.012	10.779	0.465
506.500	328.563	80.001	19.995	103.195	20.013	10.747	0.491
507.000	328.829	80.003	19.995	103.194	20.013	10.724	0.505
507.500	329.077	80.003	19.994	103.193	20.013	10.727	0.505
508.000	329.336	80.002	19.994	103.192	20.014	10.658	0.510
508.500	329.567	80.004	19.995	103.191	20.014	10.625	0.498
509.000	329.817	80.003	19.994	103.190	20.017	10.440	0.486
509.500	330.081	80.004	19.994	103.187	20.017	10.456	0.498
510.000	330.289	80.003	19.994	103.185	20.017	10.450	0.493
510.500	330.547	80.003	19.995	103.184	20.021	10.146	0.469
511.000	330.831	80.001	19.994	103.185	20.018	10.331	0.504
511.500	331.049	80.004	19.994	103.185	20.020	10.204	0.522
512.000	331.303	80.003	19.995	103.189	20.020	10.169	0.487
512.500	331.521	80.003	19.994	103.193	20.021	10.093	0.472
513.000	331.813	80.002	19.995	103.198	20.021	10.152	0.492
513.500	332.038	80.003	19.994	103.202	20.020	10.218	0.514
514.000	332.265	80.004	19.994	103.207	20.022	10.038	0.484
514.500	332.537	80.004	19.994	103.204	20.024	9.903	0.475
515.000	332.802	80.004	19.995	103.202	20.026	9.769	0.518
515.500	333.046	80.004	19.995	103.200	20.024	9.859	0.523
516.000	333.299	80.003	19.994	103.198	20.026	9.744	0.503
516.500	333.584	80.002	19.995	103.194	20.026	9.718	0.518
517.000	333.798	80.002	19.995	103.194	20.027	9.684	0.519
517.500	334.048	80.003	19.995	103.195	20.027	9.643	0.481
518.000	334.285	80.004	19.995	103.195	20.025	9.824	0.476
518.500	334.542	80.004	19.995	103.199	20.028	9.623	0.491
519.000	334.799	80.004	19.994	103.203	20.029	9.503	0.504
519.500	335.059	80.002	19.994	103.206	20.029	9.542	0.515
520.000	335.272	80.003	19.994	103.209	20.026	9.746	0.495
520.500	335.519	80.005	19.994	103.210	20.027	9.640	0.467
521.000	335.780	80.005	19.994	103.209	20.030	9.468	0.484
521.500	335.967	80.005	19.994	103.207	20.029	9.550	0.478
522.000	336.226	80.004	19.994	103.204	20.031	9.348	0.447
522.500	336.462	80.004	19.994	103.201	20.029	9.507	0.471
523.000	336.729	80.005	19.994	103.197	20.027	9.634	0.499
523.500	336.973	80.006	19.994	103.193	20.034	9.123	0.507
524.000	337.216	80.003	19.994	103.192	20.029	9.493	0.499
524.500	337.481	80.005	19.994	103.197	20.032	9.291	0.497
525.000	337.734	80.004	19.995	103.197	20.032	9.317	0.513
525.500	337.987	80.005	19.994	103.196	20.031	9.358	0.512
526.000	338.260	80.006	19.994	103.199	20.036	9.019	0.516
526.500	338.484	80.005	19.995	103.201	20.033	9.248	0.512
527.000	338.722	80.005	19.996	103.198	20.034	9.119	0.479
527.500	338.952	80.005	19.994	103.198	20.036	8.954	0.465
528.000	339.241	80.005	19.995	103.202	20.035	9.085	0.494
528.500	339.458	80.005	19.994	103.202	20.036	8.997	0.513
529.000	339.735	80.006	19.994	103.202	20.036	8.991	0.500
529.500	339.944	80.004	19.995	103.206	20.036	9.019	0.490
530.000	340.210	80.005	19.996	103.211	20.039	8.746	0.480
530.500	340.454	80.004	19.994	103.213	20.037	8.942	0.492
531.000	340.736	80.004	19.995	103.215	20.037	8.878	0.518
531.500	340.978	80.005	19.996	103.217	20.040	8.713	0.525
532.000	341.217	80.005	19.994	103.216	20.039	8.789	0.503
532.500	341.459	80.006	19.995	103.216	20.038	8.850	0.482
533.000	341.699	80.005	19.995	103.216	20.041	8.627	0.482
533.500	341.969	80.005	19.995	103.215	20.038	8.823	0.495
534.000	342.182	80.004	19.995	103.216	20.037	8.942	0.496
534.500	342.438	80.007	19.995	103.217	20.035	9.034	0.476
535.000	342.658	80.004	19.994	103.216	20.038	8.850	0.472
535.500	342.867	80.005	19.994	103.216	20.036	8.995	0.453
536.000	343.176	80.004	19.993	103.216	20.038	8.823	0.474
536.500	343.412	80.005	19.996	103.216	20.037	8.890	0.532
537.000	343.655	80.005	19.996	103.217	20.039	8.766	0.512
537.500	343.877	80.003	19.995	103.217	20.041	8.592	0.472
538.000	344.128	80.004	19.995	103.218	20.041	8.584	0.470
538.500	344.373	80.004	19.995	103.218	20.041	8.607	0.484
539.000	344.627	80.004	19.994	103.219	20.040	8.709	0.497
539.500	344.878	80.005	19.994	103.219	20.040	8.664	0.502
540.000	345.123	80.004	19.995	103.219	20.040	8.719	0.500
540.500	345.379	80.005	19.994	103.220	20.042	8.547	0.499
541.000	345.605	80.005	19.994	103.220	20.042	8.531	0.492
541.500	345.834	80.005	19.995	103.220	20.041	8.600	0.469
542.000	346.102	80.007	19.993	103.220	20.042	8.545	0.476
542.500	346.311	80.006	19.994	103.220	20.041	8.583	0.486
543.000	346.562	80.005	19.995	103.221	20.042	8.503	0.469
543.500	346.799	80.005	19.995	103.221	20.046	8.240	0.474
544.000	347.044	80.007	19.994	103.222	20.045	8.332	0.485
544.500	347.293	80.003	19.994	103.221	20.045	8.324	0.488
545.000	347.573	80.006	19.994	103.221	20.044	8.377	0.511
545.500	347.768	80.007	19.994	103.220	20.046	8.246	0.502
546.000	348.053	80.007	19.994	103.219	20.043	8.459	0.478
546.500	348.290	80.008	19.994	103.217	20.044	8.364	0.501
547.000	348.526	80.006	19.994	103.217	20.044	8.373	0.497
547.500	348.732	80.004	19.994	103.218	20.043	8.487	0.457
548.000	348.986	80.006	19.994	103.218	20.043	8.446	0.451
548.500	349.220	80.005	19.994	103.218	20.043	8.442	0.474
549.000	349.497	80.006	19.994	103.219	20.045	8.334	0.499
549.500	349.732	80.007	19.994	103.220	20.043	8.442	0.511
550.000	349.981	80.006	19.994	103.220	20.045	8.293	0.498
550.500	350.225	80.007	19.992	103.220	20.044	8.359	0.488
551.000	350.446	80.005	19.994	103.220	20.045	8.344	0.479
551.500	350.680	80.007	19.995	103.219	20.047	8.175	0.460
552.000	350.962	80.006	19.995	103.218	20.042	8.524	0.486
552.500	351.139	80.006	19.993	103.218	20.046	8.210	0.487
553.000	351.426	80.005	19.993	103.219	20.048	8.065	0.461
553.500	351.660	80.005	19.993	103.224	20.044	8.402	0.493
554.000	351.920	80.006	19.994	103.230	20.045	8.334	0.508
554.500	352.150	80.006	19.995	103.233	20.043	8.490	0.492
555.000	352.382	80.005	19.995	103.233	20.045	8.283	0.475
555.500	352.621	80.006	19.995	103.232	20.047	8.200	0.466
556.000	352.929	80.004	19.996	103.231	20.049	8.036	0.509
556.500	353.143	80.004	19.995	103.232	20.045	8.300	0.534
557.000	353.422	80.003	19.995	103.237	20.045	8.318	0.507
557.500	353.662	80.003	19.994	103.245	20.047	8.198	0.506
558.000	353.894	80.003	19.995	103.252	20.047	8.155	0.496
558.500	354.157	80.004	19.995	103.255	20.047	8.153	0.484
559.000	354.372	80.003	19.995	103.256	20.046	8.264	0.486
559.500	354.619	80.004	19.994	103.256	20.046	8.231	0.470
560.000	354.882	80.003	19.995	103.256	20.046	8.274	0.486
560.500	355.109	80.003	19.993	103.256	20.049	8.035	0.500
561.000	355.358	80.002	19.996	103.257	20.046	8.233	0.483
561.500	355.612	80.003	19.994	103.257	20.046	8.222	0.490
562.000	355.809	80.004	19.996	103.258	20.048	8.086	0.477
562.500	356.080	80.003	19.996	103.258	20.046	8.233	0.459
563.000	356.315	80.003	19.993	103.258	20.047	8.198	0.487
563.500	356.541	80.001	19.996	103.258	20.046	8.215	0.484
564.000	356.806	80.003	19.995	103.259	20.048	8.068	0.476
564.500	357.063	80.003	19.996	103.259	20.044	8.430	0.507
565.000	357.277	80.003	19.997	103.260	20.047	8.169	0.497
565.500	357.567	80.005	19.996	103.261	20.046	8.266	0.487
566.000	357.817	80.001	19.996	103.262	20.047	8.147	0.521
566.500	358.040	80.002	19.994	103.261	20.045	8.319	0.506
567.000	358.286	80.003	19.997	103.263	20.045	8.300	0.472
567.500	358.543	80.003	19.996	103.264	20.047	8.204	0.487
568.000	358.788	80.001	19.994	103.263	20.046	8.249	0.502
568.500	359.047	80.001	19.995	103.263	20.048	8.121	0.503
569.000	359.309	80.002	19.995	103.266	20.047	8.164	0.512
569.500	359.562	80.002	19.995	103.270	20.047	8.178	0.518
570.000	359.793	80.001	19.995	103.273	20.045	8.288	0.500
570.500	360.038	80.004	19.992	103.273	20.048	8.066	0.480
571.000	360.295	80.003	19.994	103.274	20.048	8.123	0.489
571.500	360.582	80.003	19.995	103.273	20.048	8.111	0.523
572.000	360.818	80.001	19.995	103.270	20.051	7.880	0.534
572.500	361.046	80.004	19.995	103.266	20.047	8.146	0.494
573.000	361.260	80.003	19.995	103.270	20.050	7.911	0.453
573.500	361.544	80.004	19.995	103.269	20.046	8.209	0.470
574.000	361.775	80.002	19.994	103.272	20.048	8.117	0.507
574.500	362.026	80.002	19.996	103.276	20.047	8.180	0.499
575.000	362.285	80.002	19.996	103.283	20.046	8.233	0.496
575.500	362.519	80.004	19.996	103.286	20.049	8.035	0.501
576.000	362.779	80.004	19.995	103.294	20.047	8.156	0.493
576.500	363.012	80.003	19.995	103.297	20.048	8.105	0.494
577.000	363.271	80.002	19.996	103.297	20.047	8.206	0.492
577.500	363.541	80.004	19.994	103.297	20.048	8.071	0.511
578.000	363.748	80.004	19.994	103.297	20.051	7.836	0.503
578.500	363.987	80.003	19.995	103.297	20.049	8.035	0.461
579.000	364.254	80.004	19.995	103.297	20.050	7.955	0.476
579.500	364.514	80.003	19.994	103.298	20.051	7.894	0.516
580.000	364.752	80.003	19.995	103.297	20.049	8.027	0.512
580.500	364.976	80.002	19.994	103.298	20.050	7.976	0.480
581.000	365.261	80.005	19.994	103.298	20.050	7.983	0.486
581.500	365.482	80.003	19.994	103.299	20.048	8.101	0.508
582.000	365.797	80.003	19.996	103.299	20.048	8.122	0.521
582.500	365.989	80.003	19.996	103.302	20.047	8.138	0.521
583.000	366.253	80.002	19.995	103.305	20.048	8.085	0.481
583.500	366.503	80.003	19.994	103.305	20.049	7.999	0.485
584.000	366.735	80.004	19.995	103.305	20.047	8.181	0.498
584.500	366.985	80.004	19.996	103.306	20.045	8.322	0.483
585.000	367.245	80.004	19.996	103.302	20.050	7.968	0.496
585.500	367.477	80.001	19.996	103.299	20.045	8.341	0.501
586.000	367.734	80.002	19.995	103.299	20.045	8.308	0.490
586.500	368.041	80.002	19.995	103.299	20.045	8.355	0.526
587.000	368.261	80.000	19.996	103.299	20.049	8.057	0.546
587.500	368.484	80.004	19.995	103.303	20.047	8.173	0.485
588.000	368.726	80.003	19.996	103.311	20.048	8.107	0.453
588.500	369.020	80.001	19.995	103.316	20.046	8.266	0.500
589.000	369.263	80.000	19.996	103.317	20.046	8.275	0.536
589.500	369.474	80.002	19.997	103.322	20.048	8.066	0.495
590.000	369.774	80.001	19.996	103.326	20.046	8.260	0.483
590.500	370.026	80.001	19.996	103.326	20.045	8.309	0.532
591.000	370.262	80.000	19.997	103.329	20.045	8.356	0.520
591.500	370.533	80.001	19.996	103.335	20.045	8.300	0.497
592.000	370.785	80.002	19.996	103.337	20.043	8.446	0.515
592.500	371.040	80.002	19.995	103.336	20.047	8.139	0.515
593.000	371.315	80.001	19.996	103.336	20.044	8.415	0.519
593.500	371.572	79.999	19.995	103.336	20.044	8.371	0.531
594.000	371.803	80.001	19.995	103.336	20.044	8.367	0.510
594.500	372.058	80.002	19.996	103.335	20.045	8.327	0.487
595.000	372.312	80.002	19.995	103.334	20.042	8.575	0.498
595.500	372.597	80.002	19.996	103.332	20.047	8.177	0.524
596.000	372.802	80.001	19.995	103.326	20.043	8.473	0.515
596.500	373.073	80.003	19.998	103.318	20.042	8.524	0.483
597.000	373.348	80.003	19.997	103.314	20.043	8.458	0.511
597.500	373.608	80.001	19.996	103.314	20.044	8.372	0.540
598.000	373.851	80.003	19.996	103.314	20.044	8.363	0.519
598.500	374.127	80.004	19.994	103.319	20.043	8.481	0.511
599.000	374.369	80.004	19.995	103.328	20.043	8.433	0.518
599.500	374.641	80.002	19.995	103.332	20.039	8.793	0.516
600.000	374.876	80.002	19.994	103.334	20.041	8.593	0.511
600.500	375.127	80.006	19.995	103.335	20.042	8.567	0.496
601.000	375.373	80.003	19.995	103.333	20.041	8.628	0.492
601.500	375.628	80.004	19.994	103.328	20.036	8.967	0.500
602.000	375.907	80.002	19.996	103.322	20.038	8.873	0.517
602.500	376.146	80.004	19.995	103.314	20.037	8.894	0.525
603.000	376.397	80.002	19.993	103.306	20.037	8.945	0.504
603.500	376.647	80.005	19.996	103.302	20.039	8.745	0.496
604.000	376.922	80.003	19.996	103.301	20.037	8.891	0.514
604.500	377.151	80.005	19.995	103.306	20.038	8.823	0.515
605.000	377.417	80.003	19.993	103.314	20.037	8.934	0.499
605.500	377.681	80.004	19.994	103.322	20.035	9.061	0.512
606.000	377.917	80.004	19.995	103.330	20.034	9.144	0.515
606.500	378.156	80.005	19.995	103.336	20.032	9.283	0.487
607.000	378.403	80.004	19.994	103.336	20.031	9.391	0.481
607.500	378.651	80.005	19.996	103.333	20.033	9.225	0.491
608.000	378.927	80.005	19.995	103.324	20.032	9.268	0.509
608.500	379.165	80.006	19.993	103.316	20.035	9.059	0.519
609.000	379.437	80.003	19.993	103.308	20.031	9.354	0.512
609.500	379.708	80.004	19.995	103.300	20.031	9.374	0.526
610.000	379.969	80.005	19.995	103.296	20.029	9.509	0.537
610.500	380.188	80.002	19.994	103.300	20.032	9.319	0.507
611.000	380.477	80.005	19.994	103.302	20.029	9.513	0.494
611.500	380.743	80.004	19.996	103.302	20.030	9.421	0.531
612.000	380.975	80.003	19.995	103.302	20.028	9.576	0.526
612.500	381.224	80.003	19.997	103.304	20.030	9.462	0.490
613.000	381.483	80.004	19.995	103.304	20.029	9.501	0.495
613.500	381.723	80.003	19.993	103.303	20.028	9.615	0.504
614.000	381.981	80.004	19.994	103.303	20.027	9.665	0.498
614.500	382.269	80.003	19.996	103.308	20.029	9.517	0.522
615.000	382.490	80.006	19.996	103.314	20.027	9.695	0.528
615.500	382.775	80.003	19.995	103.316	20.025	9.826	0.507
616.000	383.025	80.002	19.995	103.319	20.026	9.741	0.520
616.500	383.278	80.004	19.993	103.320	20.026	9.753	0.519
617.000	383.538	80.005	19.994	103.317	20.023	10.011	0.508
617.500	383.752	80.005	19.994	103.312	20.024	9.888	0.494
618.000	384.036	80.005	19.994	103.307	20.020	10.196	0.486
618.500	384.317	80.004	19.995	103.303	20.021	10.098	0.532
619.000	384.548	80.005	19.993	103.303	20.019	10.257	0.539
619.500	384.787	80.006	19.995	103.302	20.021	10.137	0.491
620.000	385.073	80.005	19.994	103.302	20.017	10.436	0.497
620.500	385.317	80.006	19.994	103.301	20.020	10.237	0.527
621.000	385.570	80.006	19.995	103.300	20.020	10.205	0.513
621.500	385.846	80.003	19.996	103.300	20.017	10.431	0.513
622.000	386.073	80.005	19.995	103.303	20.017	10.420	0.517
622.500	386.346	80.004	19.994	103.300	20.016	10.530	0.502
623.000	386.604	80.005	19.995	103.300	20.016	10.535	0.515
623.500	386.824	80.004	19.994	103.301	20.015	10.608	0.504
624.000	387.090	80.005	19.994	103.303	20.013	10.723	0.482
624.500	387.354	80.004	19.993	103.304	20.016	10.500	0.508
625.000	387.616	80.004	19.994	103.305	20.011	10.843	0.528
625.500	387.883	80.005	19.996	103.305	20.011	10.878	0.528
626.000	388.166	80.006	19.995	103.307	20.012	10.804	0.539
626.500	388.405	80.004	19.995	103.308	20.009	11.023	0.536
627.000	388.657	80.006	19.994	103.310	20.008	11.117	0.506
627.500	388.908	80.005	19.995	103.314	20.008	11.068	0.497
628.000	389.188	80.004	19.995	103.314	20.007	11.182	0.517
628.500	389.448	80.005	19.995	103.312	20.003	11.450	0.535
629.000	389.662	80.006	19.994	103.308	20.002	11.554	0.507
629.500	389.932	80.007	19.993	103.304	20.001	11.610	0.479
630.000	390.212	80.006	19.996	103.304	20.005	11.352	0.517
630.500	390.473	80.006	19.994	103.311	20.004	11.409	0.546
631.000	390.718	80.005	19.994	103.318	20.000	11.700	0.524
631.500	390.965	80.004	19.995	103.325	19.999	11.769	0.499
632.000	391.225	80.005	19.993	103.329	19.997	11.902	0.499
632.500	391.504	80.005	19.993	103.327	19.998	11.896	0.523
633.000	391.746	80.005	19.993	103.320	19.999	11.775	0.530
633.500	392.034	80.006	19.994	103.312	19.996	12.035	0.526
634.000	392.291	80.006	19.994	103.305	19.993	12.231	0.537
634.500	392.512	80.005	19.995	103.299	19.995	12.095	0.511
635.000	392.823	80.007	19.994	103.297	19.990	12.450	0.505
635.500	393.058	80.007	19.994	103.297	19.991	12.362	0.539
636.000	393.305	80.005	19.993	103.297	19.986	12.792	0.514
636.500	393.595	80.006	19.995	103.297	19.983	12.982	0.509
637.000	393.881	80.006	19.995	103.297	19.986	12.780	0.556
637.500	394.094	80.005	19.997	103.297	19.983	12.993	0.537
638.000	394.398	80.005	19.993	103.297	19.984	12.889	0.508
638.500	394.655	80.006	19.994	103.296	19.981	13.142	0.539
639.000	394.917	80.005	19.994	103.296	19.981	13.148	0.540
639.500	395.163	80.006	19.994	103.296	19.981	13.156	0.514
640.000	395.444	80.005	19.994	103.296	19.980	13.242	0.518
640.500	395.676	80.004	19.993	103.296	19.974	13.641	0.520
641.000	395.957	80.004	19.993	103.298	19.973	13.737	0.513
641.500	396.201	80.007	19.994	103.297	19.972	13.824	0.519
642.000	396.441	80.004	19.993	103.297	19.969	14.036	0.504
642.500	396.709	80.006	19.994	103.296	19.969	14.044	0.496
643.000	396.972	80.002	19.995	103.297	19.968	14.140	0.520
643.500	397.209	80.004	19.994	103.297	19.965	14.328	0.516
644.000	397.487	80.002	19.994	103.298	19.962	14.557	0.507
644.500	397.779	80.004	19.992	103.299	19.961	14.680	0.542
645.000	398.000	80.004	19.994	103.300	19.956	15.019	0.542
645.500	398.232	80.005	19.994	103.301	19.955	15.130	0.483
646.000	398.507	80.003	19.994	103.300	19.954	15.195	0.480
646.500	398.772	80.003	19.995	103.294	19.951	15.379	0.523
647.000	399.053	80.003	19.995	103.289	19.951	15.429	0.543
647.500	399.295	80.004	19.994	103.289	19.948	15.644	0.535
648.000	399.545	80.003	19.994	103.290	19.951	15.413	0.507
648.500	399.837	80.005	19.993	103.291	19.946	15.792	0.517
649.000	400.073	80.003	19.995	103.295	19.945	15.835	0.535
649.500	400.348	80.002	19.995	103.295	19.941	16.129	0.520
650.000	400.611	80.002	19.994	103.293	19.942	16.052	0.525
650.500	400.836	80.004	19.995	103.291	19.938	16.342	0.514
651.000	401.073	80.003	19.996	103.292	19.938	16.404	0.475
651.500	401.361	80.003	19.995	103.293	19.936	16.556	0.493
652.000	401.622	80.004	19.994	103.297	19.930	16.943	0.537
652.500	401.865	80.003	19.995	103.299	19.934	16.643	0.527
653.000	402.139	80.004	19.996	103.301	19.929	17.089	0.511
653.500	402.377	80.003	19.995	103.299	19.926	17.291	0.515
654.000	402.667	80.003	19.994	103.296	19.924	17.432	0.520
654.500	402.921	80.002	19.996	103.296	19.923	17.520	0.536
655.000	403.168	80.003	19.995	103.297	19.920	17.716	0.522
655.500	403.424	80.005	19.994	103.296	19.915	18.121	0.502
656.000	403.699	80.004	19.995	103.297	19.915	18.111	0.517
656.500	403.930	80.002	19.996	103.300	19.914	18.181	0.519
657.000	404.189	80.002	19.994	103.300	19.911	18.435	0.498
657.500	404.449	80.003	19.995	103.302	19.906	18.817	0.504
658.000	404.651	80.004	19.994	103.307	19.907	18.680	0.490
658.500	404.926	80.002	19.996	103.307	19.904	18.971	0.469
659.000	405.200	80.005	19.997	103.307	19.902	19.126	0.513
659.500	405.453	80.004	19.996	103.313	19.897	19.481	0.538
660.000	405.668	80.004	19.996	103.315	19.895	19.640	0.497
660.500	405.944	80.004	19.996	103.313	19.893	19.776	0.479
661.000	406.194	80.003	19.995	103.313	19.890	20.012	0.509
661.500	406.484	80.004	19.996	103.311	19.889	20.073	0.533
662.000	406.746	80.004	19.996	103.304	19.887	20.249	0.546
662.500	406.976	80.002	19.996	103.297	19.882	20.618	0.522
663.000	407.200	80.002	19.994	103.290	19.878	20.891	0.473
663.500	407.477	80.005	19.995	103.289	19.876	21.043	0.477
664.000	407.762	80.004	19.992	103.285	19.875	21.146	0.532
664.500	408.001	80.002	19.995	103.281	19.873	21.234	0.544
665.000	408.253	80.003	19.996	103.281	19.869	21.583	0.508
665.500	408.489	80.002	19.996	103.282	19.866	21.772	0.489
666.000	408.741	80.003	19.996	103.279	19.871	21.416	0.488
666.500	408.974	80.004	19.995	103.280	19.875	21.141	0.486
667.000	409.234	80.002	19.995	103.283	19.862	22.071	0.489
667.500	409.525	80.004	19.994	103.286	19.863	21.989	0.522
668.000	409.756	80.003	19.995	103.291	19.846	23.317	0.537
668.500	409.993	80.002	19.994	103.300	19.844	23.452	0.495
669.000	410.269	80.000	19.995	103.308	19.845	23.402	0.490
669.500	410.501	80.004	19.993	103.313	19.839	23.827	0.510
670.000	410.764	80.003	19.994	103.313	19.837	23.962	0.501
670.500	411.030	80.003	19.995	103.311	19.835	24.132	0.512
671.000	411.254	80.004	19.994	103.306	19.832	24.340	0.509
671.500	411.511	80.002	19.995	103.301	19.825	24.894	0.485
672.000	411.765	80.004	19.995	103.296	19.822	25.146	0.496
672.500	411.996	80.003	19.994	103.295	19.822	25.144	0.498
673.000	412.280	80.004	19.995	103.294	19.821	25.218	0.500
673.500	412.491	80.002	19.994	103.288	19.815	25.654	0.505
674.000	412.779	80.002	19.994	103.288	19.811	25.899	0.497
674.500	413.031	80.004	19.994	103.288	19.806	26.271	0.520
675.000	413.268	80.003	19.997	103.284	19.800	26.771	0.515
675.500	413.547	80.004	19.997	103.283	19.800	26.774	0.502
676.000	413.738	80.003	19.995	103.282	19.793	27.315	0.493
676.500	414.018	80.005	19.992	103.276	19.791	27.472	0.471
677.000	414.252	80.004	19.993	103.275	19.788	27.634	0.493
677.500	414.500	80.003	19.997	103.278	19.781	28.167	0.498
678.000	414.767	80.004	19.995	103.280	19.779	28.304	0.498
678.500	414.993	80.003	19.992	103.286	19.778	28.437	0.504
679.000	415.252	80.003	19.995	103.293	19.770	28.997	0.489
679.500	415.471	80.005	19.992	103.294	19.766	29.323	0.482
680.000	415.697	80.004	19.995	103.292	19.760	29.745	0.461
680.500	415.969	80.003	19.996	103.290	19.760	29.798	0.471
681.000	416.208	80.005	19.996	103.285	19.754	30.227	0.505
681.500	416.469	80.003	19.993	103.285	19.749	30.589	0.506
682.000	416.726	80.003	19.996	103.284	19.747	30.729	0.509
682.500	416.985	80.003	19.998	103.283	19.741	31.211	0.517
683.000	417.257	80.004	19.997	103.285	19.734	31.694	0.524
683.500	417.586	80.004	19.995	103.285	19.733	31.827	0.566
684.000	417.735	80.003	19.996	103.279	19.730	32.059	0.539
684.500	418.058	80.004	19.995	103.275	19.723	32.553	0.475
685.000	418.329	80.005	19.995	103.272	19.718	32.905	0.533
685.500	418.521	80.003	19.996	103.265	19.714	33.257	0.529
686.000	418.806	80.005	19.995	103.262	19.708	33.718	0.470
686.500	419.074	80.003	19.996	103.260	19.705	33.891	0.515
687.000	419.294	80.004	19.996	103.257	19.701	34.235	0.520
687.500	419.607	80.005	19.995	103.256	19.695	34.645	0.510
688.000	419.865	80.004	19.994	103.257	19.690	35.029	0.551
688.500	420.065	80.004	19.994	103.257	19.684	35.513	0.515
689.000	420.303	80.004	19.995	103.258	19.685	35.463	0.449
689.500	420.580	80.005	19.995	103.257	19.678	35.984	0.477
690.000	420.839	80.005	19.994	103.257	19.672	36.423	0.526
690.500	421.069	80.005	19.996	103.257	19.669	36.655	0.512
691.000	421.321	80.004	19.997	103.258	19.664	37.031	0.485
691.500	421.561	80.005	19.995	103.258	19.660	37.334	0.487
692.000	421.839	80.004	19.998	103.264	19.654	37.760	0.505
692.500	422.082	80.005	19.995	103.268	19.649	38.106	0.520
693.000	422.338	80.006	19.994	103.271	19.642	38.643	0.510
693.500	422.608	80.006	19.995	103.270	19.639	38.873	0.512
694.000	422.864	80.004	19.996	103.271	19.637	39.051	0.526
694.500	423.069	80.005	19.995	103.271	19.629	39.621	0.493
695.000	423.316	80.003	19.996	103.270	19.626	39.840	0.456
695.500	423.607	80.005	19.997	103.275	19.622	40.170	0.495
696.000	423.845	80.005	19.997	103.277	19.616	40.600	0.534
696.500	424.087	80.004	19.994	103.278	19.612	40.911	0.504
697.000	424.316	80.003	19.995	103.280	19.608	41.227	0.475
697.500	424.578	80.004	19.996	103.286	19.602	41.638	0.481
698.000	424.814	80.005	19.995	103.287	19.600	41.820	0.494
698.500	425.078	80.004	19.995	103.292	19.595	42.220	0.499
699.000	425.310	80.005	19.995	103.296	19.589	42.668	0.498
699.500	425.581	80.004	19.995	103.295	19.585	42.913	0.499
700.000	425.834	80.003	19.995	103.293	19.577	43.522	0.514
700.500	426.105	80.004	19.994	103.291	19.573	43.814	0.524
701.000	426.348	80.005	19.993	103.292	19.569	44.117	0.519
701.500	426.586	80.004	19.993	103.292	19.566	44.355	0.497
702.000	426.849	80.005	19.996	103.288	19.558	44.964	0.491
702.500	427.105	80.005	19.992	103.284	19.552	45.444	0.510
703.000	427.319	80.003	19.996	103.279	19.551	45.478	0.494
703.500	427.607	80.005	19.993	103.272	19.545	45.931	0.486
704.000	427.837	80.004	19.995	103.269	19.534	46.773	0.510
704.500	428.089	80.004	19.995	103.273	19.533	46.850	0.500
705.000	428.348	80.004	19.995	103.279	19.529	47.166	0.497
705.500	428.593	80.004	19.995	103.282	19.525	47.443	0.508
706.000	428.903	80.005	19.994	103.280	19.518	47.962	0.530
706.500	429.130	80.004	19.994	103.271	19.512	48.413	0.546
707.000	429.344	80.004	19.993	103.264	19.510	48.576	0.489
707.500	429.629	80.004	19.995	103.258	19.504	49.061	0.470
708.000	429.859	80.005	19.995	103.261	19.496	49.634	0.507
708.500	430.114	80.004	19.994	103.269	19.495	49.741	0.500
709.000	430.345	80.004	19.994	103.279	19.488	50.243	0.486
709.500	430.615	80.004	19.996	103.283	19.485	50.449	0.494
710.000	430.845	80.003	19.993	103.283	19.479	50.912	0.501
710.500	431.117	80.005	19.992	103.277	19.476	51.173	0.501
711.000	431.359	80.003	19.994	103.274	19.470	51.632	0.508
711.500	431.637	80.005	19.996	103.268	19.467	51.803	0.517
712.000	431.852	80.006	19.994	103.265	19.463	52.169	0.507
712.500	432.089	80.005	19.993	103.267	19.457	52.602	0.472
713.000	432.337	80.006	19.993	103.271	19.450	53.085	0.468
713.500	432.597	80.005	19.994	103.275	19.447	53.312	0.497
714.000	432.844	80.007	19.996	103.280	19.445	53.482	0.508
714.500	433.120	80.006	19.995	103.281	19.437	54.057	0.515
715.000	433.295	80.005	19.994	103.281	19.436	54.187	0.487
715.500	433.586	80.005	19.994	103.276	19.431	54.573	0.458
716.000	433.864	80.005	19.993	103.270	19.424	55.078	0.517
716.500	434.084	80.007	19.993	103.271	19.419	55.414	0.534
717.000	434.342	80.004	19.996	103.276	19.418	55.534	0.488
717.500	434.602	80.006	19.995	103.279	19.413	55.919	0.498
718.000	434.863	80.005	19.995	103.279	19.406	56.390	0.519
718.500	435.072	80.007	19.995	103.279	19.405	56.498	0.495
719.000	435.324	80.006	19.993	103.274	19.404	56.600	0.465
719.500	435.595	80.006	19.993	103.270	19.398	57.034	0.492
720.000	435.835	80.006	19.995	103.266	19.394	57.348	0.517
720.500	436.097	80.005	19.995	103.267	19.389	57.688	0.507
721.000	436.333	80.006	19.993	103.267	19.387	57.868	0.500
721.500	436.584	80.006	19.994	103.269	19.381	58.324	0.492
722.000	436.834	80.005	19.994	103.272	19.377	58.610	0.494
722.500	437.057	80.006	19.994	103.275	19.371	59.041	0.487
723.000	437.316	80.005	19.995	103.275	19.371	59.074	0.477
723.500	437.614	80.006	19.994	103.275	19.366	59.403	0.519
724.000	437.802	80.005	19.993	103.273	19.364	59.566	0.522
724.500	438.066	80.006	19.995	103.269	19.366	59.429	0.469
725.000	438.324	80.006	19.994	103.269	19.358	60.044	0.487
725.500	438.571	80.006	19.995	103.266	19.355	60.248	0.514
726.000	438.797	80.004	19.994	103.265	19.351	60.560	0.489
726.500	439.052	80.005	19.994	103.265	19.351	60.536	0.477
727.000	439.316	80.004	19.993	103.262	19.347	60.862	0.500
727.500	439.559	80.003	19.993	103.260	19.343	61.157	0.513
728.000	439.797	80.005	19.995	103.263	19.344	61.072	0.494
728.500	440.034	80.004	19.994	103.264	19.342	61.242	0.478
729.000	440.287	80.005	19.995	103.266	19.338	61.510	0.483
729.500	440.556	80.003	19.995	103.268	19.338	61.563	0.507
730.000	440.787	80.004	19.996	103.266	19.332	61.958	0.511
730.500	440.998	80.004	19.991	103.263	19.333	61.931	0.471
731.000	441.310	80.003	19.996	103.261	19.333	61.954	0.483
731.500	441.523	80.003	19.994	103.259	19.329	62.214	0.524
732.000	441.758	80.004	19.994	103.257	19.330	62.164	0.486
732.500	442.020	80.005	19.993	103.257	19.330	62.117	0.472
733.000	442.268	80.003	19.994	103.257	19.330	62.151	0.504
733.500	442.514	80.003	19.995	103.257	19.332	61.991	0.503
734.000	442.777	80.005	19.995	103.257	19.333	61.885	0.502
734.500	443.004	80.005	19.998	103.257	19.332	62.020	0.500
735.000	443.237	80.004	19.994	103.257	19.332	62.008	0.475
735.500	443.535	80.003	19.995	103.256	19.331	62.041	0.495
736.000	443.754	80.004	19.995	103.256	19.332	61.966	0.524
736.500	443.998	80.005	19.994	103.256	19.334	61.872	0.490
737.000	444.269	80.004	19.994	103.258	19.333	61.914	0.489
737.500	444.532	80.005	19.993	103.262	19.335	61.771	0.524
738.000	444.763	80.004	19.993	103.265	19.335	61.750	0.514
738.500	445.011	80.004	19.994	103.270	19.334	61.874	0.487
739.000	445.293	80.004	19.992	103.274	19.335	61.789	0.504
739.500	445.518	80.004	19.994	103.278	19.330	62.147	0.518
740.000	445.763	80.004	19.995	103.278	19.331	62.049	0.489
740.500	445.989	80.005	19.993	103.278	19.332	61.989	0.471
741.000	446.244	80.005	19.994	103.276	19.329	62.181	0.476
741.500	446.486	80.004	19.993	103.278	19.327	62.349	0.489
742.000	446.766	80.004	19.995	103.280	19.324	62.572	0.510
742.500	446.990	80.005	19.994	103.284	19.315	63.208	0.513
743.000	447.201	80.004	19.993	103.285	19.316	63.179	0.469
743.500	447.493	80.005	19.994	103.285	19.309	63.700	0.468
744.000	447.724	80.004	19.994	103.281	19.303	64.120	0.513
744.500	447.970	80.004	19.994	103.273	19.298	64.506	0.500
745.000	448.264	80.003	19.994	103.266	19.291	65.075	0.508
745.500	448.491	80.005	19.994	103.270	19.285	65.516	0.530
746.000	448.743	80.004	19.993	103.272	19.277	66.125	0.500
746.500	449.006	80.005	19.994	103.275	19.268	66.826	0.498
747.000	449.239	80.005	19.995	103.282	19.261	67.315	0.506
747.500	449.505	80.004	19.994	103.289	19.255	67.790	0.497
748.000	449.757	80.003	19.994	103.287	19.242	68.783	0.508
748.500	449.983	80.005	19.994	103.291	19.240	68.917	0.498
749.000	450.248	80.004	19.994	103.290	19.230	69.632	0.484
749.500	450.505	80.005	19.994	103.283	19.224	70.124	0.506
750.000	450.735	80.003	19.994	103.270	19.215	70.764	0.505
750.500	451.013	80.005	19.995	103.257	19.211	71.081	0.497
751.000	451.246	80.003	19.996	103.243	19.206	71.466	0.509
751.500	451.475	80.005	19.995	103.233	19.198	72.027	0.487
752.000	451.772	80.004	19.995	103.225	19.191	72.625	0.494
752.500	452.065	80.003	19.995	103.224	19.184	73.124	0.558
753.000	452.261	80.003	19.993	103.223	19.181	73.349	0.539
753.500	452.521	80.003	19.994	103.221	19.175	73.821	0.472
754.000	452.763	80.004	19.994	103.220	19.168	74.362	0.479
754.500	453.058	80.004	19.995	103.221	19.163	74.704	0.519
755.000	453.284	80.003	19.994	103.227	19.162	74.795	0.529
755.500	453.558	80.003	19.995	103.233	19.157	75.195	0.511
756.000	453.798	80.003	19.994	103.235	19.153	75.473	0.507
756.500	454.045	80.003	19.995	103.238	19.153	75.461	0.501
757.000	454.308	80.004	19.995	103.242	19.154	75.403	0.498
757.500	454.585	80.003	19.995	103.242	19.152	75.563	0.524
758.000	454.846	80.002	19.995	103.242	19.153	75.488	0.539
758.500	455.086	80.003	19.995	103.247	19.157	75.160	0.520
759.000	455.326	80.002	19.995	103.251	19.163	74.778	0.491
759.500	455.646	80.003	19.996	103.252	19.164	74.655	0.520
760.000	455.877	80.004	19.995	103.246	19.164	74.693	0.555
760.500	456.146	80.004	19.995	103.240	19.167	74.429	0.525
761.000	456.372	80.004	19.995	103.235	19.173	73.945	0.498
761.500	456.638	80.005	19.996	103.236	19.175	73.818	0.494
762.000	456.915	80.005	19.994	103.237	19.179	73.517	0.517
762.500	457.160	80.003	19.995	103.244	19.181	73.340	0.532
763.000	457.435	80.004	19.995	103.253	19.188	72.853	0.521
763.500	457.670	80.003	19.994	103.259	19.189	72.770	0.515
764.000	457.950	80.003	19.994	103.259	19.191	72.576	0.513
764.500	458.278	80.003	19.995	103.262	19.194	72.348	0.562
765.000	458.457	80.003	19.995	103.267	19.199	71.950	0.557
765.500	458.738	80.003	19.995	103.274	19.202	71.762	0.483
766.000	459.009	80.004	19.994	103.281	19.204	71.595	0.506
766.500	459.297	80.004	19.995	103.288	19.204	71.642	0.556
767.000	459.525	80.003	19.995	103.294	19.209	71.244	0.538
767.500	459.752	80.003	19.994	103.297	19.210	71.151	0.485
768.000	460.004	80.003	19.995	103.299	19.210	71.186	0.466
768.500	460.303	80.004	19.996	103.306	19.216	70.761	0.515
769.000	460.584	80.004	19.994	103.310	19.213	70.937	0.566
769.500	460.786	80.005	19.995	103.311	19.217	70.627	0.531
770.000	461.094	80.004	19.994	103.311	19.223	70.166	0.496
770.500	461.333	80.004	19.995	103.308	19.226	69.950	0.528
771.000	461.625	80.005	19.995	103.298	19.231	69.602	0.539
771.500	461.927	80.005	19.994	103.294	19.232	69.547	0.563
772.000	462.156	80.006	19.995	103.292	19.237	69.120	0.563
772.500	462.478	80.005	19.994	103.286	19.240	68.897	0.541
773.000	462.715	80.005	19.995	103.280	19.252	68.020	0.555
773.500	462.973	80.005	19.995	103.275	19.256	67.716	0.526
774.000	463.224	80.007	19.995	103.262	19.260	67.400	0.502
774.500	463.464	80.005	19.995	103.250	19.266	66.930	0.501
775.000	463.727	80.006	19.996	103.244	19.270	66.646	0.497
775.500	463.989	80.005	19.994	103.242	19.276	66.203	0.514
776.000	464.260	80.006	19.994	103.242	19.280	65.876	0.529
776.500	464.521	80.006	19.995	103.246	19.287	65.350	0.532
777.000	464.801	80.006	19.996	103.252	19.290	65.134	0.536
777.500	465.059	80.005	19.995	103.261	19.295	64.787	0.540
778.000	465.278	80.005	19.994	103.270	19.300	64.397	0.508
778.500	465.573	80.006	19.995	103.277	19.305	63.979	0.495
779.000	465.859	80.004	19.995	103.281	19.313	63.367	0.547
779.500	466.113	80.005	19.994	103.282	19.317	63.087	0.561
780.000	466.383	80.004	19.994	103.278	19.323	62.599	0.532
780.500	466.663	80.004	19.994	103.270	19.326	62.401	0.537
781.000	466.934	80.005	19.994	103.263	19.328	62.223	0.551
781.500	467.179	80.004	19.995	103.260	19.331	62.001	0.534
782.000	467.429	80.003	19.994	103.260	19.332	61.951	0.506
782.500	467.717	80.003	19.996	103.260	19.335	61.763	0.516
783.000	467.950	80.005	19.995	103.260	19.337	61.621	0.529
783.500	468.230	80.005	19.995	103.260	19.339	61.468	0.517
784.000	468.473	80.003	19.995	103.259	19.341	61.300	0.518
784.500	468.755	80.004	19.995	103.259	19.339	61.464	0.524
785.000	469.001	80.004	19.996	103.260	19.342	61.248	0.526
785.500	469.286	80.004	19.997	103.260	19.344	61.051	0.530
786.000	469.557	80.004	19.996	103.267	19.346	60.924	0.543
786.500	469.815	80.004	19.996	103.271	19.350	60.636	0.542
787.000	470.108	80.004	19.995	103.271	19.352	60.444	0.540
787.500	470.381	80.005	19.996	103.269	19.358	60.047	0.559
788.000	470.638	80.003	19.995	103.267	19.355	60.227	0.548
788.500	470.861	80.005	19.996	103.260	19.362	59.689	0.505
789.000	471.145	80.005	19.995	103.251	19.364	59.540	0.493
789.500	471.373	80.004	19.995	103.242	19.368	59.248	0.510
790.000	471.680	80.003	19.995	103.234	19.372	58.989	0.524
790.500	471.964	80.004	19.996	103.224	19.378	58.504	0.563
791.000	472.198	80.004	19.996	103.215	19.384	58.056	0.554
791.500	472.465	80.005	19.995	103.214	19.387	57.864	0.510
792.000	472.738	80.006	19.994	103.214	19.387	57.801	0.521
792.500	473.004	80.004	19.996	103.215	19.391	57.532	0.539
793.000	473.279	80.003	19.995	103.217	19.395	57.221	0.540
793.500	473.524	80.005	19.995	103.219	19.398	57.009	0.531
794.000	473.806	80.005	19.995	103.225	19.401	56.736	0.523
794.500	474.060	80.006	19.995	103.233	19.405	56.492	0.532
795.000	474.331	80.005	19.995	103.241	19.411	56.057	0.531
795.500	474.578	80.006	19.996	103.250	19.412	55.983	0.521
796.000	474.855	80.004	19.995	103.257	19.412	55.919	0.521
796.500	475.098	80.004	19.995	103.259	19.418	55.494	0.522
797.000	475.359	80.005	19.995	103.259	19.423	55.147	0.512
797.500	475.627	80.005	19.994	103.259	19.425	54.945	0.516
798.000	475.854	80.006	19.994	103.256	19.427	54.814	0.512
798.500	476.139	80.005	19.994	103.255	19.430	54.630	0.504
799.000	476.405	80.007	19.994	103.254	19.434	54.269	0.532
799.500	476.645	80.006	19.994	103.254	19.440	53.813	0.529
800.000	476.869	80.007	19.994	103.246	19.445	53.475	0.485
800.500	477.165	80.007	19.995	103.241	19.451	53.000	0.492
801.000	477.418	80.007	19.994	103.233	19.454	52.789	0.534
801.500	477.654	80.006	19.994	103.228	19.459	52.422	0.519
802.000	477.935	80.005	19.993	103.224	19.462	52.193	0.503
802.500	478.195	80.007	19.994	103.227	19.468	51.751	0.529
803.000	478.433	80.007	19.993	103.227	19.470	51.624	0.519
803.500	478.682	80.007	19.995	103.228	19.473	51.331	0.492
804.000	478.933	80.007	19.993	103.227	19.475	51.236	0.493
804.500	479.184	80.006	19.994	103.224	19.477	51.047	0.501
805.000	479.426	80.006	19.994	103.222	19.479	50.916	0.498
805.500	479.715	80.008	19.993	103.224	19.485	50.474	0.512
806.000	479.898	80.007	19.992	103.227	19.484	50.498	0.501
806.500	480.191	80.007	19.993	103.232	19.488	50.218	0.474
807.000	480.403	80.006	19.993	103.234	19.493	49.830	0.490
807.500	480.650	80.006	19.994	103.240	19.496	49.643	0.482
808.000	480.893	80.006	19.993	103.245	19.499	49.399	0.475
808.500	481.177	80.007	19.993	103.246	19.501	49.281	0.508
809.000	481.400	80.005	19.994	103.249	19.501	49.216	0.517
809.500	481.680	80.006	19.994	103.253	19.506	48.883	0.505
810.000	481.922	80.004	19.994	103.251	19.510	48.601	0.512
810.500	482.156	80.005	19.993	103.246	19.512	48.394	0.499
811.000	482.424	80.004	19.995	103.243	19.517	48.018	0.489
811.500	482.661	80.005	19.995	103.238	19.517	48.054	0.504
812.000	482.881	80.003	19.994	103.232	19.521	47.715	0.481
812.500	483.152	80.005	19.994	103.230	19.523	47.565	0.474
813.000	483.364	80.004	19.994	103.233	19.526	47.378	0.487
813.500	483.628	80.004	19.996	103.237	19.525	47.409	0.479
814.000	483.896	80.004	19.995	103.243	19.527	47.268	0.504
814.500	484.118	80.005	19.994	103.246	19.526	47.371	0.511
815.000	484.371	80.004	19.994	103.243	19.531	46.968	0.482
815.500	484.576	80.004	19.994	103.237	19.532	46.938	0.466
816.000	484.812	80.003	19.995	103.230	19.537	46.559	0.449
816.500	485.082	80.005	19.994	103.222	19.538	46.483	0.473
817.000	485.336	80.005	19.995	103.221	19.541	46.231	0.515
817.500	485.528	80.004	19.994	103.222	19.542	46.165	0.485
818.000	485.787	80.005	19.995	103.222	19.549	45.638	0.449
818.500	486.071	80.003	19.994	103.224	19.548	45.698	0.497
819.000	486.286	80.003	19.995	103.226	19.559	44.923	0.521
819.500	486.508	80.004	19.995	103.223	19.562	44.646	0.468
820.000	486.759	80.004	19.993	103.222	19.562	44.657	0.455
820.500	487.054	80.004	19.995	103.220	19.566	44.397	0.509
821.000	487.261	80.004	19.995	103.218	19.572	43.928	0.524
821.500	487.510	80.005	19.995	103.217	19.576	43.621	0.479
822.000	487.755	80.004	19.994	103.216	19.581	43.219	0.475
822.500	488.020	80.003	19.995	103.215	19.581	43.198	0.502
823.000	488.278	80.004	19.994	103.214	19.591	42.506	0.516
823.500	488.527	80.004	19.995	103.214	19.593	42.323	0.515
824.000	488.784	80.005	19.994	103.214	19.596	42.108	0.507
824.500	489.049	80.004	19.996	103.216	19.602	41.668	0.513
825.000	489.302	80.005	19.994	103.220	19.607	41.309	0.520
825.500	489.530	80.003	19.994	103.230	19.612	40.897	0.500
826.000	489.769	80.004	19.994	103.234	19.615	40.664	0.475
826.500	490.044	80.004	19.993	103.240	19.619	40.393	0.491
827.000	490.291	80.005	19.996	103.246	19.623	40.049	0.518
827.500	490.562	80.004	19.995	103.250	19.624	40.018	0.520
828.000	490.799	80.005	19.995	103.254	19.632	39.415	0.513
828.500	491.047	80.004	19.995	103.257	19.637	39.036	0.496
829.000	491.265	80.004	19.994	103.257	19.641	38.708	0.475
829.500	491.604	80.004	19.994	103.253	19.641	38.750	0.512
830.000	491.760	80.004	19.995	103.251	19.646	38.375	0.526
830.500	492.070	80.005	19.994	103.244	19.648	38.184	0.480
831.000	492.331	80.005	19.994	103.242	19.649	38.102	0.518
831.500	492.579	80.005	19.995	103.237	19.654	37.758	0.540
832.000	492.849	80.005	19.994	103.234	19.655	37.693	0.514
832.500	493.093	80.004	19.994	103.232	19.661	37.176	0.516
833.000	493.394	80.005	19.994	103.233	19.668	36.675	0.529
833.500	493.636	80.004	19.994	103.231	19.668	36.656	0.544
834.000	493.905	80.005	19.996	103.238	19.671	36.462	0.527
834.500	494.143	80.004	19.994	103.244	19.676	36.081	0.509
835.000	494.417	80.005	19.995	103.243	19.679	35.841	0.510
835.500	494.667	80.006	19.995	103.241	19.683	35.559	0.518
836.000	494.958	80.005	19.993	103.238	19.686	35.326	0.532
836.500	495.176	80.004	19.994	103.230	19.689	35.118	0.525
837.000	495.448	80.005	19.996	103.223	19.695	34.631	0.500
837.500	495.710	80.005	19.995	103.226	19.697	34.498	0.512
838.000	495.976	80.005	19.995	103.233	19.700	34.309	0.530
838.500	496.209	80.004	19.995	103.237	19.704	34.009	0.513
839.000	496.517	80.005	19.995	103.241	19.708	33.637	0.520
839.500	496.782	80.003	19.994	103.249	19.710	33.542	0.557
840.000	497.012	80.004	19.994	103.252	19.716	33.071	0.534
840.500	497.293	80.004	19.994	103.250	19.718	32.897	0.503
841.000	497.576	80.004	19.994	103.246	19.721	32.717	0.538
841.500	497.792	80.005	19.994	103.245	19.722	32.620	0.532
842.000	498.090	80.004	19.994	103.238	19.725	32.407	0.507
842.500	498.343	80.004	19.994	103.230	19.730	32.022	0.533
843.000	498.593	80.004	19.994	103.231	19.731	31.938	0.527
843.500	498.880	80.004	19.993	103.237	19.736	31.564	0.520
844.000	499.144	80.003	19.994	103.234	19.740	31.284	0.544
844.500	499.413	80.004	19.995	103.233	19.743	31.003	0.542
845.000	499.645	80.004	19.994	103.234	19.748	30.697	0.516
845.500	499.947	80.003	19.994	103.236	19.748	30.642	0.517
846.000	500.165	80.002	19.995	103.238	19.749	30.559	0.527
846.500	500.442	80.004	19.995	103.239	19.757	30.010	0.508
847.000	500.752	80.003	19.995	103.240	19.759	29.811	0.541
847.500	500.982	80.004	19.994	103.238	19.765	29.372	0.563
848.000	501.264	80.003	19.995	103.231	19.765	29.363	0.526
848.500	501.509	80.003	19.994	103.224	19.770	29.004	0.520
849.000	501.809	80.002	19.993	103.222	19.772	28.821	0.536
849.500	502.043	80.003	19.994	103.222	19.776	28.564	0.539
850.000	502.282	80.003	19.995	103.222	19.778	28.372	0.503
850.500	502.595	80.005	19.995	103.222	19.785	27.905	0.513
851.000	502.836	80.002	19.996	103.226	19.787	27.755	0.553
851.500	503.058	80.003	19.994	103.233	19.790	27.507	0.509
852.000	503.358	80.004	19.994	103.238	19.792	27.321	0.492
852.500	503.625	80.004	19.995	103.240	19.797	27.007	0.544
853.000	503.918	80.003	19.995	103.239	19.799	26.862	0.563
853.500	504.141	80.004	19.995	103.235	19.803	26.552	0.539
854.000	504.437	80.004	19.995	103.229	19.805	26.346	0.518
854.500	504.685	80.005	19.994	103.227	19.808	26.146	0.531
855.000	504.946	80.005	19.995	103.228	19.812	25.839	0.527
855.500	505.232	80.005	19.995	103.230	19.813	25.788	0.528
856.000	505.496	80.004	19.995	103.231	19.815	25.607	0.548
856.500	505.746	80.004	19.995	103.231	19.821	25.200	0.532
857.000	505.988	80.005	19.996	103.227	19.821	25.182	0.503
857.500	506.293	80.006	19.995	103.224	19.824	24.933	0.520
858.000	506.562	80.005	19.996	103.221	19.825	24.843	0.561
858.500	506.820	80.004	19.996	103.219	19.830	24.488	0.550
859.000	506.997	80.006	19.996	103.218	19.832	24.324	0.481
859.500	507.298	80.005	19.995	103.217	19.836	24.031	0.457
860.000	507.568	80.006	19.995	103.214	19.838	23.883	0.525
860.500	507.838	80.005	19.994	103.213	19.838	23.857	0.555
861.000	508.108	80.006	19.995	103.213	19.842	23.608	0.540
861.500	508.389	80.006	19.995	103.217	19.848	23.139	0.546
862.000	508.675	80.006	19.994	103.222	19.852	22.814	0.559
862.500	508.902	80.005	19.994	103.226	19.853	22.727	0.540
863.000	509.178	80.005	19.994	103.226	19.858	22.415	0.508
863.500	509.458	80.006	19.994	103.228	19.857	22.419	0.529
864.000	509.713	80.006	19.994	103.229	19.861	22.119	0.545
864.500	509.953	80.005	19.995	103.223	19.866	21.779	0.515
865.000	510.270	80.005	19.995	103.223	19.865	21.830	0.526
865.500	510.463	80.004	19.994	103.223	19.869	21.524	0.533
866.000	510.736	80.006	19.994	103.222	19.870	21.449	0.488
866.500	511.024	80.005	19.995	103.222	19.871	21.400	0.513
867.000	511.295	80.005	19.995	103.224	19.876	21.018	0.560
867.500	511.538	80.006	19.994	103.223	19.884	20.454	0.537
868.000	511.812	80.006	19.994	103.223	19.881	20.682	0.515
868.500	512.062	80.006	19.994	103.222	19.887	20.163	0.520
869.000	512.317	80.007	19.995	103.216	19.885	20.365	0.515
869.500	512.600	80.005	19.995	103.210	19.889	20.041	0.522
870.000	512.847	80.005	19.994	103.207	19.889	20.063	0.534
870.500	513.100	80.006	19.995	103.201	19.891	19.925	0.514
871.000	513.382	80.004	19.995	103.195	19.893	19.772	0.517
871.500	513.641	80.005	19.994	103.198	19.893	19.735	0.538
872.000	513.919	80.004	19.995	103.202	19.900	19.196	0.539
872.500	514.193	80.006	19.995	103.202	19.901	19.110	0.545
873.000	514.439	80.005	19.995	103.203	19.900	19.207	0.536
873.500	514.717	80.005	19.995	103.208	19.904	18.921	0.522
874.000	514.956	80.005	19.994	103.208	19.906	18.783	0.521
874.500	515.200	80.005	19.994	103.208	19.904	18.950	0.500
875.000	515.513	80.006	19.995	103.209	19.912	18.348	0.520
875.500	515.747	80.005	19.995	103.214	19.913	18.232	0.552
876.000	516.043	80.007	19.995	103.214	19.912	18.336	0.539
876.500	516.266	80.006	19.996	103.215	19.914	18.190	0.524
877.000	516.541	80.005	19.996	103.216	19.915	18.096	0.508
877.500	516.811	80.005	19.995	103.217	19.918	17.884	0.521
878.000	517.022	80.005	19.996	103.215	19.916	18.027	0.513
878.500	517.343	80.006	19.994	103.213	19.920	17.740	0.507
879.000	517.570	80.005	19.995	103.210	19.923	17.506	0.540
879.500	517.835	80.007	19.995	103.209	19.925	17.319	0.520
880.000	518.124	80.005	19.995	103.210	19.927	17.170	0.523
880.500	518.363	80.006	19.994	103.212	19.933	16.705	0.541
881.000	518.642	80.005	19.995	103.213	19.931	16.859	0.523
881.500	518.905	80.006	19.996	103.215	19.931	16.880	0.530
882.000	519.161	80.006	19.995	103.215	19.936	16.536	0.531
882.500	519.389	80.006	19.995	103.214	19.934	16.678	0.502
883.000	519.679	80.006	19.995	103.213	19.935	16.583	0.501
883.500	519.926	80.006	19.994	103.215	19.940	16.219	0.527
884.000	520.180	80.006	19.995	103.219	19.938	16.342	0.518
884.500	520.448	80.006	19.995	103.221	19.944	15.892	0.511
885.000	520.689	80.006	19.995	103.225	19.944	15.933	0.516
885.500	520.965	80.007	19.995	103.233	19.946	15.778	0.513
886.000	521.242	80.006	19.996	103.238	19.949	15.540	0.535
886.500	521.468	80.005	19.996	103.237	19.950	15.490	0.528
887.000	521.723	80.006	19.995	103.235	19.952	15.346	0.492
887.500	522.005	80.006	19.996	103.230	19.954	15.126	0.509
888.000	522.246	80.007	19.994	103.220	19.954	15.183	0.530
888.500	522.513	80.007	19.995	103.211	19.957	14.922	0.516
889.000	522.764	80.007	19.995	103.209	19.958	14.840	0.513
889.500	523.007	80.006	19.995	103.203	19.961	14.623	0.506
890.000	523.247	80.005	19.996	103.201	19.961	14.612	0.488
890.500	523.479	80.005	19.995	103.202	19.964	14.400	0.477
891.000	523.781	80.005	19.996	103.205	19.966	14.260	0.503
891.500	524.004	80.005	19.994	103.207	19.967	14.157	0.530
892.000	524.253	80.006	19.995	103.212	19.965	14.305	0.499
892.500	524.516	80.005	19.995	103.216	19.968	14.078	0.492
893.000	524.754	80.005	19.995	103.209	19.971	13.894	0.507
893.500	525.030	80.004	19.995	103.204	19.973	13.694	0.507
894.000	525.264	80.005	19.994	103.198	19.971	13.861	0.512
894.500	525.545	80.005	19.995	103.192	19.972	13.822	0.513
895.000	525.768	80.005	19.996	103.186	19.970	13.933	0.510
895.500	526.038	80.004	19.994	103.190	19.972	13.776	0.498
896.000	526.266	80.002	19.993	103.195	19.977	13.429	0.496
896.500	526.532	80.003	19.993	103.198	19.977	13.419	0.496
897.000	526.775	80.004	19.995	103.204	19.980	13.174	0.501
897.500	526.982	80.003	19.996	103.210	19.981	13.091	0.480
898.000	527.258	80.004	19.996	103.213	19.982	13.028	0.466
898.500	527.506	80.004	19.994	103.215	19.982	13.030	0.504
899.000	527.781	80.004	19.996	103.219	19.982	13.037	0.524
899.500	528.006	80.003	19.995	103.221	19.984	12.935	0.511
900.000	528.298	80.003	19.993	103.219	19.987	12.675	0.508
900.500	528.548	80.005	19.994	103.218	19.986	12.786	0.530
901.000	528.804	80.004	19.993	103.211	19.985	12.792	0.524
901.500	529.057	80.004	19.994	103.208	19.988	12.620	0.508
902.000	529.308	80.005	19.995	103.207	19.987	12.667	0.506
902.500	529.568	80.003	19.994	103.209	19.988	12.610	0.507
903.000	529.806	80.004	19.994	103.206	19.990	12.465	0.505
903.500	530.092	80.003	19.993	103.204	19.990	12.436	0.511
904.000	530.328	80.004	19.995	103.201	19.992	12.289	0.523
904.500	530.541	80.004	19.994	103.198	19.992	12.271	0.486
905.000	530.806	80.004	19.994	103.197	19.990	12.463	0.464
905.500	531.080	80.003	19.994	103.195	19.994	12.175	0.509
906.000	531.313	80.002	19.994	103.198	19.993	12.242	0.523
906.500	531.574	80.003	19.994	103.202	19.995	12.077	0.500
907.000	531.816	80.004	19.994	103.205	19.996	11.971	0.498
907.500	532.094	80.005	19.996	103.205	19.995	12.069	0.511
908.000	532.348	80.004	19.994	103.209	19.995	12.056	0.526
908.500	532.612	80.007	19.994	103.214	19.997	11.909	0.525
909.000	532.854	80.003	19.994	103.217	19.996	11.989	0.512
909.500	533.111	80.003	19.994	103.217	20.000	11.676	0.503
910.000	533.401	80.005	19.994	103.219	19.999	11.764	0.524
910.500	533.614	80.005	19.995	103.220	20.004	11.413	0.525
911.000	533.908	80.003	19.994	103.219	20.006	11.270	0.505
911.500	534.180	80.005	19.993	103.219	20.002	11.559	0.537
912.000	534.446	80.004	19.994	103.220	20.003	11.500	0.552
912.500	534.729	80.003	19.994	103.220	20.004	11.373	0.543
913.000	534.980	80.002	19.994	103.221	20.006	11.254	0.541
913.500	535.216	80.003	19.994	103.221	20.006	11.245	0.510
914.000	535.497	80.004	19.995	103.220	20.006	11.270	0.502
914.500	535.794	80.004	19.993	103.220	20.008	11.057	0.547
915.000	535.992	80.004	19.994	103.218	20.007	11.179	0.536
915.500	536.290	80.004	19.994	103.218	20.008	11.093	0.496
916.000	536.551	80.006	19.994	103.218	20.011	10.874	0.528
916.500	536.829	80.003	19.993	103.219	20.010	10.972	0.548
917.000	537.117	80.005	19.994	103.219	20.010	10.946	0.552
917.500	537.318	80.005	19.995	103.221	20.012	10.824	0.527
918.000	537.585	80.004	19.995	103.221	20.011	10.896	0.478
918.500	537.879	80.008	19.992	103.220	20.016	10.527	0.515
919.000	538.101	80.005	19.994	103.217	20.011	10.893	0.539
919.500	538.376	80.005	19.994	103.216	20.016	10.528	0.507
920.000	538.658	80.004	19.994	103.215	20.016	10.516	0.528
920.500	538.952	80.003	19.994	103.215	20.014	10.646	0.567
921.000	539.202	80.004	19.995	103.217	20.014	10.619	0.559
921.500	539.465	80.005	19.993	103.220	20.013	10.707	0.528
922.000	539.728	80.004	19.993	103.219	20.014	10.617	0.519
922.500	539.959	80.003	19.994	103.214	20.018	10.374	0.510
923.000	540.265	80.004	19.994	103.211	20.020	10.225	0.516
923.500	540.540	80.004	19.995	103.207	20.019	10.234	0.559
924.000	540.784	80.005	19.994	103.202	20.018	10.340	0.550
924.500	541.071	80.005	19.994	103.199	20.018	10.356	0.525
925.000	541.338	80.004	19.995	103.197	20.020	10.205	0.542
925.500	541.576	80.003	19.994	103.191	20.017	10.447	0.529
926.000	541.845	80.005	19.994	103.187	20.019	10.241	0.506
926.500	542.064	80.004	19.993	103.186	20.018	10.340	0.498
927.000	542.387	80.004	19.993	103.185	20.019	10.249	0.515
927.500	542.596	80.003	19.995	103.186	20.021	10.110	0.537
928.000	542.881	80.004	19.995	103.188	20.020	10.208	0.514
928.500	543.173	80.002	19.994	103.192	20.024	9.929	0.536
929.000	543.417	80.003	19.995	103.197	20.021	10.138	0.556
929.500	543.700	80.005	19.994	103.204	20.023	9.987	0.531
930.000	543.981	80.003	19.994	103.207	20.025	9.783	0.546
930.500	544.225	80.004	19.994	103.209	20.023	9.954	0.544
931.000	544.520	80.005	19.996	103.212	20.021	10.130	0.532
931.500	544.726	80.003	19.993	103.209	20.022	10.042	0.520
932.000	545.011	80.004	19.995	103.207	20.025	9.797	0.496
932.500	545.275	80.005	19.994	103.208	20.025	9.823	0.520
933.000	545.551	80.006	19.995	103.208	20.024	9.864	0.545
933.500	545.783	80.004	19.994	103.206	20.025	9.786	0.524
934.000	546.099	80.001	19.994	103.209	20.026	9.725	0.528
934.500	546.291	80.004	19.995	103.211	20.023	9.944	0.528
935.000	546.562	80.004	19.994	103.211	20.027	9.650	0.486
935.500	546.837	80.005	19.994	103.207	20.027	9.646	0.505
936.000	547.121	80.005	19.994	103.206	20.031	9.359	0.553
936.500	547.372	80.005	19.994	103.202	20.028	9.582	0.547
937.000	547.658	80.005	19.993	103.198	20.029	9.541	0.536
937.500	547.926	80.004	19.994	103.195	20.028	9.577	0.546
938.000	548.186	80.003	19.994	103.198	20.027	9.675	0.541
938.500	548.449	80.005	19.994	103.201	20.026	9.708	0.525
939.000	548.744	80.004	19.995	103.203	20.026	9.741	0.541
939.500	548.995	80.006	19.993	103.206	20.030	9.473	0.552
940.000	549.252	80.005	19.994	103.210	20.025	9.784	0.527
940.500	549.503	80.006	19.993	103.214	20.030	9.426	0.508
941.000	549.750	80.006	19.995	103.215	20.031	9.397	0.503
941.500	550.036	80.006	19.994	103.216	20.029	9.531	0.516
942.000	550.296	80.007	19.993	103.216	20.029	9.493	0.539
942.500	550.555	80.005	19.994	103.214	20.032	9.275	0.532
943.000	550.792	80.004	19.995	103.213	20.028	9.554	0.508
943.500	551.058	80.006	19.994	103.208	20.033	9.243	0.500
944.000	551.360	80.005	19.994	103.206	20.030	9.431	0.535
944.500	551.583	80.006	19.995	103.207	20.033	9.223	0.546
945.000	551.856	80.005	19.993	103.209	20.032	9.270	0.510
945.500	552.105	80.005	19.994	103.210	20.034	9.124	0.509
946.000	552.392	80.005	19.995	103.214	20.035	9.061	0.529
946.500	552.659	80.006	19.993	103.212	20.033	9.184	0.545
947.000	552.918	80.005	19.994	103.208	20.036	9.013	0.540
947.500	553.161	80.004	19.994	103.205	20.033	9.199	0.514
948.000	553.469	80.006	19.996	103.203	20.033	9.185	0.527
948.500	553.706	80.005	19.995	103.197	20.036	8.969	0.548
949.000	553.954	80.004	19.994	103.196	20.036	9.018	0.515
949.500	554.252	80.005	19.995	103.199	20.035	9.040	0.515
950.000	554.519	80.002	19.994	103.202	20.035	9.087	0.555
950.500	554.727	80.005	19.995	103.203	20.036	9.005	0.520
951.000	555.011	80.004	19.994	103.202	20.037	8.915	0.484
951.500	555.284	80.004	19.996	103.198	20.038	8.815	0.524
952.000	555.533	80.003	19.995	103.191	20.037	8.896	0.539
952.500	555.768	80.004	19.995	103.184	20.036	8.957	0.503
953.000	556.005	80.003	19.995	103.178	20.038	8.868	0.478
953.500	556.267	80.004	19.995	103.180	20.033	9.200	0.486
954.000	556.525	80.004	19.994	103.188	20.037	8.881	0.509
954.500	556.817	80.003	19.995	103.190	20.034	9.161	0.534
955.000	557.100	80.003	19.994	103.189	20.034	9.102	0.562
955.500	557.319	80.005	19.994	103.190	20.039	8.800	0.539
956.000	557.584	80.004	19.994	103.187	20.037	8.913	0.493
956.500	557.829	80.003	19.995	103.181	20.037	8.931	0.497
957.000	558.048	80.006	19.995	103.185	20.034	9.141	0.487
957.500	558.328	80.005	19.996	103.193	20.040	8.659	0.482
958.000	558.585	80.005	19.994	103.198	20.038	8.831	0.518
958.500	558.831	80.002	19.994	103.200	20.040	8.670	0.520
959.000	559.111	80.006	19.995	103.205	20.039	8.756	0.515
959.500	559.337	80.003	19.995	103.206	20.037	8.886	0.516
960.000	559.608	80.003	19.994	103.200	20.038	8.806	0.501
960.500	559.883	80.004	19.994	103.196	20.042	8.526	0.522
961.000	560.166	80.004	19.994	103.196	20.038	8.841	0.552
961.500	560.372	80.005	19.995	103.194	20.039	8.771	0.524
962.000	560.638	80.004	19.994	103.194	20.040	8.707	0.481
962.500	560.921	80.003	19.993	103.200	20.042	8.568	0.511
963.000	561.197	80.004	19.995	103.207	20.042	8.572	0.554
963.500	561.414	80.007	19.994	103.211	20.040	8.652	0.526
964.000	561.688	80.005	19.995	103.212	20.040	8.675	0.492
964.500	561.938	80.005	19.993	103.210	20.045	8.332	0.508
965.000	562.232	80.005	19.993	103.206	20.040	8.692	0.535
965.500	562.460	80.005	19.994	103.206	20.042	8.543	0.533
966.000	562.732	80.006	19.995	103.209	20.042	8.502	0.511
966.500	562.986	80.005	19.994	103.212	20.041	8.602	0.513
967.000	563.247	80.006	19.994	103.213	20.045	8.338	0.520
967.500	563.502	80.004	19.994	103.216	20.039	8.767	0.515
968.000	563.743	80.006	19.994	103.215	20.041	8.622	0.506
968.500	564.016	80.004	19.994	103.214	20.042	8.564	0.505
969.000	564.268	80.006	19.994	103.214	20.043	8.435	0.519
969.500	564.524	80.007	19.993	103.217	20.045	8.329	0.516
970.000	564.774	80.006	19.994	103.216	20.042	8.512	0.507
970.500	565.004	80.005	19.993	103.215	20.047	8.181	0.493
971.000	565.271	80.006	19.993	103.211	20.040	8.702	0.489
971.500	565.579	80.005	19.995	103.210	20.044	8.416	0.536
972.000	565.834	80.007	19.994	103.208	20.045	8.288	0.569
972.500	566.092	80.005	19.994	103.204	20.044	8.373	0.538
973.000	566.362	80.003	19.994	103.200	20.044	8.396	0.521
973.500	566.620	80.005	19.994	103.201	20.041	8.620	0.528
974.000	566.898	80.008	19.994	103.198	20.045	8.332	0.532
974.500	567.155	80.003	19.995	103.198	20.044	8.359	0.536
975.000	567.385	80.005	19.994	103.202	20.045	8.339	0.511
975.500	567.646	80.004	19.995	103.209	20.045	8.308	0.489
976.000	567.908	80.004	19.995	103.211	20.042	8.500	0.507
976.500	568.175	80.006	19.994	103.214	20.046	8.202	0.526
977.000	568.465	80.005	19.994	103.215	20.046	8.198	0.542
977.500	568.710	80.005	19.995	103.212	20.047	8.161	0.546
978.000	568.924	80.003	19.995	103.210	20.043	8.461	0.497
978.500	569.196	80.004	19.995	103.204	20.043	8.461	0.473
979.000	569.511	80.004	19.995	103.201	20.045	8.312	0.536
979.500	569.754	80.003	19.995	103.197	20.043	8.446	0.573
980.000	569.996	80.004	19.995	103.193	20.045	8.287	0.522
980.500	570.221	80.001	19.995	103.188	20.044	8.395	0.476
981.000	570.501	80.004	19.994	103.188	20.044	8.373	0.486
981.500	570.800	80.001	19.994	103.185	20.042	8.557	0.542
982.000	571.019	80.003	19.995	103.183	20.043	8.473	0.548
982.500	571.289	80.003	19.995	103.186	20.044	8.391	0.503
983.000	571.558	80.003	19.995	103.187	20.045	8.340	0.514
983.500	571.839	80.003	19.996	103.188	20.044	8.377	0.545
984.000	572.111	80.005	19.996	103.187	20.046	8.265	0.552
984.500	572.335	80.003	19.996	103.187	20.045	8.322	0.524
985.000	572.584	80.004	19.996	103.186	20.045	8.346	0.484
985.500	572.866	80.002	19.995	103.184	20.044	8.349	0.502
986.000	573.133	80.002	19.995	103.186	20.045	8.314	0.540
986.500	573.408	80.003	19.996	103.186	20.044	8.373	0.545
987.000	573.686	80.002	19.996	103.185	20.044	8.351	0.548
987.500	573.926	80.002	19.995	103.185	20.045	8.281	0.536
988.000	574.214	80.005	19.995	103.185	20.045	8.343	0.522
988.500	574.508	80.004	19.995	103.182	20.045	8.296	0.555
989.000	574.763	80.003	19.996	103.180	20.044	8.417	0.565
989.500	575.020	80.003	19.995	103.180	20.044	8.353	0.530
990.000	575.299	80.004	19.995	103.180	20.046	8.237	0.524
990.500	575.544	80.004	19.995	103.179	20.045	8.274	0.530
991.000	575.848	80.004	19.995	103.180	20.042	8.541	0.537
991.500	576.076	80.004	19.995	103.183	20.045	8.320	0.541
992.000	576.327	80.005	19.995	103.183	20.045	8.288	0.505
992.500	576.578	80.005	19.994	103.183	20.046	8.216	0.490
993.000	576.847	80.003	19.995	103.183	20.046	8.242	0.511
993.500	577.133	80.004	19.995	103.181	20.043	8.477	0.537
994.000	577.393	80.004	19.995	103.179	20.046	8.226	0.550
994.500	577.620	80.006	19.994	103.178	20.045	8.281	0.516
995.000	577.872	80.005	19.994	103.180	20.047	8.130	0.483
995.500	578.109	80.003	19.995	103.180	20.044	8.421	0.484
996.000	578.415	80.005	19.994	103.182	20.049	8.009	0.516
996.500	578.697	80.006	19.994	103.183	20.046	8.207	0.565
997.000	578.934	80.003	19.995	103.183	20.049	8.041	0.553
997.500	579.209	80.005	19.994	103.181	20.048	8.066	0.516
998.000	579.443	80.004	19.993	103.183	20.045	8.282	0.511
998.500	579.717	80.005	19.995	103.187	20.050	7.935	0.508
999.000	579.954	80.002	19.994	103.188	20.049	7.974	0.509
999.500	580.221	80.004	19.993	103.190	20.048	8.052	0.508
1000.000	580.477	80.006	19.993	103.192	20.048	8.048	0.514
1000.500	580.721	80.003	19.994	103.191	20.052	7.789	0.511
1001.000	581.007	80.005	19.994	103.190	20.048	8.071	0.515
1001.500	581.258	80.003	19.995	103.194	20.047	8.131	0.533
1002.000	581.507	80.004	19.995	103.192	20.049	8.015	0.518
1002.500	581.783	80.005	19.995	103.189	20.047	8.188	0.513
1003.000	582.019	80.003	19.995	103.188	20.048	8.102	0.519
1003.500	582.292	80.005	19.995	103.184	20.048	8.084	0.510
1004.000	582.565	80.004	19.994	103.178	20.048	8.060	0.527
1004.500	582.770	80.003	19.993	103.178	20.048	8.114	0.512
1005.000	583.036	80.004	19.995	103.178	20.047	8.128	0.475
1005.500	583.301	80.003	19.996	103.178	20.045	8.275	0.501
1006.000	583.545	80.004	19.996	103.177	20.044	8.349	0.520
1006.500	583.816	80.005	19.995	103.176	20.046	8.199	0.512
1007.000	584.041	80.004	19.995	103.174	20.045	8.297	0.506
1007.500	584.320	80.003	19.994	103.172	20.045	8.287	0.500
1008.000	584.553	80.003	19.995	103.170	20.046	8.208	0.508
1008.500	584.814	80.003	19.995	103.170	20.049	8.018	0.503
1009.000	585.068	80.003	19.994	103.171	20.048	8.073	0.504
1009.500	585.299	80.003	19.995	103.174	20.050	7.920	0.500
1010.000	585.592	80.004	19.994	103.176	20.048	8.094	0.505
1010.500	585.805	80.003	19.994	103.180	20.046	8.207	0.515
1011.000	586.061	80.003	19.995	103.181	20.047	8.172	0.488
1011.500	586.327	80.004	19.995	103.186	20.046	8.239	0.496
1012.000	586.560	80.004	19.994	103.191	20.047	8.176	0.511
1012.500	586.805	80.003	19.995	103.192	20.047	8.124	0.488
1013.000	587.067	80.003	19.995	103.194	20.049	8.037	0.492
1013.500	587.317	80.005	19.994	103.199	20.049	8.035	0.509
1014.000	587.549	80.003	19.994	103.195	20.048	8.109	0.497
1014.500	587.843	80.002	19.994	103.193	20.049	8.039	0.504
1015.000	588.078	80.003	19.995	103.195	20.046	8.225	0.528
1015.500	588.298	80.004	19.994	103.192	20.046	8.235	0.492
1016.000	588.560	80.003	19.995	103.187	20.045	8.287	0.469
1016.500	588.814	80.004	19.995	103.186	20.047	8.130	0.499
1017.000	589.059	80.004	19.995	103.183	20.049	8.040	0.507
1017.500	589.308	80.004	19.994	103.181	20.048	8.123	0.496
1018.000	589.550	80.004	19.995	103.183	20.047	8.150	0.493
1018.500	589.814	80.003	19.995	103.182	20.047	8.156	0.499
1019.000	590.041	80.004	19.995	103.182	20.043	8.435	0.498
1019.500	590.292	80.005	19.996	103.182	20.046	8.204	0.485
1020.000	590.566	80.004	19.995	103.188	20.048	8.103	0.502
1020.500	590.805	80.004	19.995	103.192	20.049	7.977	0.519
1021.000	591.041	80.005	19.995	103.198	20.047	8.183	0.494
1021.500	591.305	80.004	19.994	103.198	20.047	8.128	0.488
1022.000	591.516	80.004	19.995	103.197	20.047	8.161	0.488
1022.500	591.817	80.005	19.996	103.192	20.049	8.036	0.494
1023.000	592.037	80.005	19.994	103.191	20.049	7.978	0.517
1023.500	592.293	80.005	19.995	103.189	20.048	8.076	0.498
1024.000	592.566	80.006	19.994	103.192	20.048	8.111	0.502
1024.500	592.842	80.005	19.995	103.197	20.046	8.219	0.539
1024.999	593.075	80.006	19.995	103.198	20.047	8.158	0.529
1025.499	593.331	80.007	19.994	103.197	20.047	8.188	0.499
1025.999	593.575	80.005	19.994	103.199	20.049	8.036	0.495
1026.500	593.846	80.006	19.994	103.198	20.049	8.034	0.508
1027.000	594.096	80.005	19.994	103.199	20.048	8.081	0.518
1027.499	594.374	80.005	19.994	103.202	20.051	7.851	0.524
1027.999	594.622	80.006	19.994	103.206	20.048	8.116	0.527
1028.499	594.878	80.005	19.994	103.203	20.045	8.311	0.515
1028.999	595.102	80.007	19.994	103.200	20.044	8.382	0.492
1029.499	595.363	80.007	19.995	103.196	20.043	8.466	0.483
1029.999	595.656	80.005	19.994	103.191	20.047	8.149	0.520
1030.499	595.896	80.005	19.993	103.184	20.046	8.234	0.543
1030.999	596.125	80.006	19.994	103.181	20.042	8.561	0.501
1031.499	596.385	80.007	19.994	103.181	20.046	8.206	0.479
1031.999	596.658	80.006	19.994	103.181	20.046	8.272	0.511
1032.500	596.931	80.005	19.993	103.181	20.045	8.335	0.540
1033.001	597.162	80.005	19.994	103.182	20.044	8.359	0.525
1033.500	597.401	80.005	19.993	103.183	20.043	8.455	0.487
1033.999	597.652	80.006	19.995	103.191	20.041	8.600	0.480
1034.500	597.913	80.006	19.994	103.197	20.046	8.261	0.501
1035.000	598.170	80.006	19.994	103.200	20.043	8.481	0.515
1035.499	598.447	80.005	19.994	103.200	20.047	8.162	0.526
1036.000	598.684	80.006	19.994	103.200	20.046	8.248	0.524
1036.500	598.946	80.004	19.993	103.193	20.045	8.301	0.507
1036.999	599.197	80.006	19.995	103.186	20.046	8.215	0.506
1037.499	599.441	80.006	19.995	103.182	20.042	8.520	0.504
1037.999	599.695	80.005	19.994	103.183	20.046	8.246	0.497
1038.499	599.988	80.006	19.994	103.186	20.044	8.406	0.522
1038.999	600.230	80.004	19.995	103.192	20.044	8.371	0.541
1039.499	600.458	80.006	19.995	103.193	20.046	8.261	0.502
1039.999	600.724	80.005	19.994	103.194	20.046	8.246	0.482
1040.499	601.006	80.005	19.995	103.193	20.043	8.446	0.521
1040.999	601.230	80.006	19.994	103.190	20.046	8.259	0.527
1041.499	601.527	80.006	19.995	103.184	20.045	8.285	0.514
1042.000	601.768	80.005	19.995	103.186	20.045	8.336	0.529
1042.501	601.996	80.004	19.995	103.190	20.043	8.446	0.503
1043.000	602.270	80.004	19.993	103.191	20.044	8.389	0.486
1043.499	602.483	80.006	19.994	103.192	20.049	8.016	0.495
1043.999	602.772	80.005	19.994	103.192	20.045	8.281	0.494
1044.499	602.990	80.004	19.994	103.188	20.045	8.293	0.504
1045.000	603.268	80.005	19.994	103.183	20.047	8.151	0.501
1045.500	603.520	80.004	19.995	103.182	20.044	8.373	0.513
1045.999	603.754	80.004	19.994	103.180	20.042	8.567	0.508
1046.499	604.011	80.006	19.996	103.177	20.046	8.206	0.489
1046.999	604.260	80.005	19.993	103.177	20.046	8.212	0.498
1047.500	604.559	80.005	19.995	103.177	20.048	8.067	0.527
1048.000	604.782	80.006	19.994	103.177	20.044	8.394	0.535
1048.499	605.011	80.006	19.994	103.178	20.048	8.108	0.487
1048.999	605.298	80.005	19.994	103.182	20.046	8.222	0.484
1049.500	605.573	80.005	19.995	103.182	20.047	8.187	0.539
1050.000	605.791	80.005	19.995	103.182	20.046	8.219	0.527
1050.499	606.036	80.007	19.995	103.183	20.046	8.228	0.478
1051.000	606.293	80.007	19.995	103.182	20.048	8.097	0.483
1051.500	606.553	80.006	19.994	103.181	20.047	8.179	0.509
1051.999	606.776	80.006	19.994	103.182	20.048	8.050	0.500
1052.499	607.064	80.007	19.995	103.182	20.050	7.948	0.497
1052.999	607.351	80.006	19.994	103.182	20.045	8.275	0.543
1053.500	607.578	80.007	19.995	103.182	20.046	8.265	0.545
1054.000	607.824	80.007	19.994	103.182	20.051	7.876	0.494
1054.499	608.109	80.006	19.994	103.185	20.047	8.172	0.502
1055.000	608.331	80.007	19.994	103.185	20.049	8.027	0.519
1055.500	608.590	80.008	19.994	103.184	20.050	7.910	0.495
1055.999	608.866	80.006	19.995	103.184	20.049	7.983	0.508
1056.499	609.111	80.007	19.995	103.185	20.050	7.926	0.528
1056.999	609.371	80.006	19.994	103.183	20.048	8.095	0.513
1057.499	609.618	80.007	19.994	103.185	20.047	8.148	0.506
1057.999	609.871	80.006	19.994	103.187	20.050	7.928	0.504
1058.499	610.103	80.007	19.994	103.186	20.048	8.077	0.493
1059.000	610.370	80.008	19.995	103.185	20.046	8.267	0.492
1059.500	610.591	80.005	19.995	103.184	20.046	8.238	0.493
1059.999	610.880	80.006	19.994	103.180	20.047	8.189	0.499
1060.499	611.138	80.006	19.995	103.178	20.047	8.126	0.529
1060.999	611.385	80.004	19.995	103.177	20.047	8.153	0.526
1061.500	611.631	80.005	19.994	103.178	20.048	8.096	0.499
1062.000	611.918	80.005	19.995	103.178	20.046	8.219	0.513
1062.499	612.147	80.004	19.994	103.180	20.049	7.974	0.525
1062.999	612.407	80.004	19.994	103.182	20.047	8.132	0.502
1063.499	612.702	80.004	19.994	103.183	20.051	7.866	0.522
1063.999	612.893	80.004	19.994	103.185	20.049	8.025	0.521
1064.500	613.183	80.003	19.995	103.191	20.048	8.114	0.483
1065.000	613.454	80.004	19.995	103.196	20.045	8.296	0.521
1065.499	613.715	80.004	19.995	103.196	20.045	8.287	0.546
1065.999	613.961	80.004	19.995	103.196	20.047	8.187	0.519
1066.500	614.228	80.004	19.995	103.194	20.048	8.061	0.510
1067.000	614.482	80.005	19.994	103.186	20.048	8.069	0.518
1067.500	614.734	80.003	19.994	103.180	20.047	8.143	0.514
1068.000	614.995	80.006	19.995	103.179	20.050	7.906	0.510
1068.499	615.254	80.004	19.995	103.179	20.048	8.063	0.516
1068.999	615.497	80.004	19.995	103.179	20.045	8.300	0.510
1069.499	615.717	80.004	19.994	103.180	20.048	8.059	0.482
1069.999	615.987	80.003	19.995	103.180	20.044	8.404	0.476
1070.499	616.281	80.003	19.996	103.178	20.048	8.077	0.527
1070.999	616.496	80.003	19.995	103.179	20.044	8.363	0.536
1071.500	616.760	80.005	19.996	103.182	20.048	8.122	0.494
1072.001	616.988	80.004	19.996	103.185	20.048	8.120	0.486
1072.500	617.248	80.004	19.995	103.190	20.047	8.145	0.491
1072.999	617.494	80.003	19.996	103.197	20.048	8.122	0.497
1073.499	617.771	80.003	19.996	103.202	20.046	8.216	0.514
1073.999	618.006	80.003	19.996	103.206	20.045	8.340	0.518
1074.499	618.248	80.003	19.995	103.203	20.047	8.128	0.495
1074.999	618.512	80.004	19.995	103.198	20.046	8.224	0.492
1075.499	618.768	80.004	19.996	103.191	20.048	8.115	0.513
1076.000	619.017	80.002	19.994	103.184	20.048	8.056	0.512
1076.500	619.291	80.005	19.996	103.179	20.049	8.009	0.514
1076.999	619.501	80.003	19.995	103.185	20.046	8.270	0.504
1077.499	619.810	80.004	19.996	103.187	20.045	8.307	0.502
1077.999	620.079	80.005	19.996	103.189	20.050	7.944	0.548
1078.499	620.305	80.005	19.995	103.192	20.048	8.070	0.537
1078.999	620.538	80.004	19.996	103.196	20.046	8.197	0.477
1079.499	620.778	80.005	19.996	103.191	20.047	8.164	0.466
1079.999	621.034	80.006	19.995	103.194	20.047	8.126	0.484
1080.499	621.327	80.004	19.996	103.194	20.048	8.064	0.522
1080.999	621.544	80.004	19.996	103.191	20.047	8.185	0.530
1081.499	621.787	80.006	19.995	103.187	20.047	8.142	0.486
1081.999	622.028	80.005	19.995	103.190	20.045	8.318	0.472
1082.499	622.308	80.005	19.996	103.187	20.047	8.187	0.502
1082.999	622.561	80.006	19.996	103.186	20.048	8.059	0.527
1083.500	622.797	80.004	19.995	103.187	20.049	7.995	0.511
1084.000	623.027	80.005	19.995	103.186	20.045	8.306	0.478
1084.499	623.294	80.007	19.996	103.181	20.048	8.081	0.482
1084.999	623.485	80.005	19.995	103.180	20.045	8.278	0.477
1085.499	623.773	80.005	19.996	103.179	20.051	7.851	0.468
1085.999	623.999	80.006	19.995	103.178	20.045	8.314	0.497
1086.499	624.257	80.005	19.995	103.178	20.047	8.188	0.499
1087.000	624.501	80.004	19.995	103.178	20.050	7.957	0.493
1087.500	624.731	80.005	19.995	103.176	20.049	8.016	0.488
1088.000	625.013	80.006	19.996	103.175	20.047	8.153	0.493
1088.500	625.286	80.005	19.995	103.175	20.048	8.096	0.533
1088.999	625.493	80.004	19.994	103.175	20.048	8.057	0.517
1089.499	625.738	80.006	19.994	103.176	20.048	8.114	0.466
1089.999	625.981	80.006	19.994	103.177	20.047	8.133	0.470
1090.499	626.263	80.005	19.994	103.178	20.048	8.084	0.506
1090.999	626.483	80.004	19.994	103.178	20.050	7.937	0.514
1091.499	626.753	80.004	19.994	103.179	20.047	8.145	0.496
1091.999	626.994	80.005	19.993	103.180	20.051	7.826	0.500
1092.499	627.202	80.005	19.995	103.180	20.048	8.114	0.480
1093.000	627.473	80.004	19.994	103.181	20.049	8.032	0.464
1093.500	627.755	80.006	19.994	103.181	20.045	8.306	0.516
1093.999	627.914	80.004	19.994	103.184	20.046	8.250	0.497
1094.499	628.245	80.006	19.995	103.185	20.045	8.310	0.465
1094.999	628.479	80.005	19.995	103.187	20.046	8.226	0.528
1095.499	628.730	80.003	19.995	103.187	20.044	8.385	0.525
1095.999	629.001	80.003	19.995	103.192	20.044	8.365	0.503
1096.500	629.261	80.006	19.995	103.190	20.046	8.216	0.527
1097.000	629.509	80.005	19.994	103.191	20.046	8.262	0.519
1097.499	629.740	80.005	19.994	103.194	20.044	8.405	0.493
1097.999	630.041	80.004	19.994	103.195	20.045	8.326	0.505
1098.499	630.270	80.002	19.995	103.190	20.042	8.522	0.531
1098.999	630.507	80.004	19.994	103.191	20.045	8.310	0.499
1099.499	630.781	80.003	19.995	103.192	20.039	8.781	0.489
1099.999	631.038	80.005	19.995	103.188	20.043	8.491	0.521
1100.499	631.314	80.004	19.994	103.188	20.037	8.877	0.532
1100.999	631.551	80.005	19.996	103.192	20.045	8.308	0.523
1101.499	631.802	80.004	19.995	103.193	20.038	8.853	0.500
1101.999	632.070	80.003	19.994	103.192	20.044	8.397	0.504
1102.500	632.277	80.004	19.994	103.192	20.043	8.442	0.497
1103.001	632.529	80.003	19.994	103.192	20.043	8.428	0.467
1103.500	632.869	80.004	19.994	103.187	20.042	8.526	0.525
1103.999	633.082	80.005	19.995	103.185	20.040	8.663	0.572
1104.499	633.313	80.004	19.994	103.183	20.042	8.508	0.498
1104.999	633.626	80.005	19.995	103.181	20.045	8.275	0.494
1105.499	633.861	80.006	19.994	103.181	20.042	8.549	0.546
1105.999	634.169	80.006	19.994	103.181	20.041	8.602	0.546
1106.499	634.354	80.005	19.994	103.181	20.038	8.865	0.518
1106.999	634.665	80.005	19.994	103.180	20.038	8.847	0.495
1107.499	634.899	80.005	19.994	103.180	20.041	8.618	0.520
1107.999	635.176	80.006	19.995	103.178	20.040	8.651	0.528
1108.499	635.417	80.005	19.994	103.178	20.041	8.594	0.515
1108.999	635.649	80.006	19.994	103.179	20.043	8.492	0.496
1109.499	635.919	80.005	19.994	103.180	20.042	8.522	0.488
1109.999	636.194	80.005	19.994	103.181	20.040	8.673	0.523
1110.499	636.414	80.007	19.995	103.182	20.041	8.581	0.520
1110.999	636.705	80.005	19.994	103.184	20.044	8.384	0.503
1111.500	636.964	80.007	19.994	103.183	20.042	8.515	0.531
1112.000	637.224	80.005	19.994	103.183	20.043	8.456	0.534
1112.499	637.459	80.005	19.993	103.183	20.044	8.389	0.507
1112.999	637.715	80.006	19.994	103.182	20.043	8.431	0.493
1113.499	637.964	80.005	19.994	103.181	20.045	8.278	0.498
1113.999	638.186	80.005	19.994	103.180	20.044	8.384	0.488
1114.499	638.470	80.006	19.993	103.180	20.043	8.449	0.489
1114.999	638.750	80.005	19.994	103.180	20.041	8.608	0.535
1115.499	639.036	80.006	19.993	103.180	20.041	8.582	0.565
1115.999	639.252	80.006	19.994	103.180	20.044	8.366	0.534
1116.499	639.504	80.005	19.993	103.184	20.045	8.314	0.485
1116.999	639.793	80.006	19.993	103.184	20.039	8.741	0.504
1117.499	640.012	80.005	19.994	103.187	20.039	8.797	0.524
1117.999	640.335	80.006	19.993	103.188	20.044	8.421	0.525
1118.499	640.529	80.006	19.994	103.188	20.041	8.627	0.530
1118.999	640.782	80.006	19.995	103.186	20.045	8.347	0.482
1119.500	641.045	80.005	19.994	103.187	20.045	8.311	0.481
1120.000	641.343	80.006	19.994	103.186	20.043	8.462	0.538
1120.499	641.541	80.006	19.995	103.185	20.043	8.490	0.529
1120.999	641.812	80.006	19.993	103.185	20.042	8.564	0.483
1121.499	642.077	80.006	19.994	103.185	20.044	8.392	0.502
1122.000	642.349	80.005	19.994	103.188	20.041	8.589	0.536
1122.501	642.591	80.006	19.994	103.195	20.042	8.542	0.526
1123.000	642.842	80.005	19.996	103.202	20.042	8.504	0.504
1123.499	643.128	80.007	19.994	103.209	20.041	8.604	0.515
1123.999	643.413	80.006	19.995	103.216	20.041	8.579	0.554
1124.499	643.631	80.007	19.995	103.217	20.044	8.391	0.537
1124.999	643.863	80.006	19.994	103.217	20.044	8.354	0.477
1125.499	644.129	80.006	19.995	103.215	20.044	8.379	0.474
1125.999	644.425	80.006	19.994	103.215	20.046	8.232	0.530
1126.499	644.704	80.008	19.995	103.215	20.048	8.075	0.569
1127.000	644.930	80.007	19.994	103.216	20.044	8.350	0.540
1127.500	645.188	80.007	19.993	103.216	20.043	8.456	0.495
1127.999	645.475	80.007	19.994	103.218	20.044	8.387	0.515
1128.499	645.705	80.006	19.994	103.217	20.047	8.193	0.531
1128.999	645.968	80.007	19.995	103.218	20.047	8.189	0.505
1129.499	646.252	80.007	19.995	103.218	20.045	8.313	0.520
1129.999	646.473	80.008	19.995	103.219	20.047	8.140	0.526
1130.499	646.738	80.007	19.994	103.219	20.043	8.432	0.495
1130.999	647.016	80.006	19.995	103.219	20.046	8.258	0.514
1131.499	647.289	80.005	19.994	103.219	20.043	8.454	0.547
1131.999	647.538	80.008	19.994	103.217	20.047	8.180	0.537
1132.499	647.803	80.007	19.993	103.210	20.045	8.330	0.518
1132.999	648.048	80.007	19.994	103.205	20.043	8.430	0.512
1133.499	648.321	80.008	19.994	103.197	20.045	8.307	0.514
1133.999	648.578	80.009	19.994	103.188	20.047	8.149	0.524
1134.499	648.809	80.007	19.994	103.183	20.044	8.388	0.509
1134.999	649.074	80.008	19.995	103.183	20.041	8.585	0.492
1135.499	649.343	80.008	19.995	103.181	20.043	8.446	0.515
1135.999	649.595	80.009	19.993	103.181	20.045	8.288	0.527
1136.499	649.871	80.008	19.995	103.181	20.043	8.457	0.524
1136.999	650.141	80.008	19.996	103.180	20.042	8.521	0.537
1137.499	650.368	80.008	19.995	103.178	20.046	8.235	0.522
1138.000	650.648	80.008	19.995	103.178	20.045	8.341	0.502
1138.500	650.890	80.008	19.993	103.179	20.044	8.380	0.515
1138.999	651.183	80.009	19.995	103.179	20.043	8.460	0.529
1139.499	651.419	80.008	19.995	103.178	20.039	8.740	0.532
1139.999	651.650	80.008	19.994	103.178	20.041	8.617	0.498
1140.499	651.931	80.009	19.995	103.178	20.042	8.554	0.490
1140.999	652.214	80.007	19.994	103.178	20.039	8.740	0.538
1141.499	652.423	80.008	19.996	103.177	20.040	8.669	0.528
1141.999	652.695	80.008	19.994	103.177	20.043	8.452	0.487
1142.499	652.971	80.008	19.993	103.176	20.040	8.648	0.514
1142.999	653.229	80.008	19.995	103.170	20.039	8.785	0.540
1143.499	653.468	80.008	19.994	103.162	20.042	8.550	0.515
1144.000	653.765	80.006	19.995	103.158	20.040	8.685	0.517
1144.501	654.005	80.007	19.994	103.151	20.040	8.679	0.537
1145.000	654.256	80.008	19.995	103.143	20.045	8.299	0.514
1145.499	654.517	80.006	19.995	103.146	20.041	8.646	0.501
1145.999	654.803	80.007	19.996	103.153	20.042	8.561	0.530
1146.499	654.991	80.005	19.994	103.157	20.044	8.363	0.511
1146.999	655.241	80.006	19.995	103.161	20.040	8.665	0.456
1147.499	655.535	80.006	19.995	103.162	20.045	8.346	0.491
1147.999	655.798	80.004	19.996	103.165	20.042	8.524	0.551
1148.499	656.058	80.005	19.995	103.166	20.039	8.769	0.540
1148.999	656.300	80.006	19.995	103.165	20.041	8.604	0.513
1149.500	656.567	80.006	19.996	103.167	20.041	8.622	0.506
1150.000	656.806	80.006	19.995	103.174	20.040	8.708	0.507
1150.499	657.103	80.004	19.995	103.174	20.042	8.553	0.520
1150.999	657.305	80.006	19.995	103.174	20.041	8.624	0.517
1151.499	657.570	80.006	19.995	103.176	20.043	8.497	0.483
1151.999	657.815	80.005	19.995	103.177	20.042	8.512	0.488
1152.499	658.050	80.006	19.995	103.178	20.037	8.905	0.494
1152.999	658.296	80.004	19.994	103.178	20.035	9.067	0.481
1153.499	658.535	80.005	19.995	103.179	20.038	8.828	0.483
1154.000	658.798	80.006	19.994	103.178	20.041	8.636	0.494
1154.501	659.015	80.006	19.994	103.179	20.043	8.483	0.491
1155.000	659.250	80.005	19.994	103.179	20.039	8.728	0.466
1155.499	659.538	80.004	19.994	103.179	20.039	8.783	0.487
1156.000	659.778	80.005	19.995	103.178	20.042	8.540	0.526
1156.500	659.998	80.006	19.995	103.179	20.039	8.758	0.494
1156.999	660.271	80.004	19.994	103.179	20.040	8.708	0.477
1157.499	660.555	80.006	19.996	103.180	20.038	8.858	0.525
1157.999	660.815	80.005	19.995	103.181	20.040	8.711	0.550
1158.499	661.023	80.004	19.995	103.181	20.039	8.785	0.506
1158.999	661.280	80.006	19.995	103.182	20.038	8.864	0.466
1159.499	661.574	80.006	19.996	103.182	20.038	8.852	0.508
1159.999	661.811	80.005	19.995	103.182	20.039	8.744	0.541
1160.499	662.054	80.005	19.994	103.182	20.038	8.836	0.505
1160.999	662.321	80.004	19.995	103.182	20.039	8.785	0.495
1161.499	662.549	80.005	19.996	103.182	20.039	8.773	0.503
1161.999	662.799	80.004	19.994	103.181	20.040	8.670	0.487
1162.499	663.026	80.006	19.995	103.181	20.034	9.106	0.478
1163.000	663.269	80.004	19.995	103.181	20.041	8.594	0.473
1163.500	663.510	80.005	19.994	103.178	20.037	8.925	0.477
1163.999	663.754	80.005	19.995	103.178	20.035	9.057	0.484
1164.499	664.041	80.005	19.995	103.176	20.039	8.756	0.508
1164.999	664.228	80.006	19.995	103.175	20.036	8.966	0.503
1165.499	664.505	80.005	19.996	103.175	20.035	9.066	0.470
1165.999	664.732	80.005	19.996	103.178	20.036	8.988	0.484
1166.499	665.005	80.006	19.994	103.178	20.038	8.810	0.502
1166.999	665.213	80.004	19.995	103.176	20.036	8.970	0.490
1167.499	665.470	80.004	19.995	103.169	20.036	8.952	0.473
1167.999	665.727	80.005	19.995	103.160	20.035	9.089	0.489
1168.499	665.960	80.005	19.997	103.153	20.035	9.069	0.502
1168.999	666.238	80.004	19.994	103.153	20.037	8.881	0.500
1169.499	666.469	80.004	19.995	103.157	20.036	8.991	0.510
1170.000	666.730	80.005	19.996	103.165	20.036	8.975	0.500
1170.501	666.961	80.005	19.995	103.171	20.036	8.979	0.492
1171.000	667.231	80.005	19.995	103.177	20.034	9.143	0.497
1171.499	667.470	80.004	19.995	103.178	20.032	9.322	0.505
1171.999	667.712	80.006	19.995	103.177	20.037	8.910	0.495
1172.499	667.951	80.004	19.995	103.175	20.036	9.014	0.481
1172.999	668.208	80.002	19.994	103.171	20.038	8.845	0.488
1173.499	668.428	80.003	19.996	103.165	20.034	9.112	0.486
1173.999	668.690	80.004	19.995	103.163	20.036	9.010	0.480
1174.499	668.914	80.004	19.995	103.163	20.033	9.175	0.485
1174.999	669.187	80.004	19.996	103.166	20.033	9.203	0.491
1175.500	669.424	80.004	19.995	103.168	20.032	9.267	0.503
1176.000	669.653	80.003	19.995	103.169	20.031	9.337	0.488
1176.499	669.902	80.002	19.995	103.165	20.035	9.045	0.472
1176.999	670.154	80.004	19.995	103.162	20.032	9.306	0.489
1177.500	670.407	80.004	19.995	103.161	20.039	8.762	0.503
1178.001	670.649	80.003	19.995	103.165	20.034	9.156	0.500
1178.501	670.932	80.004	19.995	103.171	20.035	9.061	0.510
1179.000	671.161	80.005	19.996	103.176	20.036	9.007	0.518
1179.499	671.408	80.004	19.995	103.179	20.039	8.732	0.494
1179.999	671.655	80.003	19.994	103.180	20.035	9.082	0.485
1180.500	671.886	80.005	19.995	103.180	20.040	8.712	0.487
1181.000	672.148	80.003	19.995	103.180	20.035	9.061	0.486
1181.499	672.384	80.003	19.995	103.180	20.037	8.905	0.495
1181.999	672.682	80.004	19.995	103.181	20.036	8.999	0.516
1182.500	672.877	80.005	19.994	103.181	20.032	9.254	0.514
1183.000	673.181	80.003	19.995	103.183	20.036	8.982	0.496
1183.499	673.412	80.004	19.994	103.182	20.034	9.107	0.517
1183.999	673.644	80.003	19.995	103.182	20.034	9.112	0.499
1184.500	673.899	80.004	19.995	103.181	20.036	8.967	0.475
1185.000	674.064	80.004	19.994	103.178	20.038	8.808	0.454
1185.499	674.315	80.005	19.994	103.176	20.037	8.932	0.418
1185.999	674.560	80.005	19.994	103.177	20.035	9.085	0.456
1186.499	674.824	80.006	19.994	103.176	20.034	9.101	0.503
1186.999	675.090	80.004	19.994	103.167	20.034	9.163	0.520
1187.499	675.278	80.005	19.995	103.160	20.037	8.908	0.492
1188.000	675.587	80.005	19.994	103.155	20.034	9.151	0.475
1188.500	675.842	80.006	19.994	103.152	20.035	9.073	0.531
1188.999	676.106	80.006	19.994	103.154	20.036	8.951	0.542
1189.499	676.324	80.006	19.994	103.162	20.035	9.055	0.500
1190.000	676.595	80.007	19.994	103.176	20.037	8.908	0.485
1190.500	676.845	80.006	19.994	103.184	20.030	9.468	0.505
1190.999	677.055	80.005	19.994	103.188	20.034	9.112	0.490
1191.499	677.329	80.005	19.993	103.187	20.032	9.259	0.472
1191.999	677.589	80.006	19.994	103.182	20.033	9.202	0.509
1192.499	677.841	80.006	19.995	103.176	20.037	8.943	0.524
1192.999	678.068	80.005	19.994	103.172	20.037	8.880	0.496
1193.499	678.377	80.007	19.995	103.171	20.031	9.370	0.507
1193.999	678.573	80.006	19.994	103.172	20.035	9.050	0.520
1194.499	678.843	80.005	19.993	103.176	20.032	9.289	0.485
1194.999	679.136	80.007	19.995	103.179	20.033	9.181	0.514
1195.499	679.382	80.006	19.994	103.181	20.035	9.092	0.551
1195.999	679.633	80.006	19.994	103.181	20.034	9.153	0.518
1196.499	679.876	80.005	19.993	103.178	20.034	9.143	0.496
1196.999	680.148	80.007	19.995	103.179	20.034	9.131	0.504
1197.499	680.389	80.007	19.994	103.178	20.032	9.320	0.514
1197.999	680.651	80.007	19.995	103.177	20.033	9.246	0.508
1198.499	680.913	80.007	19.994	103.179	20.036	9.022	0.513
1198.999	681.149	80.007	19.994	103.183	20.033	9.214	0.511
1199.499	681.432	80.006	19.994	103.184	20.031	9.361	0.509
1199.999	681.685	80.006	19.995	103.185	20.035	9.079	0.527
1200.499	681.926	80.005	19.994	103.187	20.034	9.170	0.515
1200.999	682.207	80.006	19.994	103.188	20.033	9.178	0.508
1201.499	682.458	80.008	19.994	103.186	20.033	9.203	0.527
1201.999	682.747	80.006	19.995	103.185	20.033	9.200	0.536
1202.499	683.001	80.007	19.994	103.184	20.037	8.900	0.541
1202.999	683.255	80.006	19.995	103.185	20.035	9.029	0.526
1203.499	683.520	80.006	19.995	103.185	20.033	9.209	0.514
1203.999	683.781	80.006	19.994	103.192	20.036	8.988	0.522
1204.499	683.995	80.006	19.993	103.194	20.037	8.939	0.500
1204.999	684.302	80.006	19.995	103.193	20.037	8.929	0.499
1205.500	684.587	80.005	19.993	103.193	20.033	9.195	0.557
1206.000	684.869	80.004	19.994	103.196	20.036	8.980	0.579
1206.500	685.057	80.005	19.994	103.190	20.036	8.995	0.518
1207.001	685.371	80.005	19.994	103.188	20.036	8.999	0.486
1207.500	685.678	80.007	19.994	103.189	20.032	9.303	0.561
1207.999	685.888	80.007	19.994	103.184	20.033	9.226	0.569
1208.499	686.182	80.005	19.994	103.178	20.033	9.197	0.510
1208.999	686.434	80.005	19.994	103.177	20.034	9.171	0.525
1209.499	686.652	80.006	19.995	103.177	20.032	9.266	0.508
1209.999	686.966	80.006	19.994	103.177	20.035	9.048	0.501
1210.499	687.226	80.006	19.994	103.177	20.033	9.205	0.553
1210.999	687.498	80.006	19.995	103.175	20.030	9.444	0.553
1211.499	687.792	80.007	19.994	103.171	20.032	9.310	0.549
1211.999	688.056	80.006	19.993	103.169	20.034	9.144	0.562
1212.499	688.348	80.005	19.994	103.169	20.031	9.330	0.557
1212.999	688.567	80.006	19.995	103.165	20.032	9.281	0.533
1213.499	688.871	80.008	19.996	103.164	20.031	9.379	0.516
1213.999	689.091	80.007	19.995	103.167	20.033	9.189	0.523
1214.499	689.380	80.007	19.994	103.169	20.032	9.275	0.517
1214.999	689.655	80.007	19.993	103.167	20.033	9.220	0.536
1215.499	689.888	80.008	19.994	103.169	20.032	9.252	0.536
1215.999	690.167	80.008	19.994	103.170	20.029	9.498	0.510
1216.499	690.443	80.008	19.994	103.171	20.033	9.216	0.533
1217.000	690.698	80.007	19.995	103.169	20.031	9.349	0.543
1217.501	690.975	80.007	19.994	103.171	20.030	9.467	0.532
1218.001	691.206	80.007	19.994	103.173	20.027	9.693	0.520
1218.501	691.498	80.007	19.994	103.172	20.028	9.566	0.516
1219.000	691.783	80.009	19.993	103.173	20.030	9.414	0.550
1219.500	691.980	80.008	19.994	103.174	20.032	9.281	0.530
1220.001	692.258	80.009	19.995	103.174	20.031	9.357	0.479
1220.500	692.572	80.009	19.994	103.174	20.030	9.435	0.534
1221.000	692.819	80.009	19.994	103.177	20.031	9.345	0.576
1221.500	693.096	80.009	19.994	103.177	20.031	9.388	0.542
1221.999	693.319	80.008	19.994	103.177	20.031	9.369	0.512
1222.499	693.588	80.009	19.993	103.177	20.033	9.236	0.496
1222.999	693.872	80.010	19.995	103.176	20.027	9.645	0.523
1223.499	694.152	80.009	19.994	103.176	20.030	9.400	0.559
1223.999	694.404	80.009	19.994	103.173	20.031	9.351	0.548
1224.499	694.612	80.007	19.994	103.172	20.032	9.319	0.496
1224.999	694.913	80.008	19.994	103.172	20.029	9.503	0.484
1225.499	695.201	80.006	19.994	103.174	20.028	9.581	0.549
1225.999	695.464	80.007	19.994	103.174	20.029	9.495	0.570
1226.499	695.717	80.007	19.993	103.178	20.027	9.689	0.534
1226.999	695.989	80.008	19.994	103.179	20.030	9.454	0.521
1227.500	696.264	80.008	19.995	103.179	20.030	9.469	0.536
1228.000	696.527	80.007	19.995	103.179	20.026	9.741	0.542
1228.499	696.792	80.008	19.994	103.177	20.025	9.831	0.533
1228.999	697.075	80.006	19.993	103.171	20.028	9.606	0.538
1229.499	697.328	80.007	19.994	103.166	20.030	9.412	0.542
1229.999	697.561	80.006	19.994	103.162	20.029	9.524	0.511
1230.499	697.834	80.004	19.994	103.159	20.028	9.572	0.496
1230.999	698.068	80.005	19.995	103.160	20.029	9.531	0.506
1231.499	698.337	80.006	19.995	103.163	20.026	9.706	0.505
1231.999	698.599	80.006	19.995	103.163	20.027	9.689	0.518
1232.499	698.858	80.006	19.994	103.163	20.026	9.724	0.526
1232.999	699.126	80.004	19.995	103.162	20.026	9.710	0.523
1233.499	699.417	80.005	19.994	103.157	20.026	9.763	0.543
1234.000	699.677	80.005	19.994	103.157	20.024	9.896	0.555
1234.500	699.929	80.005	19.993	103.161	20.024	9.851	0.532
1235.000	700.185	80.005	19.994	103.165	20.024	9.922	0.510
1235.500	700.450	80.005	19.995	103.170	20.027	9.663	0.514
1235.999	700.714	80.004	19.995	103.174	20.023	9.991	0.525
1236.499	700.978	80.006	19.995	103.176	20.030	9.454	0.528
1236.999	701.228	80.004	19.996	103.175	20.025	9.816	0.521
1237.499	701.516	80.005	19.995	103.176	20.028	9.602	0.526
1237.999	701.757	80.006	19.996	103.176	20.028	9.624	0.533
1238.499	702.047	80.005	19.994	103.178	20.027	9.667	0.530
1238.999	702.288	80.004	19.995	103.179	20.027	9.634	0.531
1239.499	702.520	80.006	19.995	103.182	20.023	9.944	0.502
1240.000	702.805	80.005	19.995	103.183	20.030	9.444	0.495
1240.500	703.037	80.004	19.994	103.182	20.030	9.409	0.517
1240.999	703.305	80.005	19.995	103.179	20.028	9.589	0.509
1241.499	703.574	80.004	19.994	103.171	20.027	9.646	0.518
1241.999	703.845	80.004	19.995	103.164	20.027	9.689	0.538
1242.499	704.065	80.007	19.995	103.157	20.028	9.605	0.516
1242.999	704.331	80.005	19.995	103.156	20.026	9.703	0.488
1243.499	704.615	80.005	19.995	103.158	20.025	9.817	0.518
1243.999	704.852	80.005	19.996	103.161	20.028	9.567	0.536
1244.500	705.141	80.006	19.994	103.158	20.028	9.586	0.524
1245.000	705.385	80.005	19.995	103.157	20.028	9.600	0.529
1245.499	705.624	80.005	19.995	103.156	20.027	9.671	0.508
1245.999	705.869	80.005	19.995	103.157	20.028	9.557	0.484
1246.499	706.097	80.005	19.994	103.162	20.026	9.748	0.478
1246.999	706.376	80.004	19.994	103.167	20.027	9.687	0.490
1247.499	706.650	80.005	19.995	103.175	20.028	9.570	0.530
1247.999	706.886	80.006	19.995	103.179	20.028	9.608	0.532
1248.499	707.154	80.005	19.994	103.179	20.023	9.994	0.507
1248.999	707.443	80.005	19.994	103.178	20.027	9.661	0.530
1249.499	707.679	80.005	19.994	103.179	20.024	9.869	0.541
1249.999	707.924	80.006	19.995	103.177	20.025	9.833	0.503
1250.499	708.173	80.005	19.996	103.170	20.024	9.853	0.487
1250.999	708.451	80.006	19.994	103.169	20.022	10.025	0.510
1251.499	708.690	80.004	19.995	103.170	20.025	9.837	0.522
1251.999	708.975	80.005	19.994	103.173	20.026	9.772	0.521
1252.499	709.251	80.005	19.994	103.171	20.023	9.935	0.542
1252.999	709.498	80.006	19.995	103.173	20.020	10.176	0.541
1253.499	709.749	80.005	19.994	103.173	20.024	9.868	0.510
1253.999	709.980	80.006	19.994	103.172	20.023	9.991	0.490
1254.499	710.260	80.007	19.995	103.172	20.028	9.622	0.496
1255.000	710.478	80.005	19.995	103.178	20.028	9.623	0.504
1255.500	710.781	80.006	19.994	103.182	20.020	10.157	0.510
1255.999	711.012	80.004	19.994	103.184	20.026	9.776	0.528
1256.499	711.229	80.005	19.995	103.180	20.023	9.996	0.491
1256.999	711.524	80.006	19.996	103.179	20.026	9.712	0.480
1257.499	711.787	80.004	19.995	103.176	20.021	10.092	0.536
1257.999	712.043	80.005	19.994	103.172	20.023	9.936	0.538
1258.499	712.297	80.005	19.995	103.165	20.026	9.754	0.514
1259.000	712.543	80.006	19.995	103.162	20.022	10.052	0.505
1259.501	712.786	80.006	19.995	103.158	20.026	9.773	0.495
1260.000	713.048	80.007	19.995	103.157	20.023	9.982	0.497
1260.499	713.339	80.005	19.995	103.160	20.025	9.803	0.529
1260.999	713.516	80.005	19.994	103.165	20.024	9.857	0.511
1261.500	713.786	80.004	19.995	103.163	20.019	10.298	0.458
1262.000	714.026	80.006	19.995	103.163	20.021	10.123	0.478
1262.499	714.320	80.005	19.995	103.164	20.023	9.978	0.522
1262.999	714.578	80.004	19.995	103.163	20.028	9.558	0.543
1263.499	714.809	80.003	19.995	103.161	20.027	9.642	0.521
1263.999	715.063	80.004	19.996	103.163	20.026	9.734	0.487
1264.499	715.299	80.004	19.996	103.167	20.026	9.704	0.487
1265.000	715.567	80.005	19.995	103.168	20.029	9.496	0.497
1265.501	715.838	80.004	19.996	103.176	20.030	9.450	0.522
1266.000	716.082	80.005	19.996	103.187	20.033	9.186	0.527
1266.499	716.326	80.004	19.995	103.202	20.033	9.220	0.502
1266.999	716.609	80.005	19.995	103.213	20.029	9.479	0.508
1267.499	716.837	80.004	19.995	103.222	20.028	9.578	0.519
1267.999	717.151	80.005	19.995	103.224	20.028	9.558	0.526
1268.499	717.367	80.005	19.996	103.223	20.031	9.335	0.536
1268.999	717.642	80.004	19.996	103.221	20.028	9.574	0.510
1269.499	717.975	80.003	19.996	103.209	20.027	9.670	0.550
1269.999	718.110	80.005	19.996	103.191	20.027	9.660	0.538
1270.500	718.309	80.004	19.996	103.175	20.025	9.805	0.401
1271.000	718.688	80.004	19.996	103.159	20.025	9.814	0.456
1271.499	718.883	80.003	19.996	103.144	20.027	9.668	0.576
1271.999	719.131	80.006	19.997	103.137	20.023	9.980	0.509
1272.499	719.353	80.006	19.996	103.140	20.027	9.674	0.457
1272.999	719.635	80.004	19.996	103.145	20.027	9.672	0.487
1273.499	719.893	80.005	19.996	103.146	20.028	9.561	0.522
1273.999	720.103	80.006	19.996	103.148	20.023	10.003	0.504
1274.500	720.393	80.005	19.995	103.153	20.024	9.862	0.484
1275.000	720.690	80.005	19.996	103.156	20.025	9.829	0.544
1275.499	720.850	80.006	19.996	103.160	20.027	9.676	0.522
1275.999	721.121	80.006	19.995	103.167	20.025	9.814	0.444
1276.499	721.392	80.007	19.996	103.169	20.026	9.741	0.486
1276.999	721.666	80.007	19.996	103.166	20.024	9.918	0.543
1277.499	721.896	80.005	19.995	103.160	20.019	10.254	0.524
1277.999	722.203	80.007	19.995	103.153	20.020	10.183	0.520
1278.499	722.427	80.006	19.995	103.147	20.021	10.093	0.534
1278.999	722.676	80.007	19.996	103.143	20.020	10.152	0.502
1279.499	722.921	80.006	19.996	103.142	20.023	9.992	0.484
1279.999	723.135	80.006	19.995	103.145	20.022	10.012	0.477
1280.499	723.438	80.006	19.995	103.147	20.025	9.790	0.488
1280.999	723.651	80.007	19.995	103.146	20.024	9.884	0.517
1281.499	723.912	80.006	19.995	103.153	20.021	10.146	0.495
1281.999	724.166	80.007	19.994	103.158	20.024	9.906	0.494
1282.499	724.430	80.007	19.995	103.163	20.023	9.953	0.516
1282.999	724.656	80.006	19.994	103.169	20.023	9.949	0.504
1283.499	724.891	80.007	19.994	103.183	20.024	9.890	0.476
1283.999	725.127	80.008	19.994	103.189	20.024	9.894	0.466
1284.499	725.396	80.007	19.995	103.198	20.026	9.774	0.488
1284.999	725.672	80.007	19.995	103.207	20.027	9.681	0.525
1285.499	725.891	80.007	19.996	103.215	20.021	10.099	0.520
1285.999	726.143	80.006	19.994	103.211	20.024	9.878	0.483
1286.500	726.390	80.006	19.995	103.205	20.022	10.038	0.485
1287.000	726.653	80.006	19.995	103.197	20.022	10.057	0.505
1287.499	726.888	80.007	19.995	103.186	20.027	9.672	0.504
1287.999	727.148	80.006	19.994	103.175	20.023	9.974	0.497
1288.499	727.405	80.008	19.995	103.165	20.024	9.921	0.506
1288.999	727.642	80.007	19.994	103.157	20.022	10.053	0.506
1289.499	727.849	80.008	19.995	103.150	20.022	10.042	0.469
1289.999	728.103	80.006	19.994	103.144	20.020	10.216	0.452
1290.499	728.399	80.008	19.995	103.140	20.022	10.022	0.505
1290.999	728.618	80.007	19.995	103.141	20.023	9.998	0.532
1291.499	728.871	80.007	19.994	103.142	20.022	10.060	0.494
1291.999	729.077	80.007	19.994	103.145	20.020	10.177	0.466
1292.500	729.368	80.007	19.994	103.150	20.020	10.190	0.478
1293.000	729.593	80.008	19.995	103.154	20.025	9.778	0.506
1293.499	729.849	80.007	19.994	103.157	20.020	10.167	0.499
1293.999	730.071	80.006	19.995	103.159	20.019	10.290	0.480
1294.499	730.365	80.006	19.993	103.162	20.026	9.736	0.497
1294.999	730.587	80.007	19.995	103.165	20.019	10.227	0.516
1295.499	730.826	80.007	19.994	103.169	20.023	9.987	0.488
1295.999	731.090	80.007	19.995	103.170	20.018	10.349	0.482
1296.499	731.298	80.006	19.996	103.169	20.022	10.001	0.488
1297.000	731.549	80.007	19.994	103.168	20.023	9.997	0.466
1297.500	731.803	80.007	19.995	103.167	20.023	9.932	0.482
1297.999	732.059	80.006	19.993	103.162	20.016	10.473	0.507
1298.499	732.290	80.006	19.993	103.161	20.018	10.306	0.498
1298.999	732.545	80.006	19.995	103.167	20.023	9.949	0.487
1299.499	732.813	80.007	19.994	103.163	20.015	10.543	0.505
1299.999	733.093	80.008	19.995	103.157	20.020	10.172	0.535
1300.499	733.283	80.006	19.994	103.155	20.017	10.414	0.509
1300.999	733.553	80.007	19.994	103.154	20.019	10.279	0.465
1301.499	733.821	80.007	19.995	103.153	20.020	10.161	0.499
1301.999	734.033	80.008	19.996	103.160	20.017	10.416	0.509
1302.499	734.305	80.007	19.995	103.168	20.017	10.424	0.482
1302.999	734.562	80.008	19.996	103.175	20.020	10.200	0.506
1303.499	734.799	80.008	19.994	103.180	20.018	10.373	0.512
1304.000	735.012	80.006	19.994	103.183	20.016	10.479	0.473
1304.500	735.283	80.007	19.994	103.181	20.022	10.044	0.467
1304.999	735.573	80.009	19.995	103.177	20.017	10.408	0.522
1305.499	735.744	80.008	19.994	103.170	20.018	10.371	0.511
1305.999	736.015	80.007	19.993	103.163	20.016	10.461	0.451
1306.499	736.273	80.007	19.993	103.156	20.009	11.000	0.485
1306.999	736.539	80.009	19.995	103.155	20.014	10.631	0.527
1307.499	736.710	80.007	19.994	103.152	20.022	10.049	0.481
1307.999	736.981	80.008	19.995	103.150	20.015	10.598	0.439
1308.499	737.241	80.007	19.995	103.152	20.018	10.347	0.486
1308.999	737.430	80.007	19.995	103.157	20.018	10.314	0.490
1309.499	737.738	80.008	19.995	103.154	20.018	10.350	0.473
1309.999	737.941	80.007	19.994	103.157	20.017	10.450	0.504
1310.499	738.236	80.007	19.994	103.161	20.015	10.573	0.504
1310.999	738.471	80.006	19.994	103.164	20.017	10.441	0.514
1311.499	738.717	80.008	19.994	103.157	20.014	10.610	0.505
1311.999	738.960	80.005	19.993	103.157	20.013	10.713	0.485
1312.499	739.166	80.006	19.993	103.154	20.014	10.647	0.469
1312.999	739.442	80.006	19.996	103.154	20.017	10.419	0.466
1313.499	739.715	80.007	19.994	103.149	20.014	10.639	0.515
1313.999	739.915	80.006	19.995	103.155	20.008	11.122	0.511
1314.499	740.191	80.005	19.994	103.158	20.021	10.140	0.475
1314.999	740.423	80.006	19.995	103.156	20.019	10.249	0.492
1315.499	740.633	80.005	19.994	103.154	20.016	10.488	0.475
1315.999	740.897	80.003	19.993	103.157	20.019	10.283	0.458
1316.499	741.151	80.004	19.994	103.152	20.012	10.773	0.496
1316.999	741.432	80.007	19.995	103.152	20.009	10.993	0.526
1317.499	741.633	80.006	19.994	103.158	20.018	10.342	0.509
1317.999	741.919	80.005	19.995	103.164	20.016	10.517	0.485
1318.499	742.161	80.006	19.994	103.162	20.015	10.589	0.507
1318.999	742.356	80.005	19.995	103.162	20.012	10.791	0.482
1319.500	742.637	80.006	19.993	103.159	20.015	10.539	0.456
1320.001	742.865	80.005	19.994	103.154	20.009	11.007	0.493
1320.500	743.130	80.006	19.994	103.151	20.016	10.523	0.501
1320.999	743.348	80.005	19.993	103.153	20.018	10.317	0.488
1321.499	743.642	80.006	19.995	103.152	20.014	10.657	0.498
1321.999	743.892	80.004	19.993	103.156	20.015	10.537	0.528
