Sample ID:	C:\MCC\MCC Cal\Test\PVC_Pipe_MCC_30K_min_211118_R1.txt
Sample Weight (mg):	4.46
Heating Rate (C/s):	0.5
Combustor Temp (C):	900
N2 Flow Rate (cc/min):	80
O2 Flow Rate (cc/min):	20
Calibration File:	C:\MCC\MCC Cal\Coeff1 JN10440_30_210304.txt.txt
T Correction Coefficients:	0	1.024463	0
Time Shift (s):	14
*
Time (s)	Temperature (C)	N2 flow rate (cc/min)	O2 flow rate (cc/min)	Flow Rate (cc/min)	Oxygen (%)	HRR (W/g)	Heating rate (C/s)
-0.001	110.025	80.005	19.995	103.071	19.911	-0.307	0.020
0.499	109.940	80.004	19.995	103.067	19.910	-0.246	0.031
1.000	109.969	80.004	19.996	103.066	19.910	-0.203	-0.034
1.500	109.958	80.002	19.993	103.066	19.912	-0.376	-0.019
2.000	109.975	80.003	19.996	103.066	19.909	-0.169	0.012
2.500	109.947	80.003	19.995	103.068	19.915	-0.572	-0.002
2.999	109.974	80.004	19.996	103.073	19.911	-0.267	-0.006
3.500	109.944	80.004	19.995	103.074	19.907	-0.037	-0.002
4.000	109.993	80.004	19.995	103.074	19.913	-0.425	0.008
4.500	109.976	80.003	19.996	103.074	19.912	-0.383	0.025
5.000	109.983	80.004	19.995	103.074	19.910	-0.244	0.011
5.500	109.951	80.004	19.996	103.069	19.910	-0.250	-0.017
6.000	109.997	80.004	19.995	103.068	19.915	-0.564	-0.005
6.500	109.940	80.004	19.995	103.070	19.911	-0.332	0.001
7.000	109.937	80.004	19.995	103.073	19.911	-0.309	-0.035
7.500	109.966	80.003	19.996	103.072	19.906	0.031	-0.017
8.000	109.933	80.003	19.996	103.073	19.911	-0.330	0.011
8.500	109.958	80.005	19.996	103.074	19.912	-0.348	-0.006
9.000	109.959	80.004	19.996	103.075	19.911	-0.267	0.009
9.500	109.929	80.004	19.995	103.074	19.912	-0.360	-0.001
10.000	109.920	80.003	19.996	103.074	19.911	-0.299	-0.034
10.500	109.948	80.002	19.996	103.074	19.911	-0.301	-0.010
11.000	109.934	80.003	19.996	103.073	19.911	-0.326	0.016
11.500	109.947	80.004	19.995	103.071	19.914	-0.495	0.006
12.000	109.976	80.003	19.996	103.069	19.913	-0.411	0.021
12.500	109.956	80.003	19.995	103.068	19.911	-0.305	0.025
13.000	109.958	80.004	19.995	103.068	19.911	-0.307	-0.004
13.500	109.946	80.004	19.995	103.069	19.910	-0.199	-0.014
14.000	109.961	80.002	19.995	103.070	19.912	-0.370	-0.004
14.500	109.968	80.003	19.995	103.071	19.910	-0.244	0.012
15.000	109.926	80.003	19.995	103.070	19.909	-0.185	-0.006
15.500	109.913	80.004	19.994	103.071	19.910	-0.238	-0.045
16.000	109.895	80.004	19.994	103.070	19.909	-0.136	-0.043
16.500	109.936	80.004	19.995	103.068	19.912	-0.409	-0.004
17.000	109.931	80.005	19.995	103.068	19.910	-0.197	0.029
17.500	109.905	80.004	19.995	103.068	19.911	-0.287	0.002
18.000	109.928	80.005	19.994	103.068	19.908	-0.098	-0.017
18.500	109.919	80.004	19.995	103.068	19.906	0.053	0.005
19.000	109.906	80.004	19.994	103.068	19.910	-0.218	-0.004
19.500	109.886	80.005	19.994	103.068	19.908	-0.112	-0.027
20.000	109.916	80.005	19.994	103.069	19.913	-0.468	-0.011
20.500	109.910	80.004	19.995	103.070	19.909	-0.183	0.017
21.000	109.922	80.005	19.994	103.069	19.909	-0.159	0.015
21.500	109.896	80.006	19.995	103.069	19.910	-0.258	-0.004
22.000	109.905	80.005	19.994	103.069	19.913	-0.439	-0.016
22.500	109.922	80.006	19.994	103.067	19.912	-0.356	0.005
23.000	109.906	80.006	19.994	103.066	19.910	-0.254	0.014
23.500	109.892	80.006	19.993	103.066	19.910	-0.199	-0.014
24.000	109.891	80.006	19.994	103.066	19.909	-0.152	-0.023
24.500	109.905	80.006	19.995	103.068	19.912	-0.339	-0.001
25.000	109.906	80.006	19.994	103.068	19.914	-0.543	0.013
25.500	109.909	80.005	19.993	103.067	19.908	-0.063	0.009
26.000	109.866	80.006	19.995	103.066	19.908	-0.098	-0.018
26.500	109.911	80.007	19.994	103.066	19.908	-0.108	-0.019
27.000	109.896	80.006	19.994	103.064	19.910	-0.236	0.017
27.500	109.915	80.007	19.995	103.065	19.911	-0.335	0.017
28.000	109.879	80.007	19.994	103.065	19.909	-0.175	-0.007
28.500	109.880	80.007	19.994	103.066	19.908	-0.116	-0.026
29.000	109.894	80.004	19.994	103.070	19.906	0.024	-0.010
29.500	109.883	80.006	19.994	103.077	19.910	-0.211	0.009
30.000	109.849	80.006	19.993	103.084	19.905	0.159	-0.021
30.500	109.881	80.006	19.995	103.095	19.903	0.254	-0.024
31.000	109.891	80.006	19.993	103.107	19.900	0.469	0.020
31.500	109.862	80.007	19.994	103.118	19.902	0.370	0.012
32.000	109.861	80.007	19.995	103.127	19.902	0.374	-0.024
32.499	109.845	80.007	19.994	103.134	19.900	0.469	-0.023
32.999	109.896	80.006	19.995	103.138	19.901	0.427	0.008
33.499	109.881	80.006	19.994	103.147	19.899	0.601	0.035
33.999	109.893	80.005	19.994	103.154	19.896	0.794	0.017
34.499	109.910	80.004	19.994	103.162	19.894	0.922	0.014
34.999	109.909	80.004	19.994	103.170	19.894	0.955	0.023
35.499	109.949	80.006	19.995	103.178	19.892	1.071	0.027
36.000	109.982	80.004	19.994	103.180	19.893	1.032	0.056
36.501	110.002	80.005	19.995	103.182	19.894	0.906	0.063
37.001	109.976	80.003	19.995	103.189	19.891	1.174	0.023
37.500	109.958	80.003	19.994	103.197	19.891	1.140	-0.025
37.999	110.037	80.003	19.994	103.205	19.889	1.313	0.009
38.499	110.050	80.003	19.994	103.212	19.889	1.298	0.076
39.000	110.065	80.004	19.994	103.218	19.885	1.569	0.060
39.500	110.086	80.004	19.994	103.219	19.887	1.459	0.032
39.999	110.095	80.005	19.994	103.220	19.886	1.514	0.033
40.499	110.142	80.003	19.994	103.221	19.887	1.414	0.043
40.999	110.158	80.004	19.994	103.223	19.888	1.361	0.060
41.499	110.233	80.005	19.995	103.223	19.886	1.497	0.077
41.999	110.244	80.003	19.994	103.223	19.882	1.757	0.088
42.499	110.272	80.003	19.994	103.224	19.886	1.514	0.063
42.999	110.290	80.002	19.995	103.230	19.880	1.904	0.043
43.500	110.408	80.003	19.994	103.235	19.883	1.729	0.091
44.000	110.396	80.004	19.995	103.237	19.883	1.737	0.121
44.499	110.461	80.004	19.995	103.238	19.881	1.875	0.080
44.999	110.509	80.004	19.996	103.244	19.879	2.021	0.083
45.499	110.552	80.003	19.995	103.238	19.881	1.842	0.101
45.999	110.608	80.004	19.995	103.236	19.878	2.048	0.095
46.499	110.644	80.004	19.994	103.237	19.880	1.934	0.096
46.999	110.681	80.004	19.995	103.237	19.881	1.838	0.082
47.499	110.806	80.004	19.995	103.230	19.880	1.948	0.117
48.000	110.816	80.002	19.995	103.231	19.879	2.013	0.149
48.500	110.897	80.004	19.995	103.231	19.880	1.928	0.113
48.999	110.954	80.004	19.994	103.229	19.878	2.118	0.114
49.499	111.013	80.004	19.995	103.228	19.880	1.905	0.127
49.999	111.070	80.005	19.995	103.232	19.880	1.956	0.116
50.500	111.120	80.003	19.995	103.232	19.879	2.043	0.112
51.001	111.174	80.005	19.995	103.230	19.881	1.874	0.106
51.500	111.293	80.005	19.994	103.229	19.882	1.791	0.139
51.999	111.320	80.002	19.994	103.231	19.883	1.734	0.160
52.499	111.375	80.004	19.994	103.232	19.881	1.836	0.114
52.999	111.437	80.005	19.995	103.233	19.878	2.118	0.099
53.500	111.532	80.003	19.994	103.234	19.879	2.036	0.137
54.000	111.604	80.003	19.994	103.235	19.878	2.118	0.162
54.500	111.678	80.003	19.994	103.235	19.878	2.049	0.156
55.000	111.768	80.005	19.994	103.235	19.878	2.053	0.155
55.499	111.833	80.005	19.994	103.236	19.879	1.985	0.160
56.000	111.924	80.005	19.994	103.244	19.877	2.164	0.155
56.501	111.976	80.005	19.994	103.250	19.878	2.058	0.150
57.000	112.070	80.005	19.995	103.253	19.874	2.340	0.144
57.499	112.093	80.004	19.995	103.257	19.878	2.105	0.131
57.999	112.200	80.005	19.995	103.259	19.875	2.322	0.124
58.499	112.277	80.004	19.995	103.259	19.875	2.304	0.157
58.999	112.366	80.004	19.995	103.258	19.874	2.389	0.175
59.499	112.454	80.004	19.996	103.259	19.875	2.314	0.172
59.999	112.547	80.004	19.995	103.261	19.873	2.412	0.179
60.499	112.628	80.004	19.995	103.261	19.873	2.450	0.177
60.999	112.723	80.004	19.994	103.264	19.873	2.440	0.175
61.499	112.836	80.004	19.994	103.268	19.873	2.430	0.192
61.999	112.885	80.005	19.995	103.276	19.873	2.426	0.185
62.499	112.987	80.004	19.994	103.284	19.876	2.233	0.156
62.999	113.073	80.003	19.994	103.292	19.871	2.572	0.170
63.500	113.165	80.002	19.995	103.297	19.872	2.514	0.183
64.000	113.289	80.005	19.994	103.301	19.874	2.400	0.197
64.499	113.383	80.002	19.994	103.304	19.871	2.605	0.217
64.999	113.473	80.003	19.996	103.305	19.870	2.654	0.201
65.499	113.642	80.002	19.994	103.305	19.870	2.678	0.222
65.999	113.721	80.002	19.995	103.308	19.869	2.739	0.253
66.499	113.789	80.004	19.996	103.312	19.868	2.826	0.197
66.999	113.952	80.003	19.995	103.314	19.869	2.736	0.189
67.500	114.031	80.002	19.996	103.320	19.869	2.724	0.237
68.000	114.144	80.002	19.995	103.325	19.866	2.962	0.217
68.500	114.248	80.002	19.996	103.328	19.866	2.935	0.204
69.000	114.406	80.002	19.995	103.329	19.867	2.890	0.240
69.499	114.495	80.003	19.996	103.326	19.868	2.795	0.254
69.999	114.638	80.002	19.996	103.320	19.866	2.974	0.240
70.499	114.738	80.003	19.994	103.314	19.870	2.685	0.238
70.999	114.859	80.002	19.995	103.309	19.866	2.925	0.232
71.500	114.926	80.003	19.996	103.307	19.868	2.823	0.204
72.001	115.078	80.003	19.995	103.306	19.866	2.941	0.204
72.500	115.220	80.003	19.995	103.306	19.870	2.696	0.256
72.999	115.318	80.001	19.995	103.308	19.871	2.570	0.267
73.499	115.486	80.003	19.996	103.307	19.870	2.676	0.253
73.999	115.612	80.003	19.995	103.303	19.870	2.629	0.280
74.499	115.759	80.003	19.995	103.302	19.870	2.694	0.284
74.999	115.868	80.001	19.995	103.302	19.870	2.671	0.264
75.499	116.078	80.003	19.996	103.302	19.870	2.696	0.287
75.999	116.166	80.002	19.995	103.304	19.869	2.761	0.309
76.499	116.295	80.004	19.995	103.309	19.865	3.006	0.258
76.999	116.424	80.004	19.995	103.311	19.869	2.710	0.237
77.499	116.563	80.002	19.995	103.317	19.864	3.075	0.263
77.999	116.744	80.004	19.995	103.319	19.867	2.860	0.294
78.499	116.880	80.001	19.995	103.321	19.867	2.858	0.319
78.999	117.000	80.002	19.995	103.326	19.867	2.889	0.287
79.499	117.146	80.001	19.995	103.330	19.868	2.797	0.261
79.999	117.332	80.004	19.995	103.328	19.866	2.956	0.299
80.499	117.469	80.004	19.995	103.328	19.866	2.925	0.327
80.999	117.610	80.003	19.995	103.328	19.864	3.093	0.301
81.499	117.754	80.004	19.995	103.328	19.866	2.963	0.282
81.999	117.898	80.004	19.994	103.326	19.867	2.886	0.287
82.500	118.063	80.004	19.995	103.326	19.867	2.844	0.298
83.000	118.194	80.005	19.995	103.324	19.868	2.826	0.302
83.500	118.375	80.005	19.995	103.321	19.863	3.148	0.304
84.000	118.513	80.004	19.995	103.317	19.866	2.978	0.316
84.499	118.664	80.005	19.995	103.314	19.863	3.187	0.304
84.999	118.834	80.004	19.995	103.313	19.864	3.083	0.305
85.499	119.009	80.005	19.995	103.315	19.863	3.197	0.333
85.999	119.165	80.005	19.995	103.317	19.865	3.047	0.338
86.499	119.343	80.004	19.994	103.319	19.864	3.080	0.332
86.999	119.514	80.006	19.995	103.325	19.867	2.897	0.342
87.500	119.651	80.004	19.995	103.329	19.865	3.001	0.329
88.001	119.821	80.004	19.995	103.329	19.866	2.966	0.308
88.500	119.993	80.004	19.995	103.328	19.869	2.720	0.324
88.999	120.158	80.004	19.994	103.324	19.865	3.051	0.339
89.499	120.370	80.005	19.995	103.318	19.867	2.870	0.357
89.999	120.512	80.005	19.995	103.313	19.865	3.006	0.366
90.499	120.685	80.005	19.995	103.315	19.869	2.740	0.335
91.000	120.821	80.003	19.995	103.320	19.866	2.935	0.312
91.500	121.052	80.005	19.995	103.323	19.865	2.998	0.337
92.000	121.185	80.004	19.995	103.327	19.865	2.995	0.365
92.500	121.357	80.004	19.996	103.328	19.862	3.267	0.334
92.999	121.531	80.003	19.994	103.325	19.862	3.252	0.326
93.499	121.723	80.005	19.995	103.322	19.862	3.222	0.356
93.999	121.932	80.003	19.995	103.322	19.864	3.090	0.383
94.500	122.046	80.004	19.995	103.322	19.865	3.013	0.362
95.000	122.256	80.003	19.996	103.323	19.866	2.980	0.324
95.500	122.422	80.004	19.995	103.326	19.865	3.012	0.350
96.000	122.622	80.003	19.994	103.323	19.864	3.114	0.371
96.499	122.801	80.004	19.995	103.318	19.866	2.982	0.373
96.999	122.999	80.003	19.996	103.313	19.866	2.968	0.378
97.499	123.183	80.003	19.996	103.309	19.867	2.905	0.379
97.999	123.288	80.003	19.997	103.304	19.864	3.114	0.335
98.499	123.495	80.003	19.996	103.302	19.864	3.061	0.300
98.999	123.686	80.002	19.996	103.304	19.864	3.095	0.355
99.499	123.897	80.003	19.995	103.310	19.865	3.022	0.400
99.999	124.114	80.003	19.996	103.314	19.865	3.018	0.415
100.500	124.259	80.002	19.996	103.318	19.864	3.087	0.395
101.001	124.457	80.003	19.996	103.319	19.862	3.248	0.353
101.500	124.660	80.003	19.995	103.318	19.865	3.008	0.372
101.999	124.849	80.003	19.996	103.314	19.864	3.130	0.396
102.500	125.032	80.004	19.997	103.311	19.866	2.921	0.382
103.001	125.231	80.004	19.996	103.307	19.862	3.233	0.378
103.500	125.397	80.001	19.996	103.309	19.862	3.245	0.374
103.999	125.604	80.003	19.995	103.310	19.864	3.093	0.369
104.499	125.810	80.004	19.996	103.308	19.863	3.177	0.392
104.999	125.959	80.004	19.997	103.310	19.865	3.029	0.384
105.499	126.163	80.004	19.995	103.317	19.866	2.970	0.354
105.999	126.366	80.005	19.996	103.319	19.864	3.126	0.381
106.500	126.533	80.005	19.996	103.321	19.867	2.856	0.388
107.000	126.721	80.004	19.996	103.325	19.866	2.919	0.362
107.499	126.925	80.005	19.995	103.323	19.865	3.053	0.373
107.999	127.123	80.005	19.996	103.323	19.862	3.229	0.397
108.499	127.316	80.006	19.995	103.326	19.864	3.126	0.397
108.999	127.520	80.005	19.995	103.327	19.864	3.111	0.394
109.499	127.669	80.006	19.995	103.327	19.862	3.235	0.375
109.999	127.883	80.007	19.995	103.332	19.864	3.115	0.358
110.499	128.082	80.006	19.995	103.331	19.862	3.215	0.388
110.999	128.272	80.005	19.995	103.330	19.863	3.189	0.401
111.499	128.488	80.006	19.994	103.330	19.862	3.260	0.397
111.999	128.734	80.007	19.994	103.331	19.861	3.276	0.434
112.499	128.935	80.006	19.994	103.332	19.861	3.309	0.455
112.999	129.145	80.006	19.994	103.334	19.860	3.396	0.430
113.499	129.353	80.007	19.994	103.333	19.861	3.335	0.415
113.999	129.514	80.004	19.993	103.333	19.862	3.243	0.394
114.499	129.713	80.004	19.994	103.333	19.862	3.211	0.364
114.999	129.929	80.005	19.994	103.331	19.863	3.184	0.387
115.499	130.131	80.005	19.993	103.328	19.859	3.462	0.416
115.999	130.338	80.005	19.995	103.324	19.860	3.361	0.413
116.499	130.536	80.004	19.995	103.319	19.861	3.326	0.407
116.999	130.743	80.005	19.994	103.319	19.865	3.032	0.404
117.499	130.882	80.004	19.995	103.322	19.863	3.190	0.376
117.999	131.166	80.000	19.995	103.324	19.863	3.156	0.385
118.499	131.403	80.006	19.993	103.329	19.862	3.205	0.472
118.999	131.559	80.002	19.995	103.335	19.865	3.012	0.457
119.499	131.788	80.002	19.994	103.336	19.864	3.107	0.389
119.999	132.002	80.004	19.994	103.336	19.862	3.266	0.414
120.499	132.213	80.004	19.995	103.337	19.862	3.254	0.434
121.000	132.426	80.002	19.994	103.337	19.863	3.164	0.424
121.500	132.636	80.003	19.994	103.333	19.862	3.258	0.424
122.000	132.840	80.004	19.993	103.329	19.860	3.363	0.418
122.500	133.029	80.004	19.994	103.328	19.864	3.122	0.404
122.999	133.216	80.003	19.994	103.327	19.863	3.174	0.385
123.500	133.494	80.003	19.994	103.325	19.861	3.310	0.421
124.000	133.702	80.002	19.994	103.329	19.864	3.099	0.475
124.499	133.894	80.003	19.994	103.334	19.862	3.233	0.443
124.999	134.105	80.001	19.995	103.335	19.862	3.219	0.401
125.499	134.328	80.004	19.994	103.336	19.860	3.414	0.419
125.999	134.531	80.001	19.994	103.339	19.862	3.213	0.430
126.499	134.777	80.006	19.993	103.339	19.864	3.124	0.438
126.999	134.997	80.003	19.994	103.338	19.863	3.193	0.458
127.499	135.181	80.003	19.994	103.338	19.861	3.298	0.435
127.999	135.406	80.001	19.994	103.338	19.860	3.392	0.406
128.500	135.609	80.002	19.996	103.339	19.862	3.274	0.418
129.000	135.823	80.005	19.995	103.339	19.860	3.375	0.422
129.500	136.081	80.003	19.994	103.340	19.862	3.217	0.444
130.000	136.253	80.003	19.994	103.339	19.863	3.184	0.451
130.500	136.496	80.004	19.994	103.338	19.860	3.420	0.423
131.000	136.754	80.004	19.994	103.337	19.861	3.304	0.458
131.500	137.007	80.003	19.994	103.334	19.859	3.424	0.506
132.000	137.178	80.000	19.994	103.334	19.858	3.534	0.467
132.500	137.411	80.003	19.995	103.335	19.861	3.280	0.414
133.000	137.641	80.003	19.995	103.336	19.859	3.487	0.434
133.500	137.869	80.005	19.994	103.337	19.859	3.491	0.461
134.000	138.077	80.003	19.994	103.340	19.857	3.574	0.447
134.500	138.344	80.004	19.994	103.340	19.858	3.497	0.456
135.000	138.522	80.004	19.994	103.340	19.857	3.572	0.460
135.500	138.773	80.004	19.993	103.340	19.858	3.505	0.437
136.000	138.989	80.003	19.994	103.338	19.862	3.207	0.448
136.500	139.229	80.003	19.995	103.338	19.860	3.374	0.461
137.000	139.445	80.005	19.994	103.337	19.861	3.288	0.456
137.500	139.686	80.003	19.993	103.337	19.857	3.595	0.456
138.000	139.914	80.002	19.993	103.337	19.861	3.309	0.463
138.500	140.142	80.004	19.994	103.335	19.862	3.246	0.463
139.000	140.365	80.002	19.994	103.334	19.860	3.414	0.454
139.500	140.592	80.003	19.994	103.335	19.859	3.485	0.450
140.000	140.839	80.003	19.993	103.334	19.858	3.548	0.462
140.500	141.046	80.004	19.994	103.333	19.859	3.424	0.464
141.000	141.266	80.003	19.994	103.337	19.861	3.282	0.441
141.500	141.523	80.004	19.994	103.337	19.859	3.489	0.452
142.000	141.758	80.003	19.994	103.337	19.860	3.355	0.485
142.500	141.994	80.004	19.994	103.338	19.859	3.428	0.482
143.000	142.205	80.003	19.994	103.339	19.860	3.414	0.459
143.500	142.466	80.002	19.995	103.339	19.862	3.247	0.459
144.000	142.705	80.005	19.994	103.339	19.863	3.199	0.486
144.500	142.921	80.004	19.994	103.340	19.861	3.343	0.477
145.000	143.134	80.003	19.993	103.340	19.864	3.089	0.442
145.500	143.345	80.004	19.993	103.339	19.862	3.264	0.427
146.000	143.585	80.003	19.995	103.337	19.863	3.150	0.437
146.500	143.835	80.005	19.993	103.337	19.865	3.044	0.470
147.000	144.076	80.004	19.995	103.332	19.863	3.174	0.491
147.500	144.317	80.006	19.995	103.327	19.864	3.097	0.487
148.000	144.528	80.004	19.994	103.327	19.864	3.105	0.467
148.500	144.756	80.004	19.994	103.328	19.862	3.250	0.445
149.000	145.048	80.005	19.994	103.328	19.861	3.339	0.479
149.500	145.247	80.003	19.994	103.332	19.865	3.043	0.505
150.000	145.471	80.004	19.995	103.337	19.862	3.268	0.457
150.500	145.725	80.003	19.994	103.333	19.862	3.246	0.451
151.000	145.984	80.003	19.995	103.333	19.863	3.189	0.495
151.500	146.173	80.004	19.994	103.332	19.862	3.252	0.481
152.000	146.409	80.004	19.996	103.330	19.862	3.222	0.437
152.500	146.710	80.003	19.993	103.329	19.860	3.378	0.481
153.000	146.899	80.002	19.994	103.334	19.861	3.288	0.514
153.500	147.165	80.005	19.994	103.334	19.862	3.244	0.473
154.000	147.428	80.003	19.995	103.335	19.861	3.284	0.492
154.500	147.633	80.005	19.994	103.335	19.862	3.256	0.499
155.000	147.827	80.004	19.993	103.336	19.862	3.237	0.433
155.500	148.120	80.004	19.994	103.335	19.860	3.377	0.442
156.000	148.339	80.003	19.994	103.335	19.861	3.343	0.499
156.500	148.619	80.003	19.995	103.336	19.861	3.333	0.506
157.000	148.864	80.002	19.994	103.337	19.862	3.254	0.512
157.500	149.090	80.003	19.995	103.339	19.861	3.341	0.498
158.000	149.359	80.003	19.994	103.338	19.862	3.258	0.483
158.500	149.601	80.003	19.994	103.336	19.861	3.309	0.503
159.000	149.847	80.004	19.995	103.336	19.862	3.219	0.500
159.500	150.076	80.004	19.994	103.334	19.862	3.211	0.482
160.000	150.318	80.004	19.995	103.329	19.861	3.284	0.473
160.500	150.554	80.003	19.995	103.327	19.865	3.002	0.474
161.000	150.806	80.003	19.995	103.322	19.864	3.120	0.483
161.500	151.050	80.004	19.995	103.318	19.862	3.258	0.492
162.000	151.278	80.002	19.996	103.319	19.865	3.016	0.484
162.500	151.527	80.003	19.995	103.318	19.863	3.187	0.474
163.000	151.750	80.005	19.996	103.319	19.862	3.217	0.475
163.500	151.994	80.004	19.995	103.323	19.863	3.140	0.470
164.000	152.230	80.005	19.995	103.326	19.863	3.175	0.474
164.500	152.514	80.002	19.995	103.327	19.862	3.260	0.500
165.000	152.736	80.003	19.995	103.331	19.861	3.307	0.513
165.500	152.961	80.003	19.995	103.334	19.867	2.879	0.476
166.000	153.231	80.004	19.995	103.335	19.864	3.130	0.471
166.500	153.477	80.004	19.995	103.335	19.863	3.157	0.505
167.000	153.686	80.004	19.996	103.333	19.865	3.055	0.486
167.500	153.955	80.004	19.996	103.332	19.865	3.011	0.467
168.000	154.222	80.004	19.995	103.330	19.862	3.240	0.507
168.500	154.432	80.004	19.994	103.329	19.864	3.075	0.506
169.000	154.664	80.004	19.995	103.322	19.861	3.335	0.460
169.500	154.926	80.004	19.995	103.321	19.860	3.396	0.468
170.000	155.181	80.004	19.995	103.321	19.860	3.406	0.505
170.500	155.405	80.005	19.995	103.323	19.861	3.339	0.498
171.000	155.664	80.005	19.995	103.325	19.861	3.282	0.481
171.500	155.888	80.006	19.996	103.326	19.863	3.150	0.483
172.000	156.121	80.004	19.995	103.326	19.860	3.396	0.470
172.500	156.343	80.003	19.995	103.325	19.857	3.570	0.455
173.000	156.642	80.004	19.996	103.326	19.863	3.144	0.488
173.500	156.877	80.004	19.995	103.324	19.860	3.392	0.528
174.000	157.115	80.003	19.996	103.327	19.861	3.341	0.504
174.500	157.393	80.004	19.995	103.323	19.862	3.230	0.495
175.000	157.627	80.002	19.994	103.319	19.862	3.271	0.514
175.500	157.870	80.004	19.996	103.317	19.862	3.228	0.495
176.000	158.122	80.004	19.995	103.315	19.865	3.029	0.487
176.500	158.373	80.003	19.995	103.312	19.863	3.181	0.499
177.000	158.629	80.003	19.995	103.317	19.864	3.118	0.504
177.500	158.875	80.004	19.995	103.316	19.862	3.260	0.504
178.000	159.121	80.003	19.995	103.311	19.863	3.177	0.498
178.500	159.352	80.003	19.994	103.314	19.863	3.193	0.485
179.000	159.605	80.003	19.995	103.317	19.862	3.270	0.480
179.500	159.873	80.006	19.996	103.316	19.864	3.092	0.503
180.000	160.110	80.005	19.995	103.319	19.864	3.080	0.513
180.500	160.346	80.005	19.995	103.322	19.862	3.208	0.489
181.000	160.622	80.003	19.995	103.322	19.858	3.498	0.492
181.500	160.890	80.003	19.995	103.322	19.864	3.122	0.528
182.000	161.108	80.004	19.994	103.325	19.862	3.226	0.515
182.500	161.378	80.004	19.995	103.328	19.865	3.037	0.487
183.000	161.619	80.003	19.994	103.327	19.863	3.165	0.500
183.500	161.828	80.003	19.995	103.328	19.865	3.043	0.480
184.000	162.086	80.006	19.995	103.325	19.865	3.031	0.458
184.500	162.355	80.005	19.995	103.318	19.865	3.037	0.497
185.000	162.580	80.004	19.995	103.315	19.868	2.840	0.511
185.500	162.800	80.005	19.995	103.315	19.863	3.137	0.470
186.000	163.050	80.002	19.995	103.311	19.867	2.852	0.458
186.500	163.347	80.003	19.996	103.311	19.864	3.094	0.509
187.000	163.568	80.004	19.995	103.313	19.867	2.913	0.532
187.500	163.876	80.004	19.994	103.316	19.864	3.082	0.523
188.000	164.134	80.003	19.995	103.315	19.866	2.962	0.547
188.500	164.358	80.004	19.995	103.318	19.863	3.183	0.524
189.000	164.628	80.006	19.995	103.317	19.863	3.139	0.488
189.500	164.882	80.004	19.995	103.318	19.861	3.319	0.509
190.000	165.141	80.005	19.995	103.313	19.863	3.171	0.519
190.500	165.409	80.004	19.995	103.313	19.862	3.262	0.520
191.000	165.633	80.003	19.995	103.309	19.861	3.319	0.510
191.500	165.904	80.005	19.996	103.308	19.866	2.980	0.493
192.000	166.133	80.005	19.996	103.308	19.864	3.125	0.497
192.500	166.415	80.005	19.995	103.309	19.866	2.966	0.506
193.000	166.683	80.004	19.997	103.310	19.863	3.196	0.531
193.500	166.890	80.005	19.995	103.310	19.861	3.285	0.512
194.000	167.141	80.006	19.995	103.309	19.865	3.025	0.466
194.500	167.421	80.004	19.995	103.306	19.865	3.039	0.495
195.000	167.699	80.005	19.996	103.305	19.867	2.895	0.545
195.500	167.889	80.004	19.995	103.303	19.865	3.029	0.513
196.000	168.141	80.004	19.995	103.302	19.864	3.096	0.454
196.500	168.399	80.007	19.995	103.304	19.867	2.907	0.476
197.000	168.682	80.005	19.995	103.309	19.866	2.964	0.526
197.500	168.945	80.002	19.995	103.311	19.864	3.120	0.543
198.000	169.193	80.003	19.995	103.310	19.864	3.070	0.528
198.500	169.444	80.004	19.995	103.310	19.865	2.987	0.505
199.000	169.722	80.004	19.995	103.309	19.866	2.950	0.514
199.500	169.975	80.005	19.995	103.305	19.865	3.054	0.529
200.000	170.220	80.004	19.995	103.307	19.865	3.049	0.514
200.500	170.466	80.003	19.995	103.308	19.864	3.096	0.495
201.000	170.675	80.004	19.995	103.309	19.863	3.135	0.473
201.500	170.922	80.003	19.996	103.309	19.864	3.064	0.455
202.000	171.197	80.003	19.994	103.308	19.862	3.240	0.489
202.500	171.458	80.002	19.995	103.302	19.863	3.190	0.529
203.000	171.655	80.003	19.995	103.301	19.863	3.135	0.497
203.500	171.949	80.002	19.995	103.300	19.863	3.190	0.475
204.000	172.181	80.002	19.994	103.300	19.861	3.279	0.508
204.500	172.455	80.002	19.994	103.300	19.861	3.338	0.516
205.000	172.705	80.003	19.995	103.300	19.865	3.007	0.515
205.500	172.931	80.003	19.995	103.301	19.862	3.239	0.500
206.000	173.197	80.003	19.995	103.301	19.867	2.906	0.484
206.500	173.489	80.004	19.995	103.302	19.861	3.306	0.525
207.000	173.746	80.002	19.994	103.303	19.862	3.265	0.554
207.500	173.960	80.002	19.994	103.305	19.863	3.159	0.510
208.000	174.245	80.003	19.994	103.305	19.862	3.214	0.485
208.500	174.447	80.003	19.994	103.305	19.863	3.141	0.493
209.000	174.750	80.002	19.994	103.305	19.864	3.066	0.496
209.500	174.974	80.003	19.994	103.304	19.864	3.096	0.516
210.000	175.229	80.002	19.993	103.302	19.864	3.123	0.503
210.500	175.491	80.004	19.995	103.303	19.864	3.084	0.499
211.000	175.733	80.000	19.994	103.303	19.863	3.198	0.511
211.500	176.027	80.003	19.995	103.303	19.864	3.096	0.520
212.000	176.238	80.004	19.994	103.306	19.864	3.119	0.520
212.500	176.481	80.003	19.994	103.306	19.861	3.308	0.480
213.000	176.768	80.003	19.994	103.306	19.862	3.269	0.492
213.500	176.997	80.002	19.994	103.306	19.863	3.174	0.522
214.000	177.263	80.004	19.994	103.302	19.865	3.019	0.505
214.500	177.500	80.002	19.994	103.298	19.862	3.235	0.499
215.000	177.756	80.005	19.995	103.297	19.864	3.064	0.498
215.500	178.004	80.003	19.995	103.296	19.862	3.227	0.498
216.000	178.290	80.005	19.995	103.293	19.863	3.152	0.519
216.500	178.508	80.004	19.995	103.294	19.864	3.058	0.519
217.000	178.726	80.003	19.995	103.294	19.861	3.275	0.470
217.500	179.009	80.004	19.994	103.294	19.865	3.032	0.469
218.000	179.234	80.004	19.995	103.294	19.864	3.060	0.504
218.500	179.522	80.003	19.994	103.295	19.864	3.107	0.510
219.000	179.780	80.003	19.994	103.298	19.865	3.005	0.530
219.500	180.027	80.003	19.995	103.298	19.867	2.877	0.526
220.000	180.273	80.004	19.994	103.297	19.866	2.948	0.499
220.500	180.546	80.004	19.995	103.297	19.867	2.861	0.506
221.000	180.789	80.004	19.995	103.298	19.866	2.985	0.517
221.500	181.049	80.005	19.995	103.299	19.865	3.046	0.510
222.000	181.331	80.004	19.994	103.299	19.866	2.969	0.523
222.500	181.561	80.003	19.994	103.298	19.863	3.152	0.527
223.000	181.801	80.005	19.995	103.298	19.863	3.136	0.491
223.500	182.071	80.004	19.995	103.298	19.867	2.888	0.490
224.000	182.312	80.004	19.995	103.295	19.863	3.200	0.511
224.500	182.537	80.004	19.994	103.294	19.864	3.066	0.489
225.000	182.834	80.003	19.994	103.293	19.866	2.981	0.494
225.500	183.079	80.004	19.995	103.291	19.863	3.135	0.532
226.000	183.293	80.003	19.995	103.287	19.863	3.150	0.501
226.500	183.580	80.003	19.996	103.286	19.865	2.995	0.480
227.000	183.825	80.001	19.994	103.285	19.866	2.965	0.516
227.500	184.069	80.002	19.994	103.286	19.864	3.101	0.511
228.000	184.286	80.003	19.996	103.287	19.865	3.022	0.475
228.500	184.577	80.003	19.995	103.291	19.865	3.016	0.485
229.000	184.826	80.004	19.995	103.291	19.864	3.097	0.524
229.500	185.085	80.001	19.994	103.290	19.866	2.965	0.524
230.000	185.323	80.002	19.994	103.288	19.864	3.097	0.503
230.500	185.568	80.003	19.995	103.287	19.867	2.859	0.490
231.000	185.862	80.004	19.994	103.286	19.864	3.075	0.511
231.500	186.108	80.005	19.995	103.289	19.864	3.097	0.540
232.000	186.336	80.004	19.995	103.288	19.865	3.010	0.507
232.500	186.644	80.004	19.995	103.285	19.866	2.965	0.505
233.000	186.880	80.002	19.996	103.282	19.866	2.957	0.540
233.500	187.142	80.003	19.995	103.279	19.867	2.896	0.521
234.000	187.363	80.003	19.996	103.275	19.864	3.069	0.490
234.500	187.620	80.005	19.995	103.279	19.866	2.973	0.480
235.000	187.825	80.003	19.995	103.284	19.862	3.223	0.470
235.500	188.075	80.003	19.995	103.289	19.864	3.087	0.459
236.000	188.364	80.003	19.995	103.291	19.862	3.233	0.497
236.500	188.570	80.002	19.995	103.289	19.862	3.270	0.517
237.000	188.866	80.004	19.995	103.286	19.862	3.225	0.499
237.500	189.088	80.003	19.994	103.285	19.864	3.113	0.510
238.000	189.350	80.003	19.995	103.284	19.865	3.002	0.501
238.500	189.566	80.003	19.995	103.282	19.865	3.046	0.481
239.000	189.829	80.004	19.994	103.282	19.863	3.138	0.479
239.500	190.103	80.003	19.995	103.281	19.863	3.180	0.508
240.000	190.359	80.004	19.995	103.277	19.864	3.124	0.533
240.500	190.582	80.004	19.995	103.278	19.864	3.128	0.505
241.000	190.815	80.002	19.994	103.279	19.864	3.085	0.468
241.500	191.089	80.003	19.995	103.281	19.864	3.083	0.482
242.000	191.328	80.004	19.995	103.277	19.863	3.169	0.510
242.500	191.584	80.002	19.995	103.274	19.863	3.164	0.504
243.000	191.853	80.003	19.995	103.267	19.863	3.164	0.510
243.500	192.097	80.006	19.995	103.263	19.864	3.091	0.519
244.000	192.343	80.003	19.995	103.262	19.864	3.095	0.501
244.500	192.599	80.005	19.995	103.265	19.869	2.730	0.496
245.000	192.826	80.004	19.995	103.270	19.867	2.880	0.493
245.500	193.103	80.006	19.995	103.275	19.863	3.130	0.494
246.000	193.334	80.006	19.995	103.281	19.863	3.142	0.506
246.500	193.592	80.005	19.995	103.284	19.866	2.969	0.498
247.000	193.833	80.005	19.994	103.285	19.865	3.044	0.494
247.500	194.094	80.006	19.994	103.280	19.866	2.957	0.501
248.000	194.303	80.005	19.997	103.275	19.864	3.093	0.486
248.500	194.601	80.004	19.996	103.275	19.863	3.198	0.488
249.000	194.799	80.005	19.995	103.276	19.864	3.101	0.502
249.500	195.052	80.005	19.995	103.273	19.864	3.091	0.474
250.000	195.279	80.005	19.995	103.275	19.866	2.971	0.465
250.500	195.522	80.004	19.995	103.275	19.861	3.309	0.475
251.000	195.780	80.005	19.995	103.268	19.866	2.951	0.486
251.500	196.052	80.005	19.994	103.264	19.865	3.010	0.515
252.000	196.283	80.004	19.995	103.263	19.866	2.951	0.517
252.500	196.516	80.003	19.995	103.262	19.865	2.996	0.484
253.000	196.759	80.005	19.995	103.262	19.866	2.925	0.470
253.500	197.016	80.004	19.995	103.265	19.866	2.957	0.488
254.000	197.215	80.006	19.995	103.266	19.866	2.917	0.478
254.500	197.464	80.004	19.995	103.270	19.866	2.925	0.452
255.000	197.751	80.004	19.995	103.269	19.865	3.036	0.492
255.500	197.970	80.006	19.995	103.270	19.862	3.209	0.521
256.000	198.247	80.002	19.996	103.270	19.863	3.144	0.501
256.500	198.479	80.005	19.995	103.271	19.860	3.373	0.502
257.000	198.702	80.003	19.995	103.269	19.865	3.002	0.482
257.500	198.955	80.003	19.995	103.271	19.864	3.073	0.466
258.000	199.251	80.005	19.995	103.276	19.861	3.312	0.512
258.500	199.508	80.003	19.996	103.278	19.861	3.274	0.551
259.000	199.681	80.003	19.995	103.280	19.862	3.262	0.491
259.500	199.923	80.004	19.995	103.279	19.862	3.207	0.422
260.000	200.193	80.004	19.996	103.278	19.861	3.304	0.463
260.500	200.403	80.005	19.995	103.273	19.861	3.339	0.496
261.000	200.691	80.005	19.994	103.267	19.865	3.051	0.489
261.500	200.931	80.002	19.996	103.263	19.863	3.150	0.513
262.000	201.192	80.003	19.994	103.263	19.863	3.169	0.514
262.500	201.408	80.003	19.995	103.265	19.860	3.412	0.489
263.000	201.615	80.006	19.996	103.267	19.859	3.473	0.450
263.500	201.885	80.003	19.996	103.267	19.862	3.254	0.450
264.000	202.102	80.002	19.996	103.267	19.863	3.163	0.482
264.500	202.411	80.004	19.996	103.267	19.863	3.185	0.506
265.000	202.647	80.005	19.996	103.266	19.863	3.148	0.535
265.500	202.879	80.003	19.995	103.264	19.864	3.091	0.506
266.000	203.143	80.006	19.995	103.265	19.864	3.093	0.482
266.500	203.370	80.003	19.995	103.272	19.862	3.272	0.493
267.000	203.628	80.004	19.995	103.276	19.861	3.299	0.489
267.500	203.915	80.003	19.994	103.277	19.863	3.183	0.515
268.000	204.135	80.004	19.994	103.279	19.864	3.087	0.526
268.500	204.355	80.003	19.994	103.279	19.863	3.150	0.474
269.000	204.587	80.002	19.995	103.273	19.863	3.136	0.446
269.500	204.847	80.004	19.995	103.271	19.861	3.331	0.472
270.000	205.056	80.007	19.995	103.272	19.866	2.933	0.480
270.500	205.338	80.005	19.995	103.270	19.864	3.096	0.480
271.000	205.560	80.004	19.994	103.269	19.865	3.049	0.498
271.500	205.803	80.006	19.995	103.268	19.863	3.152	0.485
272.000	206.035	80.006	19.995	103.265	19.863	3.136	0.470
272.500	206.300	80.005	19.994	103.262	19.864	3.126	0.486
273.000	206.556	80.005	19.994	103.261	19.860	3.402	0.509
273.500	206.794	80.006	19.994	103.261	19.863	3.201	0.507
274.000	207.022	80.003	19.995	103.261	19.862	3.234	0.480
274.500	207.272	80.005	19.993	103.262	19.863	3.152	0.472
275.000	207.521	80.006	19.995	103.261	19.862	3.226	0.489
275.500	207.799	80.005	19.995	103.260	19.861	3.293	0.513
276.000	208.047	80.005	19.995	103.260	19.862	3.215	0.527
276.500	208.251	80.005	19.994	103.260	19.862	3.240	0.489
277.000	208.458	80.004	19.993	103.260	19.864	3.122	0.431
277.500	208.736	80.005	19.995	103.262	19.863	3.195	0.448
278.000	208.995	80.006	19.995	103.262	19.862	3.272	0.511
278.500	209.267	80.006	19.994	103.263	19.861	3.278	0.534
279.000	209.486	80.006	19.995	103.262	19.860	3.347	0.511
279.500	209.735	80.005	19.994	103.262	19.859	3.421	0.480
280.000	209.939	80.005	19.994	103.260	19.861	3.335	0.461
280.500	210.212	80.005	19.994	103.259	19.861	3.284	0.465
281.000	210.413	80.003	19.994	103.260	19.858	3.516	0.475
281.500	210.715	80.005	19.994	103.260	19.859	3.433	0.489
282.000	210.945	80.004	19.995	103.260	19.858	3.559	0.517
282.500	211.210	80.004	19.995	103.260	19.858	3.518	0.513
283.000	211.439	80.003	19.995	103.260	19.855	3.766	0.494
283.500	211.677	80.003	19.996	103.259	19.858	3.538	0.480
284.000	211.909	80.004	19.995	103.259	19.861	3.321	0.468
284.500	212.151	80.003	19.995	103.258	19.857	3.611	0.472
285.000	212.420	80.002	19.996	103.257	19.859	3.475	0.493
285.500	212.623	80.002	19.996	103.258	19.859	3.419	0.492
286.000	212.890	80.002	19.995	103.258	19.859	3.453	0.471
286.500	213.112	80.002	19.995	103.258	19.856	3.691	0.480
287.000	213.332	80.002	19.996	103.258	19.858	3.557	0.466
287.500	213.638	80.002	19.997	103.258	19.856	3.662	0.484
288.000	213.886	80.001	19.996	103.259	19.857	3.624	0.540
288.500	214.117	80.001	19.996	103.260	19.855	3.733	0.516
289.000	214.354	80.004	19.996	103.260	19.854	3.788	0.473
289.500	214.585	80.003	19.997	103.260	19.855	3.772	0.468
290.000	214.825	80.002	19.996	103.260	19.853	3.875	0.470
290.500	215.047	80.002	19.996	103.259	19.854	3.802	0.467
291.000	215.315	80.001	19.996	103.258	19.851	4.066	0.476
291.500	215.536	80.002	19.996	103.257	19.852	3.963	0.489
292.000	215.783	80.003	19.996	103.257	19.851	4.024	0.478
292.500	216.043	80.001	19.996	103.257	19.852	3.932	0.487
293.000	216.306	80.003	19.994	103.257	19.851	4.066	0.515
293.500	216.535	80.003	19.996	103.257	19.851	4.038	0.508
294.000	216.746	80.002	19.996	103.257	19.850	4.138	0.466
294.500	217.016	80.004	19.996	103.257	19.849	4.150	0.461
295.000	217.243	80.004	19.995	103.257	19.849	4.186	0.489
295.500	217.484	80.004	19.995	103.258	19.847	4.349	0.483
296.000	217.714	80.003	19.995	103.258	19.848	4.261	0.470
296.500	217.985	80.001	19.995	103.257	19.847	4.314	0.486
297.000	218.189	80.002	19.995	103.258	19.846	4.411	0.487
297.500	218.424	80.001	19.995	103.258	19.845	4.484	0.457
298.000	218.695	80.004	19.996	103.258	19.847	4.309	0.473
298.500	218.950	80.004	19.995	103.259	19.841	4.770	0.516
299.000	219.182	80.003	19.995	103.259	19.843	4.639	0.506
299.500	219.424	80.004	19.995	103.259	19.842	4.688	0.480
300.000	219.680	80.002	19.995	103.259	19.844	4.566	0.486
300.500	219.934	80.003	19.995	103.259	19.845	4.501	0.504
301.000	220.134	80.002	19.993	103.259	19.843	4.593	0.482
301.500	220.404	80.005	19.995	103.260	19.843	4.631	0.462
302.000	220.639	80.004	19.994	103.259	19.844	4.529	0.487
302.500	220.890	80.003	19.995	103.260	19.842	4.710	0.495
303.000	221.100	80.004	19.995	103.260	19.840	4.838	0.473
303.500	221.402	80.004	19.995	103.260	19.842	4.702	0.487
304.000	221.616	80.004	19.995	103.259	19.840	4.794	0.514
304.500	221.858	80.004	19.995	103.259	19.841	4.783	0.486
305.000	222.088	80.004	19.994	103.259	19.841	4.753	0.464
305.500	222.312	80.002	19.993	103.259	19.840	4.848	0.463
306.000	222.599	80.006	19.996	103.259	19.840	4.840	0.483
306.500	222.832	80.021	19.997	103.263	19.837	5.019	0.516
307.000	223.085	80.022	20.000	103.267	19.838	4.968	0.503
307.500	223.362	80.021	20.000	103.273	19.839	4.883	0.508
308.000	223.597	80.024	20.002	103.279	19.836	5.137	0.521
308.500	223.808	80.024	19.999	103.281	19.835	5.198	0.479
309.000	224.023	80.018	19.998	103.279	19.834	5.228	0.437
309.500	224.249	80.007	19.995	103.275	19.836	5.090	0.434
310.000	224.509	80.006	19.996	103.270	19.834	5.271	0.464
310.500	224.765	80.003	19.995	103.263	19.833	5.334	0.501
311.000	225.013	80.004	19.995	103.261	19.835	5.192	0.510
311.500	225.242	80.005	19.994	103.259	19.833	5.328	0.490
312.000	225.501	80.003	19.995	103.259	19.831	5.444	0.482
312.500	225.736	80.003	19.994	103.259	19.831	5.496	0.491
313.000	225.978	80.004	19.995	103.260	19.829	5.638	0.486
313.500	226.225	80.001	19.994	103.261	19.827	5.748	0.483
314.000	226.506	80.004	19.995	103.261	19.829	5.622	0.508
314.500	226.731	80.005	19.995	103.261	19.827	5.752	0.517
315.000	226.985	80.003	19.995	103.260	19.827	5.744	0.493
315.500	227.249	80.002	19.994	103.261	19.826	5.874	0.498
316.000	227.495	80.004	19.996	103.261	19.827	5.775	0.514
316.500	227.724	80.004	19.995	103.262	19.825	5.917	0.493
317.000	227.969	80.002	19.994	103.261	19.824	6.012	0.475
317.500	228.248	80.003	19.995	103.262	19.819	6.327	0.499
318.000	228.456	80.000	19.994	103.261	19.821	6.193	0.506
318.500	228.745	80.001	19.995	103.262	19.820	6.236	0.492
319.000	228.983	80.001	19.995	103.262	19.820	6.248	0.512
319.500	229.258	80.000	19.995	103.263	19.820	6.301	0.520
320.000	229.475	80.000	19.995	103.263	19.820	6.297	0.503
320.500	229.741	80.002	19.995	103.263	19.820	6.274	0.487
321.000	229.972	80.000	19.994	103.263	19.816	6.553	0.490
321.500	230.249	80.003	19.995	103.262	19.818	6.421	0.503
322.000	230.495	80.002	19.994	103.262	19.817	6.510	0.516
322.500	230.738	80.001	19.995	103.261	19.819	6.376	0.506
323.000	230.981	80.002	19.994	103.261	19.817	6.483	0.487
323.500	231.209	80.002	19.994	103.261	19.818	6.390	0.478
324.000	231.491	80.002	19.995	103.261	19.819	6.354	0.490
324.500	231.728	80.002	19.995	103.260	19.820	6.274	0.514
325.000	232.005	80.001	19.994	103.260	19.820	6.289	0.517
325.500	232.236	80.003	19.994	103.261	19.821	6.223	0.511
326.000	232.479	80.002	19.994	103.261	19.818	6.390	0.491
326.500	232.731	80.005	19.994	103.261	19.820	6.242	0.485
327.000	232.940	80.003	19.994	103.261	19.820	6.302	0.478
327.500	233.213	80.003	19.994	103.262	19.821	6.199	0.472
328.000	233.446	80.004	19.995	103.260	19.821	6.213	0.494
328.500	233.685	80.004	19.994	103.260	19.822	6.122	0.489
329.000	233.943	80.002	19.994	103.260	19.825	5.890	0.484
329.500	234.203	80.007	19.994	103.260	19.827	5.797	0.508
330.000	234.425	80.005	19.994	103.260	19.822	6.150	0.500
330.500	234.693	80.007	19.994	103.260	19.829	5.655	0.486
331.000	234.939	80.002	19.994	103.260	19.823	6.026	0.502
331.500	235.178	80.004	19.994	103.259	19.825	5.927	0.500
332.000	235.438	80.006	19.994	103.259	19.828	5.724	0.492
332.500	235.668	80.005	19.994	103.259	19.830	5.565	0.494
333.000	235.923	80.004	19.994	103.261	19.830	5.575	0.487
333.500	236.166	80.005	19.994	103.261	19.832	5.395	0.492
334.000	236.431	80.005	19.994	103.262	19.833	5.366	0.503
334.500	236.660	80.004	19.995	103.261	19.830	5.527	0.501
335.000	236.940	80.005	19.994	103.260	19.836	5.118	0.502
335.500	237.163	80.004	19.994	103.259	19.839	4.923	0.506
336.000	237.428	80.004	19.995	103.260	19.838	4.978	0.495
336.500	237.697	80.004	19.994	103.260	19.839	4.915	0.511
337.000	237.922	80.004	19.996	103.262	19.836	5.090	0.514
337.500	238.171	80.003	19.995	103.264	19.839	4.932	0.484
338.000	238.450	80.004	19.995	103.264	19.841	4.779	0.501
338.500	238.722	80.004	19.995	103.264	19.840	4.808	0.540
339.000	238.977	80.005	19.995	103.264	19.840	4.822	0.539
339.500	239.190	80.004	19.994	103.260	19.843	4.590	0.498
340.000	239.443	80.005	19.994	103.260	19.842	4.706	0.467
340.500	239.670	80.003	19.995	103.259	19.841	4.788	0.473
341.000	239.945	80.003	19.994	103.260	19.843	4.582	0.491
341.500	240.169	80.004	19.993	103.260	19.840	4.857	0.500
342.000	240.401	80.004	19.993	103.263	19.841	4.741	0.477
342.500	240.686	80.002	19.994	103.264	19.841	4.776	0.486
343.000	240.942	80.004	19.994	103.264	19.842	4.652	0.529
343.500	241.194	80.005	19.994	103.263	19.843	4.607	0.525
344.000	241.455	80.004	19.994	103.264	19.843	4.641	0.511
344.500	241.698	80.006	19.994	103.264	19.844	4.524	0.508
345.000	241.894	80.004	19.994	103.263	19.843	4.643	0.471
345.500	242.216	80.004	19.995	103.262	19.844	4.550	0.479
346.000	242.425	80.004	19.995	103.262	19.844	4.509	0.525
346.500	242.699	80.006	19.995	103.262	19.843	4.615	0.507
347.000	242.983	80.005	19.994	103.260	19.842	4.656	0.520
347.500	243.194	80.004	19.996	103.260	19.839	4.916	0.526
348.000	243.432	80.005	19.995	103.259	19.841	4.784	0.472
348.500	243.719	80.004	19.995	103.259	19.842	4.695	0.487
349.000	243.946	80.004	19.995	103.258	19.839	4.912	0.519
349.500	244.185	80.004	19.994	103.258	19.841	4.748	0.490
350.000	244.456	80.003	19.995	103.258	19.839	4.900	0.488
350.500	244.675	80.003	19.995	103.259	19.840	4.815	0.500
351.000	244.994	80.005	19.995	103.259	19.839	4.926	0.514
351.500	245.218	80.004	19.995	103.259	19.840	4.841	0.541
352.000	245.456	80.004	19.995	103.258	19.840	4.824	0.503
352.500	245.671	80.004	19.995	103.256	19.841	4.768	0.458
353.000	245.978	80.007	19.995	103.256	19.842	4.678	0.488
353.500	246.231	80.005	19.995	103.255	19.841	4.729	0.541
354.000	246.453	80.005	19.995	103.255	19.841	4.764	0.517
354.500	246.692	80.004	19.995	103.255	19.840	4.818	0.468
355.000	246.933	80.004	19.996	103.256	19.836	5.084	0.471
355.500	247.192	80.003	19.994	103.255	19.838	4.938	0.490
356.000	247.442	80.006	19.994	103.255	19.837	5.036	0.504
356.500	247.674	80.005	19.995	103.255	19.838	4.940	0.496
357.000	247.945	80.004	19.995	103.256	19.836	5.119	0.492
357.500	248.235	80.005	19.995	103.256	19.835	5.158	0.532
358.000	248.444	80.004	19.996	103.256	19.834	5.290	0.530
358.500	248.734	80.008	19.995	103.256	19.836	5.119	0.499
359.000	248.931	80.006	19.995	103.251	19.834	5.267	0.493
359.500	249.233	80.006	19.995	103.248	19.834	5.241	0.493
360.000	249.486	80.007	19.995	103.243	19.835	5.161	0.527
360.500	249.730	80.005	19.994	103.242	19.834	5.277	0.526
361.000	249.957	80.003	19.995	103.243	19.832	5.385	0.484
361.500	250.239	80.004	19.994	103.247	19.832	5.420	0.491
362.000	250.493	80.005	19.994	103.251	19.835	5.208	0.523
362.500	250.720	80.005	19.995	103.254	19.830	5.548	0.508
363.000	251.008	80.004	19.994	103.253	19.831	5.509	0.498
363.500	251.243	80.005	19.996	103.249	19.834	5.261	0.519
364.000	251.530	80.003	19.996	103.249	19.829	5.597	0.522
364.500	251.740	80.002	19.994	103.249	19.830	5.539	0.509
365.000	252.024	80.003	19.995	103.248	19.833	5.365	0.496
365.500	252.272	80.004	19.996	103.248	19.830	5.554	0.513
366.000	252.513	80.004	19.996	103.252	19.828	5.682	0.510
366.500	252.792	80.004	19.995	103.253	19.825	5.901	0.505
367.000	253.044	80.003	19.995	103.252	19.827	5.749	0.526
367.500	253.274	80.002	19.996	103.249	19.828	5.710	0.507
368.000	253.527	80.005	19.996	103.251	19.827	5.779	0.482
368.500	253.763	80.003	19.996	103.248	19.828	5.718	0.486
369.000	254.005	80.002	19.996	103.247	19.828	5.662	0.483
369.500	254.286	80.003	19.995	103.247	19.827	5.759	0.500
370.000	254.508	80.005	19.996	103.251	19.827	5.791	0.513
370.500	254.763	80.003	19.996	103.253	19.827	5.763	0.491
371.000	255.010	80.003	19.995	103.255	19.825	5.907	0.490
371.500	255.258	80.003	19.996	103.255	19.826	5.838	0.498
372.000	255.508	80.003	19.995	103.257	19.824	5.971	0.496
372.500	255.784	80.002	19.996	103.254	19.825	5.938	0.512
373.000	256.022	80.004	19.995	103.249	19.824	5.995	0.520
373.500	256.264	80.001	19.995	103.246	19.822	6.097	0.497
374.000	256.531	80.003	19.996	103.247	19.824	5.999	0.495
374.500	256.769	80.002	19.996	103.246	19.823	6.021	0.507
375.000	257.024	80.002	19.996	103.249	19.822	6.114	0.499
375.500	257.287	80.004	19.995	103.253	19.823	6.035	0.505
376.000	257.531	80.003	19.996	103.254	19.823	6.061	0.512
376.500	257.783	80.002	19.995	103.251	19.824	5.958	0.501
377.000	258.025	80.003	19.995	103.251	19.825	5.889	0.495
377.500	258.262	80.002	19.996	103.252	19.824	5.990	0.486
378.000	258.534	80.003	19.996	103.251	19.824	6.005	0.494
378.500	258.781	80.003	19.996	103.249	19.821	6.179	0.514
379.000	259.065	80.003	19.994	103.250	19.821	6.204	0.525
379.500	259.284	80.004	19.996	103.247	19.822	6.127	0.517
380.000	259.548	80.004	19.996	103.245	19.822	6.139	0.493
380.500	259.817	80.001	19.996	103.246	19.821	6.188	0.508
381.000	260.046	80.002	19.996	103.250	19.819	6.324	0.516
381.500	260.293	80.004	19.996	103.251	19.822	6.103	0.487
382.000	260.538	80.003	19.996	103.252	19.820	6.270	0.484
382.500	260.770	80.002	19.996	103.246	19.819	6.355	0.484
383.000	261.049	80.003	19.996	103.240	19.819	6.338	0.494
383.500	261.254	80.002	19.996	103.237	19.822	6.160	0.497
384.000	261.552	80.002	19.996	103.235	19.817	6.501	0.494
384.500	261.780	80.001	19.996	103.237	19.819	6.324	0.515
385.000	262.010	80.002	19.996	103.241	19.816	6.576	0.492
385.500	262.293	80.001	19.996	103.248	19.816	6.525	0.485
386.000	262.494	80.002	19.996	103.252	19.817	6.510	0.498
386.500	262.764	80.002	19.996	103.255	19.814	6.696	0.477
387.000	263.032	80.001	19.996	103.255	19.815	6.614	0.505
387.500	263.252	80.004	19.996	103.255	19.817	6.492	0.513
388.000	263.528	80.002	19.997	103.254	19.813	6.771	0.492
388.500	263.794	80.002	19.996	103.252	19.813	6.764	0.519
389.000	264.033	80.002	19.997	103.252	19.814	6.724	0.524
389.500	264.306	80.005	19.996	103.250	19.811	6.885	0.509
390.000	264.570	80.002	19.995	103.250	19.811	6.937	0.524
390.500	264.834	80.002	19.995	103.251	19.807	7.177	0.532
391.000	265.069	80.005	19.995	103.248	19.811	6.934	0.514
391.500	265.325	80.003	19.995	103.247	19.809	7.082	0.495
392.000	265.546	80.003	19.995	103.246	19.809	7.055	0.484
392.500	265.783	80.005	19.996	103.243	19.809	7.032	0.467
393.000	266.083	80.005	19.996	103.238	19.809	7.070	0.497
393.500	266.322	80.003	19.995	103.242	19.809	7.082	0.538
394.000	266.569	80.003	19.994	103.241	19.812	6.847	0.513
394.500	266.809	80.003	19.995	103.244	19.807	7.200	0.486
395.000	267.048	80.003	19.996	103.248	19.807	7.201	0.483
395.500	267.281	80.002	19.995	103.251	19.809	7.075	0.476
396.000	267.537	80.003	19.996	103.248	19.809	7.042	0.480
396.500	267.815	80.004	19.994	103.250	19.810	7.020	0.511
397.000	268.070	80.004	19.994	103.251	19.807	7.231	0.533
397.500	268.330	80.002	19.995	103.248	19.808	7.141	0.524
398.000	268.564	80.002	19.995	103.251	19.806	7.280	0.504
398.500	268.785	80.003	19.994	103.251	19.805	7.345	0.475
399.000	269.077	80.003	19.994	103.251	19.807	7.223	0.484
399.500	269.294	80.002	19.994	103.250	19.803	7.485	0.511
400.000	269.543	80.002	19.994	103.250	19.805	7.373	0.488
400.500	269.777	80.003	19.995	103.244	19.803	7.529	0.475
401.000	270.070	80.000	19.995	103.246	19.803	7.529	0.505
401.500	270.297	80.004	19.995	103.243	19.803	7.525	0.524
402.000	270.574	80.001	19.994	103.241	19.805	7.371	0.512
402.500	270.802	80.003	19.995	103.246	19.806	7.300	0.504
403.000	271.078	80.003	19.993	103.253	19.801	7.637	0.504
403.500	271.334	80.002	19.995	103.255	19.800	7.737	0.518
404.000	271.598	80.002	19.994	103.261	19.800	7.696	0.526
404.500	271.811	80.002	19.994	103.264	19.801	7.617	0.499
405.000	272.091	80.004	19.994	103.261	19.800	7.685	0.485
405.500	272.334	80.003	19.995	103.260	19.801	7.667	0.508
406.000	272.578	80.004	19.995	103.260	19.800	7.697	0.505
406.500	272.839	80.004	19.994	103.259	19.801	7.623	0.496
407.000	273.083	80.004	19.995	103.259	19.800	7.704	0.505
407.500	273.365	80.004	19.996	103.263	19.803	7.529	0.516
408.000	273.601	80.003	19.995	103.263	19.801	7.626	0.523
408.500	273.852	80.004	19.995	103.263	19.800	7.743	0.502
409.000	274.061	80.004	19.995	103.262	19.801	7.627	0.473
409.500	274.337	80.006	19.995	103.262	19.800	7.712	0.472
410.000	274.605	80.004	19.995	103.261	19.801	7.645	0.515
410.500	274.844	80.005	19.995	103.262	19.800	7.710	0.526
411.000	275.080	80.006	19.995	103.264	19.802	7.541	0.491
411.500	275.330	80.004	19.995	103.268	19.801	7.627	0.480
412.000	275.624	80.004	19.995	103.268	19.800	7.724	0.515
412.500	275.853	80.005	19.995	103.267	19.803	7.478	0.534
413.000	276.095	80.005	19.995	103.266	19.804	7.442	0.497
413.500	276.325	80.006	19.994	103.263	19.802	7.602	0.471
414.000	276.593	80.006	19.995	103.259	19.803	7.472	0.485
414.500	276.813	80.004	19.995	103.259	19.802	7.557	0.493
415.000	277.040	80.005	19.995	103.262	19.805	7.384	0.467
415.500	277.329	80.006	19.994	103.265	19.801	7.630	0.481
416.000	277.566	80.003	19.995	103.268	19.802	7.573	0.521
416.500	277.820	80.004	19.994	103.270	19.800	7.750	0.509
417.000	278.056	80.005	19.995	103.269	19.800	7.743	0.490
417.500	278.300	80.003	19.995	103.266	19.803	7.493	0.485
418.000	278.540	80.004	19.995	103.268	19.797	7.957	0.482
418.500	278.821	80.005	19.995	103.270	19.800	7.701	0.503
419.000	279.047	80.003	19.995	103.275	19.801	7.670	0.514
419.500	279.302	80.004	19.995	103.282	19.797	7.908	0.494
420.000	279.589	80.003	19.995	103.288	19.797	7.908	0.511
420.500	279.817	80.004	19.995	103.290	19.796	7.997	0.528
421.000	280.054	80.003	19.994	103.291	19.798	7.843	0.490
421.500	280.320	80.003	19.994	103.293	19.795	8.066	0.484
422.000	280.592	80.005	19.995	103.293	19.796	8.045	0.520
422.500	280.809	80.003	19.995	103.293	19.793	8.237	0.514
423.000	281.032	80.005	19.994	103.294	19.794	8.171	0.465
423.500	281.295	80.003	19.995	103.295	19.792	8.284	0.463
424.000	281.554	80.003	19.996	103.294	19.797	7.909	0.504
424.500	281.789	80.003	19.995	103.296	19.794	8.162	0.508
425.000	282.056	80.003	19.995	103.297	19.790	8.421	0.498
425.500	282.310	80.005	19.995	103.299	19.793	8.236	0.511
426.000	282.555	80.005	19.994	103.299	19.790	8.449	0.510
426.500	282.812	80.003	19.994	103.300	19.791	8.363	0.501
427.000	283.035	80.003	19.994	103.300	19.792	8.304	0.491
427.500	283.307	80.004	19.994	103.301	19.789	8.518	0.488
428.000	283.559	80.004	19.995	103.307	19.790	8.444	0.510
428.500	283.810	80.003	19.995	103.314	19.787	8.653	0.513
429.000	284.064	80.004	19.995	103.321	19.789	8.550	0.504
429.500	284.309	80.005	19.995	103.328	19.783	8.949	0.502
430.000	284.533	80.004	19.995	103.332	19.783	8.928	0.484
430.500	284.799	80.005	19.994	103.331	19.784	8.854	0.480
431.000	285.032	80.004	19.995	103.331	19.782	9.020	0.495
431.500	285.317	80.006	19.994	103.332	19.784	8.881	0.508
432.000	285.565	80.006	19.994	103.332	19.784	8.920	0.525
432.500	285.785	80.006	19.994	103.339	19.780	9.201	0.500
433.000	286.005	80.006	19.994	103.344	19.778	9.299	0.454
433.500	286.271	80.005	19.995	103.345	19.780	9.217	0.463
434.000	286.524	80.005	19.994	103.346	19.776	9.449	0.502
434.500	286.792	80.005	19.994	103.348	19.775	9.567	0.520
435.000	286.999	80.006	19.994	103.345	19.773	9.714	0.499
435.500	287.262	80.005	19.994	103.347	19.771	9.846	0.473
436.000	287.517	80.006	19.994	103.354	19.770	9.879	0.493
436.500	287.784	80.005	19.995	103.360	19.768	10.094	0.520
437.000	288.017	80.006	19.995	103.366	19.767	10.131	0.511
437.500	288.281	80.004	19.994	103.373	19.767	10.164	0.499
438.000	288.538	80.006	19.995	103.379	19.766	10.224	0.509
438.500	288.759	80.005	19.995	103.387	19.764	10.356	0.500
439.000	288.993	80.004	19.994	103.396	19.758	10.763	0.467
439.500	289.279	80.005	19.994	103.404	19.761	10.609	0.488
440.000	289.500	80.006	19.994	103.413	19.757	10.857	0.514
440.500	289.750	80.007	19.995	103.421	19.754	11.088	0.489
441.000	289.981	80.006	19.994	103.429	19.751	11.300	0.476
441.500	290.246	80.004	19.994	103.437	19.751	11.293	0.488
442.000	290.506	80.007	19.995	103.449	19.746	11.663	0.510
442.500	290.757	80.004	19.995	103.461	19.743	11.876	0.518
443.000	290.974	80.005	19.995	103.473	19.741	12.030	0.490
443.500	291.240	80.004	19.995	103.483	19.739	12.155	0.476
444.000	291.493	80.005	19.996	103.498	19.738	12.246	0.501
444.500	291.702	80.003	19.994	103.509	19.732	12.684	0.490
445.000	291.981	80.004	19.995	103.519	19.730	12.818	0.475
445.500	292.252	80.004	19.995	103.533	19.727	13.007	0.519
446.000	292.483	80.003	19.995	103.548	19.727	13.062	0.526
446.500	292.764	80.001	19.994	103.559	19.719	13.591	0.507
447.000	292.996	80.005	19.995	103.574	19.719	13.578	0.512
447.500	293.226	80.002	19.995	103.589	19.712	14.075	0.487
448.000	293.458	80.003	19.995	103.607	19.710	14.273	0.462
448.500	293.703	80.000	19.996	103.625	19.707	14.448	0.469
449.000	293.973	80.002	19.994	103.645	19.704	14.664	0.496
449.500	294.171	80.001	19.994	103.662	19.704	14.679	0.492
450.000	294.438	80.004	19.995	103.677	19.699	14.996	0.467
450.500	294.722	80.003	19.995	103.686	19.695	15.337	0.508
451.000	294.982	80.003	19.994	103.693	19.689	15.739	0.548
451.500	295.189	80.003	19.995	103.699	19.688	15.830	0.505
452.000	295.426	80.002	19.996	103.706	19.686	15.931	0.455
452.500	295.719	80.003	19.996	103.713	19.681	16.327	0.487
453.000	295.936	80.002	19.995	103.715	19.678	16.489	0.520
453.500	296.191	80.004	19.995	103.713	19.677	16.607	0.491
454.000	296.410	80.004	19.995	103.708	19.675	16.731	0.473
454.500	296.655	80.001	19.994	103.696	19.669	17.161	0.468
455.000	296.917	80.002	19.996	103.680	19.669	17.110	0.486
455.500	297.150	80.003	19.995	103.665	19.666	17.378	0.502
456.000	297.412	80.002	19.995	103.648	19.666	17.329	0.495
456.500	297.652	80.003	19.995	103.626	19.662	17.661	0.498
457.000	297.879	80.002	19.995	103.607	19.656	18.067	0.485
457.500	298.119	80.001	19.995	103.584	19.657	18.015	0.467
458.000	298.363	80.003	19.996	103.560	19.653	18.271	0.475
458.500	298.616	80.004	19.995	103.531	19.652	18.362	0.490
459.000	298.886	80.002	19.994	103.501	19.652	18.374	0.510
459.500	299.110	80.002	19.993	103.469	19.650	18.511	0.509
460.000	299.347	80.003	19.995	103.437	19.651	18.417	0.478
460.500	299.590	80.002	19.993	103.404	19.651	18.447	0.470
461.000	299.853	80.003	19.997	103.373	19.652	18.375	0.493
461.500	300.071	80.003	19.994	103.340	19.653	18.311	0.494
462.000	300.346	80.001	19.995	103.304	19.652	18.364	0.487
462.500	300.580	80.001	19.994	103.267	19.653	18.316	0.500
463.000	300.824	80.003	19.993	103.229	19.654	18.194	0.493
463.500	301.044	80.002	19.994	103.195	19.655	18.127	0.471
464.000	301.323	80.002	19.996	103.164	19.654	18.241	0.482
464.500	301.550	80.004	19.995	103.135	19.655	18.153	0.503
465.000	301.819	80.005	19.996	103.111	19.657	17.983	0.501
465.500	302.053	80.004	19.994	103.086	19.657	17.994	0.499
466.000	302.301	80.002	19.995	103.064	19.661	17.702	0.493
466.500	302.579	80.002	19.995	103.039	19.659	17.886	0.504
467.000	302.799	80.002	19.995	103.020	19.661	17.699	0.512
467.500	303.019	80.003	19.995	102.997	19.666	17.382	0.469
468.000	303.282	80.002	19.994	102.981	19.665	17.442	0.461
468.500	303.544	80.002	19.996	102.966	19.664	17.489	0.504
469.000	303.782	80.002	19.994	102.958	19.670	17.070	0.513
469.500	304.059	80.003	19.994	102.951	19.671	17.026	0.508
470.000	304.297	80.003	19.995	102.950	19.672	16.919	0.515
470.500	304.500	80.001	19.993	102.949	19.673	16.850	0.478
471.000	304.709	80.003	19.994	102.950	19.677	16.566	0.426
471.500	304.990	80.002	19.995	102.952	19.680	16.368	0.451
472.000	305.233	80.003	19.995	102.958	19.685	16.017	0.507
472.500	305.493	80.003	19.996	102.963	19.683	16.125	0.513
473.000	305.732	80.001	19.997	102.971	19.689	15.697	0.501
473.500	305.986	80.003	19.994	102.979	19.688	15.796	0.496
474.000	306.226	80.002	19.996	102.987	19.691	15.608	0.493
474.500	306.503	80.004	19.995	102.997	19.692	15.486	0.505
475.000	306.744	80.003	19.996	103.010	19.696	15.258	0.518
475.500	306.995	80.002	19.996	103.025	19.698	15.111	0.505
476.000	307.277	80.003	19.995	103.040	19.702	14.792	0.513
476.500	307.492	80.002	19.996	103.057	19.701	14.861	0.515
477.000	307.737	80.001	19.996	103.074	19.703	14.729	0.479
477.500	308.008	80.001	19.996	103.090	19.707	14.467	0.488
478.000	308.279	80.002	19.996	103.105	19.708	14.368	0.529
478.500	308.484	80.002	19.996	103.124	19.709	14.282	0.509
479.000	308.733	80.002	19.995	103.141	19.709	14.308	0.465
479.500	308.986	80.002	19.996	103.155	19.711	14.157	0.478
480.000	309.283	80.004	19.996	103.165	19.715	13.852	0.526
480.500	309.486	80.003	19.996	103.174	19.717	13.676	0.525
481.000	309.728	80.002	19.997	103.177	19.718	13.620	0.473
481.500	309.994	80.003	19.995	103.181	19.718	13.614	0.477
482.000	310.249	80.002	19.996	103.186	19.724	13.188	0.515
482.500	310.493	80.002	19.996	103.192	19.724	13.223	0.510
483.000	310.726	80.002	19.995	103.198	19.724	13.195	0.488
483.500	310.977	80.003	19.994	103.201	19.726	13.061	0.481
484.000	311.246	80.004	19.994	103.207	19.722	13.335	0.502
484.500	311.462	80.002	19.995	103.213	19.728	12.925	0.503
485.000	311.755	80.003	19.996	103.216	19.729	12.855	0.497
485.500	312.020	80.003	19.994	103.218	19.731	12.728	0.534
486.000	312.247	80.002	19.995	103.224	19.730	12.782	0.525
486.500	312.514	80.002	19.994	103.226	19.729	12.847	0.493
487.000	312.767	80.004	19.995	103.227	19.727	12.969	0.507
487.500	313.012	80.002	19.996	103.226	19.730	12.747	0.509
488.000	313.259	80.004	19.995	103.229	19.735	12.401	0.494
488.500	313.510	80.004	19.995	103.235	19.735	12.383	0.495
489.000	313.774	80.002	19.995	103.238	19.736	12.331	0.507
489.500	314.026	80.003	19.994	103.240	19.735	12.406	0.516
490.000	314.266	80.004	19.995	103.244	19.735	12.382	0.504
490.500	314.516	80.003	19.994	103.246	19.735	12.425	0.491
491.000	314.773	80.002	19.994	103.246	19.736	12.326	0.498
491.500	315.016	80.003	19.995	103.247	19.739	12.153	0.503
492.000	315.262	80.005	19.995	103.251	19.738	12.185	0.494
492.500	315.530	80.004	19.994	103.252	19.740	12.018	0.501
493.000	315.737	80.005	19.995	103.251	19.741	11.969	0.494
493.500	316.017	80.005	19.995	103.247	19.740	12.067	0.481
494.000	316.259	80.008	19.994	103.244	19.743	11.858	0.505
494.500	316.520	80.006	19.995	103.242	19.744	11.770	0.512
495.000	316.775	80.005	19.994	103.242	19.745	11.702	0.509
495.500	317.037	80.006	19.995	103.242	19.744	11.739	0.516
496.000	317.274	80.006	19.994	103.243	19.746	11.645	0.508
496.500	317.545	80.005	19.995	103.239	19.748	11.503	0.504
497.000	317.799	80.006	19.995	103.233	19.749	11.416	0.517
497.500	317.996	80.005	19.995	103.231	19.746	11.613	0.489
498.000	318.287	80.006	19.994	103.229	19.749	11.408	0.469
498.500	318.497	80.006	19.993	103.232	19.747	11.514	0.494
499.000	318.734	80.006	19.993	103.234	19.751	11.254	0.474
499.500	318.970	80.005	19.995	103.234	19.753	11.081	0.460
500.000	319.235	80.006	19.995	103.232	19.752	11.144	0.487
500.500	319.466	80.003	19.995	103.230	19.756	10.914	0.499
501.000	319.699	80.004	19.995	103.224	19.753	11.103	0.481
501.500	319.975	80.005	19.995	103.223	19.752	11.198	0.486
502.000	320.210	80.004	19.994	103.223	19.757	10.796	0.510
502.500	320.445	80.004	19.994	103.223	19.755	10.928	0.491
503.000	320.696	80.005	19.994	103.223	19.758	10.770	0.478
503.500	320.956	80.005	19.994	103.227	19.759	10.647	0.498
504.000	321.175	80.004	19.995	103.228	19.758	10.743	0.495
504.500	321.442	80.002	19.995	103.228	19.757	10.808	0.482
505.000	321.694	80.005	19.996	103.229	19.761	10.519	0.502
505.500	321.912	80.004	19.994	103.229	19.764	10.324	0.495
506.000	322.146	80.005	19.995	103.224	19.762	10.442	0.461
506.500	322.454	80.002	19.995	103.220	19.767	10.127	0.497
507.000	322.658	80.005	19.996	103.220	19.764	10.306	0.527
507.500	322.948	80.004	19.996	103.218	19.765	10.235	0.503
508.000	323.131	80.005	19.995	103.219	19.766	10.186	0.484
508.500	323.395	80.004	19.995	103.219	19.766	10.170	0.460
509.000	323.679	80.003	19.996	103.219	19.767	10.126	0.498
509.500	323.890	80.005	19.995	103.217	19.770	9.850	0.522
510.000	324.107	80.004	19.995	103.216	19.770	9.846	0.461
510.500	324.374	80.005	19.993	103.216	19.767	10.109	0.455
511.000	324.622	80.005	19.994	103.216	19.771	9.841	0.499
511.500	324.842	80.004	19.995	103.216	19.772	9.755	0.491
512.000	325.113	80.005	19.994	103.218	19.772	9.698	0.480
512.500	325.340	80.005	19.994	103.218	19.773	9.642	0.494
513.000	325.620	80.004	19.994	103.218	19.774	9.569	0.502
513.500	325.883	80.003	19.994	103.218	19.772	9.705	0.525
514.000	326.121	80.006	19.993	103.220	19.777	9.339	0.522
514.500	326.373	80.006	19.995	103.221	19.779	9.248	0.496
515.000	326.601	80.005	19.994	103.223	19.780	9.142	0.485
515.500	326.828	80.005	19.995	103.224	19.777	9.393	0.468
516.000	327.077	80.006	19.994	103.224	19.782	9.024	0.465
516.500	327.349	80.005	19.995	103.223	19.783	8.933	0.498
517.000	327.576	80.006	19.994	103.223	19.785	8.789	0.510
517.500	327.825	80.006	19.994	103.223	19.786	8.740	0.487
518.000	328.098	80.006	19.995	103.222	19.786	8.740	0.499
518.500	328.291	80.006	19.995	103.221	19.787	8.619	0.494
519.000	328.559	80.007	19.994	103.221	19.788	8.560	0.464
519.500	328.809	80.006	19.994	103.220	19.789	8.533	0.489
520.000	329.091	80.007	19.994	103.215	19.789	8.523	0.525
520.500	329.341	80.007	19.994	103.211	19.790	8.407	0.533
521.000	329.546	80.006	19.994	103.207	19.794	8.165	0.494
521.500	329.786	80.006	19.994	103.205	19.792	8.275	0.450
522.000	330.042	80.006	19.993	103.202	19.793	8.250	0.470
522.500	330.317	80.007	19.996	103.202	19.797	7.894	0.514
523.000	330.533	80.006	19.993	103.202	19.795	8.077	0.511
523.500	330.791	80.007	19.994	103.201	19.797	7.948	0.482
524.000	331.078	80.005	19.995	103.196	19.793	8.217	0.510
524.500	331.292	80.006	19.994	103.196	19.795	8.038	0.524
525.000	331.536	80.006	19.994	103.198	19.796	7.973	0.480
525.500	331.761	80.007	19.994	103.198	19.797	7.961	0.463
526.000	332.017	80.006	19.994	103.201	19.801	7.621	0.475
526.500	332.269	80.005	19.993	103.203	19.799	7.779	0.494
527.000	332.556	80.004	19.995	103.200	19.797	7.938	0.523
527.500	332.781	80.004	19.994	103.194	19.800	7.707	0.525
528.000	333.055	80.004	19.994	103.193	19.801	7.624	0.505
528.500	333.297	80.004	19.996	103.189	19.802	7.539	0.507
529.000	333.537	80.004	19.994	103.186	19.804	7.429	0.499
529.500	333.818	80.003	19.993	103.186	19.805	7.378	0.502
530.000	334.070	80.003	19.994	103.186	19.803	7.479	0.527
530.500	334.298	80.003	19.995	103.186	19.803	7.490	0.506
531.000	334.570	80.003	19.993	103.185	19.803	7.522	0.490
531.500	334.802	80.004	19.993	103.185	19.807	7.173	0.502
532.000	335.090	80.004	19.994	103.185	19.808	7.157	0.512
532.500	335.324	80.003	19.995	103.186	19.806	7.298	0.521
533.000	335.553	80.003	19.995	103.191	19.810	6.954	0.493
533.500	335.792	80.003	19.995	103.192	19.808	7.151	0.465
534.000	336.073	80.003	19.994	103.197	19.809	7.072	0.494
534.500	336.253	80.002	19.994	103.202	19.810	6.968	0.491
535.000	336.590	80.002	19.995	103.203	19.811	6.889	0.489
535.500	336.806	80.002	19.995	103.203	19.810	7.005	0.535
536.000	337.088	80.004	19.995	103.204	19.812	6.832	0.525
536.500	337.358	80.002	19.994	103.204	19.811	6.887	0.525
537.000	337.564	80.001	19.995	103.206	19.814	6.672	0.514
537.500	337.801	80.004	19.998	103.208	19.811	6.909	0.460
538.000	338.058	80.004	19.994	103.203	19.817	6.491	0.469
538.500	338.296	80.002	19.996	103.201	19.817	6.505	0.495
539.000	338.524	80.003	19.996	103.197	19.812	6.824	0.480
539.500	338.803	80.003	19.995	103.193	19.817	6.499	0.486
540.000	339.088	80.003	19.996	103.193	19.819	6.348	0.535
540.500	339.329	80.003	19.996	103.197	19.816	6.543	0.545
541.000	339.559	80.003	19.995	103.197	19.821	6.222	0.498
541.500	339.838	80.003	19.997	103.197	19.818	6.411	0.490
542.000	340.072	80.004	19.995	103.193	19.821	6.165	0.511
542.500	340.337	80.003	19.995	103.189	19.821	6.204	0.506
543.000	340.588	80.005	19.995	103.184	19.818	6.428	0.508
543.500	340.851	80.002	19.996	103.183	19.826	5.832	0.515
544.000	341.130	80.004	19.996	103.182	19.819	6.338	0.528
544.500	341.337	80.004	19.996	103.182	19.820	6.288	0.514
545.000	341.629	80.004	19.995	103.181	19.822	6.123	0.493
545.500	341.850	80.004	19.994	103.181	19.823	6.072	0.506
546.000	342.102	80.004	19.995	103.181	19.825	5.911	0.493
546.500	342.389	80.003	19.995	103.182	19.822	6.147	0.506
547.000	342.635	80.003	19.995	103.182	19.821	6.186	0.536
547.500	342.847	80.004	19.995	103.182	19.831	5.454	0.495
548.000	343.113	80.004	19.995	103.182	19.824	5.948	0.468
548.500	343.345	80.003	19.996	103.182	19.815	6.606	0.488
549.000	343.640	80.004	19.995	103.182	19.819	6.328	0.512
549.500	343.877	80.004	19.997	103.182	19.822	6.141	0.529
550.000	344.134	80.003	19.997	103.182	19.827	5.739	0.514
550.500	344.385	80.003	19.995	103.182	19.835	5.163	0.501
551.000	344.625	80.004	19.995	103.181	19.826	5.838	0.499
551.500	344.865	80.004	19.994	103.181	19.825	5.897	0.485
552.000	345.148	80.004	19.996	103.181	19.835	5.159	0.502
552.500	345.409	80.004	19.995	103.182	19.830	5.545	0.533
553.000	345.652	80.004	19.997	103.181	19.832	5.432	0.524
553.500	345.953	80.003	19.996	103.181	19.827	5.763	0.524
554.000	346.185	80.004	19.995	103.181	19.828	5.659	0.538
554.500	346.416	80.004	19.994	103.180	19.834	5.230	0.498
555.000	346.770	80.003	19.996	103.180	19.829	5.590	0.524
555.500	346.867	80.004	19.995	103.178	19.828	5.702	0.518
556.000	347.275	80.003	19.996	103.178	19.833	5.336	0.478
556.500	347.412	80.002	19.995	103.177	19.832	5.387	0.525
557.000	347.734	80.004	19.996	103.179	19.833	5.362	0.502
557.500	348.125	80.003	19.997	103.179	19.833	5.336	0.586
558.000	348.142	80.003	19.996	103.181	19.833	5.358	0.561
558.500	348.449	80.003	19.995	103.182	19.831	5.448	0.366
559.000	348.626	80.003	19.996	103.181	19.835	5.163	0.404
559.500	349.027	80.003	19.995	103.181	19.837	5.017	0.531
560.000	349.286	80.003	19.996	103.179	19.839	4.921	0.619
560.500	349.237	80.002	19.996	103.176	19.839	4.875	0.435
561.000	349.939	80.003	19.994	103.176	19.838	4.992	0.431
561.500	350.277	80.002	19.996	103.176	19.837	5.035	0.846
562.000	350.028	80.001	19.996	103.176	19.837	5.029	0.565
562.500	350.309	80.002	19.995	103.179	19.840	4.822	0.061
563.000	350.896	80.002	19.996	103.181	19.837	5.033	0.450
563.500	351.063	80.003	19.995	103.182	19.840	4.814	0.811
564.000	351.557	80.002	19.996	103.182	19.842	4.712	0.708
564.500	351.804	80.002	19.996	103.182	19.837	5.015	0.701
565.000	351.975	80.004	19.996	103.181	19.842	4.671	0.579
565.500	351.830	80.002	19.996	103.179	19.841	4.771	0.222
566.000	352.608	80.002	19.998	103.179	19.841	4.744	0.329
566.500	352.434	80.003	19.997	103.179	19.842	4.679	0.618
567.000	352.830	80.003	19.996	103.179	19.842	4.675	0.413
567.500	353.112	80.003	19.995	103.180	19.838	4.933	0.450
568.000	353.310	80.003	19.996	103.181	19.842	4.667	0.579
568.500	353.627	80.002	19.996	103.180	19.841	4.748	0.498
569.000	353.905	80.003	19.996	103.180	19.841	4.752	0.555
569.500	354.004	80.003	19.997	103.180	19.843	4.581	0.486
570.000	354.420	80.003	19.996	103.182	19.840	4.846	0.446
570.500	354.649	80.004	19.996	103.182	19.840	4.809	0.580
571.000	354.889	80.004	19.998	103.182	19.839	4.890	0.558
571.500	355.011	80.004	19.997	103.182	19.844	4.520	0.416
572.000	355.383	80.004	19.997	103.182	19.841	4.786	0.428
572.500	355.640	80.004	19.995	103.180	19.840	4.794	0.562
573.000	355.922	80.003	19.996	103.181	19.838	4.946	0.584
573.500	356.120	80.003	19.996	103.181	19.842	4.672	0.509
574.000	356.416	80.003	19.996	103.181	19.842	4.704	0.487
574.500	356.670	80.004	19.996	103.181	19.841	4.739	0.522
575.000	356.952	80.004	19.996	103.182	19.843	4.572	0.543
575.500	357.197	80.004	19.996	103.182	19.841	4.732	0.532
576.000	357.363	80.004	19.994	103.183	19.839	4.873	0.469
576.500	357.692	80.004	19.996	103.187	19.842	4.649	0.453
577.000	357.953	80.004	19.995	103.190	19.841	4.765	0.542
577.500	358.217	80.004	19.995	103.191	19.845	4.462	0.557
578.000	358.506	80.005	19.994	103.195	19.841	4.755	0.539
578.500	358.719	80.005	19.996	103.195	19.843	4.643	0.528
579.000	359.024	80.005	19.995	103.194	19.844	4.527	0.510
579.500	359.189	80.004	19.995	103.193	19.841	4.758	0.494
580.000	359.515	80.005	19.995	103.192	19.842	4.661	0.481
580.500	359.720	80.004	19.994	103.189	19.842	4.706	0.511
581.000	360.017	80.005	19.995	103.191	19.841	4.742	0.516
581.500	360.251	80.006	19.995	103.197	19.840	4.815	0.516
582.000	360.560	80.005	19.995	103.202	19.843	4.635	0.537
582.500	360.786	80.004	19.995	103.208	19.842	4.649	0.539
583.000	361.055	80.004	19.995	103.215	19.847	4.313	0.515
583.500	361.302	80.004	19.995	103.219	19.842	4.657	0.505
584.000	361.598	80.003	19.994	103.219	19.840	4.821	0.530
584.500	361.805	80.004	19.994	103.219	19.841	4.723	0.523
585.000	362.108	80.003	19.995	103.220	19.843	4.644	0.506
585.500	362.347	80.004	19.994	103.220	19.843	4.587	0.525
586.000	362.599	80.004	19.995	103.221	19.843	4.587	0.516
586.500	362.860	80.005	19.995	103.221	19.841	4.719	0.502
587.000	363.080	80.006	19.995	103.223	19.837	5.013	0.497
587.500	363.368	80.003	19.995	103.223	19.840	4.834	0.494
588.000	363.644	80.004	19.995	103.223	19.840	4.822	0.536
588.500	363.848	80.004	19.997	103.223	19.840	4.828	0.522
589.000	364.162	80.003	19.995	103.224	19.842	4.664	0.499
589.500	364.342	80.003	19.994	103.226	19.843	4.621	0.506
590.000	364.629	80.004	19.994	103.228	19.840	4.822	0.480
590.500	364.939	80.004	19.993	103.228	19.842	4.684	0.532
591.000	365.183	80.004	19.994	103.228	19.840	4.834	0.575
591.500	365.460	80.004	19.994	103.228	19.841	4.740	0.537
592.000	365.734	80.003	19.995	103.228	19.840	4.793	0.536
592.500	365.992	80.004	19.993	103.228	19.843	4.609	0.542
593.000	366.223	80.004	19.994	103.229	19.841	4.777	0.511
593.500	366.467	80.004	19.995	103.231	19.843	4.621	0.482
594.000	366.736	80.005	19.993	103.234	19.840	4.846	0.494
594.500	367.017	80.004	19.994	103.237	19.838	4.981	0.531
595.000	367.241	80.004	19.994	103.238	19.841	4.769	0.527
595.500	367.521	80.004	19.994	103.242	19.842	4.666	0.505
596.000	367.757	80.004	19.993	103.240	19.843	4.597	0.511
596.500	368.054	80.004	19.994	103.240	19.839	4.910	0.525
597.000	368.309	80.004	19.995	103.242	19.839	4.893	0.542
597.500	368.530	80.005	19.994	103.247	19.840	4.806	0.514
598.000	368.831	80.005	19.993	103.250	19.840	4.822	0.499
598.500	369.048	80.005	19.992	103.258	19.840	4.850	0.520
599.000	369.313	80.005	19.994	103.260	19.838	4.993	0.500
599.500	369.589	80.005	19.994	103.260	19.840	4.806	0.512
600.000	369.856	80.006	19.994	103.261	19.841	4.789	0.542
600.500	370.105	80.006	19.995	103.260	19.841	4.789	0.529
601.000	370.332	80.007	19.993	103.263	19.838	4.960	0.495
601.500	370.594	80.006	19.995	103.267	19.839	4.929	0.483
602.000	370.890	80.007	19.994	103.268	19.840	4.842	0.524
602.500	371.112	80.005	19.993	103.267	19.840	4.832	0.538
603.000	371.410	80.006	19.994	103.267	19.838	4.968	0.519
603.500	371.675	80.007	19.993	103.264	19.838	4.992	0.541
604.000	371.945	80.005	19.994	103.261	19.838	4.961	0.549
604.500	372.172	80.008	19.995	103.260	19.840	4.862	0.516
605.000	372.474	80.005	19.995	103.260	19.837	5.012	0.513
605.500	372.740	80.006	19.994	103.258	19.838	4.968	0.549
606.000	372.968	80.005	19.993	103.257	19.840	4.842	0.531
606.500	373.207	80.005	19.994	103.257	19.839	4.871	0.480
607.000	373.457	80.005	19.995	103.256	19.838	4.986	0.478
607.500	373.729	80.005	19.995	103.256	19.841	4.744	0.506
608.000	373.998	80.005	19.996	103.259	19.838	4.976	0.532
608.500	374.256	80.005	19.996	103.261	19.838	4.951	0.534
609.000	374.537	80.005	19.994	103.261	19.836	5.104	0.533
609.500	374.793	80.005	19.995	103.261	19.837	5.021	0.538
610.000	375.050	80.004	19.996	103.261	19.838	4.938	0.525
610.500	375.274	80.004	19.996	103.260	19.837	5.068	0.497
611.000	375.564	80.004	19.995	103.260	19.835	5.171	0.498
611.500	375.784	80.004	19.996	103.262	19.833	5.305	0.511
612.000	376.063	80.003	19.995	103.264	19.838	5.000	0.504
612.500	376.303	80.004	19.995	103.266	19.836	5.090	0.510
613.000	376.588	80.003	19.994	103.266	19.834	5.287	0.522
613.500	376.851	80.004	19.995	103.268	19.833	5.339	0.536
614.000	377.066	80.005	19.995	103.271	19.836	5.080	0.513
614.500	377.357	80.002	19.995	103.276	19.832	5.372	0.492
615.000	377.588	80.004	19.994	103.275	19.836	5.092	0.514
615.500	377.864	80.003	19.994	103.274	19.832	5.419	0.514
616.000	378.085	80.003	19.995	103.271	19.832	5.417	0.502
616.500	378.369	80.004	19.997	103.267	19.834	5.228	0.501
617.000	378.609	80.005	19.994	103.260	19.834	5.287	0.515
617.500	378.831	80.004	19.995	103.262	19.833	5.368	0.493
618.000	379.143	80.004	19.995	103.265	19.828	5.663	0.498
618.500	379.383	80.004	19.995	103.269	19.832	5.409	0.543
619.000	379.666	80.004	19.995	103.271	19.828	5.697	0.537
619.500	379.933	80.003	19.995	103.272	19.828	5.721	0.536
620.000	380.175	80.004	19.994	103.269	19.830	5.569	0.529
620.500	380.427	80.004	19.994	103.268	19.829	5.658	0.502
621.000	380.666	80.004	19.993	103.265	19.828	5.668	0.492
621.500	380.964	80.003	19.994	103.263	19.829	5.652	0.514
622.000	381.190	80.004	19.993	103.263	19.824	5.964	0.531
622.500	381.417	80.003	19.994	103.266	19.830	5.572	0.489
623.000	381.700	80.003	19.994	103.266	19.826	5.869	0.481
623.500	381.928	80.004	19.995	103.267	19.826	5.841	0.511
624.000	382.222	80.004	19.994	103.269	19.824	6.013	0.516
624.500	382.437	80.005	19.996	103.271	19.823	6.076	0.515
625.000	382.705	80.004	19.996	103.269	19.825	5.945	0.496
625.500	382.908	80.003	19.994	103.268	19.823	6.071	0.477
626.000	383.194	80.004	19.994	103.269	19.822	6.101	0.480
626.500	383.450	80.003	19.995	103.269	19.822	6.146	0.516
627.000	383.706	80.005	19.994	103.269	19.823	6.056	0.527
627.500	383.960	80.004	19.995	103.270	19.821	6.209	0.511
628.000	384.184	80.004	19.994	103.269	19.820	6.294	0.494
628.500	384.436	80.003	19.994	103.269	19.820	6.261	0.477
629.000	384.759	80.005	19.997	103.267	19.822	6.141	0.525
629.500	384.983	80.003	19.996	103.264	19.822	6.126	0.561
630.000	385.222	80.004	19.995	103.265	19.819	6.323	0.505
630.500	385.492	80.003	19.993	103.266	19.817	6.516	0.486
631.000	385.744	80.004	19.994	103.269	19.818	6.401	0.516
631.500	386.008	80.002	19.996	103.270	19.816	6.576	0.519
632.000	386.231	80.004	19.993	103.273	19.819	6.348	0.502
632.500	386.500	80.004	19.995	103.276	19.817	6.454	0.490
633.000	386.757	80.004	19.995	103.279	19.815	6.665	0.508
633.500	386.983	80.004	19.996	103.280	19.814	6.676	0.504
634.000	387.257	80.003	19.996	103.281	19.815	6.609	0.492
634.500	387.531	80.002	19.996	103.279	19.812	6.881	0.524
635.000	387.783	80.002	19.996	103.276	19.814	6.738	0.537
635.500	388.069	80.003	19.995	103.273	19.811	6.934	0.532
636.000	388.298	80.004	19.995	103.271	19.809	7.066	0.527
636.500	388.527	80.004	19.996	103.270	19.809	7.074	0.487
637.000	388.826	80.003	19.995	103.270	19.809	7.080	0.493
637.500	389.039	80.003	19.993	103.268	19.808	7.128	0.520
638.000	389.344	80.003	19.996	103.270	19.806	7.256	0.515
638.500	389.572	80.002	19.994	103.272	19.808	7.124	0.525
639.000	389.798	80.004	19.997	103.277	19.804	7.401	0.494
639.500	390.091	80.002	19.995	103.283	19.801	7.663	0.487
640.000	390.328	80.002	19.995	103.286	19.801	7.659	0.525
640.500	390.573	80.002	19.997	103.287	19.801	7.610	0.506
641.000	390.885	80.003	19.995	103.287	19.799	7.769	0.519
641.500	391.107	80.003	19.996	103.286	19.798	7.868	0.546
642.000	391.383	80.003	19.996	103.283	19.796	7.996	0.516
642.500	391.645	80.002	19.996	103.281	19.796	8.000	0.518
643.000	391.898	80.002	19.996	103.277	19.797	7.919	0.526
643.500	392.154	80.003	19.995	103.274	19.793	8.191	0.512
644.000	392.424	80.002	19.997	103.272	19.793	8.240	0.518
644.500	392.648	80.003	19.994	103.269	19.792	8.281	0.510
645.000	392.962	80.002	19.997	103.269	19.793	8.254	0.516
645.500	393.195	80.003	19.995	103.273	19.789	8.512	0.543
646.000	393.449	80.002	19.995	103.274	19.786	8.715	0.517
646.500	393.711	80.002	19.995	103.271	19.786	8.725	0.501
647.000	393.994	80.002	19.994	103.270	19.787	8.630	0.531
647.500	394.233	80.003	19.995	103.272	19.785	8.774	0.534
648.000	394.515	80.002	19.993	103.270	19.783	8.912	0.522
648.500	394.783	80.002	19.993	103.274	19.784	8.849	0.535
649.000	395.028	80.002	19.995	103.275	19.781	9.076	0.531
649.500	395.283	80.004	19.995	103.276	19.780	9.153	0.507
650.000	395.524	80.003	19.996	103.273	19.777	9.379	0.498
650.500	395.758	80.003	19.995	103.271	19.776	9.456	0.486
651.000	396.020	80.003	19.993	103.266	19.773	9.659	0.485
651.500	396.308	80.003	19.994	103.265	19.773	9.649	0.523
652.000	396.524	80.003	19.995	103.266	19.775	9.534	0.527
652.500	396.816	80.004	19.995	103.267	19.771	9.780	0.506
653.000	397.029	80.004	19.994	103.268	19.772	9.757	0.507
653.500	397.355	80.004	19.994	103.268	19.768	9.997	0.522
654.000	397.573	80.002	19.995	103.269	19.766	10.174	0.541
654.500	397.813	80.004	19.994	103.267	19.765	10.222	0.501
655.000	398.046	80.003	19.995	103.266	19.762	10.431	0.465
655.500	398.354	80.004	19.994	103.267	19.765	10.267	0.506
656.000	398.582	80.004	19.995	103.268	19.760	10.582	0.538
656.500	398.817	80.006	19.994	103.267	19.759	10.661	0.500
657.000	399.089	80.004	19.995	103.268	19.753	11.134	0.485
657.500	399.378	80.003	19.995	103.269	19.755	10.983	0.534
658.000	399.608	80.004	19.994	103.267	19.752	11.172	0.540
658.500	399.837	80.004	19.995	103.269	19.754	11.060	0.489
659.000	400.131	80.003	19.995	103.270	19.751	11.249	0.491
659.500	400.396	80.004	19.994	103.270	19.746	11.609	0.541
660.000	400.602	80.003	19.994	103.269	19.746	11.638	0.515
660.500	400.840	80.006	19.993	103.274	19.743	11.849	0.457
661.000	401.092	80.005	19.995	103.271	19.741	11.993	0.467
661.500	401.369	80.005	19.995	103.270	19.739	12.122	0.510
662.000	401.625	80.003	19.995	103.269	19.738	12.195	0.531
662.500	401.880	80.004	19.994	103.269	19.735	12.412	0.522
663.000	402.131	80.003	19.996	103.264	19.733	12.565	0.509
663.500	402.375	80.005	19.995	103.264	19.732	12.648	0.500
664.000	402.624	80.004	19.995	103.264	19.730	12.780	0.494
664.500	402.868	80.003	19.995	103.263	19.726	13.093	0.493
665.000	403.122	80.004	19.995	103.264	19.725	13.106	0.496
665.500	403.377	80.004	19.995	103.265	19.724	13.220	0.504
666.000	403.685	80.003	19.994	103.265	19.721	13.457	0.536
666.500	403.870	80.005	19.997	103.266	19.718	13.668	0.528
667.000	404.113	80.003	19.995	103.268	19.716	13.761	0.460
667.500	404.384	80.003	19.994	103.270	19.712	14.045	0.471
668.000	404.617	80.003	19.995	103.271	19.712	14.102	0.509
668.500	404.901	80.004	19.995	103.272	19.711	14.119	0.510
669.000	405.138	80.003	19.996	103.272	19.706	14.482	0.519
669.500	405.402	80.005	19.995	103.271	19.704	14.685	0.511
670.000	405.616	80.005	19.995	103.270	19.702	14.803	0.490
670.500	405.908	80.004	19.996	103.267	19.701	14.868	0.492
671.000	406.121	80.005	19.995	103.266	19.697	15.134	0.506
671.500	406.423	80.003	19.995	103.267	19.696	15.197	0.510
672.000	406.660	80.004	19.996	103.267	19.695	15.337	0.527
672.500	406.934	80.005	19.996	103.263	19.689	15.731	0.525
673.000	407.197	80.004	19.996	103.263	19.693	15.465	0.524
673.500	407.396	80.005	19.996	103.262	19.684	16.096	0.500
674.000	407.671	80.004	19.995	103.261	19.682	16.241	0.468
674.500	407.939	80.006	19.996	103.260	19.682	16.239	0.508
675.000	408.153	80.004	19.994	103.262	19.678	16.529	0.512
675.500	408.429	80.005	19.996	103.263	19.675	16.771	0.486
676.000	408.658	80.005	19.995	103.265	19.674	16.794	0.498
676.500	408.882	80.004	19.995	103.266	19.669	17.169	0.478
677.000	409.148	80.006	19.994	103.269	19.667	17.338	0.471
677.500	409.417	80.006	19.995	103.274	19.662	17.694	0.513
678.000	409.690	80.005	19.994	103.278	19.662	17.709	0.538
678.500	409.930	80.005	19.995	103.276	19.656	18.095	0.527
679.000	410.176	80.006	19.994	103.274	19.654	18.262	0.500
679.500	410.421	80.007	19.995	103.271	19.650	18.578	0.489
680.000	410.669	80.005	19.993	103.264	19.645	18.896	0.492
680.500	410.914	80.006	19.994	103.260	19.641	19.180	0.492
681.000	411.195	80.005	19.995	103.260	19.641	19.222	0.509
681.500	411.434	80.005	19.994	103.260	19.635	19.610	0.523
682.000	411.673	80.005	19.995	103.260	19.636	19.572	0.499
682.500	411.966	80.008	19.994	103.262	19.630	20.005	0.505
683.000	412.221	80.005	19.994	103.264	19.628	20.137	0.540
683.500	412.442	80.006	19.994	103.263	19.622	20.552	0.512
684.000	412.670	80.007	19.995	103.264	19.622	20.560	0.462
684.500	412.970	80.006	19.994	103.263	19.617	20.958	0.489
685.000	413.172	80.005	19.995	103.260	19.617	20.960	0.516
685.500	413.430	80.007	19.994	103.259	19.609	21.484	0.481
686.000	413.718	80.006	19.994	103.262	19.604	21.845	0.502
686.500	413.938	80.006	19.994	103.261	19.604	21.863	0.527
687.000	414.185	80.005	19.995	103.261	19.601	22.073	0.487
687.500	414.459	80.006	19.995	103.261	19.596	22.486	0.494
688.000	414.680	80.004	19.994	103.261	19.590	22.897	0.508
688.500	414.924	80.005	19.995	103.258	19.587	23.116	0.480
689.000	415.173	80.006	19.994	103.262	19.582	23.449	0.478
689.500	415.438	80.004	19.994	103.266	19.580	23.582	0.503
690.000	415.693	80.005	19.995	103.273	19.574	24.027	0.517
690.500	415.927	80.004	19.995	103.277	19.573	24.140	0.505
691.000	416.186	80.004	19.994	103.282	19.567	24.520	0.491
691.500	416.454	80.004	19.995	103.280	19.564	24.766	0.510
692.000	416.697	80.003	19.995	103.278	19.560	25.053	0.519
692.500	416.956	80.003	19.994	103.275	19.555	25.444	0.506
693.000	417.215	80.003	19.995	103.274	19.550	25.811	0.510
693.500	417.481	80.004	19.995	103.270	19.549	25.887	0.521
694.000	417.733	80.003	19.994	103.269	19.542	26.349	0.521
694.500	417.989	80.003	19.995	103.268	19.538	26.676	0.513
695.000	418.239	80.004	19.996	103.266	19.534	26.903	0.507
695.500	418.472	80.003	19.995	103.266	19.529	27.291	0.495
696.000	418.735	80.003	19.995	103.265	19.523	27.765	0.490
696.500	419.026	80.003	19.995	103.269	19.518	28.115	0.525
697.000	419.252	80.004	19.995	103.270	19.513	28.416	0.535
697.500	419.506	80.004	19.995	103.271	19.513	28.435	0.498
698.000	419.813	80.003	19.995	103.270	19.508	28.819	0.520
698.500	420.044	80.004	19.995	103.271	19.504	29.090	0.550
699.000	420.312	80.003	19.995	103.269	19.497	29.593	0.519
699.500	420.577	80.002	19.995	103.271	19.494	29.794	0.516
700.000	420.858	80.002	19.996	103.273	19.490	30.122	0.540
700.500	421.102	80.003	19.995	103.278	19.483	30.594	0.535
701.000	421.382	80.002	19.995	103.282	19.479	30.943	0.525
701.500	421.623	80.002	19.994	103.288	19.474	31.246	0.523
702.000	421.889	80.004	19.995	103.287	19.472	31.420	0.514
702.500	422.141	80.002	19.995	103.284	19.465	31.949	0.513
703.000	422.433	80.003	19.995	103.281	19.460	32.281	0.531
703.500	422.659	80.003	19.995	103.276	19.456	32.551	0.531
704.000	422.882	80.003	19.995	103.272	19.451	32.900	0.484
704.500	423.189	80.005	19.994	103.276	19.446	33.277	0.490
705.000	423.445	80.004	19.995	103.279	19.440	33.702	0.546
705.500	423.695	80.005	19.996	103.280	19.437	33.919	0.534
706.000	423.970	80.003	19.993	103.281	19.430	34.434	0.516
706.500	424.234	80.004	19.995	103.281	19.429	34.538	0.532
707.000	424.503	80.004	19.994	103.279	19.422	35.027	0.536
707.500	424.742	80.003	19.995	103.277	19.416	35.458	0.520
708.000	424.989	80.004	19.994	103.275	19.412	35.763	0.497
708.500	425.301	80.005	19.994	103.273	19.407	36.109	0.522
709.000	425.541	80.004	19.995	103.271	19.402	36.494	0.555
709.500	425.807	80.004	19.995	103.268	19.396	36.903	0.529
710.000	426.111	80.004	19.995	103.265	19.390	37.327	0.538
710.500	426.354	80.004	19.994	103.265	19.387	37.542	0.558
711.000	426.583	80.005	19.994	103.267	19.381	38.011	0.509
711.500	426.896	80.005	19.994	103.270	19.377	38.298	0.507
712.000	427.193	80.003	19.995	103.273	19.371	38.711	0.576
712.500	427.406	80.004	19.995	103.273	19.370	38.786	0.560
713.000	427.686	80.004	19.994	103.273	19.363	39.278	0.502
713.500	427.935	80.004	19.995	103.271	19.357	39.749	0.511
714.000	428.207	80.004	19.995	103.268	19.350	40.195	0.525
714.500	428.479	80.003	19.995	103.269	19.350	40.252	0.532
715.000	428.765	80.005	19.996	103.275	19.341	40.865	0.551
715.500	428.985	80.004	19.994	103.276	19.334	41.399	0.532
716.000	429.266	80.004	19.994	103.276	19.332	41.515	0.504
716.500	429.522	80.004	19.995	103.276	19.327	41.850	0.519
717.000	429.807	80.005	19.994	103.273	19.322	42.262	0.539
717.500	430.069	80.003	19.993	103.266	19.318	42.571	0.544
718.000	430.329	80.003	19.993	103.266	19.314	42.834	0.534
718.500	430.603	80.004	19.994	103.266	19.310	43.088	0.528
719.000	430.828	80.003	19.994	103.264	19.302	43.725	0.516
719.500	431.075	80.004	19.994	103.263	19.298	43.956	0.486
720.000	431.363	80.004	19.994	103.265	19.290	44.538	0.504
720.500	431.641	80.003	19.994	103.265	19.287	44.807	0.551
721.000	431.917	80.003	19.995	103.265	19.282	45.145	0.560
721.500	432.184	80.002	19.994	103.266	19.278	45.434	0.548
722.000	432.429	80.004	19.995	103.265	19.273	45.816	0.527
722.500	432.663	80.003	19.994	103.264	19.266	46.273	0.495
723.000	432.953	80.003	19.995	103.263	19.265	46.369	0.501
723.500	433.238	80.003	19.995	103.263	19.259	46.792	0.550
724.000	433.516	80.001	19.994	103.262	19.256	47.044	0.569
724.500	433.756	80.003	19.994	103.263	19.249	47.485	0.541
725.000	434.037	80.003	19.994	103.264	19.245	47.829	0.520
725.500	434.298	80.003	19.995	103.264	19.240	48.161	0.531
726.000	434.556	80.001	19.996	103.265	19.240	48.161	0.530
726.500	434.854	80.002	19.995	103.264	19.234	48.614	0.537
727.000	435.114	80.002	19.994	103.264	19.230	48.888	0.557
727.500	435.349	80.000	19.995	103.265	19.228	49.013	0.527
728.000	435.623	80.002	19.996	103.266	19.221	49.524	0.502
728.500	435.873	80.002	19.995	103.266	19.219	49.683	0.517
729.000	436.157	80.001	19.995	103.269	19.214	50.041	0.529
729.500	436.368	80.002	19.996	103.271	19.211	50.298	0.514
730.000	436.653	80.003	19.996	103.269	19.206	50.635	0.495
730.500	436.931	80.002	19.995	103.271	19.205	50.728	0.530
731.000	437.171	80.001	19.995	103.272	19.202	50.909	0.541
731.500	437.463	80.002	19.995	103.270	19.197	51.307	0.525
732.000	437.737	80.002	19.996	103.268	19.195	51.408	0.549
732.500	438.039	80.004	19.996	103.268	19.189	51.830	0.570
733.000	438.236	80.003	19.997	103.267	19.190	51.750	0.537
733.500	438.497	80.004	19.996	103.266	19.190	51.821	0.479
734.000	438.797	80.003	19.994	103.266	19.181	52.422	0.509
734.500	439.037	80.004	19.996	103.265	19.181	52.436	0.550
735.000	439.294	80.004	19.995	103.265	19.177	52.715	0.519
735.500	439.558	80.003	19.996	103.263	19.174	52.945	0.509
736.000	439.806	80.004	19.995	103.262	19.174	52.975	0.516
736.500	440.123	80.004	19.994	103.261	19.171	53.151	0.538
737.000	440.359	80.005	19.997	103.260	19.170	53.261	0.559
737.500	440.610	80.005	19.996	103.260	19.168	53.349	0.520
738.000	440.879	80.004	19.995	103.260	19.165	53.620	0.504
738.500	441.150	80.004	19.995	103.259	19.162	53.782	0.530
739.000	441.400	80.005	19.994	103.259	19.164	53.679	0.531
739.500	441.658	80.005	19.995	103.259	19.159	54.020	0.514
740.000	441.935	80.005	19.995	103.259	19.156	54.257	0.521
740.500	442.157	80.004	19.995	103.260	19.153	54.493	0.517
741.000	442.458	80.006	19.995	103.260	19.150	54.652	0.511
741.500	442.714	80.005	19.996	103.260	19.150	54.659	0.540
742.000	442.962	80.006	19.994	103.261	19.148	54.794	0.531
742.500	443.219	80.003	19.995	103.261	19.145	55.030	0.505
743.000	443.495	80.004	19.995	103.262	19.144	55.125	0.519
743.500	443.717	80.006	19.995	103.267	19.140	55.414	0.516
744.000	443.990	80.005	19.995	103.268	19.140	55.416	0.496
744.500	444.240	80.005	19.995	103.271	19.134	55.840	0.509
745.000	444.489	80.005	19.995	103.275	19.130	56.140	0.511
745.500	444.776	80.004	19.995	103.277	19.128	56.260	0.518
746.000	445.022	80.004	19.994	103.274	19.120	56.850	0.535
746.500	445.295	80.004	19.995	103.278	19.117	57.039	0.526
747.000	445.558	80.004	19.995	103.279	19.110	57.567	0.527
747.500	445.841	80.004	19.995	103.280	19.104	58.023	0.541
748.000	446.067	80.005	19.995	103.280	19.098	58.449	0.527
748.500	446.347	80.006	19.995	103.282	19.090	59.004	0.507
749.000	446.580	80.004	19.994	103.285	19.081	59.652	0.510
749.500	446.846	80.004	19.994	103.285	19.073	60.234	0.506
750.000	447.126	80.004	19.994	103.288	19.066	60.717	0.522
750.500	447.373	80.004	19.995	103.291	19.057	61.389	0.536
751.000	447.603	80.003	19.995	103.289	19.046	62.164	0.502
751.500	447.852	80.004	19.995	103.285	19.037	62.814	0.478
752.000	448.126	80.003	19.995	103.284	19.029	63.359	0.501
752.500	448.372	80.004	19.994	103.278	19.016	64.303	0.522
753.000	448.617	80.003	19.996	103.277	19.006	65.083	0.506
753.500	448.845	80.003	19.995	103.280	18.997	65.737	0.482
754.000	449.079	80.004	19.995	103.280	18.987	66.460	0.467
754.500	449.360	80.003	19.995	103.283	18.975	67.327	0.488
755.000	449.586	80.003	19.995	103.283	18.970	67.662	0.511
755.500	449.841	80.004	19.995	103.276	18.961	68.330	0.494
756.000	450.102	80.003	19.996	103.270	18.952	68.962	0.498
756.500	450.323	80.003	19.997	103.265	18.945	69.511	0.499
757.000	450.635	80.003	19.996	103.256	18.937	70.022	0.507
757.500	450.867	80.003	19.995	103.253	18.930	70.565	0.538
758.000	451.143	80.004	19.997	103.253	18.927	70.797	0.526
758.500	451.369	80.003	19.996	103.252	18.919	71.355	0.505
759.000	451.633	80.005	19.996	103.246	18.914	71.724	0.496
759.500	451.869	80.003	19.996	103.241	18.910	72.029	0.495
760.000	452.129	80.003	19.996	103.235	18.907	72.198	0.498
760.500	452.376	80.005	19.996	103.227	18.904	72.431	0.501
761.000	452.647	80.006	19.996	103.221	18.898	72.886	0.512
761.500	452.896	80.004	19.996	103.222	18.895	73.101	0.519
762.000	453.133	80.005	19.996	103.221	18.893	73.251	0.503
762.500	453.381	80.006	19.996	103.224	18.890	73.455	0.486
763.000	453.652	80.004	19.995	103.229	18.889	73.493	0.502
763.500	453.879	80.004	19.995	103.237	18.885	73.807	0.508
764.000	454.159	80.005	19.996	103.243	18.885	73.790	0.503
764.500	454.395	80.005	19.995	103.250	18.885	73.843	0.512
765.000	454.650	80.005	19.996	103.251	18.883	73.938	0.503
765.500	454.922	80.004	19.996	103.252	18.884	73.884	0.509
766.000	455.169	80.005	19.995	103.255	18.883	73.993	0.523
766.500	455.428	80.006	19.996	103.255	18.883	73.935	0.512
767.000	455.678	80.006	19.996	103.257	18.884	73.888	0.507
767.500	455.934	80.006	19.996	103.262	18.881	74.088	0.507
768.000	456.220	80.006	19.995	103.263	18.882	74.066	0.524
768.500	456.495	80.006	19.996	103.263	18.881	74.122	0.551
769.000	456.695	80.005	19.995	103.263	18.884	73.902	0.518
769.500	456.979	80.005	19.995	103.265	18.883	73.952	0.479
770.000	457.238	80.005	19.994	103.269	18.881	74.078	0.513
770.500	457.480	80.004	19.994	103.271	18.883	73.930	0.522
771.000	457.743	80.003	19.994	103.272	18.886	73.758	0.503
771.500	457.998	80.004	19.994	103.271	18.886	73.766	0.512
772.000	458.250	80.005	19.995	103.269	18.890	73.467	0.513
772.500	458.499	80.005	19.994	103.263	18.889	73.559	0.504
773.000	458.763	80.004	19.994	103.261	18.892	73.331	0.507
773.500	459.039	80.003	19.995	103.260	18.901	72.655	0.527
774.000	459.291	80.003	19.994	103.258	18.904	72.424	0.534
774.500	459.553	80.003	19.994	103.257	18.907	72.249	0.521
775.000	459.792	80.003	19.994	103.257	18.909	72.095	0.508
775.500	460.045	80.004	19.994	103.257	18.914	71.737	0.497
776.000	460.287	80.003	19.995	103.258	18.916	71.581	0.494
776.500	460.574	80.004	19.994	103.260	18.921	71.216	0.512
777.000	460.803	80.002	19.995	103.263	18.926	70.827	0.522
777.500	461.062	80.004	19.995	103.262	18.931	70.482	0.502
778.000	461.314	80.004	19.993	103.263	18.937	70.098	0.499
778.500	461.568	80.004	19.992	103.263	18.941	69.798	0.508
779.000	461.815	80.004	19.994	103.263	18.946	69.386	0.503
779.500	462.108	80.005	19.994	103.262	18.950	69.151	0.521
780.000	462.365	80.004	19.995	103.263	18.956	68.725	0.546
780.500	462.617	80.004	19.994	103.263	18.959	68.487	0.530
781.000	462.891	80.005	19.995	103.263	18.965	68.040	0.518
781.500	463.163	80.004	19.995	103.266	18.974	67.370	0.536
782.000	463.406	80.003	19.994	103.266	18.978	67.076	0.530
782.500	463.674	80.004	19.994	103.266	18.985	66.550	0.513
783.000	463.920	80.004	19.994	103.266	18.994	65.947	0.513
783.500	464.170	80.004	19.993	103.266	18.999	65.538	0.505
784.000	464.437	80.004	19.994	103.263	19.007	65.005	0.506
784.500	464.693	80.004	19.994	103.262	19.013	64.585	0.520
785.000	464.948	80.004	19.994	103.262	19.021	63.976	0.517
785.500	465.196	80.003	19.994	103.262	19.024	63.777	0.507
786.000	465.446	80.003	19.994	103.262	19.029	63.435	0.500
786.500	465.725	80.004	19.994	103.266	19.032	63.213	0.514
787.000	465.952	80.003	19.994	103.271	19.040	62.638	0.517
787.500	466.233	80.003	19.995	103.272	19.045	62.231	0.507
788.000	466.493	80.004	19.995	103.276	19.051	61.837	0.525
788.500	466.709	80.003	19.994	103.283	19.053	61.649	0.509
789.000	467.022	80.004	19.995	103.286	19.061	61.138	0.502
789.500	467.274	80.004	19.994	103.285	19.067	60.673	0.547
790.000	467.568	80.004	19.994	103.284	19.077	59.918	0.556
790.500	467.770	80.003	19.996	103.280	19.078	59.894	0.521
791.000	468.035	80.003	19.993	103.277	19.085	59.347	0.481
791.500	468.297	80.002	19.995	103.271	19.095	58.625	0.497
792.000	468.600	80.003	19.995	103.266	19.103	58.085	0.546
792.500	468.843	80.003	19.992	103.262	19.105	57.905	0.556
793.000	469.132	80.003	19.995	103.259	19.115	57.178	0.539
793.500	469.397	80.005	19.994	103.250	19.125	56.503	0.543
794.000	469.632	80.003	19.994	103.249	19.132	56.004	0.527
794.500	469.855	80.005	19.994	103.246	19.138	55.536	0.479
795.000	470.137	80.004	19.993	103.242	19.147	54.857	0.482
795.500	470.368	80.004	19.993	103.238	19.150	54.687	0.509
796.000	470.662	80.004	19.994	103.240	19.160	53.908	0.519
796.500	470.869	80.004	19.994	103.241	19.164	53.646	0.513
797.000	471.154	80.005	19.994	103.244	19.169	53.300	0.496
797.500	471.416	80.003	19.994	103.252	19.172	53.095	0.519
798.000	471.644	80.005	19.995	103.258	19.175	52.865	0.519
798.500	471.921	80.004	19.996	103.263	19.181	52.417	0.498
799.000	472.198	80.004	19.994	103.269	19.183	52.231	0.529
799.500	472.442	80.004	19.995	103.275	19.188	51.942	0.537
800.000	472.664	80.003	19.995	103.277	19.187	51.996	0.493
800.500	472.931	80.004	19.994	103.277	19.188	51.937	0.478
801.000	473.193	80.004	19.994	103.280	19.190	51.769	0.509
801.500	473.480	80.002	19.994	103.275	19.191	51.671	0.539
802.000	473.733	80.004	19.995	103.272	19.190	51.760	0.544
802.500	474.016	80.003	19.994	103.272	19.195	51.399	0.537
803.000	474.273	80.005	19.995	103.275	19.196	51.355	0.538
803.500	474.518	80.003	19.995	103.271	19.196	51.357	0.521
804.000	474.832	80.005	19.995	103.269	19.199	51.153	0.531
804.500	475.075	80.004	19.994	103.267	19.201	50.983	0.558
805.000	475.283	80.004	19.994	103.265	19.201	50.952	0.504
805.500	475.581	80.005	19.995	103.257	19.207	50.558	0.478
806.000	475.840	80.003	19.994	103.249	19.212	50.144	0.532
806.500	476.061	80.003	19.993	103.242	19.217	49.852	0.519
807.000	476.320	80.003	19.995	103.237	19.221	49.549	0.480
807.500	476.560	80.002	19.995	103.232	19.228	49.030	0.490
808.000	476.827	80.004	19.995	103.230	19.225	49.269	0.503
808.500	477.058	80.003	19.995	103.229	19.229	48.924	0.502
809.000	477.300	80.004	19.994	103.229	19.231	48.824	0.486
809.500	477.559	80.003	19.993	103.225	19.233	48.689	0.487
810.000	477.846	80.004	19.994	103.223	19.236	48.477	0.524
810.500	478.087	80.003	19.995	103.227	19.239	48.246	0.537
811.000	478.350	80.003	19.995	103.232	19.238	48.330	0.516
811.500	478.579	80.003	19.994	103.237	19.242	48.016	0.498
812.000	478.824	80.002	19.994	103.243	19.242	48.011	0.483
812.500	479.089	80.002	19.995	103.249	19.247	47.637	0.492
813.000	479.348	80.003	19.994	103.252	19.250	47.427	0.517
813.500	479.600	80.003	19.995	103.255	19.253	47.236	0.517
814.000	479.882	80.005	19.995	103.254	19.255	47.043	0.522
814.500	480.092	80.003	19.995	103.250	19.256	46.981	0.513
815.000	480.350	80.004	19.994	103.249	19.264	46.441	0.480
815.500	480.582	80.003	19.995	103.246	19.266	46.294	0.479
816.000	480.871	80.005	19.994	103.240	19.269	46.097	0.505
816.500	481.122	80.003	19.995	103.236	19.272	45.808	0.531
817.000	481.396	80.005	19.995	103.239	19.273	45.781	0.533
817.500	481.624	80.004	19.995	103.237	19.278	45.441	0.514
818.000	481.900	80.005	19.994	103.237	19.278	45.432	0.503
818.500	482.140	80.005	19.994	103.243	19.281	45.228	0.510
819.000	482.409	80.004	19.995	103.250	19.284	44.967	0.512
819.500	482.666	80.005	19.995	103.253	19.289	44.648	0.518
820.000	482.935	80.006	19.994	103.254	19.290	44.566	0.526
820.500	483.160	80.005	19.995	103.252	19.292	44.424	0.510
821.000	483.444	80.005	19.995	103.249	19.294	44.279	0.501
821.500	483.681	80.005	19.995	103.245	19.297	44.036	0.515
822.000	483.915	80.005	19.995	103.243	19.298	43.964	0.496
822.500	484.185	80.005	19.995	103.245	19.302	43.661	0.488
823.000	484.433	80.006	19.995	103.248	19.300	43.845	0.511
823.500	484.655	80.005	19.995	103.247	19.302	43.657	0.494
824.000	484.950	80.004	19.995	103.245	19.311	43.047	0.493
824.500	485.197	80.005	19.994	103.240	19.309	43.159	0.529
825.000	485.415	80.005	19.995	103.240	19.316	42.653	0.504
825.500	485.686	80.005	19.996	103.234	19.313	42.855	0.477
826.000	485.962	80.004	19.995	103.232	19.316	42.650	0.517
826.500	486.205	80.004	19.996	103.233	19.323	42.162	0.533
827.000	486.468	80.005	19.995	103.234	19.322	42.197	0.513
827.500	486.720	80.005	19.996	103.231	19.325	42.017	0.511
828.000	486.942	80.005	19.996	103.236	19.325	41.985	0.495
828.500	487.194	80.003	19.996	103.242	19.324	42.115	0.474
829.000	487.423	80.004	19.995	103.244	19.329	41.740	0.477
829.500	487.694	80.004	19.995	103.243	19.332	41.527	0.491
830.000	487.948	80.005	19.995	103.239	19.335	41.291	0.512
830.500	488.182	80.004	19.996	103.232	19.338	41.057	0.506
831.000	488.445	80.003	19.995	103.224	19.343	40.742	0.493
831.500	488.696	80.004	19.996	103.223	19.349	40.276	0.506
832.000	488.971	80.004	19.995	103.223	19.349	40.316	0.520
832.500	489.184	80.003	19.996	103.223	19.354	39.906	0.507
833.000	489.472	80.005	19.996	103.224	19.360	39.497	0.495
833.500	489.659	80.004	19.996	103.225	19.363	39.294	0.488
834.000	489.933	80.005	19.995	103.223	19.367	38.950	0.468
834.500	490.221	80.004	19.995	103.221	19.373	38.581	0.511
835.000	490.487	80.004	19.996	103.221	19.377	38.266	0.558
835.500	490.701	80.005	19.995	103.222	19.381	37.950	0.517
836.000	490.956	80.005	19.995	103.221	19.387	37.559	0.474
836.500	491.168	80.005	19.994	103.223	19.392	37.191	0.468
837.000	491.441	80.005	19.995	103.227	19.397	36.823	0.476
837.500	491.689	80.004	19.996	103.228	19.402	36.448	0.504
838.000	491.948	80.004	19.996	103.229	19.406	36.185	0.514
838.500	492.209	80.004	19.995	103.229	19.410	35.907	0.513
839.000	492.465	80.005	19.995	103.229	19.411	35.828	0.519
839.500	492.716	80.004	19.993	103.229	19.416	35.436	0.512
840.000	492.972	80.005	19.995	103.232	19.419	35.215	0.507
840.500	493.200	80.005	19.995	103.240	19.424	34.867	0.496
841.000	493.445	80.004	19.995	103.247	19.426	34.705	0.479
841.500	493.658	80.007	19.994	103.253	19.432	34.292	0.466
842.000	493.927	80.006	19.996	103.258	19.434	34.140	0.470
842.500	494.209	80.004	19.995	103.260	19.440	33.706	0.516
843.000	494.446	80.006	19.997	103.256	19.446	33.299	0.535
843.500	494.683	80.006	19.995	103.250	19.446	33.265	0.497
844.000	494.954	80.005	19.995	103.243	19.448	33.106	0.491
844.500	495.202	80.006	19.996	103.236	19.455	32.620	0.513
845.000	495.471	80.006	19.996	103.229	19.457	32.456	0.518
845.500	495.737	80.005	19.995	103.225	19.460	32.252	0.526
846.000	495.977	80.006	19.994	103.225	19.464	31.968	0.521
846.500	496.217	80.005	19.996	103.225	19.469	31.629	0.493
847.000	496.457	80.006	19.995	103.225	19.470	31.537	0.480
847.500	496.708	80.005	19.994	103.225	19.475	31.186	0.485
848.000	496.949	80.006	19.996	103.227	19.480	30.827	0.492
848.500	497.167	80.005	19.995	103.226	19.481	30.734	0.476
849.000	497.414	80.005	19.996	103.226	19.488	30.279	0.462
849.500	497.671	80.005	19.996	103.226	19.488	30.230	0.485
850.000	497.935	80.004	19.995	103.226	19.495	29.722	0.512
850.500	498.193	80.004	19.996	103.225	19.502	29.241	0.521
851.000	498.400	80.005	19.995	103.225	19.502	29.199	0.493
851.500	498.652	80.004	19.995	103.225	19.506	28.973	0.462
852.000	498.899	80.005	19.995	103.224	19.510	28.664	0.479
852.500	499.166	80.004	19.996	103.224	19.513	28.455	0.506
853.000	499.399	80.004	19.995	103.223	19.516	28.192	0.507
853.500	499.620	80.003	19.996	103.223	19.520	27.949	0.477
854.000	499.875	80.005	19.996	103.223	19.521	27.830	0.465
854.500	500.059	80.004	19.995	103.223	19.526	27.495	0.457
855.000	500.338	80.003	19.996	103.222	19.533	27.012	0.451
855.500	500.607	80.003	19.997	103.223	19.531	27.119	0.506
856.000	500.840	80.002	19.997	103.223	19.536	26.773	0.525
856.500	501.106	80.003	19.996	103.225	19.540	26.491	0.500
857.000	501.351	80.003	19.995	103.228	19.547	25.955	0.504
857.500	501.579	80.004	19.996	103.229	19.548	25.924	0.492
858.000	501.814	80.003	19.995	103.230	19.551	25.672	0.468
858.500	502.048	80.002	19.996	103.229	19.554	25.447	0.466
859.000	502.314	80.003	19.996	103.227	19.559	25.136	0.485
859.500	502.511	80.003	19.995	103.225	19.561	24.998	0.482
860.000	502.794	80.003	19.996	103.225	19.564	24.779	0.471
860.500	503.035	80.004	19.995	103.225	19.570	24.343	0.502
861.000	503.264	80.003	19.995	103.226	19.571	24.272	0.497
861.500	503.502	80.003	19.996	103.230	19.573	24.111	0.468
862.000	503.736	80.003	19.995	103.230	19.576	23.868	0.469
862.500	503.975	80.003	19.995	103.231	19.581	23.545	0.473
863.000	504.206	80.003	19.994	103.230	19.582	23.481	0.472
863.500	504.459	80.003	19.995	103.230	19.586	23.152	0.477
864.000	504.705	80.002	19.995	103.225	19.590	22.902	0.491
864.500	504.957	80.003	19.995	103.225	19.593	22.693	0.498
865.000	505.208	80.003	19.994	103.226	19.595	22.536	0.501
865.500	505.480	80.002	19.995	103.226	19.600	22.140	0.514
866.000	505.687	80.004	19.994	103.226	19.601	22.097	0.501
866.500	505.944	80.003	19.995	103.226	19.605	21.788	0.471
867.000	506.191	80.004	19.994	103.227	19.608	21.591	0.484
867.500	506.465	80.002	19.994	103.225	19.608	21.548	0.513
868.000	506.673	80.003	19.994	103.225	19.615	21.081	0.502
868.500	506.907	80.004	19.995	103.227	19.614	21.127	0.462
869.000	507.172	80.003	19.995	103.228	19.620	20.731	0.471
869.500	507.423	80.001	19.995	103.226	19.621	20.669	0.508
870.000	507.654	80.004	19.995	103.226	19.625	20.376	0.499
870.500	507.929	80.004	19.993	103.227	19.630	19.998	0.494
871.000	508.140	80.004	19.994	103.225	19.633	19.801	0.496
871.500	508.375	80.004	19.994	103.227	19.634	19.686	0.466
872.000	508.641	80.004	19.995	103.229	19.637	19.495	0.474
872.500	508.920	80.004	19.995	103.229	19.638	19.399	0.523
873.000	509.189	80.004	19.994	103.228	19.641	19.182	0.546
873.500	509.411	80.005	19.997	103.227	19.644	18.948	0.519
874.000	509.640	80.003	19.995	103.224	19.646	18.800	0.471
874.500	509.859	80.005	19.994	103.221	19.651	18.479	0.450
875.000	510.143	80.005	19.994	103.221	19.651	18.442	0.476
875.500	510.414	80.005	19.993	103.221	19.658	17.936	0.529
876.000	510.649	80.005	19.995	103.221	19.660	17.841	0.531
876.500	510.898	80.004	19.995	103.222	19.662	17.664	0.495
877.000	511.113	80.004	19.994	103.221	19.664	17.540	0.474
877.500	511.394	80.004	19.994	103.223	19.667	17.322	0.480
878.000	511.613	80.003	19.995	103.225	19.670	17.109	0.498
878.500	511.862	80.004	19.994	103.226	19.670	17.077	0.484
879.000	512.143	80.004	19.996	103.226	19.678	16.534	0.499
879.500	512.346	80.005	19.995	103.226	19.677	16.591	0.507
880.000	512.608	80.004	19.995	103.224	19.678	16.514	0.475
880.500	512.847	80.005	19.994	103.223	19.680	16.372	0.483
881.000	513.113	80.004	19.995	103.222	19.683	16.138	0.503
881.500	513.384	80.004	19.994	103.221	19.689	15.707	0.521
882.000	513.624	80.004	19.995	103.221	19.686	15.969	0.524
882.500	513.902	80.004	19.995	103.221	19.691	15.573	0.514
883.000	514.155	80.004	19.994	103.220	19.693	15.463	0.525
883.500	514.447	80.004	19.996	103.221	19.695	15.325	0.538
884.000	514.671	80.004	19.995	103.221	19.699	15.004	0.530
884.500	514.951	80.003	19.995	103.221	19.702	14.811	0.510
885.000	515.215	80.003	19.993	103.219	19.703	14.723	0.524
885.500	515.468	80.004	19.994	103.219	19.706	14.469	0.530
886.000	515.712	80.003	19.995	103.219	19.704	14.646	0.507
886.500	515.991	80.003	19.995	103.219	19.707	14.437	0.510
887.000	516.215	80.005	19.995	103.220	19.711	14.161	0.513
887.500	516.505	80.002	19.995	103.221	19.714	13.911	0.508
888.000	516.749	80.004	19.993	103.221	19.716	13.773	0.523
888.500	517.018	80.003	19.995	103.221	19.719	13.529	0.523
889.000	517.240	80.003	19.994	103.221	19.719	13.553	0.502
889.500	517.541	80.003	19.995	103.222	19.721	13.445	0.507
890.000	517.786	80.003	19.995	103.222	19.724	13.191	0.534
890.500	517.983	80.003	19.996	103.221	19.727	12.958	0.494
891.000	518.280	80.003	19.996	103.221	19.726	13.045	0.468
891.500	518.589	80.004	19.994	103.220	19.730	12.763	0.550
892.000	518.815	80.003	19.995	103.221	19.730	12.792	0.570
892.500	519.064	80.003	19.995	103.221	19.735	12.413	0.505
893.000	519.352	80.003	19.996	103.221	19.735	12.381	0.506
893.500	519.605	80.003	19.994	103.220	19.737	12.257	0.540
894.000	519.832	80.003	19.995	103.220	19.740	12.076	0.511
894.500	520.107	80.004	19.995	103.220	19.739	12.151	0.491
895.000	520.321	80.004	19.995	103.220	19.743	11.805	0.495
895.500	520.592	80.003	19.995	103.222	19.744	11.781	0.486
896.000	520.863	80.004	19.995	103.222	19.745	11.651	0.513
896.500	521.093	80.004	19.996	103.223	19.749	11.416	0.522
897.000	521.417	80.005	19.996	103.222	19.747	11.560	0.528
897.500	521.634	80.004	19.995	103.222	19.752	11.154	0.548
898.000	521.893	80.004	19.994	103.221	19.753	11.126	0.508
898.500	522.174	80.006	19.995	103.221	19.753	11.079	0.508
899.000	522.437	80.005	19.994	103.221	19.756	10.878	0.542
899.500	522.717	80.005	19.995	103.222	19.761	10.506	0.543
900.000	522.966	80.005	19.995	103.222	19.760	10.567	0.536
900.500	523.175	80.005	19.995	103.222	19.760	10.579	0.494
901.000	523.452	80.004	19.995	103.221	19.761	10.516	0.472
901.500	523.716	80.005	19.993	103.219	19.762	10.455	0.514
902.000	523.986	80.004	19.995	103.219	19.761	10.497	0.538
902.500	524.249	80.007	19.994	103.218	19.769	9.918	0.534
903.000	524.488	80.005	19.995	103.218	19.769	9.963	0.517
903.500	524.756	80.005	19.994	103.220	19.770	9.894	0.504
904.000	524.993	80.006	19.995	103.222	19.769	9.987	0.506
904.500	525.293	80.006	19.993	103.222	19.773	9.660	0.521
905.000	525.549	80.006	19.994	103.223	19.772	9.750	0.546
905.500	525.799	80.005	19.994	103.224	19.776	9.475	0.531
906.000	526.025	80.006	19.995	103.223	19.777	9.388	0.491
906.500	526.324	80.006	19.995	103.223	19.778	9.331	0.501
907.000	526.555	80.004	19.995	103.223	19.778	9.314	0.528
907.500	526.817	80.004	19.995	103.221	19.780	9.174	0.512
908.000	527.065	80.005	19.995	103.221	19.782	8.983	0.502
908.500	527.311	80.006	19.995	103.216	19.784	8.904	0.502
909.000	527.597	80.005	19.994	103.214	19.782	9.022	0.513
909.500	527.855	80.004	19.995	103.214	19.785	8.762	0.538
910.000	528.106	80.005	19.996	103.213	19.786	8.705	0.527
910.500	528.335	80.006	19.995	103.213	19.784	8.853	0.494
911.000	528.604	80.005	19.995	103.217	19.788	8.577	0.488
911.500	528.850	80.005	19.994	103.218	19.790	8.414	0.506
912.000	529.108	80.004	19.994	103.217	19.792	8.272	0.510
912.500	529.358	80.004	19.994	103.220	19.790	8.453	0.506
913.000	529.628	80.004	19.995	103.220	19.794	8.154	0.514
913.500	529.878	80.003	19.994	103.222	19.795	8.091	0.521
914.000	530.144	80.004	19.995	103.222	19.793	8.220	0.518
914.500	530.421	80.005	19.995	103.219	19.796	8.035	0.529
915.000	530.660	80.004	19.996	103.219	19.801	7.635	0.530
915.500	530.922	80.005	19.995	103.218	19.800	7.710	0.509
916.000	531.151	80.003	19.994	103.217	19.801	7.664	0.496
916.500	531.389	80.005	19.996	103.217	19.802	7.546	0.479
917.000	531.641	80.005	19.995	103.220	19.805	7.375	0.478
917.500	531.922	80.004	19.995	103.221	19.805	7.318	0.511
918.000	532.160	80.004	19.995	103.222	19.807	7.242	0.526
918.500	532.423	80.005	19.996	103.222	19.803	7.508	0.510
919.000	532.708	80.004	19.995	103.222	19.805	7.335	0.525
919.500	532.962	80.003	19.995	103.221	19.804	7.415	0.544
920.000	533.206	80.004	19.996	103.222	19.808	7.155	0.519
920.500	533.440	80.003	19.994	103.222	19.809	7.031	0.488
921.000	533.700	80.004	19.995	103.223	19.808	7.109	0.486
921.500	533.934	80.005	19.995	103.222	19.809	7.074	0.494
922.000	534.257	80.004	19.995	103.221	19.812	6.822	0.525
922.500	534.485	80.005	19.996	103.221	19.815	6.649	0.554
923.000	534.750	80.004	19.996	103.220	19.816	6.590	0.522
923.500	534.991	80.006	19.996	103.220	19.815	6.659	0.499
924.000	535.284	80.005	19.995	103.220	19.812	6.838	0.520
924.500	535.538	80.006	19.994	103.220	19.818	6.383	0.541
925.000	535.817	80.006	19.994	103.218	19.821	6.171	0.540
925.500	536.064	80.006	19.995	103.213	19.819	6.374	0.530
926.000	536.326	80.006	19.994	103.209	19.820	6.285	0.517
926.500	536.612	80.005	19.994	103.207	19.820	6.298	0.528
927.000	536.838	80.005	19.995	103.208	19.822	6.154	0.530
927.500	537.130	80.005	19.994	103.209	19.821	6.202	0.515
928.000	537.353	80.006	19.995	103.212	19.823	6.062	0.517
928.500	537.629	80.007	19.994	103.214	19.826	5.849	0.507
929.000	537.889	80.005	19.994	103.217	19.824	5.946	0.517
929.500	538.139	80.007	19.996	103.218	19.827	5.794	0.523
930.000	538.396	80.007	19.994	103.219	19.827	5.747	0.509
930.500	538.673	80.007	19.994	103.219	19.829	5.601	0.521
931.000	538.943	80.006	19.997	103.217	19.829	5.609	0.540
931.500	539.218	80.006	19.995	103.212	19.830	5.513	0.546
932.000	539.487	80.008	19.994	103.209	19.832	5.393	0.544
932.500	539.761	80.006	19.996	103.208	19.829	5.608	0.543
933.000	539.962	80.005	19.994	103.210	19.832	5.407	0.509
933.500	540.216	80.005	19.994	103.212	19.833	5.341	0.465
934.000	540.520	80.004	19.995	103.214	19.831	5.445	0.506
934.500	540.752	80.006	19.995	103.217	19.834	5.270	0.547
935.000	541.020	80.005	19.994	103.218	19.837	5.075	0.518
935.500	541.271	80.006	19.994	103.217	19.833	5.341	0.510
936.000	541.566	80.005	19.995	103.217	19.834	5.273	0.532
936.500	541.810	80.003	19.995	103.218	19.834	5.236	0.542
937.000	542.090	80.004	19.996	103.214	19.834	5.265	0.532
937.500	542.319	80.002	19.995	103.212	19.832	5.423	0.517
938.000	542.615	80.003	19.996	103.209	19.837	5.066	0.517
938.500	542.905	80.004	19.995	103.210	19.835	5.186	0.556
939.000	543.157	80.003	19.997	103.206	19.834	5.286	0.564
939.500	543.387	80.003	19.995	103.209	19.837	5.014	0.512
940.000	543.659	80.004	19.995	103.209	19.839	4.913	0.492
940.500	543.919	80.004	19.995	103.206	19.836	5.076	0.517
941.000	544.190	80.003	19.996	103.207	19.837	5.033	0.531
941.500	544.469	80.004	19.995	103.211	19.836	5.106	0.541
942.000	544.734	80.002	19.995	103.212	19.840	4.847	0.548
942.500	544.958	80.003	19.995	103.214	19.836	5.105	0.517
943.000	545.230	80.002	19.995	103.220	19.841	4.731	0.492
943.500	545.502	80.002	19.996	103.218	19.840	4.814	0.519
944.000	545.769	80.003	19.995	103.213	19.844	4.540	0.542
944.500	546.054	80.003	19.995	103.209	19.845	4.477	0.546
945.000	546.288	80.004	19.996	103.204	19.843	4.601	0.535
945.500	546.559	80.003	19.996	103.204	19.844	4.506	0.512
946.000	546.837	80.003	19.996	103.205	19.847	4.284	0.527
946.500	547.124	80.003	19.996	103.210	19.844	4.543	0.557
947.000	547.388	80.003	19.996	103.214	19.844	4.512	0.558
947.500	547.618	80.002	19.995	103.218	19.849	4.152	0.522
948.000	547.885	80.003	19.996	103.219	19.845	4.494	0.495
948.500	548.152	80.003	19.997	103.219	19.845	4.490	0.515
949.000	548.397	80.004	19.997	103.216	19.845	4.427	0.523
949.500	548.657	80.003	19.995	103.211	19.851	4.033	0.509
950.000	548.918	80.003	19.995	103.204	19.848	4.242	0.513
950.500	549.165	80.003	19.996	103.197	19.848	4.230	0.514
951.000	549.430	80.004	19.995	103.190	19.848	4.270	0.510
951.500	549.701	80.004	19.996	103.185	19.849	4.146	0.524
952.000	550.013	80.004	19.995	103.188	19.849	4.155	0.559
952.500	550.227	80.004	19.997	103.194	19.850	4.102	0.555
953.000	550.469	80.004	19.995	103.196	19.849	4.165	0.491
953.500	550.770	80.004	19.996	103.203	19.851	4.038	0.499
954.000	550.983	80.004	19.996	103.210	19.847	4.319	0.528
954.500	551.274	80.003	19.995	103.212	19.851	4.046	0.509
955.000	551.557	80.004	19.997	103.206	19.851	4.042	0.539
955.500	551.802	80.003	19.994	103.206	19.853	3.896	0.551
956.000	552.028	80.005	19.995	103.205	19.852	3.930	0.500
956.500	552.324	80.004	19.998	103.200	19.850	4.073	0.497
957.000	552.581	80.004	19.997	103.195	19.852	3.969	0.538
957.500	552.847	80.005	19.995	103.196	19.851	4.002	0.538
958.000	553.105	80.005	19.995	103.201	19.852	3.933	0.523
958.500	553.357	80.004	19.995	103.195	19.854	3.845	0.517
959.000	553.661	80.004	19.995	103.195	19.853	3.910	0.533
959.500	553.887	80.006	19.994	103.194	19.852	3.961	0.543
960.000	554.193	80.005	19.997	103.195	19.854	3.801	0.531
960.500	554.389	80.004	19.992	103.194	19.852	3.953	0.517
961.000	554.709	80.004	19.996	103.196	19.856	3.640	0.508
961.500	554.951	80.005	19.995	103.196	19.852	3.931	0.539
962.000	555.214	80.004	19.995	103.198	19.857	3.616	0.534
962.500	555.484	80.004	19.992	103.195	19.856	3.636	0.519
963.000	555.743	80.004	19.994	103.191	19.858	3.558	0.531
963.500	555.986	80.004	19.996	103.194	19.858	3.510	0.515
964.000	556.225	80.003	19.996	103.194	19.858	3.522	0.492
964.500	556.498	80.003	19.994	103.198	19.860	3.362	0.497
965.000	556.790	80.003	19.997	103.201	19.861	3.341	0.539
965.500	557.031	80.003	19.997	103.205	19.860	3.396	0.549
966.000	557.284	80.003	19.995	103.203	19.859	3.429	0.513
966.500	557.538	80.001	19.994	103.207	19.862	3.262	0.500
967.000	557.782	80.004	19.995	103.204	19.859	3.453	0.503
967.500	558.061	80.003	19.994	103.205	19.861	3.333	0.511
968.000	558.324	80.004	19.996	103.207	19.859	3.471	0.532
968.500	558.589	80.002	19.996	103.207	19.859	3.465	0.535
969.000	558.850	80.004	19.996	103.202	19.862	3.223	0.527
969.500	559.128	80.004	19.996	103.201	19.858	3.544	0.532
970.000	559.373	80.004	19.995	103.199	19.863	3.187	0.531
970.500	559.591	80.004	19.996	103.196	19.863	3.175	0.493
971.000	559.862	80.003	19.996	103.195	19.864	3.061	0.476
971.500	560.144	80.003	19.996	103.198	19.865	3.006	0.521
972.000	560.394	80.003	19.996	103.201	19.865	3.030	0.542
972.500	560.643	80.002	19.996	103.202	19.865	3.022	0.515
973.000	560.948	80.002	19.994	103.201	19.865	3.032	0.526
973.500	561.189	80.003	19.995	103.204	19.864	3.120	0.550
974.000	561.455	80.003	19.997	103.206	19.865	3.014	0.527
974.500	561.659	80.003	19.995	103.203	19.865	3.032	0.489
975.000	561.968	80.003	19.993	103.200	19.866	2.955	0.492
975.500	562.231	80.004	19.994	103.199	19.863	3.193	0.542
976.000	562.508	80.004	19.996	103.196	19.865	3.034	0.556
976.500	562.748	80.003	19.996	103.190	19.865	3.041	0.528
977.000	562.979	80.003	19.995	103.188	19.866	2.959	0.494
977.500	563.241	80.004	19.995	103.188	19.868	2.817	0.482
978.000	563.495	80.003	19.994	103.190	19.868	2.821	0.504
978.500	563.741	80.003	19.995	103.193	19.867	2.848	0.508
979.000	564.005	80.004	19.995	103.200	19.868	2.776	0.505
979.500	564.280	80.005	19.995	103.204	19.866	2.969	0.524
980.000	564.507	80.005	19.995	103.204	19.866	2.959	0.520
980.500	564.761	80.004	19.995	103.206	19.863	3.159	0.491
981.000	565.037	80.005	19.995	103.206	19.867	2.852	0.506
981.500	565.278	80.005	19.994	103.202	19.866	2.962	0.523
982.000	565.532	80.005	19.994	103.202	19.864	3.102	0.506
982.500	565.786	80.004	19.995	103.204	19.866	2.966	0.501
983.000	566.046	80.004	19.995	103.200	19.866	2.927	0.511
983.500	566.310	80.006	19.993	103.197	19.865	3.006	0.520
984.000	566.571	80.006	19.993	103.197	19.870	2.671	0.525
984.500	566.801	80.005	19.995	103.196	19.868	2.791	0.508
985.000	567.089	80.006	19.995	103.199	19.867	2.872	0.504
985.500	567.333	80.006	19.994	103.201	19.872	2.482	0.525
986.000	567.586	80.006	19.994	103.202	19.867	2.842	0.514
986.500	567.846	80.003	19.994	103.201	19.870	2.669	0.505
987.000	568.092	80.006	19.994	103.199	19.867	2.858	0.510
987.500	568.315	80.004	19.993	103.193	19.867	2.847	0.487
988.000	568.582	80.006	19.993	103.191	19.864	3.055	0.479
988.500	568.855	80.004	19.995	103.193	19.868	2.768	0.515
989.000	569.116	80.005	19.994	103.193	19.867	2.900	0.537
989.500	569.379	80.005	19.996	103.192	19.868	2.827	0.529
990.000	569.641	80.004	19.993	103.195	19.869	2.715	0.524
990.500	569.877	80.003	19.996	103.198	19.870	2.632	0.511
991.000	570.117	80.006	19.993	103.195	19.868	2.801	0.487
991.500	570.349	80.005	19.994	103.194	19.868	2.780	0.474
992.000	570.643	80.004	19.994	103.192	19.868	2.815	0.499
992.500	570.916	80.005	19.993	103.188	19.868	2.770	0.547
993.000	571.129	80.004	19.993	103.186	19.868	2.823	0.527
993.500	571.344	80.004	19.991	103.189	19.869	2.699	0.457
994.000	571.614	80.006	19.995	103.191	19.868	2.789	0.457
994.500	571.890	80.005	19.995	103.193	19.871	2.555	0.516
995.000	572.146	80.005	19.995	103.194	19.870	2.665	0.539
995.500	572.390	80.004	19.994	103.195	19.871	2.563	0.516
996.000	572.658	80.003	19.993	103.192	19.870	2.636	0.506
996.500	572.899	80.004	19.992	103.190	19.866	2.945	0.511
997.000	573.161	80.006	19.995	103.191	19.869	2.708	0.506
997.500	573.408	80.005	19.996	103.194	19.872	2.482	0.506
998.000	573.666	80.006	19.994	103.194	19.872	2.490	0.507
998.500	573.939	80.006	19.993	103.196	19.872	2.484	0.518
999.000	574.177	80.007	19.995	103.201	19.873	2.468	0.521
999.500	574.455	80.005	19.995	103.204	19.874	2.390	0.514
1000.000	574.720	80.005	19.995	103.205	19.874	2.390	0.529
1000.500	574.998	80.005	19.995	103.205	19.879	2.020	0.543
1001.000	575.250	80.005	19.994	103.205	19.874	2.394	0.537
1001.500	575.503	80.006	19.995	103.199	19.875	2.327	0.518
1002.000	575.723	80.006	19.995	103.197	19.874	2.366	0.489
1002.500	575.985	80.005	19.995	103.193	19.874	2.334	0.477
1003.000	576.264	80.005	19.994	103.192	19.873	2.437	0.512
1003.500	576.493	80.005	19.994	103.191	19.874	2.354	0.524
1004.000	576.770	80.006	19.994	103.192	19.874	2.370	0.506
1004.500	577.024	80.005	19.996	103.189	19.874	2.391	0.518
1005.000	577.267	80.007	19.996	103.188	19.874	2.334	0.514
1005.500	577.504	80.006	19.994	103.189	19.873	2.409	0.488
1006.000	577.730	80.005	19.995	103.187	19.874	2.362	0.471
1006.500	578.032	80.006	19.994	103.185	19.875	2.315	0.496
1007.000	578.272	80.005	19.996	103.185	19.875	2.289	0.535
1007.500	578.558	80.007	19.995	103.185	19.877	2.118	0.534
1008.000	578.800	80.007	19.996	103.182	19.880	1.927	0.527
1008.500	579.050	80.006	19.995	103.184	19.879	2.043	0.510
1009.000	579.301	80.005	19.995	103.185	19.874	2.352	0.497
1009.500	579.555	80.005	19.995	103.189	19.879	2.028	0.503
1010.000	579.810	80.007	19.995	103.191	19.878	2.063	0.507
1010.500	580.020	80.006	19.995	103.193	19.875	2.319	0.487
1011.000	580.292	80.006	19.996	103.193	19.877	2.138	0.474
1011.500	580.550	80.007	19.996	103.192	19.876	2.238	0.506
1012.000	580.831	80.007	19.994	103.188	19.875	2.301	0.534
1012.500	581.103	80.007	19.996	103.187	19.877	2.185	0.546
1013.000	581.326	80.005	19.995	103.189	19.874	2.384	0.524
1013.500	581.580	80.006	19.996	103.187	19.875	2.289	0.486
1014.000	581.831	80.007	19.996	103.187	19.872	2.522	0.491
1014.500	582.095	80.006	19.995	103.188	19.877	2.157	0.509
1015.000	582.336	80.006	19.994	103.186	19.873	2.467	0.510
1015.500	582.607	80.004	19.996	103.183	19.879	1.990	0.508
1016.000	582.846	80.006	19.996	103.185	19.875	2.299	0.511
1016.500	583.082	80.006	19.994	103.186	19.882	1.817	0.493
1017.000	583.366	80.006	19.996	103.185	19.879	2.004	0.498
1017.500	583.571	80.005	19.995	103.185	19.876	2.246	0.504
1018.000	583.797	80.005	19.996	103.184	19.880	1.927	0.460
1018.500	584.036	80.006	19.995	103.182	19.879	1.978	0.448
1019.000	584.319	80.004	19.995	103.181	19.880	1.955	0.493
1019.500	584.537	80.003	19.998	103.182	19.880	1.953	0.511
1020.000	584.799	80.004	19.995	103.187	19.880	1.963	0.491
1020.500	585.042	80.003	19.995	103.193	19.879	1.990	0.492
1021.000	585.319	80.004	19.995	103.195	19.881	1.886	0.513
1021.500	585.546	80.004	19.995	103.196	19.881	1.896	0.512
1022.000	585.826	80.004	19.995	103.196	19.876	2.209	0.505
1022.500	586.045	80.004	19.996	103.194	19.878	2.091	0.503
1023.000	586.297	80.002	19.996	103.191	19.879	1.985	0.485
1023.500	586.556	80.004	19.996	103.191	19.879	1.994	0.491
1024.000	586.780	80.005	19.996	103.192	19.883	1.752	0.497
1024.499	587.041	80.005	19.995	103.190	19.878	2.075	0.484
1024.999	587.274	80.003	19.994	103.190	19.879	2.035	0.489
1025.499	587.516	80.004	19.995	103.191	19.875	2.279	0.484
1025.999	587.733	80.004	19.995	103.192	19.879	2.043	0.468
1026.499	588.003	80.003	19.997	103.193	19.882	1.823	0.473
1026.999	588.246	80.003	19.994	103.198	19.880	1.961	0.500
1027.499	588.489	80.003	19.995	103.199	19.878	2.081	0.499
1027.999	588.720	80.003	19.996	103.196	19.879	1.994	0.480
1028.500	588.963	80.003	19.997	103.199	19.880	1.921	0.474
1029.001	589.224	80.003	19.994	103.199	19.880	1.907	0.489
1029.500	589.490	80.004	19.994	103.199	19.881	1.844	0.516
1029.999	589.759	80.004	19.996	103.199	19.881	1.856	0.531
1030.499	590.014	80.004	19.997	103.198	19.882	1.803	0.530
1030.999	590.251	80.003	19.996	103.194	19.880	1.929	0.508
1031.499	590.477	80.004	19.995	103.194	19.884	1.669	0.477
1031.999	590.717	80.003	19.997	103.194	19.882	1.789	0.465
1032.499	590.956	80.002	19.995	103.200	19.878	2.096	0.473
1032.999	591.235	80.003	19.996	103.207	19.880	1.959	0.498
1033.499	591.512	80.002	19.995	103.212	19.878	2.057	0.537
1033.999	591.718	80.004	19.996	103.214	19.881	1.835	0.520
1034.499	592.015	80.004	19.995	103.210	19.884	1.675	0.494
1034.999	592.265	80.002	19.996	103.202	19.878	2.071	0.525
1035.499	592.495	80.005	19.995	103.197	19.881	1.850	0.513
1035.999	592.724	80.004	19.996	103.193	19.882	1.813	0.469
1036.500	592.994	80.002	19.996	103.190	19.883	1.746	0.479
1037.001	593.242	80.002	19.996	103.190	19.884	1.638	0.509
1037.500	593.507	80.004	19.997	103.194	19.883	1.754	0.515
1037.999	593.733	80.002	19.996	103.194	19.881	1.880	0.502
1038.499	593.989	80.002	19.996	103.192	19.880	1.905	0.486
1038.999	594.230	80.002	19.995	103.192	19.881	1.831	0.490
1039.499	594.482	80.003	19.994	103.193	19.878	2.053	0.495
1039.999	594.788	80.003	19.996	103.190	19.883	1.734	0.525
1040.499	595.025	80.003	19.996	103.188	19.878	2.114	0.550
1040.999	595.241	80.003	19.999	103.188	19.881	1.868	0.498
1041.499	595.517	80.002	19.997	103.187	19.885	1.587	0.473
1041.999	595.774	80.002	19.994	103.187	19.880	1.959	0.512
1042.499	596.010	80.005	19.995	103.186	19.880	1.915	0.513
1042.999	596.279	80.003	19.997	103.186	19.882	1.817	0.499
1043.499	596.521	80.004	19.996	103.187	19.880	1.908	0.508
1043.999	596.758	80.002	19.995	103.187	19.883	1.717	0.495
1044.499	597.002	80.003	19.998	103.188	19.881	1.874	0.481
1044.999	597.267	80.003	19.996	103.188	19.880	1.937	0.495
1045.499	597.534	80.003	19.997	103.188	19.878	2.051	0.521
1045.999	597.743	80.003	19.996	103.190	19.880	1.959	0.504
1046.499	597.995	80.002	19.997	103.193	19.880	1.935	0.468
1046.999	598.255	80.002	19.995	103.196	19.879	1.978	0.486
1047.499	598.505	80.003	19.995	103.198	19.882	1.760	0.511
1047.999	598.768	80.003	19.995	103.199	19.879	2.014	0.512
1048.499	599.016	80.003	19.996	103.196	19.882	1.823	0.512
1048.999	599.233	80.003	19.996	103.193	19.883	1.738	0.488
1049.499	599.506	80.001	19.996	103.188	19.881	1.900	0.477
1050.000	599.742	80.003	19.994	103.186	19.880	1.961	0.499
1050.500	599.995	80.003	19.995	103.186	19.882	1.803	0.499
1050.999	600.254	80.003	19.996	103.187	19.883	1.740	0.500
1051.499	600.498	80.002	19.993	103.188	19.881	1.870	0.508
1051.999	600.767	80.003	19.994	103.190	19.876	2.211	0.508
1052.499	601.011	80.002	19.994	103.192	19.880	1.906	0.513
1052.999	601.242	80.003	19.994	103.191	19.880	1.915	0.494
1053.499	601.530	80.003	19.994	103.190	19.880	1.935	0.497
1053.999	601.804	80.002	19.996	103.195	19.883	1.742	0.540
1054.499	602.053	80.004	19.994	103.197	19.883	1.732	0.542
1054.999	602.280	80.002	19.993	103.199	19.879	2.018	0.500
1055.499	602.511	80.003	19.994	103.200	19.879	1.990	0.468
1055.999	602.774	80.003	19.995	103.199	19.883	1.750	0.476
1056.499	603.076	80.002	19.995	103.196	19.880	1.970	0.529
1056.999	603.266	80.002	19.994	103.193	19.882	1.827	0.529
1057.499	603.567	80.004	19.995	103.189	19.882	1.770	0.492
1057.999	603.789	80.004	19.995	103.188	19.880	1.951	0.507
1058.499	604.063	80.004	19.994	103.188	19.877	2.149	0.509
1058.999	604.321	80.003	19.996	103.189	19.881	1.866	0.514
1059.499	604.544	80.003	19.995	103.190	19.878	2.061	0.506
1059.999	604.816	80.002	19.994	103.191	19.882	1.809	0.488
1060.499	605.057	80.005	19.996	103.191	19.884	1.649	0.504
1060.999	605.312	80.004	19.994	103.191	19.880	1.929	0.505
1061.499	605.580	80.004	19.994	103.188	19.887	1.423	0.510
1061.999	605.827	80.004	19.995	103.191	19.879	2.027	0.519
1062.499	606.092	80.005	19.995	103.195	19.883	1.752	0.513
1062.999	606.343	80.005	19.996	103.197	19.880	1.939	0.514
1063.499	606.632	80.005	19.994	103.198	19.885	1.567	0.528
1063.999	606.882	80.005	19.996	103.200	19.884	1.636	0.540
1064.499	607.106	80.006	19.994	103.199	19.884	1.644	0.507
1065.000	607.344	80.005	19.998	103.196	19.881	1.858	0.468
1065.500	607.636	80.004	19.995	103.194	19.882	1.801	0.496
1065.999	607.879	80.005	19.995	103.195	19.884	1.665	0.532
1066.499	608.147	80.005	19.995	103.195	19.887	1.464	0.523
1066.999	608.415	80.005	19.996	103.191	19.883	1.699	0.524
1067.499	608.612	80.006	19.996	103.189	19.885	1.579	0.500
1067.999	608.897	80.006	19.997	103.187	19.882	1.795	0.474
1068.499	609.159	80.006	19.993	103.185	19.886	1.480	0.515
1068.999	609.446	80.005	19.997	103.182	19.881	1.888	0.548
1069.499	609.684	80.005	19.995	103.183	19.881	1.886	0.537
1069.999	609.933	80.006	19.996	103.183	19.883	1.742	0.506
1070.499	610.193	80.006	19.995	103.183	19.882	1.773	0.498
1071.000	610.447	80.006	19.995	103.183	19.884	1.624	0.512
1071.500	610.701	80.007	19.996	103.182	19.884	1.669	0.511
1071.999	610.998	80.006	19.994	103.181	19.881	1.848	0.529
1072.499	611.231	80.005	19.994	103.181	19.883	1.701	0.540
1072.999	611.485	80.005	19.996	103.180	19.882	1.803	0.509
1073.499	611.743	80.006	19.996	103.180	19.885	1.583	0.500
1073.999	612.019	80.005	19.997	103.183	19.887	1.443	0.523
1074.499	612.255	80.006	19.993	103.185	19.882	1.799	0.523
1074.999	612.518	80.004	19.994	103.188	19.879	1.994	0.505
1075.499	612.766	80.005	19.999	103.189	19.881	1.844	0.505
1076.000	612.999	80.004	19.996	103.190	19.882	1.801	0.496
1076.500	613.290	80.006	19.995	103.186	19.883	1.734	0.502
1076.999	613.539	80.005	19.994	103.184	19.882	1.821	0.532
1077.499	613.834	80.006	19.996	103.182	19.882	1.793	0.543
1077.999	614.072	80.005	19.994	103.182	19.887	1.466	0.539
1078.499	614.340	80.006	19.996	103.182	19.882	1.803	0.519
1079.000	614.567	80.005	19.995	103.183	19.881	1.842	0.500
1079.500	614.884	80.006	19.994	103.182	19.887	1.407	0.520
1080.000	615.125	80.004	19.995	103.183	19.882	1.797	0.551
1080.501	615.406	80.005	19.995	103.183	19.885	1.606	0.540
1081.000	615.652	80.006	19.996	103.184	19.882	1.815	0.524
1081.500	615.961	80.005	19.992	103.183	19.880	1.961	0.541
1082.000	616.187	80.007	19.996	103.184	19.882	1.758	0.545
1082.500	616.443	80.005	19.997	103.184	19.882	1.815	0.508
1083.000	616.697	80.004	19.995	103.186	19.881	1.892	0.496
1083.499	616.937	80.005	19.994	103.186	19.882	1.817	0.502
1083.999	617.242	80.006	19.993	103.186	19.881	1.870	0.520
1084.499	617.470	80.005	19.996	103.189	19.883	1.722	0.539
1084.999	617.740	80.005	19.995	103.190	19.884	1.642	0.515
1085.499	618.037	80.007	19.995	103.188	19.883	1.697	0.532
1085.999	618.242	80.005	19.993	103.187	19.886	1.522	0.535
1086.499	618.487	80.006	19.994	103.187	19.882	1.817	0.476
1086.999	618.749	80.007	19.995	103.185	19.882	1.770	0.479
1087.499	619.047	80.006	19.996	103.183	19.885	1.559	0.534
1088.000	619.258	80.006	19.996	103.184	19.880	1.915	0.535
1088.500	619.542	80.007	19.993	103.184	19.883	1.721	0.502
1088.999	619.793	80.007	19.994	103.185	19.882	1.807	0.515
1089.499	620.078	80.007	19.995	103.186	19.881	1.874	0.535
1089.999	620.316	80.007	19.994	103.190	19.885	1.575	0.529
1090.499	620.581	80.007	19.993	103.191	19.884	1.649	0.513
1090.999	620.835	80.006	19.995	103.196	19.886	1.535	0.512
1091.499	621.091	80.007	19.994	103.198	19.884	1.675	0.515
1091.999	621.400	80.007	19.995	103.197	19.885	1.571	0.537
1092.499	621.619	80.006	19.994	103.194	19.885	1.583	0.546
1092.999	621.875	80.008	19.995	103.194	19.884	1.668	0.501
1093.500	622.117	80.007	19.995	103.189	19.884	1.683	0.487
1094.000	622.414	80.006	19.993	103.189	19.884	1.665	0.519
1094.499	622.634	80.006	19.995	103.189	19.881	1.868	0.528
1094.999	622.846	80.006	19.993	103.189	19.885	1.610	0.475
1095.499	623.173	80.005	19.993	103.189	19.886	1.494	0.486
1095.999	623.394	80.005	19.993	103.189	19.886	1.468	0.543
1096.499	623.662	80.007	19.995	103.188	19.883	1.726	0.518
1096.999	623.959	80.005	19.992	103.193	19.883	1.714	0.527
1097.499	624.208	80.004	19.995	103.195	19.883	1.699	0.555
1097.999	624.457	80.006	19.994	103.195	19.884	1.628	0.522
1098.499	624.695	80.003	19.994	103.197	19.881	1.838	0.492
1098.999	624.949	80.006	19.995	103.198	19.889	1.252	0.490
1099.499	625.236	80.004	19.995	103.195	19.886	1.531	0.517
1100.000	625.498	80.006	19.996	103.192	19.885	1.563	0.545
1100.500	625.733	80.004	19.995	103.191	19.882	1.756	0.523
1100.999	626.017	80.003	19.994	103.187	19.886	1.508	0.508
1101.499	626.264	80.005	19.997	103.187	19.884	1.673	0.525
1102.000	626.500	80.003	19.996	103.187	19.885	1.545	0.507
1102.501	626.750	80.004	19.994	103.192	19.880	1.906	0.484
1103.001	627.026	80.004	19.995	103.199	19.886	1.528	0.506
1103.500	627.298	80.004	19.994	103.203	19.884	1.648	0.537
1103.999	627.561	80.004	19.996	103.205	19.881	1.882	0.541
1104.499	627.780	80.003	19.993	103.204	19.886	1.516	0.509
1104.999	628.108	80.004	19.996	103.200	19.886	1.490	0.515
1105.499	628.312	80.003	19.996	103.193	19.886	1.508	0.540
1105.999	628.605	80.003	19.995	103.190	19.885	1.565	0.514
1106.499	628.826	80.004	19.994	103.188	19.887	1.413	0.505
1106.999	629.126	80.003	19.996	103.187	19.886	1.508	0.517
1107.500	629.386	80.004	19.996	103.186	19.887	1.466	0.540
1108.000	629.577	80.004	19.996	103.186	19.881	1.839	0.505
1108.499	629.858	80.004	19.995	103.184	19.883	1.695	0.461
1108.999	630.161	80.003	19.995	103.183	19.888	1.362	0.528
1109.500	630.333	80.004	19.996	103.185	19.887	1.411	0.529
1110.000	630.619	80.005	19.996	103.186	19.882	1.819	0.466
1110.499	630.893	80.003	19.996	103.188	19.885	1.549	0.509
1110.999	631.217	80.004	19.995	103.190	19.884	1.634	0.579
1111.499	631.412	80.003	19.995	103.191	19.887	1.429	0.559
1111.999	631.686	80.004	19.995	103.194	19.885	1.573	0.494
1112.500	631.928	80.004	19.994	103.196	19.885	1.610	0.493
1113.000	632.192	80.005	19.995	103.196	19.884	1.677	0.511
1113.499	632.441	80.005	19.996	103.194	19.889	1.299	0.510
1113.999	632.677	80.004	19.995	103.196	19.884	1.675	0.499
1114.499	632.933	80.003	19.992	103.194	19.886	1.526	0.489
1114.999	633.140	80.004	19.995	103.191	19.887	1.445	0.478
1115.499	633.430	80.003	19.996	103.191	19.885	1.547	0.480
1115.999	633.646	80.005	19.998	103.192	19.886	1.535	0.501
1116.499	633.972	80.004	19.996	103.191	19.890	1.213	0.524
1116.999	634.233	80.004	19.995	103.190	19.889	1.305	0.565
1117.499	634.473	80.004	19.995	103.191	19.884	1.630	0.544
1117.999	634.712	80.003	19.994	103.189	19.887	1.411	0.490
1118.500	634.984	80.004	19.996	103.190	19.885	1.608	0.495
1119.000	635.277	80.003	19.995	103.195	19.885	1.592	0.538
1119.499	635.473	80.003	19.994	103.195	19.892	1.090	0.527
1119.999	635.767	80.004	19.995	103.195	19.890	1.222	0.490
1120.500	636.065	80.004	19.997	103.195	19.887	1.429	0.541
1121.001	636.264	80.005	19.994	103.193	19.890	1.193	0.545
1121.500	636.588	80.004	19.995	103.189	19.886	1.535	0.510
1121.999	636.804	80.005	19.997	103.190	19.887	1.461	0.531
1122.499	637.057	80.004	19.995	103.192	19.886	1.524	0.505
1122.999	637.278	80.003	19.998	103.191	19.887	1.398	0.472
1123.499	637.548	80.004	19.994	103.191	19.888	1.352	0.482
1123.999	637.796	80.004	19.995	103.190	19.887	1.435	0.504
1124.499	638.073	80.004	19.995	103.188	19.888	1.354	0.521
1124.999	638.308	80.005	19.996	103.190	19.888	1.382	0.518
1125.499	638.606	80.004	19.996	103.193	19.888	1.362	0.522
1126.000	638.875	80.004	19.995	103.193	19.889	1.270	0.550
1126.500	639.122	80.003	19.995	103.193	19.886	1.500	0.542
1126.999	639.378	80.004	19.995	103.192	19.892	1.037	0.509
1127.499	639.589	80.004	19.994	103.188	19.888	1.376	0.485
1127.999	639.865	80.003	19.995	103.185	19.888	1.342	0.477
1128.499	640.109	80.003	19.998	103.183	19.890	1.238	0.504
1128.999	640.384	80.003	19.995	103.183	19.893	1.000	0.520
1129.499	640.624	80.003	19.996	103.185	19.891	1.140	0.517
1129.999	640.912	80.004	19.997	103.186	19.888	1.372	0.521
1130.499	641.144	80.004	19.997	103.186	19.887	1.437	0.524
1130.999	641.401	80.003	19.996	103.188	19.886	1.468	0.505
1131.499	641.662	80.003	19.993	103.189	19.888	1.362	0.504
1131.999	641.882	80.003	19.995	103.191	19.889	1.295	0.500
1132.499	642.151	80.003	19.995	103.191	19.890	1.250	0.485
1132.999	642.454	80.003	19.994	103.193	19.888	1.327	0.530
1133.500	642.695	80.003	19.997	103.194	19.892	1.065	0.558
1134.000	642.927	80.003	19.998	103.191	19.890	1.220	0.509
1134.499	643.220	80.003	19.997	103.188	19.891	1.124	0.499
1135.000	643.426	80.004	19.994	103.186	19.888	1.336	0.512
1135.501	643.672	80.003	19.995	103.183	19.892	1.098	0.475
1136.000	643.933	80.002	19.997	103.182	19.884	1.644	0.479
1136.499	644.170	80.003	19.994	103.185	19.886	1.514	0.503
1137.000	644.433	80.003	19.997	103.189	19.890	1.209	0.499
1137.500	644.661	80.004	19.997	103.192	19.888	1.362	0.495
1137.999	644.944	80.002	19.994	103.192	19.891	1.148	0.501
1138.499	645.189	80.002	19.995	103.191	19.887	1.460	0.520
1138.999	645.460	80.003	19.995	103.189	19.888	1.388	0.522
1139.499	645.683	80.003	19.996	103.184	19.889	1.291	0.505
1139.999	645.935	80.003	19.996	103.182	19.887	1.457	0.485
1140.499	646.183	80.004	19.996	103.184	19.885	1.557	0.488
1140.999	646.480	80.005	19.996	103.185	19.887	1.433	0.522
1141.499	646.735	80.005	19.995	103.185	19.889	1.301	0.548
1141.999	646.968	80.005	19.995	103.185	19.889	1.268	0.520
1142.499	647.251	80.005	19.994	103.186	19.888	1.333	0.502
1142.999	647.440	80.005	19.996	103.183	19.889	1.285	0.494
1143.500	647.713	80.006	19.998	103.182	19.889	1.303	0.467
1144.000	647.979	80.005	19.994	103.182	19.890	1.189	0.500
1144.499	648.204	80.005	19.994	103.182	19.890	1.234	0.515
1144.999	648.472	80.006	19.995	103.181	19.888	1.337	0.492
1145.499	648.708	80.007	19.996	103.182	19.886	1.478	0.499
1145.999	648.983	80.006	19.995	103.182	19.890	1.181	0.508
1146.499	649.235	80.006	19.996	103.182	19.889	1.273	0.519
1146.999	649.478	80.006	19.994	103.182	19.887	1.439	0.511
1147.500	649.725	80.007	19.995	103.182	19.889	1.319	0.492
1148.000	649.992	80.006	19.997	103.182	19.891	1.122	0.502
1148.500	650.249	80.005	19.996	103.181	19.886	1.486	0.520
1149.000	650.464	80.005	19.997	103.182	19.890	1.242	0.498
1149.500	650.741	80.006	19.996	103.183	19.890	1.179	0.482
1150.000	650.998	80.004	19.997	103.185	19.888	1.364	0.513
1150.499	651.205	80.007	19.995	103.185	19.890	1.189	0.500
1150.999	651.510	80.008	19.994	103.184	19.890	1.240	0.488
1151.499	651.814	80.006	19.993	103.183	19.889	1.307	0.560
1151.999	652.006	80.008	19.995	103.183	19.888	1.350	0.553
1152.499	652.246	80.005	19.996	103.182	19.886	1.496	0.464
1152.999	652.481	80.005	19.994	103.184	19.889	1.287	0.453
1153.499	652.744	80.007	19.995	103.186	19.890	1.226	0.487
1153.999	653.019	80.006	19.996	103.188	19.886	1.470	0.518
1154.500	653.247	80.006	19.995	103.189	19.888	1.370	0.521
1155.000	653.527	80.005	19.995	103.190	19.887	1.415	0.505
1155.499	653.795	80.006	19.995	103.190	19.886	1.488	0.527
1155.999	654.049	80.006	19.995	103.188	19.888	1.352	0.535
1156.499	654.271	80.005	19.995	103.186	19.891	1.177	0.499
1157.000	654.556	80.007	19.995	103.186	19.892	1.087	0.491
1157.500	654.793	80.004	19.993	103.183	19.886	1.480	0.514
1157.999	655.068	80.006	19.994	103.182	19.888	1.338	0.517
1158.499	655.299	80.006	19.995	103.184	19.891	1.175	0.509
1158.999	655.574	80.005	19.996	103.186	19.889	1.254	0.506
1159.499	655.842	80.005	19.994	103.186	19.893	1.010	0.525
1159.999	656.073	80.006	19.996	103.186	19.891	1.120	0.521
1160.499	656.333	80.006	19.995	103.187	19.889	1.262	0.495
1160.999	656.600	80.006	19.995	103.185	19.890	1.224	0.509
1161.499	656.828	80.005	19.995	103.183	19.885	1.541	0.511
1162.000	657.090	80.006	19.994	103.184	19.890	1.250	0.492
1162.500	657.339	80.005	19.995	103.186	19.893	1.006	0.500
1162.999	657.574	80.005	19.994	103.186	19.886	1.526	0.497
1163.499	657.847	80.006	19.998	103.186	19.892	1.098	0.496
1163.999	658.109	80.005	19.996	103.186	19.893	0.986	0.522
1164.499	658.353	80.006	19.994	103.186	19.889	1.303	0.521
1164.999	658.571	80.005	19.997	103.186	19.891	1.128	0.484
1165.499	658.837	80.006	19.995	103.186	19.893	0.964	0.473
1165.999	659.088	80.004	19.996	103.187	19.891	1.152	0.501
1166.499	659.354	80.005	19.995	103.187	19.896	0.760	0.517
1166.999	659.589	80.005	19.994	103.187	19.893	1.024	0.508
1167.499	659.848	80.006	19.996	103.186	19.891	1.120	0.498
1167.999	660.094	80.005	19.996	103.186	19.891	1.126	0.500
1168.499	660.332	80.006	19.996	103.186	19.894	0.951	0.494
1168.999	660.591	80.005	19.997	103.186	19.894	0.898	0.490
1169.499	660.844	80.007	19.997	103.188	19.894	0.919	0.505
1169.999	661.126	80.005	19.993	103.187	19.893	0.980	0.524
1170.499	661.363	80.006	19.996	103.186	19.891	1.159	0.527
1170.999	661.602	80.005	19.996	103.186	19.893	1.026	0.497
1171.499	661.883	80.007	19.996	103.189	19.891	1.146	0.498
1171.999	662.103	80.006	19.996	103.192	19.892	1.104	0.510
1172.500	662.342	80.006	19.995	103.199	19.893	1.014	0.480
1173.001	662.616	80.007	19.994	103.204	19.888	1.337	0.486
1173.500	662.868	80.006	19.995	103.208	19.894	0.894	0.520
1173.999	663.125	80.007	19.993	103.205	19.892	1.039	0.518
1174.500	663.391	80.005	19.994	103.199	19.891	1.112	0.516
1175.001	663.623	80.007	19.996	103.192	19.890	1.246	0.510
1175.500	663.875	80.006	19.994	103.187	19.888	1.348	0.491
1175.999	664.155	80.007	19.994	103.185	19.890	1.238	0.508
1176.499	664.401	80.009	19.995	103.186	19.891	1.110	0.529
1176.999	664.661	80.005	19.995	103.187	19.893	0.963	0.516
1177.499	664.894	80.007	19.993	103.192	19.890	1.185	0.500
1178.000	665.133	80.005	19.996	103.195	19.890	1.230	0.482
1178.500	665.404	80.006	19.995	103.194	19.888	1.362	0.491
1178.999	665.641	80.005	19.994	103.196	19.893	0.972	0.509
1179.499	665.917	80.005	19.995	103.196	19.890	1.246	0.510
1179.999	666.156	80.005	19.994	103.191	19.890	1.234	0.514
1180.499	666.415	80.005	19.997	103.188	19.890	1.220	0.507
1180.999	666.656	80.006	19.996	103.188	19.886	1.514	0.499
1181.499	666.923	80.004	19.995	103.185	19.890	1.209	0.505
1181.999	667.169	80.005	19.997	103.185	19.891	1.167	0.511
1182.499	667.434	80.003	19.998	103.185	19.890	1.236	0.512
1182.999	667.672	80.005	19.995	103.185	19.888	1.340	0.507
1183.499	667.945	80.004	19.994	103.186	19.893	1.022	0.507
1183.999	668.158	80.004	19.992	103.191	19.893	0.978	0.498
1184.499	668.469	80.004	19.993	103.194	19.894	0.937	0.504
1184.999	668.712	80.004	19.996	103.194	19.893	0.970	0.539
1185.499	668.909	80.004	19.995	103.195	19.892	1.098	0.497
1185.999	669.180	80.003	19.993	103.195	19.893	0.978	0.455
1186.499	669.432	80.005	19.994	103.190	19.893	0.980	0.496
1186.999	669.677	80.004	19.993	103.188	19.892	1.094	0.510
1187.499	669.904	80.004	19.996	103.189	19.895	0.839	0.484
1187.999	670.195	80.003	19.995	103.191	19.890	1.207	0.495
1188.499	670.451	80.005	19.994	103.190	19.893	0.988	0.532
1188.999	670.712	80.004	19.995	103.190	19.893	1.024	0.532
1189.499	670.990	80.003	19.993	103.189	19.893	0.972	0.528
1189.999	671.215	80.002	19.994	103.187	19.889	1.321	0.521
1190.500	671.475	80.004	19.994	103.184	19.893	1.000	0.494
1191.001	671.724	80.003	19.995	103.184	19.890	1.250	0.497
1191.501	671.971	80.004	19.994	103.183	19.890	1.218	0.503
1192.000	672.220	80.005	19.996	103.183	19.893	0.966	0.496
1192.500	672.510	80.004	19.996	103.184	19.892	1.094	0.518
1193.001	672.699	80.003	19.996	103.184	19.892	1.055	0.509
1193.501	672.996	80.004	19.994	103.185	19.891	1.163	0.482
1194.000	673.226	80.003	19.995	103.187	19.893	0.998	0.506
1194.499	673.522	80.004	19.996	103.187	19.892	1.083	0.526
1194.999	673.793	80.002	19.995	103.186	19.891	1.153	0.546
1195.499	674.042	80.004	19.995	103.186	19.891	1.144	0.543
1195.999	674.313	80.004	19.995	103.186	19.892	1.041	0.520
1196.499	674.592	80.002	19.994	103.185	19.888	1.346	0.535
1196.999	674.814	80.004	19.995	103.186	19.893	1.022	0.525
1197.499	675.064	80.004	19.995	103.186	19.889	1.283	0.486
1197.999	675.364	80.004	19.997	103.186	19.888	1.372	0.511
1198.500	675.621	80.004	19.996	103.185	19.893	1.025	0.553
1199.001	675.839	80.004	19.996	103.183	19.894	0.931	0.516
1199.500	676.087	80.005	19.996	103.181	19.890	1.236	0.471
1199.999	676.374	80.003	19.997	103.182	19.891	1.110	0.501
1200.499	676.595	80.005	19.997	103.183	19.891	1.124	0.521
1200.999	676.854	80.004	19.995	103.184	19.889	1.317	0.494
1201.499	677.069	80.006	19.995	103.183	19.891	1.171	0.477
1201.999	677.357	80.005	19.995	103.182	19.889	1.295	0.489
1202.499	677.601	80.005	19.995	103.182	19.893	0.964	0.518
1203.000	677.889	80.004	19.995	103.181	19.890	1.209	0.532
1203.501	678.127	80.004	19.996	103.179	19.895	0.866	0.529
1204.000	678.386	80.005	19.995	103.180	19.889	1.268	0.511
1204.499	678.601	80.005	19.997	103.180	19.891	1.159	0.485
1204.999	678.881	80.004	19.996	103.180	19.884	1.622	0.485
1205.499	679.124	80.005	19.994	103.180	19.892	1.065	0.510
1205.999	679.383	80.004	19.996	103.180	19.890	1.220	0.512
1206.499	679.624	80.005	19.994	103.178	19.889	1.295	0.500
1206.999	679.887	80.003	19.994	103.179	19.891	1.144	0.502
1207.499	680.123	80.001	19.994	103.179	19.891	1.146	0.502
1207.999	680.398	80.004	19.997	103.179	19.892	1.051	0.505
1208.499	680.661	80.003	19.996	103.179	19.894	0.937	0.525
1208.999	680.919	80.006	19.996	103.181	19.891	1.159	0.529
1209.499	681.146	80.004	19.995	103.182	19.893	1.025	0.503
1209.999	681.395	80.005	19.995	103.183	19.893	0.978	0.481
1210.499	681.666	80.004	19.996	103.183	19.893	1.014	0.498
1211.000	681.895	80.004	19.995	103.184	19.892	1.081	0.510
1211.500	682.201	80.005	19.998	103.183	19.892	1.037	0.518
1211.999	682.410	80.004	19.993	103.183	19.893	0.976	0.525
1212.499	682.663	80.005	19.996	103.183	19.892	1.037	0.489
1213.000	682.912	80.004	19.995	103.182	19.893	1.008	0.482
1213.501	683.165	80.005	19.996	103.182	19.894	0.915	0.502
1214.000	683.427	80.004	19.996	103.183	19.894	0.901	0.508
1214.499	683.660	80.005	19.994	103.183	19.890	1.185	0.505
1214.999	683.925	80.004	19.995	103.183	19.889	1.256	0.497
1215.499	684.157	80.004	19.995	103.183	19.892	1.086	0.498
1215.999	684.426	80.004	19.996	103.183	19.894	0.903	0.499
1216.499	684.631	80.005	19.995	103.182	19.894	0.957	0.487
1216.999	684.945	80.006	19.997	103.183	19.894	0.925	0.496
1217.499	685.178	80.004	19.996	103.183	19.892	1.071	0.533
1218.000	685.438	80.004	19.995	103.183	19.892	1.100	0.521
1218.500	685.656	80.005	19.996	103.183	19.891	1.118	0.486
1218.999	685.922	80.004	19.996	103.183	19.893	1.024	0.481
1219.499	686.189	80.005	19.997	103.182	19.889	1.254	0.509
1219.999	686.452	80.004	19.995	103.181	19.889	1.295	0.532
1220.500	686.710	80.003	19.997	103.181	19.889	1.256	0.525
1221.000	686.940	80.004	19.997	103.181	19.890	1.197	0.504
1221.499	687.224	80.004	19.996	103.181	19.891	1.148	0.501
1222.000	687.470	80.003	19.996	103.180	19.886	1.494	0.522
1222.500	687.734	80.003	19.995	103.181	19.889	1.281	0.520
1222.999	687.989	80.003	19.997	103.181	19.889	1.289	0.515
1223.500	688.242	80.004	19.996	103.182	19.890	1.246	0.514
1224.001	688.484	80.003	19.996	103.182	19.890	1.199	0.501
1224.500	688.762	80.003	19.995	103.182	19.891	1.177	0.507
1224.999	688.990	80.002	19.995	103.181	19.894	0.892	0.514
1225.500	689.243	80.004	19.996	103.181	19.891	1.136	0.494
1226.000	689.511	80.004	19.997	103.181	19.889	1.291	0.501
1226.499	689.778	80.004	19.996	103.181	19.890	1.250	0.528
1226.999	689.981	80.004	19.997	103.181	19.892	1.037	0.502
1227.499	690.235	80.003	19.996	103.182	19.895	0.888	0.463
1227.999	690.526	80.004	19.998	103.182	19.894	0.953	0.501
1228.499	690.743	80.004	19.996	103.183	19.891	1.171	0.527
1228.999	690.989	80.003	19.998	103.183	19.896	0.762	0.485
1229.500	691.250	80.005	19.996	103.183	19.889	1.258	0.484
1230.000	691.502	80.005	19.997	103.183	19.892	1.043	0.510
1230.501	691.771	80.005	19.995	103.183	19.892	1.073	0.517
1231.001	692.030	80.004	19.996	103.182	19.892	1.057	0.525
1231.500	692.266	80.004	19.996	103.183	19.893	1.029	0.512
1232.000	692.512	80.005	19.995	103.183	19.891	1.149	0.489
1232.500	692.804	80.005	19.995	103.183	19.893	0.964	0.510
1233.000	693.043	80.005	19.996	103.183	19.889	1.301	0.534
1233.500	693.267	80.004	19.995	103.183	19.892	1.045	0.497
1234.000	693.531	80.004	19.995	103.183	19.893	1.004	0.475
1234.500	693.781	80.005	19.995	103.182	19.892	1.104	0.501
1235.000	693.996	80.006	19.997	103.182	19.892	1.043	0.490
1235.500	694.282	80.005	19.997	103.183	19.890	1.214	0.483
1236.000	694.552	80.005	19.995	103.183	19.892	1.055	0.528
1236.500	694.753	80.004	19.996	103.183	19.889	1.264	0.514
1237.000	695.044	80.006	19.996	103.183	19.892	1.085	0.481
1237.500	695.271	80.004	19.994	103.183	19.894	0.898	0.505
1238.000	695.589	80.004	19.996	103.183	19.889	1.287	0.532
1238.500	695.793	80.004	19.995	103.183	19.890	1.179	0.534
1239.000	696.093	80.005	19.995	103.184	19.890	1.228	0.513
1239.500	696.367	80.004	19.995	103.184	19.894	0.955	0.539
1240.000	696.608	80.004	19.996	103.183	19.892	1.041	0.545
1240.500	696.861	80.003	19.995	103.183	19.893	1.031	0.505
1241.000	697.114	80.005	19.996	103.182	19.889	1.313	0.500
1241.500	697.359	80.005	19.993	103.182	19.893	0.990	0.501
1242.000	697.648	80.004	19.996	103.182	19.892	1.077	0.515
1242.500	697.873	80.005	19.995	103.183	19.891	1.110	0.524
1243.000	698.131	80.006	19.996	103.184	19.891	1.144	0.499
1243.501	698.397	80.004	19.995	103.185	19.891	1.106	0.503
1244.000	698.654	80.005	19.995	103.185	19.889	1.297	0.523
1244.500	698.934	80.005	19.997	103.186	19.890	1.212	0.530
1245.000	699.140	80.006	19.994	103.185	19.895	0.842	0.512
1245.500	699.396	80.004	19.995	103.184	19.892	1.047	0.474
1246.000	699.683	80.005	19.996	103.182	19.892	1.073	0.502
1246.500	699.921	80.005	19.993	103.182	19.890	1.205	0.534
1247.000	700.172	80.005	19.994	103.182	19.893	1.022	0.507
1247.500	700.452	80.004	19.995	103.183	19.885	1.561	0.510
1248.000	700.698	80.004	19.996	103.185	19.891	1.110	0.528
1248.500	700.903	80.006	19.994	103.186	19.888	1.325	0.488
1249.000	701.191	80.005	19.995	103.187	19.885	1.543	0.472
1249.500	701.413	80.005	19.994	103.187	19.888	1.390	0.502
1250.000	701.699	80.006	19.994	103.186	19.891	1.138	0.509
1250.500	701.936	80.005	19.994	103.186	19.891	1.124	0.515
1251.000	702.194	80.007	19.995	103.185	19.890	1.199	0.509
1251.500	702.468	80.007	19.994	103.184	19.889	1.260	0.514
1252.000	702.726	80.006	19.996	103.183	19.892	1.045	0.532
1252.501	702.946	80.006	19.995	103.183	19.890	1.209	0.505
1253.000	703.221	80.005	19.993	103.183	19.892	1.088	0.486
1253.500	703.480	80.007	19.994	103.184	19.891	1.151	0.514
1254.000	703.716	80.007	19.994	103.184	19.892	1.083	0.515
1254.500	703.969	80.007	19.995	103.184	19.889	1.266	0.492
1255.000	704.198	80.007	19.993	103.185	19.891	1.138	0.486
1255.500	704.438	80.006	19.996	103.184	19.894	0.911	0.475
1256.001	704.724	80.007	19.995	103.184	19.892	1.041	0.498
1256.501	704.950	80.007	19.995	103.184	19.890	1.191	0.519
1257.001	705.215	80.007	19.995	103.183	19.893	0.968	0.501
1257.501	705.446	80.007	19.995	103.182	19.894	0.933	0.493
1258.000	705.696	80.008	19.995	103.181	19.896	0.807	0.488
1258.500	705.955	80.006	19.994	103.180	19.893	0.982	0.495
1259.000	706.202	80.007	19.995	103.179	19.894	0.937	0.507
1259.500	706.445	80.007	19.993	103.179	19.895	0.848	0.498
1260.000	706.682	80.007	19.995	103.180	19.894	0.917	0.485
1260.500	706.935	80.007	19.996	103.180	19.894	0.929	0.485
1261.000	707.173	80.005	19.995	103.180	19.887	1.419	0.491
1261.500	707.443	80.007	19.994	103.181	19.889	1.299	0.500
1262.000	707.637	80.005	19.993	103.180	19.889	1.264	0.486
1262.500	707.885	80.005	19.993	103.181	19.890	1.222	0.453
1263.000	708.148	80.005	19.994	103.181	19.892	1.061	0.476
1263.500	708.401	80.004	19.995	103.180	19.891	1.120	0.513
1264.000	708.663	80.006	19.996	103.180	19.890	1.189	0.515
1264.500	708.910	80.003	19.995	103.181	19.889	1.252	0.512
1265.000	709.123	80.004	19.995	103.181	19.890	1.248	0.485
1265.500	709.356	80.004	19.996	103.180	19.890	1.199	0.454
1266.000	709.671	80.005	19.996	103.181	19.892	1.075	0.497
1266.500	709.899	80.004	19.994	103.180	19.890	1.248	0.545
1267.000	710.151	80.004	19.994	103.180	19.890	1.211	0.512
1267.501	710.392	80.003	19.995	103.180	19.889	1.311	0.487
1268.000	710.638	80.004	19.996	103.180	19.887	1.441	0.490
1268.500	710.847	80.003	19.995	103.180	19.892	1.035	0.471
1269.000	711.136	80.004	19.994	103.182	19.890	1.224	0.476
1269.500	711.346	80.004	19.995	103.183	19.892	1.092	0.498
1270.000	711.593	80.004	19.995	103.183	19.891	1.173	0.478
1270.500	711.871	80.003	19.994	103.183	19.891	1.147	0.491
1271.000	712.145	80.005	19.995	103.183	19.889	1.309	0.539
1271.500	712.376	80.004	19.993	103.182	19.889	1.301	0.529
1272.000	712.603	80.004	19.995	103.182	19.894	0.909	0.482
1272.500	712.832	80.004	19.995	103.181	19.889	1.321	0.457
1273.000	713.065	80.005	19.994	103.181	19.890	1.238	0.459
1273.500	713.327	80.006	19.995	103.181	19.887	1.445	0.479
1274.000	713.542	80.004	19.994	103.181	19.891	1.142	0.486
1274.500	713.802	80.005	19.995	103.182	19.889	1.287	0.476
1275.000	714.052	80.005	19.994	103.183	19.889	1.283	0.492
1275.500	714.288	80.004	19.994	103.182	19.893	0.978	0.498
1276.000	714.495	80.005	19.996	103.182	19.890	1.236	0.465
1276.500	714.775	80.006	19.995	103.182	19.886	1.484	0.465
1277.000	715.030	80.004	19.994	103.183	19.888	1.360	0.511
1277.500	715.276	80.005	19.994	103.183	19.892	1.098	0.518
1278.000	715.526	80.004	19.994	103.183	19.892	1.053	0.498
1278.500	715.763	80.005	19.995	103.182	19.889	1.303	0.491
1279.000	716.025	80.005	19.993	103.182	19.891	1.114	0.493
1279.500	716.264	80.004	19.993	103.182	19.891	1.122	0.501
1280.000	716.517	80.005	19.994	103.180	19.893	1.002	0.497
1280.500	716.769	80.004	19.993	103.178	19.886	1.500	0.498
1281.000	717.008	80.005	19.994	103.178	19.892	1.069	0.498
1281.500	717.260	80.005	19.995	103.178	19.891	1.122	0.491
1282.000	717.462	80.005	19.995	103.177	19.892	1.067	0.473
1282.500	717.760	80.004	19.993	103.178	19.890	1.201	0.477
1283.000	717.999	80.005	19.993	103.180	19.890	1.248	0.519
1283.500	718.217	80.005	19.995	103.180	19.890	1.197	0.497
1284.000	718.456	80.004	19.995	103.180	19.886	1.490	0.457
1284.500	718.736	80.005	19.996	103.181	19.890	1.193	0.488
1285.000	719.000	80.005	19.994	103.179	19.889	1.275	0.531
1285.500	719.184	80.004	19.993	103.178	19.890	1.201	0.496
1286.000	719.467	80.005	19.995	103.179	19.891	1.126	0.458
1286.500	719.703	80.004	19.995	103.179	19.892	1.085	0.494
1287.000	719.942	80.004	19.994	103.179	19.888	1.354	0.497
1287.500	720.183	80.004	19.995	103.181	19.888	1.327	0.477
1288.000	720.430	80.004	19.996	103.180	19.888	1.368	0.484
1288.500	720.673	80.003	19.995	103.180	19.887	1.435	0.489
1289.000	720.927	80.003	19.994	103.179	19.891	1.126	0.494
1289.500	721.147	80.004	19.997	103.180	19.893	1.033	0.486
1290.000	721.407	80.005	19.995	103.180	19.889	1.254	0.477
1290.500	721.650	80.005	19.994	103.179	19.891	1.124	0.491
1291.000	721.919	80.003	19.994	103.176	19.886	1.504	0.508
1291.500	722.156	80.005	19.995	103.176	19.889	1.303	0.509
1292.000	722.395	80.005	19.993	103.174	19.888	1.376	0.491
1292.500	722.651	80.005	19.997	103.174	19.888	1.344	0.486
1293.000	722.888	80.005	19.998	103.177	19.888	1.374	0.494
1293.500	723.130	80.002	19.995	103.176	19.888	1.360	0.486
1294.000	723.383	80.004	19.994	103.171	19.889	1.283	0.486
1294.500	723.648	80.002	19.995	103.173	19.889	1.299	0.506
1295.000	723.928	80.003	19.995	103.172	19.884	1.620	0.532
1295.500	724.149	80.004	19.995	103.172	19.884	1.622	0.523
1296.000	724.420	80.004	19.996	103.176	19.889	1.305	0.496
1296.500	724.673	80.004	19.993	103.182	19.886	1.490	0.508
1297.000	724.891	80.004	19.997	103.182	19.886	1.502	0.497
1297.500	725.114	80.004	19.995	103.182	19.888	1.366	0.456
1298.000	725.376	80.003	19.995	103.184	19.892	1.047	0.463
1298.500	725.617	80.004	19.996	103.184	19.889	1.297	0.494
1299.000	725.881	80.003	19.995	103.184	19.889	1.303	0.504
1299.500	726.102	80.003	19.994	103.185	19.887	1.461	0.495
1300.000	726.376	80.004	19.997	103.187	19.887	1.396	0.490
1300.500	726.643	80.004	19.998	103.186	19.885	1.539	0.518
1301.000	726.909	80.003	19.994	103.186	19.888	1.329	0.537
1301.500	727.141	80.003	19.996	103.186	19.885	1.571	0.516
1302.000	727.388	80.004	19.995	103.185	19.887	1.398	0.488
1302.500	727.657	80.005	19.995	103.184	19.890	1.246	0.497
1303.000	727.926	80.003	19.994	103.183	19.891	1.130	0.527
1303.500	728.134	80.005	19.997	103.182	19.890	1.222	0.508
1304.000	728.410	80.004	19.997	103.181	19.890	1.224	0.481
1304.500	728.675	80.006	19.996	103.179	19.892	1.049	0.513
1305.000	728.872	80.005	19.994	103.180	19.891	1.132	0.501
1305.500	729.167	80.004	19.995	103.180	19.892	1.073	0.477
1306.000	729.419	80.005	19.994	103.180	19.889	1.285	0.520
1306.500	729.661	80.004	19.996	103.182	19.889	1.258	0.521
1307.000	729.904	80.005	19.994	103.183	19.887	1.401	0.489
1307.500	730.153	80.005	19.996	103.183	19.888	1.354	0.488
1308.000	730.450	80.005	19.995	103.184	19.885	1.604	0.519
1308.500	730.698	80.005	19.995	103.185	19.884	1.655	0.546
1309.000	730.939	80.005	19.995	103.185	19.887	1.396	0.517
1309.500	731.200	80.004	19.995	103.185	19.887	1.399	0.495
1310.001	731.452	80.005	19.995	103.185	19.889	1.299	0.507
1310.500	731.710	80.005	19.993	103.185	19.885	1.549	0.511
1311.000	731.956	80.005	19.994	103.185	19.884	1.636	0.507
1311.500	732.228	80.005	19.995	103.185	19.886	1.512	0.511
1312.000	732.441	80.006	19.995	103.185	19.888	1.364	0.502
1312.500	732.720	80.005	19.996	103.185	19.889	1.258	0.488
1313.000	732.990	80.006	19.994	103.186	19.888	1.325	0.521
1313.500	733.223	80.005	19.994	103.186	19.884	1.618	0.526
1314.000	733.513	80.006	19.995	103.186	19.890	1.234	0.513
1314.500	733.796	80.004	19.994	103.186	19.886	1.470	0.548
1315.000	734.009	80.006	19.994	103.185	19.886	1.490	0.535
1315.500	734.284	80.005	19.995	103.183	19.889	1.289	0.492
1316.000	734.546	80.005	19.995	103.182	19.888	1.366	0.513
1316.500	734.806	80.006	19.995	103.182	19.885	1.543	0.530
1317.000	735.071	80.005	19.997	103.182	19.887	1.421	0.523
1317.500	735.316	80.005	19.994	103.183	19.887	1.411	0.517
1318.000	735.566	80.005	19.995	103.184	19.888	1.384	0.503
1318.500	735.801	80.004	19.995	103.184	19.886	1.527	0.490
1319.000	736.080	80.005	19.996	103.184	19.887	1.419	0.499
1319.500	736.301	80.005	19.995	103.184	19.889	1.307	0.507
1320.000	736.581	80.006	19.995	103.184	19.889	1.311	0.500
1320.500	736.827	80.004	19.996	103.184	19.888	1.356	0.513
1321.000	737.057	80.004	19.996	103.184	19.885	1.575	0.501
1321.500	737.336	80.004	19.996	103.184	19.889	1.271	0.493
1322.000	737.569	80.005	19.995	103.184	19.885	1.551	0.510
1322.500	737.804	80.005	19.996	103.182	19.887	1.458	0.490
1323.000	738.073	80.004	19.997	103.181	19.890	1.195	0.486
1323.500	738.346	80.005	19.997	103.177	19.887	1.433	0.523
1324.000	738.600	80.005	19.995	103.174	19.887	1.466	0.535
1324.500	738.856	80.005	19.995	103.173	19.884	1.675	0.519
1325.000	739.125	80.005	19.994	103.174	19.887	1.433	0.518
1325.500	739.374	80.004	19.995	103.176	19.887	1.413	0.521
1326.000	739.663	80.005	19.996	103.179	19.888	1.332	0.528
1326.500	739.885	80.005	19.996	103.182	19.890	1.224	0.525
1327.000	740.161	80.004	19.995	103.182	19.890	1.222	0.505
1327.500	740.413	80.005	19.995	103.181	19.890	1.246	0.513
1328.000	740.662	80.006	19.996	103.179	19.887	1.441	0.515
1328.500	740.902	80.005	19.996	103.177	19.890	1.250	0.495
1329.000	741.193	80.006	19.996	103.176	19.891	1.106	0.510
1329.500	741.461	80.006	19.997	103.175	19.889	1.260	0.544
1330.000	741.719	80.007	19.996	103.176	19.886	1.490	0.542
1330.500	741.976	80.006	19.995	103.177	19.888	1.334	0.521
1331.000	742.206	80.007	19.995	103.178	19.890	1.220	0.501
1331.500	742.468	80.006	19.995	103.180	19.888	1.380	0.489
1332.000	742.749	80.006	19.996	103.180	19.889	1.311	0.518
1332.500	742.990	80.006	19.994	103.180	19.886	1.494	0.533
1333.000	743.253	80.006	19.994	103.180	19.886	1.478	0.513
1333.500	743.539	80.006	19.993	103.179	19.886	1.494	0.526
