Sample ID:	C:\MCC\MCC Cal\Test\Rug_pad_MCC_30K_min_211008_R2.txt
Sample Weight (mg):	4.16
Heating Rate (C/s):	0.5
Combustor Temp (C):	900
N2 Flow Rate (cc/min):	80
O2 Flow Rate (cc/min):	20
Calibration File:	C:\MCC\MCC Cal\Coeff1 JN10440_30_210304.txt.txt
T Correction Coefficients:	0	1.024463	0
Time Shift (s):	14
*
Time (s)	Temperature (C)	N2 flow rate (cc/min)	O2 flow rate (cc/min)	Flow Rate (cc/min)	Oxygen (%)	HRR (W/g)	Heating rate (C/s)
0.000	108.062	80.000	19.997	100.854	20.077	-0.376	-0.025
0.500	108.082	80.001	19.999	100.853	20.072	-0.016	-0.033
1.000	108.081	80.000	19.996	100.854	20.072	-0.023	-0.004
1.500	108.093	80.002	19.997	100.853	20.073	-0.091	0.016
2.000	108.112	80.002	19.996	100.854	20.073	-0.045	0.021
2.500	108.115	80.000	19.996	100.853	20.071	0.051	0.026
3.000	108.052	80.001	19.996	100.854	20.075	-0.208	-0.019
3.500	108.102	80.002	19.996	100.854	20.074	-0.119	-0.037
4.000	108.099	80.002	19.996	100.855	20.077	-0.370	0.017
4.500	108.122	79.999	19.997	100.855	20.074	-0.136	0.034
5.000	108.106	80.001	19.996	100.855	20.075	-0.195	0.014
5.500	108.095	79.999	19.995	100.855	20.076	-0.294	-0.010
6.000	108.095	80.002	19.996	100.854	20.076	-0.331	-0.019
6.500	108.086	80.002	19.996	100.854	20.077	-0.391	-0.010
7.000	108.081	80.001	19.995	100.854	20.075	-0.183	-0.012
7.500	108.106	80.000	19.995	100.855	20.078	-0.449	0.003
8.000	108.106	80.000	19.996	100.855	20.074	-0.158	0.022
8.500	108.086	79.999	19.994	100.855	20.076	-0.274	0.003
9.000	108.099	80.000	19.995	100.856	20.077	-0.387	-0.013
9.500	108.098	79.999	19.996	100.855	20.075	-0.257	0.003
10.000	108.059	79.998	19.996	100.855	20.076	-0.270	-0.014
10.500	108.033	79.998	19.994	100.855	20.077	-0.340	-0.052
11.000	108.069	79.998	19.996	100.856	20.072	-0.029	-0.027
11.500	108.079	79.999	19.995	100.856	20.076	-0.290	0.027
12.000	108.074	79.998	19.996	100.857	20.074	-0.165	0.025
12.500	108.086	79.999	19.996	100.858	20.076	-0.270	0.006
13.000	108.058	79.998	19.997	100.858	20.077	-0.377	-0.005
13.500	108.062	79.998	19.996	100.859	20.075	-0.218	-0.020
14.001	108.087	79.998	19.997	100.859	20.073	-0.082	0.003
14.500	108.074	79.996	19.995	100.861	20.073	-0.078	0.020
15.000	108.053	79.998	19.996	100.864	20.071	0.076	-0.011
15.500	108.056	79.995	19.997	100.870	20.073	-0.064	-0.026
16.001	108.071	79.998	19.995	100.876	20.071	0.095	0.000
16.500	108.101	79.996	19.995	100.882	20.070	0.165	0.032
17.001	108.069	79.999	19.996	100.888	20.071	0.095	0.022
17.501	108.082	79.999	19.995	100.893	20.074	-0.117	-0.011
18.000	108.079	79.998	19.995	100.894	20.073	-0.099	-0.005
18.500	108.100	79.998	19.997	100.895	20.071	0.091	0.014
19.000	108.111	79.998	19.997	100.896	20.067	0.350	0.025
19.500	108.128	79.998	19.997	100.898	20.072	0.043	0.030
20.000	108.125	79.997	19.997	100.901	20.071	0.047	0.021
20.500	108.130	79.999	19.998	100.901	20.067	0.418	0.008
21.000	108.128	79.997	19.996	100.901	20.064	0.579	0.002
21.500	108.125	79.996	19.996	100.901	20.065	0.503	-0.001
22.000	108.119	79.998	19.996	100.900	20.065	0.530	-0.007
22.500	108.137	79.997	19.995	100.903	20.065	0.542	0.002
23.000	108.152	79.999	19.996	100.911	20.062	0.738	0.023
23.500	108.135	79.998	19.996	100.924	20.063	0.725	0.016
24.000	108.160	79.997	19.998	100.940	20.062	0.795	0.003
24.500	108.182	79.998	19.996	100.956	20.060	0.905	0.028
25.000	108.213	79.998	19.996	100.967	20.057	1.162	0.051
25.500	108.201	79.999	19.995	100.980	20.058	1.103	0.036
26.000	108.256	79.998	19.996	100.991	20.058	1.041	0.031
26.500	108.297	79.999	19.996	101.000	20.054	1.368	0.069
27.000	108.297	79.999	19.997	101.007	20.055	1.321	0.069
27.500	108.322	79.999	19.996	101.014	20.055	1.269	0.033
28.000	108.334	79.997	19.995	101.016	20.050	1.665	0.031
28.500	108.354	79.998	19.997	101.016	20.047	1.885	0.035
29.000	108.378	79.998	19.996	101.016	20.049	1.772	0.038
29.500	108.444	79.999	19.996	101.017	20.049	1.749	0.067
30.000	108.461	79.999	19.995	101.024	20.048	1.825	0.086
30.500	108.498	79.998	19.995	101.031	20.046	1.951	0.069
31.000	108.589	79.999	19.996	101.039	20.044	2.122	0.092
31.500	108.574	80.000	19.997	101.047	20.043	2.238	0.102
32.000	108.636	79.997	19.995	101.054	20.046	1.955	0.061
32.500	108.718	79.998	19.995	101.055	20.047	1.900	0.096
33.000	108.758	79.998	19.997	101.055	20.044	2.104	0.133
33.501	108.765	79.997	19.995	101.055	20.042	2.252	0.084
34.001	108.825	79.998	19.995	101.055	20.040	2.421	0.057
34.500	108.899	79.998	19.997	101.055	20.044	2.149	0.100
35.000	108.942	79.998	19.995	101.054	20.042	2.318	0.125
35.500	108.987	79.998	19.994	101.053	20.046	2.007	0.103
36.000	109.090	79.999	19.997	101.052	20.042	2.275	0.118
36.500	109.130	79.999	19.996	101.051	20.037	2.650	0.145
37.000	109.195	79.999	19.996	101.049	20.041	2.333	0.124
37.500	109.290	79.998	19.995	101.049	20.039	2.506	0.133
38.000	109.371	79.997	19.994	101.042	20.043	2.230	0.168
38.501	109.401	79.999	19.996	101.037	20.044	2.156	0.144
39.001	109.482	79.999	19.995	101.030	20.040	2.423	0.111
39.500	109.515	79.998	19.995	101.024	20.039	2.479	0.112
40.001	109.618	79.997	19.995	101.020	20.039	2.539	0.125
40.501	109.681	79.999	19.996	101.022	20.040	2.440	0.151
41.000	109.762	79.998	19.995	101.023	20.042	2.285	0.155
41.500	109.817	80.000	19.996	101.027	20.041	2.386	0.140
42.000	109.914	79.998	19.996	101.032	20.040	2.469	0.144
42.500	109.988	79.997	19.994	101.033	20.043	2.232	0.161
43.000	110.061	80.000	19.994	101.031	20.041	2.384	0.159
43.500	110.144	79.998	19.997	101.029	20.038	2.553	0.151
44.000	110.204	80.000	19.994	101.029	20.041	2.382	0.150
44.500	110.272	79.999	19.995	101.030	20.042	2.261	0.135
45.000	110.369	79.997	19.995	101.033	20.040	2.452	0.146
45.500	110.461	79.997	19.995	101.037	20.040	2.430	0.177
46.000	110.521	79.999	19.996	101.043	20.039	2.541	0.171
46.500	110.637	79.999	19.996	101.045	20.036	2.747	0.164
47.000	110.732	79.998	19.996	101.046	20.039	2.545	0.194
47.500	110.811	79.999	19.997	101.047	20.038	2.601	0.192
48.000	110.921	79.997	19.997	101.050	20.039	2.473	0.181
48.500	110.989	79.998	19.996	101.051	20.037	2.648	0.183
49.001	111.127	79.998	19.997	101.051	20.039	2.519	0.192
49.501	111.203	79.998	19.996	101.051	20.037	2.640	0.210
50.000	111.260	79.998	19.996	101.051	20.037	2.651	0.173
50.500	111.357	79.996	19.995	101.051	20.042	2.306	0.143
51.000	111.444	79.998	19.997	101.051	20.038	2.562	0.169
51.500	111.530	79.997	19.996	101.053	20.038	2.614	0.178
52.000	111.653	79.999	19.998	101.053	20.034	2.867	0.191
52.500	111.765	79.998	19.996	101.055	20.038	2.609	0.222
53.000	111.876	79.998	19.997	101.055	20.038	2.564	0.229
53.500	111.954	79.999	19.996	101.056	20.037	2.688	0.206
54.000	112.065	79.999	19.996	101.054	20.037	2.655	0.189
54.500	112.209	79.999	19.995	101.054	20.035	2.797	0.222
55.000	112.293	80.000	19.997	101.053	20.036	2.719	0.242
55.500	112.398	79.999	19.997	101.054	20.038	2.556	0.208
56.000	112.533	79.999	19.997	101.054	20.038	2.573	0.214
56.500	112.644	80.000	19.996	101.054	20.034	2.917	0.243
57.000	112.770	79.998	19.996	101.055	20.035	2.791	0.241
57.500	112.872	79.999	19.996	101.058	20.031	3.152	0.232
58.001	112.978	79.998	19.996	101.060	20.034	2.897	0.218
58.501	113.103	80.000	19.996	101.060	20.031	3.130	0.220
59.001	113.212	79.999	19.996	101.062	20.035	2.845	0.233
59.501	113.328	80.000	19.996	101.062	20.034	2.905	0.229
60.001	113.439	80.000	19.996	101.062	20.035	2.789	0.226
60.501	113.553	80.001	19.995	101.066	20.031	3.117	0.227
61.001	113.710	80.000	19.997	101.069	20.030	3.191	0.248
61.501	113.866	79.999	19.996	101.068	20.030	3.224	0.292
62.002	113.977	79.999	19.996	101.072	20.033	2.936	0.290
62.501	114.125	79.999	19.996	101.072	20.032	3.037	0.263
63.000	114.243	80.000	19.996	101.071	20.032	3.047	0.263
63.500	114.388	80.000	19.995	101.070	20.032	3.014	0.265
64.000	114.499	79.999	19.996	101.072	20.029	3.278	0.260
64.500	114.626	80.000	19.996	101.074	20.032	3.041	0.247
65.000	114.776	80.000	19.996	101.078	20.033	2.981	0.258
65.500	114.879	80.000	19.995	101.078	20.032	3.037	0.265
66.000	115.070	80.000	19.996	101.082	20.036	2.721	0.274
66.500	115.160	80.000	19.996	101.087	20.036	2.763	0.288
67.000	115.307	80.001	19.996	101.088	20.032	3.070	0.259
67.500	115.485	80.001	19.997	101.088	20.032	3.006	0.281
68.001	115.583	79.999	19.996	101.090	20.032	3.008	0.301
68.501	115.748	80.001	19.996	101.091	20.034	2.872	0.269
69.000	115.884	80.000	19.996	101.091	20.033	2.961	0.282
69.500	116.025	80.000	19.996	101.091	20.034	2.882	0.289
70.000	116.148	79.999	19.996	101.091	20.031	3.127	0.271
70.500	116.302	79.999	19.996	101.090	20.027	3.395	0.270
71.000	116.472	80.000	19.996	101.090	20.030	3.208	0.300
71.500	116.604	80.000	19.996	101.090	20.030	3.210	0.313
72.001	116.747	80.001	19.997	101.090	20.033	2.979	0.289
72.501	116.909	79.999	19.998	101.090	20.035	2.837	0.290
73.000	117.053	79.998	19.997	101.090	20.030	3.206	0.305
73.500	117.198	79.999	19.996	101.090	20.031	3.142	0.298
74.000	117.338	80.000	19.997	101.090	20.034	2.922	0.287
74.500	117.508	79.998	19.997	101.090	20.032	3.054	0.297
75.000	117.651	79.999	19.996	101.091	20.032	3.027	0.311
75.500	117.790	79.999	19.995	101.090	20.030	3.163	0.298
76.000	117.954	79.998	19.996	101.090	20.032	3.062	0.293
76.500	118.116	79.998	19.996	101.090	20.033	2.934	0.314
77.001	118.297	79.999	19.996	101.090	20.031	3.140	0.334
77.501	118.491	79.998	19.996	101.091	20.032	3.039	0.359
78.001	118.627	79.999	19.996	101.093	20.034	2.921	0.353
78.501	118.794	79.999	19.994	101.093	20.035	2.792	0.317
79.000	118.967	79.998	19.996	101.093	20.033	2.992	0.321
79.500	119.136	79.998	19.996	101.093	20.032	3.014	0.341
80.000	119.311	79.999	19.996	101.092	20.030	3.175	0.343
80.500	119.459	79.999	19.997	101.092	20.031	3.097	0.334
81.000	119.626	79.998	19.996	101.091	20.031	3.126	0.319
81.500	119.740	79.999	19.996	101.091	20.035	2.839	0.298
82.001	119.933	79.999	19.996	101.091	20.031	3.120	0.294
82.501	120.116	79.999	19.996	101.091	20.033	2.979	0.342
83.000	120.269	80.001	19.996	101.091	20.030	3.223	0.356
83.500	120.480	79.999	19.995	101.092	20.031	3.142	0.350
84.000	120.626	80.001	19.997	101.093	20.030	3.196	0.361
84.500	120.807	80.000	19.997	101.095	20.031	3.097	0.342
85.000	121.000	80.000	19.997	101.098	20.028	3.311	0.350
85.500	121.134	79.999	19.996	101.100	20.029	3.239	0.350
86.001	121.319	80.000	19.997	101.103	20.028	3.367	0.323
86.501	121.516	80.000	19.997	101.104	20.029	3.262	0.351
87.000	121.660	80.000	19.998	101.102	20.028	3.375	0.362
87.500	121.893	80.001	19.996	101.099	20.031	3.116	0.359
88.000	122.043	79.999	19.997	101.098	20.030	3.213	0.380
88.500	122.244	80.000	19.996	101.097	20.029	3.291	0.367
89.000	122.412	79.999	19.996	101.096	20.025	3.575	0.360
89.500	122.594	80.000	19.995	101.097	20.029	3.289	0.359
90.001	122.764	80.000	19.996	101.098	20.028	3.373	0.351
90.501	122.972	80.001	19.996	101.098	20.029	3.246	0.365
91.000	123.119	79.999	19.996	101.096	20.028	3.307	0.366
91.500	123.302	80.000	19.996	101.097	20.027	3.411	0.342
92.000	123.501	79.997	19.997	101.098	20.030	3.210	0.356
92.500	123.704	79.997	19.996	101.100	20.027	3.384	0.392
93.001	123.866	79.998	19.996	101.101	20.026	3.474	0.384
93.501	124.065	79.998	19.997	101.103	20.026	3.530	0.363
94.000	124.242	79.997	19.996	101.107	20.030	3.208	0.368
94.500	124.463	79.998	19.996	101.109	20.026	3.507	0.387
95.000	124.651	79.998	19.995	101.108	20.026	3.526	0.404
95.500	124.812	79.999	19.996	101.106	20.028	3.315	0.379
96.000	124.978	79.997	19.995	101.107	20.031	3.126	0.338
96.500	125.180	79.999	19.995	101.104	20.024	3.623	0.347
97.000	125.370	79.997	19.995	101.103	20.024	3.619	0.380
97.500	125.612	79.998	19.994	101.103	20.027	3.400	0.412
98.000	125.789	79.998	19.996	101.106	20.027	3.443	0.425
98.500	125.981	79.998	19.996	101.106	20.028	3.317	0.394
99.000	126.180	79.997	19.995	101.107	20.033	3.000	0.380
99.500	126.348	79.997	19.996	101.106	20.031	3.089	0.379
100.000	126.525	79.996	19.994	101.108	20.032	3.008	0.356
100.500	126.733	79.999	19.996	101.109	20.029	3.270	0.365
101.000	126.908	79.997	19.995	101.109	20.028	3.340	0.384
101.500	127.130	79.997	19.996	101.111	20.029	3.256	0.390
102.000	127.317	79.997	19.995	101.110	20.025	3.548	0.403
102.500	127.504	79.997	19.995	101.110	20.025	3.542	0.391
103.000	127.697	79.998	19.994	101.109	20.028	3.352	0.377
103.500	127.866	79.996	19.995	101.105	20.027	3.383	0.371
104.000	128.078	79.998	19.995	101.102	20.032	3.062	0.371
104.500	128.297	79.997	19.996	101.101	20.027	3.408	0.406
105.000	128.495	79.998	19.996	101.100	20.028	3.371	0.424
105.500	128.694	79.998	19.996	101.098	20.028	3.326	0.407
106.000	128.901	79.998	19.996	101.099	20.028	3.338	0.402
106.500	129.085	79.997	19.996	101.099	20.027	3.392	0.398
107.000	129.299	79.998	19.996	101.100	20.029	3.262	0.394
107.500	129.506	79.998	19.995	101.101	20.029	3.297	0.410
108.001	129.723	79.998	19.996	101.102	20.026	3.470	0.423
108.501	129.923	79.998	19.996	101.101	20.027	3.410	0.420
109.000	130.103	79.997	19.996	101.102	20.028	3.346	0.399
109.500	130.324	79.997	19.995	101.102	20.027	3.431	0.391
110.000	130.529	79.997	19.997	101.102	20.032	3.070	0.413
110.501	130.778	79.998	19.995	101.104	20.024	3.651	0.440
111.001	130.979	79.997	19.995	101.106	20.025	3.562	0.452
111.500	131.190	79.998	19.995	101.106	20.030	3.224	0.431
112.000	131.359	79.998	19.994	101.106	20.028	3.354	0.396
112.500	131.598	79.999	19.995	101.104	20.028	3.315	0.394
113.000	131.825	79.998	19.996	101.101	20.029	3.284	0.437
113.500	132.033	79.999	19.996	101.099	20.029	3.249	0.450
114.000	132.225	79.998	19.995	101.097	20.028	3.342	0.418
114.500	132.485	79.998	19.995	101.097	20.031	3.087	0.426
115.000	132.665	79.998	19.994	101.097	20.030	3.223	0.446
115.501	132.849	79.998	19.996	101.100	20.028	3.348	0.402
116.001	133.053	79.997	19.996	101.101	20.029	3.250	0.376
116.500	133.273	80.000	19.995	101.101	20.024	3.641	0.406
117.000	133.469	79.999	19.995	101.099	20.026	3.476	0.420
117.500	133.696	79.997	19.995	101.100	20.022	3.767	0.420
118.000	133.935	79.997	19.996	101.099	20.026	3.526	0.444
118.501	134.093	79.999	19.996	101.098	20.025	3.598	0.431
119.001	134.358	79.999	19.997	101.100	20.029	3.295	0.410
119.500	134.557	79.998	19.997	101.100	20.027	3.400	0.444
120.000	134.790	79.998	19.996	101.100	20.025	3.569	0.448
120.500	134.976	79.999	19.996	101.098	20.028	3.373	0.425
121.000	135.200	79.998	19.996	101.097	20.024	3.625	0.415
121.500	135.463	79.999	19.997	101.093	20.025	3.548	0.449
122.001	135.664	79.998	19.995	101.092	20.026	3.484	0.475
122.501	135.855	79.998	19.996	101.093	20.034	2.926	0.428
123.001	136.074	79.998	19.996	101.093	20.027	3.390	0.401
123.501	136.270	79.997	19.996	101.094	20.027	3.456	0.413
124.001	136.514	79.999	19.997	101.094	20.028	3.311	0.428
124.501	136.708	79.997	19.996	101.096	20.027	3.454	0.439
125.000	136.890	79.998	19.996	101.098	20.026	3.503	0.407
125.500	137.112	79.999	19.997	101.100	20.029	3.249	0.390
126.000	137.405	79.998	19.996	101.101	20.026	3.509	0.460
126.500	137.600	79.999	19.997	101.104	20.024	3.639	0.502
127.001	137.778	79.997	19.996	101.104	20.027	3.422	0.430
127.501	138.028	79.998	19.996	101.100	20.028	3.315	0.400
128.000	138.226	79.998	19.996	101.100	20.027	3.414	0.438
128.500	138.502	79.999	19.996	101.100	20.029	3.241	0.461
129.000	138.682	79.998	19.996	101.100	20.028	3.358	0.465
129.500	138.919	79.998	19.996	101.100	20.023	3.740	0.437
130.000	139.135	79.998	19.996	101.101	20.024	3.616	0.435
130.500	139.324	79.997	19.996	101.100	20.026	3.527	0.429
131.000	139.546	79.997	19.995	101.098	20.027	3.402	0.408
131.500	139.806	79.997	19.995	101.100	20.026	3.476	0.447
132.000	140.017	79.999	19.996	101.099	20.029	3.272	0.476
132.500	140.234	79.999	19.996	101.098	20.024	3.622	0.449
133.000	140.478	79.998	19.995	101.098	20.026	3.476	0.444
133.500	140.681	79.997	19.995	101.103	20.023	3.728	0.454
134.000	140.928	79.997	19.995	101.103	20.022	3.800	0.449
134.500	141.119	79.999	19.996	101.104	20.024	3.660	0.444
135.000	141.319	79.998	19.995	101.103	20.020	3.928	0.414
135.500	141.573	79.999	19.994	101.102	20.026	3.516	0.423
136.000	141.828	79.998	19.995	101.097	20.028	3.315	0.482
136.500	142.030	79.998	19.995	101.093	20.021	3.870	0.483
137.000	142.279	79.997	19.995	101.093	20.026	3.503	0.454
137.500	142.506	79.998	19.996	101.093	20.025	3.557	0.464
138.000	142.710	79.998	19.995	101.094	20.026	3.501	0.454
138.500	142.932	80.000	19.995	101.094	20.027	3.425	0.428
139.000	143.144	79.998	19.995	101.094	20.023	3.703	0.429
139.500	143.397	79.998	19.995	101.094	20.026	3.521	0.449
140.000	143.643	79.998	19.994	101.095	20.024	3.668	0.482
140.500	143.870	79.998	19.994	101.095	20.024	3.660	0.486
141.000	144.100	79.998	19.994	101.094	20.026	3.513	0.465
141.500	144.316	80.000	19.996	101.094	20.024	3.660	0.452
142.000	144.543	80.000	19.996	101.094	20.026	3.515	0.444
142.500	144.772	79.999	19.996	101.094	20.024	3.637	0.449
143.000	145.017	79.998	19.997	101.093	20.028	3.379	0.465
143.500	145.231	79.999	19.996	101.094	20.023	3.732	0.467
144.000	145.449	79.998	19.996	101.096	20.025	3.538	0.445
144.500	145.698	79.999	19.996	101.101	20.025	3.592	0.449
145.000	145.921	80.000	19.996	101.101	20.026	3.511	0.470
145.500	146.193	79.999	19.995	101.102	20.025	3.579	0.484
146.000	146.410	79.998	19.997	101.103	20.021	3.884	0.492
146.500	146.611	80.000	19.996	101.105	20.021	3.839	0.453
147.000	146.869	79.998	19.996	101.101	20.020	3.932	0.438
147.500	147.063	79.998	19.996	101.102	20.021	3.864	0.456
148.000	147.311	79.999	19.995	101.101	20.023	3.728	0.447
148.500	147.509	79.997	19.996	101.100	20.019	4.000	0.444
149.000	147.754	79.998	19.996	101.099	20.024	3.668	0.444
149.500	148.006	79.999	19.996	101.098	20.023	3.736	0.470
150.000	148.264	79.999	19.996	101.098	20.024	3.625	0.504
150.500	148.489	79.999	19.995	101.098	20.026	3.480	0.496
151.001	148.684	79.999	19.995	101.099	20.025	3.592	0.451
151.501	148.951	79.998	19.996	101.097	20.021	3.876	0.441
152.001	149.164	79.999	19.997	101.097	20.022	3.825	0.471
152.500	149.443	79.998	19.996	101.096	20.025	3.581	0.486
153.000	149.661	79.999	19.997	101.097	20.023	3.705	0.494
153.500	149.923	79.999	19.997	101.098	20.020	3.959	0.489
154.000	150.151	79.997	19.997	101.102	20.023	3.715	0.485
154.500	150.378	79.999	19.997	101.103	20.023	3.699	0.472
155.000	150.588	79.999	19.996	101.102	20.023	3.721	0.446
155.500	150.816	79.999	19.997	101.101	20.021	3.843	0.438
156.000	151.067	79.998	19.996	101.098	20.028	3.332	0.459
156.500	151.275	79.999	19.996	101.095	20.024	3.629	0.469
157.000	151.554	79.999	19.995	101.093	20.025	3.598	0.472
157.500	151.817	79.997	19.996	101.094	20.026	3.495	0.514
158.000	152.009	79.998	19.996	101.096	20.023	3.750	0.499
158.500	152.243	79.999	19.996	101.096	20.023	3.742	0.440
159.000	152.504	79.998	19.996	101.096	20.026	3.505	0.461
159.500	152.716	79.998	19.997	101.098	20.027	3.398	0.484
160.000	152.957	79.997	19.996	101.097	20.021	3.909	0.463
160.500	153.182	79.997	19.996	101.097	20.026	3.482	0.460
161.000	153.405	79.998	19.996	101.097	20.022	3.796	0.457
161.500	153.650	79.998	19.996	101.097	20.027	3.435	0.458
162.000	153.906	79.998	19.996	101.097	20.026	3.482	0.485
162.500	154.139	79.997	19.996	101.098	20.025	3.577	0.495
163.000	154.381	79.998	19.996	101.097	20.025	3.534	0.482
163.500	154.629	79.999	19.995	101.097	20.027	3.453	0.483
164.000	154.883	79.999	19.996	101.099	20.027	3.428	0.496
164.500	155.092	79.999	19.996	101.098	20.028	3.375	0.482
165.000	155.347	80.000	19.997	101.098	20.026	3.472	0.464
165.500	155.590	80.000	19.996	101.097	20.025	3.562	0.481
166.000	155.833	79.998	19.996	101.097	20.029	3.249	0.492
166.500	156.065	79.999	19.997	101.095	20.023	3.688	0.481
167.000	156.282	80.000	19.996	101.094	20.023	3.693	0.462
167.500	156.540	80.000	19.996	101.094	20.029	3.274	0.462
168.000	156.762	80.000	19.995	101.093	20.027	3.439	0.477
168.500	157.007	79.999	19.995	101.094	20.024	3.613	0.473
169.000	157.241	79.999	19.996	101.093	20.023	3.724	0.473
169.500	157.526	80.001	19.995	101.093	20.025	3.555	0.499
170.000	157.789	80.000	19.996	101.094	20.024	3.673	0.534
170.500	158.012	80.000	19.995	101.094	20.029	3.254	0.517
171.000	158.244	80.001	19.996	101.094	20.022	3.817	0.470
171.500	158.486	80.001	19.996	101.095	20.023	3.751	0.465
172.000	158.707	80.001	19.996	101.094	20.022	3.817	0.469
172.500	158.954	80.001	19.996	101.092	20.021	3.877	0.465
173.000	159.184	80.000	19.996	101.091	20.020	3.932	0.472
173.500	159.452	80.000	19.997	101.090	20.024	3.650	0.488
174.000	159.685	79.999	19.996	101.089	20.021	3.877	0.500
174.500	159.936	80.000	19.997	101.089	20.024	3.666	0.492
175.000	160.178	80.000	19.996	101.088	20.020	3.965	0.489
175.500	160.407	79.999	19.997	101.088	20.022	3.802	0.482
176.000	160.672	80.000	19.996	101.089	20.021	3.885	0.482
176.500	160.908	80.000	19.997	101.089	20.019	4.022	0.497
177.000	161.180	79.999	19.996	101.093	20.017	4.148	0.504
177.500	161.407	79.999	19.996	101.097	20.021	3.878	0.504
178.000	161.649	80.000	19.997	101.104	20.019	3.995	0.485
178.500	161.869	80.000	19.997	101.108	20.020	3.952	0.466
179.000	162.109	79.999	19.998	101.109	20.017	4.142	0.461
179.500	162.361	79.998	19.996	101.110	20.017	4.146	0.476
180.000	162.614	79.998	19.996	101.112	20.017	4.175	0.498
180.500	162.848	79.999	19.997	101.113	20.020	3.930	0.496
181.000	163.117	79.998	19.996	101.113	20.015	4.324	0.495
181.500	163.348	79.999	19.998	101.116	20.016	4.235	0.502
182.000	163.572	79.998	19.998	101.115	20.018	4.111	0.478
182.500	163.833	79.997	19.997	101.116	20.017	4.175	0.470
183.000	164.085	79.998	19.997	101.115	20.017	4.196	0.499
183.500	164.348	79.999	19.997	101.116	20.019	4.004	0.514
184.000	164.601	79.998	19.998	101.116	20.017	4.166	0.515
184.500	164.840	79.998	19.997	101.117	20.016	4.288	0.504
185.001	165.097	79.996	19.996	101.114	20.018	4.132	0.494
185.500	165.344	79.996	19.997	101.111	20.016	4.222	0.500
186.000	165.627	79.998	19.996	101.108	20.013	4.494	0.517
186.500	165.858	79.997	19.996	101.107	20.014	4.387	0.523
187.000	166.096	79.999	19.997	101.102	20.018	4.138	0.491
187.500	166.369	79.999	19.996	101.099	20.016	4.243	0.489
188.000	166.600	79.998	19.996	101.097	20.017	4.162	0.507
188.500	166.813	79.997	19.997	101.095	20.014	4.397	0.475
189.000	167.118	79.998	19.997	101.093	20.015	4.311	0.481
189.500	167.365	79.998	19.996	101.094	20.016	4.218	0.535
190.000	167.590	79.998	19.996	101.099	20.019	4.053	0.513
190.500	167.856	79.998	19.996	101.099	20.020	3.913	0.481
191.000	168.088	79.998	19.996	101.099	20.023	3.694	0.494
191.500	168.378	79.999	19.996	101.098	20.018	4.094	0.510
192.001	168.613	79.998	19.995	101.101	20.018	4.127	0.524
192.500	168.868	79.998	19.995	101.098	20.017	4.175	0.508
193.000	169.104	79.998	19.995	101.097	20.018	4.138	0.490
193.500	169.392	79.998	19.995	101.096	20.020	3.981	0.507
194.000	169.655	79.998	19.995	101.095	20.018	4.072	0.537
194.500	169.888	79.999	19.996	101.092	20.017	4.214	0.523
195.000	170.153	79.998	19.996	101.091	20.016	4.288	0.497
195.500	170.458	79.998	19.995	101.092	20.016	4.245	0.534
196.000	170.680	79.997	19.996	101.093	20.018	4.086	0.549
196.500	170.893	79.999	19.995	101.093	20.018	4.066	0.481
197.000	171.199	79.998	19.996	101.093	20.017	4.214	0.477
197.500	171.429	80.000	19.996	101.093	20.021	3.888	0.527
198.000	171.706	79.998	19.996	101.092	20.015	4.348	0.521
198.500	171.930	80.000	19.996	101.091	20.019	4.012	0.504
199.000	172.220	80.000	19.996	101.091	20.019	4.028	0.508
199.500	172.460	79.998	19.995	101.091	20.020	3.981	0.522
200.000	172.707	79.999	19.995	101.091	20.015	4.325	0.508
200.500	172.966	79.999	19.996	101.090	20.017	4.165	0.496
201.000	173.274	79.999	19.996	101.091	20.015	4.338	0.536
201.501	173.516	79.998	19.996	101.091	20.015	4.338	0.559
202.001	173.761	79.999	19.996	101.092	20.013	4.472	0.519
202.501	174.043	79.998	19.998	101.092	20.013	4.443	0.507
203.001	174.279	79.999	19.997	101.093	20.018	4.105	0.522
203.501	174.551	79.999	19.998	101.093	20.017	4.173	0.513
204.000	174.809	79.999	19.997	101.094	20.014	4.375	0.519
204.500	175.100	79.997	19.996	101.093	20.017	4.181	0.540
205.000	175.342	79.998	19.996	101.093	20.016	4.245	0.542
205.500	175.592	80.000	19.996	101.092	20.014	4.395	0.513
206.000	175.836	79.998	19.996	101.093	20.013	4.503	0.493
206.500	176.119	79.997	19.996	101.093	20.016	4.253	0.510
207.000	176.348	79.998	19.996	101.094	20.016	4.239	0.519
207.500	176.596	79.998	19.995	101.093	20.013	4.463	0.495
208.000	176.875	79.998	19.996	101.093	20.016	4.239	0.502
208.500	177.150	79.999	19.995	101.093	20.014	4.433	0.540
209.000	177.354	79.998	19.996	101.093	20.013	4.472	0.517
209.500	177.668	79.999	19.995	101.092	20.016	4.243	0.499
210.000	177.916	79.998	19.996	101.093	20.016	4.235	0.540
210.500	178.176	79.997	19.996	101.093	20.020	3.962	0.535
211.000	178.448	79.998	19.996	101.093	20.011	4.637	0.520
211.500	178.689	79.999	19.997	101.094	20.013	4.447	0.523
212.000	178.968	79.998	19.996	101.094	20.018	4.107	0.516
212.500	179.220	79.997	19.995	101.094	20.011	4.663	0.525
213.000	179.484	79.998	19.997	101.094	20.016	4.284	0.524
213.500	179.726	79.999	19.996	101.094	20.016	4.288	0.511
214.000	179.965	79.997	19.996	101.094	20.017	4.162	0.494
214.501	180.244	79.998	19.997	101.094	20.014	4.373	0.500
215.000	180.504	79.998	19.996	101.094	20.014	4.403	0.528
215.500	180.759	79.998	19.996	101.094	20.017	4.206	0.527
216.000	181.025	79.997	19.996	101.094	20.018	4.109	0.519
216.500	181.241	79.999	19.995	101.094	20.013	4.480	0.502
217.000	181.529	79.998	19.995	101.094	20.012	4.527	0.493
217.500	181.778	79.998	19.996	101.094	20.012	4.564	0.520
218.000	182.036	79.997	19.996	101.094	20.010	4.735	0.522
218.500	182.300	79.998	19.997	101.094	20.013	4.472	0.514
219.000	182.529	80.000	19.997	101.094	20.012	4.546	0.507
219.500	182.833	79.997	19.996	101.094	20.012	4.591	0.513
220.000	183.063	79.999	19.996	101.094	20.007	4.920	0.534
220.500	183.318	80.000	19.995	101.093	20.008	4.873	0.510
221.000	183.608	79.999	19.996	101.094	20.011	4.599	0.515
221.500	183.847	79.999	19.995	101.093	20.014	4.407	0.537
222.000	184.083	79.998	19.995	101.093	20.010	4.731	0.503
222.500	184.364	79.999	19.994	101.093	20.009	4.758	0.496
223.000	184.668	79.999	19.995	101.091	20.012	4.560	0.551
223.500	184.927	79.999	19.995	101.089	20.009	4.815	0.573
224.000	185.185	79.999	19.995	101.089	20.014	4.420	0.540
224.500	185.460	79.999	19.995	101.089	20.016	4.287	0.525
225.000	185.703	80.000	19.994	101.088	20.014	4.399	0.526
225.500	185.935	80.000	19.995	101.089	20.019	3.994	0.497
226.000	186.233	79.999	19.995	101.088	20.013	4.514	0.502
226.500	186.483	79.998	19.994	101.089	20.012	4.588	0.539
227.000	186.770	80.000	19.995	101.087	20.014	4.369	0.543
227.500	187.023	80.000	19.995	101.087	20.013	4.509	0.539
228.000	187.262	80.001	19.995	101.086	20.010	4.695	0.516
228.500	187.508	80.001	19.995	101.089	20.010	4.673	0.489
229.000	187.777	80.001	19.994	101.087	20.010	4.737	0.500
229.500	187.998	80.001	19.994	101.088	20.012	4.549	0.503
230.000	188.279	79.998	19.995	101.084	20.012	4.543	0.496
230.500	188.564	80.000	19.995	101.080	20.009	4.746	0.534
231.000	188.797	80.001	19.996	101.076	20.010	4.676	0.542
231.500	189.017	80.000	19.994	101.077	20.011	4.656	0.485
232.000	189.267	80.000	19.994	101.076	20.009	4.751	0.461
232.500	189.566	79.999	19.995	101.079	20.011	4.656	0.510
233.000	189.807	80.001	19.996	101.083	20.010	4.695	0.545
233.500	190.091	79.999	19.996	101.086	20.010	4.693	0.532
234.000	190.376	80.000	19.995	101.084	20.010	4.742	0.547
234.500	190.605	79.998	19.994	101.082	20.009	4.804	0.542
235.000	190.886	80.000	19.995	101.078	20.009	4.746	0.512
235.500	191.092	79.999	19.996	101.076	20.007	4.971	0.499
236.000	191.373	79.999	19.996	101.072	20.012	4.538	0.487
236.500	191.599	79.999	19.995	101.068	20.013	4.497	0.497
237.000	191.888	80.000	19.995	101.064	20.009	4.818	0.511
237.500	192.134	80.000	19.996	101.061	20.011	4.629	0.525
238.000	192.369	80.000	19.996	101.058	20.008	4.895	0.508
238.500	192.640	79.999	19.996	101.058	20.010	4.714	0.494
239.000	192.886	80.000	19.995	101.063	20.013	4.479	0.512
239.500	193.149	79.999	19.997	101.067	20.011	4.662	0.513
240.000	193.430	79.999	19.996	101.071	20.016	4.227	0.526
240.500	193.643	79.999	19.995	101.071	20.007	4.948	0.519
241.000	193.917	79.999	19.996	101.067	20.008	4.837	0.491
241.500	194.178	79.997	19.996	101.060	20.009	4.796	0.511
242.000	194.453	79.999	19.995	101.060	20.011	4.620	0.535
242.500	194.651	79.999	19.998	101.059	20.010	4.742	0.505
243.000	194.897	80.000	19.997	101.060	20.012	4.588	0.459
243.500	195.161	79.999	19.996	101.061	20.010	4.732	0.477
244.000	195.425	79.999	19.997	101.067	20.004	5.171	0.519
244.500	195.664	79.999	19.996	101.065	20.011	4.633	0.516
245.000	195.942	80.000	19.996	101.063	20.007	4.936	0.510
245.500	196.180	79.999	19.996	101.061	20.008	4.862	0.517
246.000	196.417	80.000	19.996	101.060	20.006	5.023	0.496
246.500	196.642	79.999	19.996	101.055	20.008	4.843	0.468
247.000	196.925	79.999	19.996	101.053	20.008	4.891	0.484
247.500	197.171	80.000	19.997	101.054	20.012	4.567	0.519
248.000	197.401	80.000	19.996	101.059	20.010	4.726	0.503
248.500	197.668	79.999	19.996	101.062	20.010	4.682	0.486
249.000	197.925	80.000	19.995	101.063	20.010	4.728	0.510
249.500	198.175	80.000	19.996	101.065	20.005	5.057	0.516
250.000	198.433	80.001	19.997	101.063	20.012	4.565	0.508
250.500	198.675	80.001	19.997	101.058	20.009	4.750	0.504
251.000	198.940	79.999	19.997	101.056	20.010	4.688	0.503
251.500	199.212	80.001	19.997	101.054	20.008	4.855	0.522
252.000	199.460	80.001	19.996	101.052	20.011	4.624	0.528
252.500	199.703	80.002	19.996	101.052	20.008	4.882	0.506
253.000	199.949	80.001	19.996	101.055	20.008	4.872	0.490
253.500	200.199	80.002	19.996	101.058	20.011	4.594	0.493
254.000	200.477	80.003	19.997	101.059	20.011	4.608	0.513
254.500	200.670	80.001	19.996	101.061	20.011	4.668	0.500
255.000	200.945	80.002	19.996	101.062	20.010	4.693	0.469
255.500	201.204	80.001	19.997	101.060	20.007	4.917	0.501
256.000	201.422	80.002	19.995	101.062	20.009	4.791	0.506
256.500	201.708	80.002	19.996	101.061	20.009	4.777	0.490
257.001	201.939	80.000	19.996	101.061	20.006	4.995	0.510
257.500	202.187	80.002	19.995	101.061	20.010	4.707	0.498
258.000	202.422	80.001	19.995	101.061	20.006	5.041	0.481
258.500	202.693	79.999	19.996	101.059	20.005	5.117	0.495
259.000	202.907	79.999	19.995	101.060	20.007	4.948	0.496
259.500	203.181	80.001	19.997	101.059	20.008	4.868	0.486
260.000	203.459	79.999	19.996	101.057	20.010	4.705	0.520
260.500	203.688	79.999	19.995	101.056	20.006	5.028	0.530
261.000	203.966	79.999	19.996	101.051	20.009	4.812	0.507
261.500	204.199	79.999	19.996	101.050	20.005	5.065	0.509
262.000	204.453	79.999	19.997	101.050	20.003	5.243	0.499
262.500	204.698	79.997	19.997	101.050	20.007	4.905	0.493
263.000	204.912	79.999	19.996	101.051	20.006	5.022	0.479
263.500	205.168	79.997	19.996	101.052	20.007	4.905	0.465
264.000	205.395	79.998	19.996	101.052	20.006	4.993	0.476
264.500	205.674	79.999	19.997	101.053	20.010	4.701	0.494
265.000	205.910	79.996	19.998	101.053	20.007	4.954	0.510
265.500	206.195	80.000	19.997	101.054	20.003	5.206	0.518
266.000	206.466	79.999	19.997	101.055	20.004	5.146	0.539
266.500	206.701	79.998	19.996	101.054	20.007	4.909	0.531
267.000	206.984	79.997	19.997	101.054	20.003	5.255	0.512
267.500	207.208	79.998	19.996	101.054	20.007	4.948	0.512
268.000	207.443	79.998	19.997	101.052	20.006	4.979	0.483
268.500	207.698	79.997	19.996	101.051	20.002	5.342	0.475
269.000	207.937	79.998	19.997	101.052	20.005	5.061	0.493
269.500	208.215	79.998	19.996	101.053	20.003	5.208	0.506
270.000	208.427	79.998	19.997	101.053	20.007	4.932	0.503
270.500	208.675	79.997	19.997	101.053	20.006	5.004	0.475
271.000	208.912	79.997	19.998	101.053	20.003	5.216	0.472
271.500	209.146	79.998	19.998	101.053	20.008	4.837	0.478
272.000	209.399	79.996	19.997	101.052	20.007	4.931	0.479
272.500	209.656	79.998	19.997	101.052	20.004	5.138	0.498
273.001	209.885	79.997	19.997	101.053	20.010	4.690	0.498
273.500	210.162	79.997	19.998	101.053	20.002	5.276	0.496
274.000	210.390	79.996	19.997	101.052	20.005	5.090	0.506
274.500	210.656	79.998	19.998	101.052	20.002	5.346	0.500
275.000	210.849	79.998	19.998	101.052	20.004	5.150	0.477
275.500	211.125	79.997	19.997	101.053	20.005	5.080	0.464
276.000	211.337	79.996	19.997	101.053	20.004	5.168	0.478
276.500	211.581	79.998	19.998	101.052	20.007	4.970	0.471
277.000	211.848	79.996	19.996	101.052	20.004	5.170	0.483
277.500	212.074	79.996	19.998	101.052	20.005	5.117	0.503
278.000	212.343	79.996	19.996	101.052	20.005	5.076	0.495
278.500	212.536	79.997	19.997	101.052	20.005	5.119	0.478
279.000	212.782	79.997	19.998	101.053	20.003	5.208	0.450
279.500	213.063	79.998	19.997	101.052	20.001	5.391	0.483
280.000	213.279	79.997	19.996	101.052	20.001	5.362	0.512
280.500	213.529	79.997	19.997	101.052	20.001	5.375	0.481
281.000	213.756	79.999	19.997	101.052	20.000	5.438	0.471
281.500	214.016	79.996	19.997	101.051	20.005	5.115	0.482
282.000	214.268	79.997	19.995	101.051	19.999	5.556	0.500
282.500	214.505	79.998	19.997	101.051	19.999	5.525	0.500
283.000	214.743	79.998	19.995	101.051	20.001	5.381	0.482
283.500	214.984	79.998	19.994	101.051	20.002	5.278	0.477
284.000	215.222	79.999	19.997	101.052	20.001	5.424	0.479
284.500	215.458	79.998	19.996	101.051	19.999	5.508	0.477
285.000	215.710	79.998	19.995	101.051	20.003	5.271	0.481
285.500	215.915	79.998	19.995	101.050	20.003	5.228	0.472
286.000	216.136	79.997	19.996	101.051	20.004	5.127	0.441
286.500	216.396	79.999	19.995	101.051	20.000	5.465	0.453
287.000	216.599	79.998	19.997	101.049	19.997	5.702	0.472
287.500	216.849	79.998	19.996	101.048	19.997	5.698	0.458
288.000	217.080	79.998	19.996	101.047	19.999	5.538	0.467
288.500	217.311	79.997	19.995	101.047	19.996	5.744	0.472
289.000	217.593	79.998	19.995	101.047	19.995	5.809	0.487
289.500	217.838	79.999	19.996	101.049	19.998	5.632	0.520
290.000	218.043	79.998	19.994	101.051	20.003	5.218	0.488
290.500	218.257	79.997	19.996	101.053	20.000	5.457	0.435
291.000	218.503	79.996	19.998	101.054	19.998	5.603	0.440
291.500	218.717	79.998	19.996	101.053	19.998	5.585	0.460
292.000	218.982	79.996	19.995	101.052	19.996	5.772	0.469
292.500	219.166	79.997	19.996	101.052	20.000	5.432	0.464
293.000	219.467	79.996	19.996	101.050	20.000	5.484	0.467
293.500	219.669	79.997	19.996	101.050	19.998	5.605	0.494
294.000	219.915	79.997	19.994	101.050	19.996	5.741	0.476
294.500	220.132	79.996	19.997	101.048	19.993	5.958	0.456
295.000	220.358	79.996	19.995	101.048	19.995	5.853	0.453
295.500	220.647	79.996	19.995	101.051	19.998	5.640	0.478
296.000	220.832	79.997	19.997	101.050	19.999	5.560	0.494
296.500	221.067	79.996	19.996	101.052	19.997	5.696	0.447
297.000	221.322	79.996	19.995	101.055	20.001	5.399	0.455
297.500	221.599	79.996	19.996	101.055	20.000	5.498	0.511
298.000	221.799	79.995	19.996	101.056	19.995	5.818	0.504
298.500	222.011	79.997	19.996	101.056	20.000	5.471	0.444
299.000	222.276	79.997	19.996	101.055	19.997	5.661	0.445
299.500	222.513	79.996	19.996	101.055	20.000	5.496	0.490
300.000	222.718	79.998	19.996	101.052	19.998	5.585	0.472
300.500	222.990	79.997	19.994	101.050	19.997	5.667	0.460
301.000	223.223	79.997	19.997	101.048	19.994	5.943	0.491
301.500	223.445	79.996	19.995	101.048	19.999	5.566	0.480
302.000	223.680	79.997	19.996	101.048	20.001	5.410	0.456
302.500	223.925	79.998	19.998	101.050	19.997	5.710	0.468
303.000	224.138	79.997	19.997	101.050	19.996	5.750	0.469
303.500	224.402	79.997	19.995	101.052	19.993	5.970	0.468
304.000	224.649	79.999	19.996	101.052	19.998	5.646	0.494
304.500	224.829	79.999	19.997	101.052	19.990	6.199	0.469
305.000	225.088	79.997	19.995	101.052	19.997	5.694	0.433
305.500	225.310	79.998	19.996	101.051	19.999	5.548	0.460
306.000	225.526	79.999	19.995	101.051	19.998	5.599	0.460
306.500	225.801	79.999	19.997	101.051	19.992	6.059	0.465
307.000	226.048	80.000	19.995	101.050	19.993	5.966	0.507
307.500	226.232	80.000	19.996	101.051	19.990	6.215	0.476
308.000	226.494	80.000	19.995	101.051	19.992	6.048	0.438
308.500	226.691	80.000	19.996	101.051	19.992	6.042	0.453
309.000	226.971	80.000	19.997	101.050	19.993	6.026	0.468
309.500	227.192	79.999	19.995	101.050	19.990	6.230	0.489
310.000	227.440	79.999	19.996	101.049	19.992	6.044	0.485
310.500	227.689	79.998	19.996	101.049	19.986	6.557	0.483
311.000	227.946	79.998	19.996	101.048	19.988	6.409	0.502
311.500	228.229	79.999	19.996	101.050	19.990	6.220	0.523
312.000	228.411	80.000	19.996	101.050	19.987	6.415	0.502
312.500	228.711	80.000	19.995	101.050	19.987	6.415	0.474
313.000	228.860	80.000	19.996	101.050	19.991	6.129	0.466
313.500	229.176	80.000	19.997	101.050	19.995	5.857	0.457
314.000	229.377	80.000	19.997	101.050	19.988	6.401	0.490
314.500	229.717	79.999	19.995	101.050	19.992	6.048	0.529
315.000	229.773	80.000	19.996	101.049	19.987	6.452	0.469
315.500	230.287	79.999	19.995	101.050	19.991	6.145	0.483
316.000	230.235	79.999	19.997	101.050	19.995	5.848	0.516
316.500	230.405	79.999	19.995	101.049	19.985	6.568	0.290
317.000	230.772	79.999	19.995	101.049	19.987	6.413	0.328
317.500	231.020	79.999	19.995	101.049	19.993	6.005	0.576
318.000	231.344	79.998	19.994	101.049	19.992	6.067	0.593
318.500	231.478	79.999	19.996	101.050	19.986	6.526	0.515
319.000	231.743	79.999	19.994	101.050	19.986	6.529	0.429
319.500	231.991	80.000	19.997	101.050	19.988	6.353	0.456
320.000	232.191	79.999	19.997	101.050	19.987	6.444	0.480
320.500	232.414	79.999	19.995	101.051	19.991	6.143	0.435
321.000	232.722	80.000	19.996	101.051	19.988	6.362	0.477
321.500	232.887	79.999	19.997	101.052	19.983	6.774	0.502
322.000	233.149	80.000	19.995	101.052	19.989	6.287	0.450
322.500	233.400	80.000	19.996	101.052	19.987	6.417	0.470
323.000	233.645	80.000	19.996	101.051	19.984	6.654	0.505
323.500	233.828	80.000	19.996	101.051	19.990	6.203	0.462
324.000	234.077	79.999	19.996	101.050	19.987	6.483	0.430
324.500	234.297	79.999	19.995	101.049	19.993	5.991	0.450
325.000	234.539	80.000	19.995	101.049	19.986	6.551	0.466
325.500	234.795	80.000	19.997	101.049	19.988	6.386	0.480
326.000	235.025	79.999	19.996	101.048	19.987	6.467	0.491
326.500	235.229	80.000	19.996	101.047	19.983	6.720	0.460
327.000	235.552	79.999	19.995	101.048	19.984	6.693	0.481
327.500	235.781	80.000	19.995	101.049	19.984	6.714	0.540
328.000	235.998	80.001	19.996	101.049	19.982	6.834	0.499
328.500	236.294	80.000	19.997	101.050	19.984	6.667	0.479
329.000	236.488	80.000	19.996	101.051	19.975	7.332	0.502
329.500	236.758	80.000	19.996	101.050	19.982	6.821	0.477
330.000	236.956	80.002	19.997	101.050	19.975	7.334	0.466
330.500	237.213	80.001	19.995	101.050	19.978	7.155	0.462
331.000	237.465	80.001	19.997	101.050	19.978	7.155	0.482
331.500	237.694	80.001	19.997	101.051	19.984	6.658	0.495
332.000	237.948	80.000	19.996	101.052	19.981	6.883	0.482
332.500	238.168	80.000	19.997	101.050	19.977	7.178	0.479
333.000	238.357	80.000	19.995	101.050	19.980	6.982	0.441
333.500	238.635	79.999	19.998	101.050	19.982	6.860	0.438
334.000	238.874	80.001	19.997	101.050	19.978	7.147	0.492
334.500	239.112	80.001	19.997	101.050	19.984	6.702	0.497
335.000	239.321	80.001	19.996	101.052	19.980	6.980	0.462
335.500	239.580	80.002	19.995	101.052	19.979	7.079	0.457
336.000	239.847	80.002	19.998	101.050	19.976	7.312	0.497
336.500	240.053	80.002	19.996	101.050	19.976	7.289	0.500
337.000	240.298	80.001	19.995	101.050	19.981	6.897	0.462
337.500	240.532	80.001	19.997	101.050	19.976	7.266	0.465
338.000	240.774	80.000	19.996	101.050	19.979	7.062	0.477
338.500	241.022	80.000	19.996	101.052	19.975	7.390	0.483
339.000	241.272	80.000	19.994	101.051	19.976	7.306	0.494
339.500	241.499	79.998	19.996	101.051	19.974	7.440	0.487
340.000	241.718	80.001	19.997	101.051	19.981	6.939	0.461
340.500	241.971	79.998	19.997	101.051	19.978	7.159	0.459
341.000	242.203	79.999	19.996	101.050	19.980	6.984	0.478
341.500	242.467	79.999	19.997	101.051	19.973	7.507	0.491
342.000	242.719	79.999	19.996	101.052	19.977	7.225	0.506
342.500	242.950	79.999	19.997	101.052	19.970	7.736	0.500
343.000	243.206	79.998	19.995	101.052	19.977	7.180	0.485
343.500	243.420	80.000	19.996	101.053	19.972	7.609	0.479
344.000	243.673	79.998	19.994	101.053	19.974	7.435	0.468
344.500	243.940	79.999	19.996	101.052	19.972	7.607	0.493
345.000	244.163	79.998	19.994	101.052	19.975	7.370	0.505
345.500	244.411	79.999	19.996	101.051	19.977	7.207	0.481
346.000	244.659	79.998	19.996	101.052	19.975	7.369	0.483
346.500	244.907	79.999	19.996	101.051	19.977	7.217	0.496
347.000	245.115	79.998	19.995	101.050	19.978	7.122	0.476
347.500	245.376	79.999	19.995	101.049	19.974	7.409	0.463
348.000	245.596	79.999	19.996	101.047	19.972	7.555	0.476
348.500	245.862	79.997	19.995	101.048	19.977	7.172	0.484
349.000	246.073	79.999	19.997	101.049	19.975	7.345	0.481
349.500	246.342	79.998	19.997	101.051	19.975	7.341	0.478
350.000	246.597	79.997	19.996	101.052	19.974	7.402	0.502
350.500	246.815	79.999	19.997	101.053	19.968	7.899	0.499
351.000	247.098	79.998	19.997	101.050	19.971	7.631	0.486
351.500	247.339	79.998	19.996	101.047	19.969	7.787	0.512
352.000	247.559	79.998	19.995	101.047	19.975	7.353	0.493
352.500	247.794	79.998	19.996	101.047	19.971	7.666	0.458
353.000	248.053	79.998	19.996	101.047	19.966	8.010	0.474
353.500	248.292	79.997	19.997	101.050	19.973	7.528	0.496
354.000	248.539	79.997	19.996	101.052	19.969	7.843	0.492
354.500	248.766	79.998	19.998	101.052	19.968	7.870	0.480
355.000	249.016	79.998	19.997	101.053	19.967	7.967	0.476
355.500	249.276	79.998	19.995	101.054	19.966	8.051	0.494
356.000	249.557	79.998	19.997	101.054	19.964	8.220	0.526
356.500	249.773	79.997	19.995	101.054	19.978	7.157	0.519
357.000	250.026	79.997	19.996	101.052	19.968	7.880	0.483
357.500	250.266	79.998	19.997	101.049	19.969	7.779	0.481
358.000	250.539	79.999	19.996	101.049	19.967	7.983	0.503
358.500	250.773	79.998	19.996	101.051	19.968	7.860	0.510
359.000	251.026	79.999	19.996	101.050	19.971	7.691	0.497
359.500	251.291	79.999	19.996	101.051	19.970	7.722	0.503
360.000	251.520	79.998	19.997	101.052	19.965	8.109	0.506
360.500	251.774	79.998	19.998	101.051	19.965	8.088	0.489
361.000	252.034	79.997	19.997	101.051	19.970	7.715	0.499
361.500	252.267	79.999	19.998	101.050	19.961	8.439	0.504
362.000	252.552	79.998	19.997	101.049	19.966	8.033	0.506
362.500	252.749	79.998	19.998	101.048	19.968	7.911	0.500
363.000	253.001	79.997	19.998	101.047	19.962	8.373	0.465
363.500	253.264	79.999	19.996	101.047	19.964	8.159	0.481
364.000	253.491	79.997	19.995	101.048	19.967	7.942	0.502
364.500	253.736	79.997	19.995	101.049	19.967	7.985	0.482
365.000	253.979	79.999	19.997	101.049	19.962	8.319	0.480
365.500	254.185	79.997	19.996	101.050	19.967	7.977	0.468
366.000	254.481	79.998	19.999	101.050	19.963	8.290	0.476
366.500	254.702	79.998	19.997	101.050	19.963	8.294	0.510
367.000	254.950	79.997	19.997	101.050	19.961	8.395	0.493
367.500	255.170	79.998	19.996	101.051	19.963	8.282	0.469
368.000	255.453	79.997	19.998	101.051	19.958	8.651	0.486
368.500	255.681	79.999	19.998	101.051	19.960	8.484	0.507
369.000	255.939	79.998	19.998	101.050	19.961	8.418	0.499
369.500	256.211	79.997	19.997	101.050	19.958	8.631	0.508
370.000	256.436	79.997	19.995	101.049	19.962	8.369	0.513
370.500	256.655	80.000	19.998	101.048	19.961	8.412	0.470
371.000	256.888	79.999	19.997	101.048	19.957	8.709	0.448
371.500	257.156	79.998	19.997	101.048	19.955	8.841	0.476
372.000	257.399	79.999	19.997	101.048	19.961	8.393	0.506
372.500	257.639	79.997	19.996	101.049	19.960	8.530	0.497
373.000	257.906	79.999	19.998	101.050	19.955	8.888	0.495
373.500	258.144	79.996	19.996	101.049	19.955	8.855	0.506
374.000	258.414	79.998	19.998	101.049	19.957	8.756	0.507
374.500	258.651	79.997	19.997	101.049	19.954	8.917	0.508
375.000	258.880	79.998	19.997	101.049	19.953	9.057	0.487
375.500	259.122	79.997	19.995	101.049	19.960	8.488	0.468
376.000	259.412	79.998	19.997	101.049	19.958	8.676	0.501
376.500	259.670	79.996	19.997	101.048	19.954	8.929	0.540
377.000	259.882	79.996	19.997	101.048	19.955	8.906	0.509
377.500	260.157	79.997	19.995	101.048	19.952	9.092	0.479
378.000	260.417	79.996	19.996	101.048	19.953	9.057	0.512
378.500	260.662	79.996	19.997	101.049	19.954	8.941	0.520
379.000	260.897	79.995	19.995	101.049	19.958	8.647	0.492
379.500	261.149	79.999	19.997	101.050	19.955	8.841	0.483
380.000	261.392	79.999	19.996	101.050	19.955	8.845	0.491
380.500	261.616	80.000	19.997	101.050	19.954	8.973	0.481
381.000	261.874	79.998	19.997	101.050	19.950	9.240	0.474
381.500	262.145	79.999	19.996	101.050	19.948	9.374	0.505
382.000	262.360	79.999	19.996	101.049	19.954	8.947	0.508
382.500	262.601	79.998	19.995	101.048	19.949	9.324	0.471
383.000	262.878	80.000	19.997	101.049	19.951	9.197	0.487
383.500	263.149	79.998	19.995	101.050	19.951	9.183	0.533
384.000	263.422	79.999	19.996	101.051	19.947	9.463	0.546
384.500	263.632	80.000	19.997	101.051	19.947	9.477	0.513
385.000	263.866	80.000	19.997	101.051	19.951	9.205	0.464
385.500	264.163	79.999	19.997	101.051	19.947	9.481	0.488
386.000	264.383	79.999	19.998	101.049	19.943	9.755	0.524
386.500	264.649	79.999	19.997	101.049	19.951	9.195	0.501
387.000	264.918	79.998	19.995	101.049	19.948	9.395	0.511
387.500	265.178	80.000	19.998	101.048	19.949	9.356	0.532
388.000	265.425	79.999	19.995	101.046	19.948	9.397	0.518
388.500	265.665	80.001	19.997	101.046	19.945	9.607	0.497
389.000	265.943	80.000	19.994	101.045	19.949	9.325	0.502
389.500	266.126	80.000	19.997	101.045	19.943	9.791	0.489
390.000	266.397	80.000	19.997	101.046	19.952	9.074	0.457
390.500	266.671	79.999	19.996	101.049	19.945	9.665	0.499
391.000	266.910	80.000	19.996	101.050	19.944	9.684	0.529
391.500	267.186	80.001	19.996	101.049	19.946	9.539	0.514
392.000	267.445	80.000	19.996	101.046	19.945	9.626	0.525
392.500	267.662	79.999	19.995	101.044	19.945	9.646	0.506
393.001	267.941	80.000	19.997	101.042	19.944	9.712	0.486
393.500	268.192	80.001	19.997	101.042	19.945	9.665	0.513
394.000	268.456	80.000	19.997	101.044	19.943	9.764	0.522
394.500	268.699	80.000	19.996	101.047	19.944	9.698	0.511
395.000	268.934	80.000	19.996	101.049	19.944	9.714	0.492
395.500	269.212	79.999	19.997	101.047	19.946	9.525	0.495
396.000	269.446	80.001	19.996	101.046	19.944	9.735	0.512
396.500	269.705	80.000	19.997	101.044	19.944	9.681	0.502
397.000	269.964	80.001	19.996	101.044	19.941	9.916	0.506
397.500	270.220	79.999	19.996	101.044	19.938	10.149	0.517
398.000	270.500	80.000	19.996	101.047	19.940	9.978	0.525
398.500	270.761	79.997	19.996	101.049	19.944	9.726	0.538
399.000	271.031	80.000	19.996	101.050	19.949	9.366	0.536
399.500	271.263	80.000	19.997	101.050	19.941	9.926	0.517
400.000	271.528	79.999	19.996	101.050	19.943	9.780	0.499
400.500	271.789	79.999	19.996	101.049	19.941	9.955	0.511
401.000	272.018	79.999	19.995	101.050	19.947	9.459	0.508
401.500	272.307	80.000	19.996	101.050	19.940	9.978	0.504
402.000	272.542	79.999	19.997	101.050	19.941	9.953	0.521
402.500	272.809	79.999	19.995	101.051	19.946	9.566	0.513
403.000	273.042	79.999	19.997	101.050	19.944	9.733	0.501
403.500	273.337	79.999	19.995	101.049	19.946	9.576	0.514
404.000	273.581	80.001	19.998	101.047	19.945	9.618	0.533
404.500	273.821	80.000	19.995	101.048	19.940	9.986	0.512
405.000	274.065	80.001	19.996	101.047	19.938	10.145	0.484
405.500	274.308	80.000	19.996	101.048	19.942	9.870	0.485
406.000	274.596	80.000	19.997	101.048	19.938	10.158	0.509
406.500	274.836	79.998	19.995	101.049	19.940	10.016	0.529
407.000	275.104	79.998	19.994	101.048	19.936	10.315	0.518
407.500	275.321	79.998	19.995	101.048	19.938	10.130	0.497
408.000	275.596	79.999	19.996	101.048	19.944	9.714	0.488
408.500	275.860	79.999	19.995	101.048	19.941	9.939	0.515
409.000	276.097	79.999	19.996	101.046	19.937	10.204	0.520
409.500	276.360	79.998	19.996	101.044	19.941	9.926	0.501
410.000	276.608	79.999	19.996	101.045	19.941	9.958	0.505
410.500	276.836	79.998	19.996	101.045	19.938	10.175	0.493
411.000	277.114	79.998	19.995	101.046	19.938	10.183	0.491
411.500	277.360	80.000	19.994	101.045	19.939	10.097	0.515
412.000	277.633	80.000	19.996	101.047	19.942	9.864	0.522
412.500	277.908	80.000	19.996	101.046	19.936	10.338	0.534
413.000	278.148	80.001	19.995	101.047	19.938	10.169	0.532
413.500	278.381	80.001	19.998	101.047	19.939	10.086	0.494
414.000	278.684	80.002	19.995	101.049	19.937	10.245	0.504
414.500	278.905	80.000	19.995	101.049	19.941	9.942	0.530
415.000	279.171	80.003	19.996	101.049	19.937	10.222	0.506
415.500	279.431	80.000	19.995	101.046	19.940	10.028	0.507
416.000	279.679	80.001	19.994	101.044	19.942	9.880	0.517
416.500	279.935	80.001	19.994	101.040	19.939	10.065	0.506
417.000	280.226	80.001	19.997	101.038	19.942	9.876	0.525
417.500	280.481	80.002	19.996	101.038	19.943	9.795	0.547
418.000	280.694	80.005	19.996	101.041	19.937	10.224	0.507
418.500	280.986	80.002	19.995	101.043	19.936	10.333	0.486
419.000	281.149	80.003	19.996	101.046	19.939	10.078	0.480
419.500	281.468	80.002	19.995	101.045	19.933	10.562	0.469
420.000	281.703	80.000	19.995	101.044	19.939	10.075	0.518
420.500	281.944	80.000	19.994	101.038	19.938	10.172	0.515
421.000	282.223	80.002	19.996	101.035	19.935	10.381	0.498
421.500	282.420	80.001	19.994	101.035	19.934	10.432	0.498
422.000	282.690	80.001	19.995	101.038	19.943	9.773	0.471
422.500	282.992	80.002	19.996	101.038	19.937	10.266	0.519
423.000	283.221	80.002	19.997	101.041	19.936	10.317	0.552
423.500	283.462	80.000	19.997	101.042	19.938	10.158	0.501
424.000	283.717	80.000	19.994	101.039	19.936	10.304	0.483
424.501	283.983	79.999	19.995	101.036	19.941	9.896	0.508
425.001	284.222	80.001	19.995	101.034	19.935	10.396	0.513
425.501	284.478	80.000	19.995	101.035	19.941	9.941	0.501
426.000	284.717	80.000	19.995	101.036	19.938	10.189	0.495
426.500	284.983	80.000	19.995	101.036	19.940	9.989	0.500
427.001	285.244	80.000	19.996	101.034	19.942	9.845	0.516
427.501	285.472	79.999	19.995	101.035	19.939	10.073	0.508
428.000	285.749	79.998	19.996	101.036	19.941	9.902	0.497
428.500	285.972	80.000	19.996	101.033	19.941	9.935	0.503
429.000	286.242	79.998	19.996	101.033	19.939	10.085	0.497
429.500	286.464	79.997	19.996	101.035	19.942	9.885	0.493
430.000	286.758	80.000	19.996	101.037	19.943	9.745	0.504
430.500	287.002	80.000	19.996	101.033	19.942	9.842	0.527
431.000	287.267	79.999	19.996	101.032	19.939	10.080	0.523
431.500	287.520	79.998	19.997	101.033	19.942	9.889	0.513
432.000	287.770	79.998	19.996	101.035	19.943	9.751	0.510
432.500	287.980	80.000	19.996	101.035	19.936	10.330	0.482
433.000	288.239	79.998	19.996	101.036	19.938	10.128	0.465
433.500	288.478	79.998	19.996	101.039	19.945	9.623	0.484
434.000	288.775	80.000	19.997	101.040	19.944	9.716	0.517
434.500	289.015	79.999	19.997	101.035	19.941	9.969	0.536
435.000	289.227	79.998	19.995	101.031	19.940	10.041	0.494
435.500	289.513	79.999	19.997	101.027	19.939	10.060	0.475
436.000	289.759	79.999	19.997	101.024	19.941	9.943	0.515
436.500	290.011	79.998	19.996	101.026	19.943	9.782	0.515
437.000	290.277	79.999	19.997	101.031	19.940	9.975	0.508
437.500	290.550	79.999	19.997	101.031	19.941	9.934	0.528
438.000	290.789	80.001	19.998	101.034	19.939	10.088	0.526
438.500	291.039	79.997	19.996	101.033	19.939	10.070	0.501
439.000	291.307	79.998	19.996	101.033	19.941	9.950	0.503
439.500	291.562	80.004	19.997	101.030	19.944	9.712	0.521
440.000	291.846	79.999	19.996	101.027	19.940	9.975	0.531
440.500	292.101	79.997	19.996	101.025	19.941	9.942	0.539
441.000	292.339	79.998	19.996	101.026	19.942	9.825	0.516
441.500	292.630	79.999	19.998	101.023	19.946	9.570	0.511
442.000	292.866	80.000	19.996	101.021	19.942	9.854	0.528
442.500	293.106	80.000	19.996	101.022	19.943	9.811	0.502
443.000	293.371	79.999	19.996	101.024	19.941	9.941	0.490
443.500	293.648	79.999	19.997	101.023	19.942	9.842	0.523
444.000	293.877	79.997	19.996	101.020	19.940	9.998	0.524
444.500	294.117	80.000	19.998	101.021	19.942	9.859	0.488
445.000	294.420	79.999	19.995	101.024	19.940	9.978	0.506
445.500	294.653	80.002	19.996	101.021	19.945	9.642	0.540
446.000	294.926	79.998	19.996	101.022	19.942	9.858	0.521
446.500	295.144	80.000	19.995	101.022	19.942	9.860	0.498
447.000	295.427	80.002	19.998	101.023	19.944	9.707	0.496
447.500	295.680	79.996	19.995	101.019	19.945	9.662	0.519
448.000	295.943	80.002	19.997	101.018	19.941	9.948	0.526
448.500	296.149	80.001	19.997	101.018	19.946	9.553	0.493
449.000	296.467	80.000	19.998	101.018	19.946	9.543	0.497
449.500	296.662	79.998	19.998	101.016	19.945	9.615	0.518
450.000	296.904	80.000	19.997	101.016	19.946	9.530	0.475
450.500	297.189	80.001	19.997	101.020	19.946	9.557	0.482
451.000	297.411	80.000	19.997	101.020	19.945	9.601	0.517
451.500	297.672	80.000	19.997	101.021	19.946	9.559	0.495
452.000	297.933	79.999	19.995	101.023	19.949	9.334	0.503
452.500	298.172	79.998	19.996	101.023	19.946	9.542	0.511
453.000	298.452	79.997	19.996	101.019	19.943	9.781	0.509
453.500	298.697	79.999	19.999	101.023	19.939	10.103	0.522
454.000	298.949	79.999	19.999	101.023	19.946	9.588	0.511
454.500	299.201	79.999	19.996	101.023	19.946	9.517	0.500
455.000	299.433	79.998	19.998	101.025	19.943	9.752	0.494
455.501	299.711	79.999	19.997	101.029	19.945	9.616	0.497
456.001	299.942	79.999	19.996	101.026	19.943	9.783	0.509
456.500	300.182	79.999	19.997	101.025	19.944	9.674	0.490
457.000	300.426	79.997	19.998	101.024	19.939	10.098	0.478
457.500	300.712	79.997	19.998	101.021	19.940	10.030	0.507
458.000	300.976	79.996	19.997	101.018	19.944	9.709	0.540
458.500	301.217	79.999	19.996	101.018	19.940	10.010	0.528
459.000	301.456	79.998	19.997	101.019	19.949	9.301	0.493
459.500	301.705	79.997	19.998	101.020	19.937	10.206	0.484
460.000	301.981	79.996	19.998	101.022	19.943	9.775	0.506
460.500	302.239	80.000	19.998	101.023	19.946	9.561	0.529
461.000	302.476	79.998	19.997	101.022	19.942	9.872	0.514
461.500	302.725	79.998	19.997	101.023	19.941	9.936	0.490
462.000	302.994	79.997	19.997	101.022	19.939	10.111	0.502
462.500	303.230	79.997	19.997	101.020	19.939	10.121	0.512
463.000	303.481	79.997	19.997	101.019	19.944	9.742	0.496
463.500	303.781	79.997	19.998	101.017	19.942	9.866	0.519
464.000	303.999	79.999	19.997	101.015	19.943	9.817	0.534
464.500	304.237	79.996	19.998	101.016	19.941	9.914	0.487
465.000	304.507	79.997	19.996	101.016	19.946	9.578	0.482
465.500	304.746	79.998	19.998	101.015	19.942	9.887	0.509
466.000	304.996	79.997	19.997	101.016	19.940	9.992	0.499
466.500	305.249	79.998	19.998	101.016	19.936	10.280	0.496
467.000	305.457	79.998	19.996	101.015	19.942	9.845	0.482
467.500	305.798	79.998	19.997	101.015	19.942	9.861	0.505
468.000	306.019	80.000	19.999	101.016	19.944	9.728	0.556
468.500	306.237	79.998	19.997	101.015	19.935	10.358	0.501
469.000	306.480	79.998	19.997	101.015	19.937	10.210	0.450
469.501	306.794	79.998	19.997	101.015	19.935	10.370	0.509
470.001	307.025	79.997	19.997	101.015	19.940	10.043	0.551
470.501	307.264	79.998	19.995	101.016	19.936	10.284	0.508
471.000	307.514	80.000	19.997	101.016	19.939	10.121	0.479
471.500	307.772	79.999	19.997	101.016	19.934	10.436	0.499
472.000	308.022	80.000	19.997	101.016	19.938	10.162	0.509
472.500	308.274	79.999	19.997	101.017	19.936	10.321	0.505
473.000	308.499	79.999	19.996	101.017	19.939	10.065	0.489
473.500	308.790	80.000	19.996	101.019	19.938	10.181	0.497
474.000	309.060	79.999	19.996	101.018	19.935	10.368	0.539
474.500	309.274	80.000	19.996	101.020	19.937	10.208	0.523
475.000	309.566	80.000	19.997	101.023	19.937	10.212	0.495
475.500	309.796	80.000	19.995	101.026	19.941	9.921	0.514
476.000	310.073	80.000	19.996	101.025	19.936	10.344	0.515
476.500	310.296	80.002	19.997	101.025	19.938	10.131	0.504
477.000	310.566	80.001	19.996	101.022	19.941	9.952	0.497
477.500	310.824	80.001	19.996	101.018	19.937	10.210	0.510
478.000	311.078	80.001	19.996	101.015	19.933	10.568	0.520
478.500	311.314	80.001	19.996	101.014	19.933	10.562	0.501
479.000	311.607	80.000	19.996	101.015	19.935	10.379	0.509
479.500	311.862	80.000	19.996	101.015	19.931	10.698	0.538
480.001	312.120	80.002	19.996	101.015	19.933	10.511	0.530
480.500	312.363	79.999	19.995	101.014	19.933	10.548	0.507
481.000	312.628	80.000	19.995	101.014	19.930	10.748	0.505
481.500	312.863	80.000	19.997	101.014	19.936	10.330	0.504
482.000	313.131	80.001	19.997	101.014	19.932	10.577	0.502
482.500	313.367	80.000	19.996	101.014	19.934	10.478	0.504
483.000	313.622	79.999	19.997	101.014	19.939	10.091	0.497
483.500	313.870	80.000	19.996	101.014	19.928	10.884	0.497
484.000	314.160	80.000	19.997	101.015	19.932	10.624	0.521
484.500	314.377	80.001	19.996	101.016	19.935	10.400	0.523
485.000	314.727	80.001	19.996	101.016	19.933	10.507	0.537
485.500	314.842	80.000	19.996	101.017	19.925	11.116	0.516
486.000	315.119	80.000	19.997	101.017	19.930	10.752	0.428
486.500	315.446	80.000	19.998	101.016	19.922	11.357	0.498
487.000	315.628	79.999	19.995	101.016	19.925	11.156	0.557
487.500	315.993	80.000	19.995	101.015	19.926	11.079	0.528
488.000	316.174	79.999	19.996	101.015	19.923	11.279	0.547
488.500	316.434	80.000	19.996	101.015	19.922	11.353	0.493
489.000	316.652	80.000	19.997	101.017	19.924	11.201	0.460
489.500	316.910	79.999	19.996	101.020	19.931	10.677	0.477
490.000	317.222	80.001	19.997	101.020	19.921	11.443	0.523
490.500	317.406	80.000	19.997	101.020	19.924	11.203	0.533
491.000	317.666	79.999	19.996	101.022	19.923	11.273	0.470
491.501	317.940	79.998	19.996	101.021	19.923	11.296	0.489
492.000	318.180	79.998	19.995	101.021	19.921	11.426	0.524
492.500	318.462	80.000	19.995	101.021	19.923	11.329	0.518
493.000	318.681	80.001	19.996	101.022	19.920	11.553	0.511
493.500	318.958	80.000	19.996	101.020	19.919	11.566	0.499
494.000	319.188	80.002	19.996	101.020	19.918	11.660	0.502
494.500	319.438	80.001	19.996	101.018	19.917	11.772	0.494
495.000	319.679	80.001	19.995	101.020	19.919	11.631	0.486
495.500	319.994	80.001	19.997	101.020	19.914	11.940	0.523
496.000	320.181	80.001	19.997	101.020	19.917	11.736	0.529
496.500	320.462	80.001	19.996	101.019	19.917	11.754	0.485
497.000	320.723	80.002	19.997	101.018	19.918	11.662	0.505
497.500	320.943	80.001	19.995	101.018	19.919	11.606	0.511
498.000	321.197	80.002	19.995	101.018	19.914	11.979	0.477
498.500	321.468	80.001	19.996	101.018	19.917	11.752	0.500
499.000	321.694	80.001	19.996	101.018	19.917	11.736	0.511
499.500	321.948	80.002	19.994	101.017	19.909	12.331	0.488
500.000	322.224	80.002	19.995	101.015	19.910	12.313	0.505
500.500	322.431	80.001	19.996	101.014	19.908	12.399	0.506
501.000	322.708	80.001	19.995	101.013	19.908	12.426	0.484
501.500	322.932	80.001	19.996	101.016	19.905	12.682	0.493
502.000	323.194	80.003	19.996	101.019	19.905	12.640	0.494
502.500	323.441	80.001	19.996	101.020	19.908	12.430	0.497
503.000	323.695	80.003	19.996	101.019	19.903	12.774	0.505
503.500	323.923	80.003	19.996	101.020	19.904	12.735	0.492
504.000	324.220	80.001	19.996	101.020	19.898	13.174	0.504
504.500	324.464	80.001	19.997	101.020	19.900	13.001	0.533
505.000	324.738	80.002	19.995	101.019	19.898	13.160	0.529
505.500	324.956	80.001	19.996	101.019	19.900	13.065	0.505
506.000	325.233	80.002	19.996	101.018	19.896	13.349	0.494
506.500	325.478	80.003	19.997	101.015	19.895	13.446	0.509
507.000	325.712	80.002	19.996	101.012	19.895	13.442	0.500
507.500	325.944	80.001	19.996	101.012	19.894	13.522	0.473
508.000	326.199	80.002	19.996	101.012	19.893	13.541	0.477
508.500	326.470	80.001	19.997	101.012	19.888	13.983	0.506
509.000	326.718	79.999	19.996	101.012	19.886	14.134	0.522
509.500	326.985	80.000	19.995	101.013	19.882	14.437	0.517
510.000	327.219	80.002	19.995	101.012	19.886	14.099	0.508
510.500	327.482	79.999	19.996	101.012	19.884	14.214	0.499
511.000	327.728	79.999	19.997	101.012	19.886	14.134	0.503
511.500	327.999	79.998	19.995	101.012	19.879	14.661	0.513
512.000	328.275	80.000	19.996	101.014	19.880	14.533	0.532
512.500	328.490	79.998	19.995	101.015	19.870	15.328	0.519
513.000	328.753	80.001	19.997	101.015	19.870	15.343	0.485
513.500	328.983	80.000	19.997	101.015	19.874	14.976	0.485
514.000	329.266	79.999	19.995	101.015	19.872	15.157	0.502
514.500	329.477	80.001	19.997	101.014	19.867	15.524	0.504
515.000	329.720	79.998	19.997	101.013	19.868	15.485	0.474
515.500	329.990	79.998	19.997	101.014	19.860	16.095	0.483
516.000	330.262	79.998	19.996	101.014	19.863	15.852	0.527
516.500	330.475	79.999	19.997	101.014	19.858	16.255	0.514
517.000	330.759	80.000	19.996	101.014	19.858	16.233	0.491
517.500	330.980	80.000	19.998	101.014	19.853	16.564	0.501
518.000	331.213	80.001	19.996	101.014	19.858	16.218	0.479
518.500	331.449	80.001	19.995	101.013	19.851	16.768	0.462
519.000	331.728	79.998	19.996	101.013	19.851	16.777	0.492
519.500	331.995	79.998	19.995	101.013	19.848	16.944	0.531
520.000	332.223	79.998	19.997	101.012	19.841	17.494	0.521
520.500	332.457	79.999	19.998	101.013	19.844	17.261	0.479
521.000	332.783	79.998	19.997	101.014	19.842	17.463	0.511
521.500	332.997	79.998	19.997	101.014	19.838	17.714	0.550
522.000	333.231	79.997	19.996	101.014	19.837	17.819	0.494
522.500	333.493	80.001	19.996	101.014	19.834	18.046	0.472
523.000	333.753	79.997	19.997	101.012	19.833	18.087	0.509
523.500	334.008	79.997	19.996	101.012	19.824	18.816	0.519
524.000	334.256	79.999	19.996	101.011	19.822	18.961	0.509
524.500	334.470	79.999	19.997	101.010	19.823	18.858	0.483
525.000	334.780	80.000	19.996	101.010	19.820	19.130	0.493
525.501	334.998	80.002	19.997	101.010	19.816	19.377	0.525
526.000	335.244	79.998	19.996	101.010	19.813	19.595	0.496
526.500	335.475	80.000	19.996	101.012	19.812	19.698	0.471
527.000	335.720	80.001	19.997	101.012	19.809	19.964	0.476
527.500	335.965	79.999	19.997	101.012	19.804	20.277	0.483
528.000	336.229	79.999	19.996	101.012	19.801	20.557	0.500
528.500	336.458	79.998	19.998	101.012	19.800	20.611	0.501
529.000	336.727	80.000	19.996	101.011	19.795	20.967	0.496
529.500	336.953	79.999	19.997	101.012	19.797	20.872	0.497
530.000	337.211	79.997	19.997	101.012	19.791	21.274	0.490
530.500	337.489	79.998	19.996	101.012	19.787	21.618	0.510
531.000	337.759	79.998	19.996	101.013	19.784	21.830	0.542
531.500	337.984	79.998	19.997	101.013	19.777	22.343	0.521
532.000	338.240	79.999	19.996	101.013	19.776	22.403	0.488
532.500	338.485	79.997	19.995	101.013	19.773	22.681	0.491
533.000	338.752	79.999	19.996	101.014	19.770	22.925	0.506
533.500	339.035	80.000	19.997	101.014	19.768	23.005	0.531
534.000	339.240	79.999	19.996	101.014	19.763	23.405	0.519
534.500	339.511	80.001	19.996	101.014	19.761	23.600	0.482
535.000	339.747	80.000	19.996	101.015	19.757	23.891	0.492
535.501	340.024	79.999	19.996	101.015	19.756	23.983	0.510
536.000	340.238	79.999	19.997	101.016	19.748	24.521	0.502
536.500	340.516	79.998	19.996	101.016	19.748	24.582	0.492
537.000	340.742	79.998	19.996	101.016	19.744	24.865	0.498
537.500	340.968	79.998	19.996	101.016	19.737	25.384	0.478
538.000	341.230	79.998	19.996	101.016	19.735	25.501	0.470
538.500	341.490	79.999	19.996	101.016	19.731	25.816	0.505
539.000	341.770	79.998	19.995	101.015	19.724	26.336	0.532
539.500	342.025	79.999	19.996	101.015	19.723	26.472	0.538
540.000	342.267	79.997	19.997	101.014	19.717	26.884	0.516
540.500	342.493	79.999	19.996	101.014	19.708	27.564	0.483
541.000	342.744	79.999	19.996	101.015	19.710	27.432	0.472
541.500	343.010	79.998	19.996	101.014	19.701	28.114	0.497
542.000	343.241	79.996	19.998	101.015	19.698	28.376	0.507
542.500	343.527	79.995	19.997	101.015	19.696	28.460	0.507
543.000	343.735	79.997	19.997	101.015	19.691	28.907	0.505
543.500	344.010	79.999	19.997	101.015	19.681	29.601	0.488
544.000	344.236	79.999	19.997	101.016	19.675	30.118	0.492
544.500	344.522	79.996	19.996	101.016	19.672	30.291	0.506
545.000	344.776	80.000	19.996	101.016	19.672	30.338	0.526
545.500	344.988	79.999	19.996	101.016	19.664	30.954	0.503
546.000	345.244	79.997	19.997	101.015	19.657	31.453	0.468
546.500	345.499	80.000	19.996	101.014	19.652	31.821	0.490
547.000	345.756	79.997	19.996	101.014	19.646	32.277	0.511
547.500	346.028	79.998	19.996	101.014	19.641	32.643	0.520
548.000	346.264	79.997	19.997	101.014	19.634	33.207	0.518
548.500	346.536	79.999	19.996	101.014	19.626	33.819	0.508
549.000	346.800	79.999	19.997	101.015	19.623	34.025	0.522
549.500	347.041	79.997	19.996	101.014	19.617	34.458	0.520
550.000	347.294	79.996	19.997	101.015	19.610	34.991	0.500
550.500	347.573	80.000	19.996	101.016	19.605	35.364	0.513
551.000	347.828	79.999	19.996	101.017	19.598	35.941	0.533
551.500	348.030	79.996	19.996	101.017	19.593	36.278	0.496
552.000	348.303	79.998	19.997	101.017	19.587	36.741	0.466
552.500	348.575	79.997	19.998	101.017	19.580	37.260	0.510
553.000	348.795	79.998	19.998	101.017	19.573	37.810	0.518
553.500	349.051	80.002	19.998	101.016	19.566	38.350	0.484
554.000	349.312	79.998	19.997	101.016	19.558	38.922	0.496
554.500	349.604	79.999	19.997	101.016	19.552	39.398	0.535
555.000	349.832	79.998	19.997	101.016	19.544	40.022	0.537
555.500	350.105	80.000	19.997	101.015	19.541	40.212	0.511
556.000	350.384	79.999	19.995	101.015	19.535	40.725	0.526
556.500	350.629	79.998	19.997	101.015	19.525	41.454	0.538
557.000	350.877	80.000	19.996	101.015	19.518	41.954	0.509
557.500	351.107	79.998	19.996	101.014	19.511	42.494	0.486
558.000	351.361	80.002	19.996	101.014	19.508	42.764	0.481
558.500	351.613	80.000	19.997	101.013	19.499	43.393	0.495
559.000	351.857	80.002	19.997	101.013	19.493	43.871	0.501
559.500	352.144	80.000	19.997	101.013	19.482	44.680	0.514
560.000	352.368	80.000	19.997	101.014	19.473	45.374	0.521
560.500	352.638	80.001	19.996	101.013	19.466	45.895	0.503
561.000	352.903	80.001	19.997	101.012	19.457	46.570	0.515
561.500	353.157	79.999	19.996	101.012	19.450	47.134	0.527
562.000	353.414	80.002	19.997	101.012	19.440	47.846	0.515
562.500	353.665	79.998	19.996	101.011	19.432	48.456	0.509
563.000	353.901	80.000	19.996	101.010	19.425	48.984	0.497
563.500	354.160	80.002	19.997	101.010	19.418	49.512	0.491
564.000	354.413	79.999	19.996	101.009	19.411	50.044	0.504
564.500	354.657	80.001	19.997	101.009	19.406	50.469	0.504
565.000	354.914	79.999	19.997	101.009	19.394	51.361	0.499
565.500	355.177	80.000	19.996	101.009	19.384	52.155	0.511
566.000	355.419	80.002	19.997	101.009	19.380	52.456	0.513
566.500	355.666	80.002	19.997	101.009	19.369	53.284	0.497
567.000	355.947	80.001	19.997	101.008	19.358	54.073	0.509
567.500	356.208	79.997	19.996	101.008	19.353	54.463	0.535
568.000	356.427	80.000	19.996	101.007	19.345	55.089	0.511
568.500	356.711	80.000	19.996	101.009	19.335	55.819	0.491
569.000	356.949	80.002	19.996	101.009	19.329	56.310	0.513
569.500	357.165	79.999	19.996	101.009	19.318	57.099	0.488
570.000	357.478	79.999	19.996	101.010	19.307	57.929	0.491
570.500	357.698	80.002	19.997	101.009	19.303	58.264	0.531
571.000	357.965	80.000	19.995	101.005	19.290	59.201	0.510
571.500	358.242	79.999	19.998	101.003	19.280	59.960	0.516
572.000	358.510	79.998	19.997	101.002	19.271	60.671	0.545
572.500	358.746	80.000	19.996	101.001	19.262	61.316	0.524
573.000	358.971	79.997	19.996	101.001	19.250	62.247	0.482
573.500	359.248	80.000	19.997	101.005	19.244	62.691	0.482
574.000	359.502	80.001	19.996	101.006	19.230	63.745	0.517
574.500	359.728	80.002	19.996	101.004	19.222	64.370	0.505
575.000	359.959	80.001	19.998	101.001	19.213	65.048	0.469
575.500	360.260	80.001	19.996	100.998	19.205	65.673	0.494
576.000	360.510	79.999	19.996	100.995	19.192	66.686	0.541
576.500	360.765	79.999	19.996	100.997	19.179	67.640	0.528
577.000	360.975	80.001	19.997	100.996	19.174	67.990	0.485
577.500	361.265	79.999	19.997	100.993	19.166	68.637	0.483
578.000	361.534	80.000	19.997	100.992	19.153	69.623	0.529
578.500	361.781	80.002	19.996	100.994	19.148	69.952	0.538
579.000	362.017	80.000	19.997	100.990	19.131	71.303	0.500
579.500	362.240	80.001	19.995	100.991	19.124	71.815	0.471
580.000	362.533	80.001	19.996	100.993	19.115	72.461	0.488
580.500	362.778	80.001	19.995	100.994	19.109	72.970	0.527
581.000	363.028	80.000	19.996	100.990	19.097	73.806	0.517
581.500	363.258	80.001	19.997	100.986	19.083	74.877	0.488
582.000	363.526	79.999	19.995	100.982	19.075	75.516	0.489
582.500	363.783	80.001	19.996	100.980	19.065	76.247	0.512
583.000	364.048	80.004	19.996	100.978	19.055	76.982	0.523
583.500	364.288	80.003	19.997	100.978	19.046	77.678	0.513
584.000	364.572	80.002	19.996	100.982	19.041	78.060	0.515
584.500	364.828	80.002	19.995	100.981	19.028	79.064	0.532
585.000	365.047	80.000	19.995	100.983	19.015	80.015	0.508
585.500	365.301	80.002	19.996	100.982	19.004	80.884	0.474
586.000	365.526	80.000	19.996	100.979	18.997	81.391	0.476
586.500	365.812	80.000	19.996	100.974	18.990	81.928	0.495
587.000	366.068	80.003	19.995	100.974	18.979	82.727	0.526
587.500	366.317	80.000	19.997	100.972	18.974	83.155	0.524
588.000	366.580	79.999	19.996	100.972	18.962	84.019	0.509
588.500	366.815	80.000	19.998	100.972	18.954	84.675	0.505
589.000	367.073	79.999	19.996	100.972	18.944	85.410	0.495
589.500	367.324	80.001	19.996	100.972	18.933	86.264	0.501
590.000	367.591	79.999	19.996	100.972	18.927	86.707	0.513
590.500	367.821	80.000	19.996	100.970	18.917	87.468	0.507
591.000	368.068	79.999	19.997	100.969	18.909	88.090	0.487
591.500	368.329	79.999	19.996	100.970	18.902	88.620	0.493
592.000	368.596	79.998	19.996	100.970	18.890	89.483	0.518
592.500	368.831	79.998	19.995	100.968	18.882	90.105	0.515
593.000	369.104	80.000	19.997	100.967	18.874	90.724	0.505
593.500	369.321	79.998	19.995	100.966	18.869	91.104	0.499
594.000	369.609	79.999	19.997	100.966	18.855	92.119	0.497
594.500	369.848	79.999	19.995	100.965	18.852	92.350	0.516
595.000	370.077	80.000	19.997	100.968	18.841	93.179	0.498
595.500	370.302	79.997	19.996	100.970	18.839	93.342	0.461
596.000	370.567	79.998	19.995	100.971	18.828	94.192	0.472
596.500	370.802	79.999	19.995	100.967	18.821	94.704	0.495
597.000	371.083	79.999	19.996	100.961	18.816	95.088	0.508
597.500	371.314	79.998	19.995	100.956	18.808	95.676	0.514
598.000	371.550	79.999	19.996	100.952	18.801	96.232	0.490
598.500	371.843	79.997	19.995	100.946	18.796	96.607	0.498
599.000	372.079	79.997	19.996	100.943	18.791	96.968	0.529
599.500	372.327	80.000	19.996	100.947	18.788	97.190	0.507
600.000	372.641	79.998	19.996	100.952	18.781	97.758	0.523
600.500	372.825	79.999	19.996	100.951	18.776	98.097	0.530
601.000	373.093	79.998	19.996	100.950	18.772	98.422	0.475
601.500	373.358	79.998	19.995	100.951	18.766	98.847	0.493
602.000	373.576	79.999	19.995	100.947	18.762	99.211	0.508
602.500	373.861	79.999	19.996	100.940	18.756	99.606	0.493
603.000	374.135	80.000	19.997	100.939	18.752	99.969	0.531
603.500	374.370	79.999	19.997	100.939	18.747	100.322	0.533
604.000	374.633	79.998	19.995	100.938	18.741	100.789	0.503
604.500	374.876	79.999	19.996	100.938	18.740	100.855	0.503
605.000	375.124	79.998	19.996	100.938	18.735	101.215	0.499
605.500	375.388	79.998	19.996	100.938	18.735	101.223	0.501
606.000	375.627	79.998	19.996	100.938	18.735	101.244	0.507
606.500	375.871	79.999	19.996	100.938	18.729	101.702	0.494
607.000	376.132	79.999	19.997	100.938	18.730	101.580	0.494
607.500	376.365	79.998	19.995	100.937	18.722	102.159	0.499
608.000	376.618	80.000	19.996	100.937	18.725	101.960	0.490
608.500	376.861	79.998	19.995	100.936	18.724	102.043	0.491
609.001	377.119	80.000	19.995	100.936	18.725	101.964	0.498
609.501	377.342	79.997	19.996	100.936	18.723	102.128	0.491
610.000	377.637	79.999	19.997	100.937	18.716	102.680	0.500
610.500	377.857	79.998	19.996	100.937	18.717	102.582	0.517
611.000	378.113	79.999	19.995	100.937	18.717	102.560	0.495
611.500	378.379	79.998	19.996	100.936	18.720	102.307	0.499
612.000	378.611	79.998	19.995	100.935	18.717	102.548	0.510
612.500	378.862	79.999	19.995	100.934	18.720	102.345	0.490
613.000	379.115	79.998	19.995	100.934	18.720	102.345	0.493
613.500	379.336	79.999	19.994	100.934	18.726	101.865	0.489
614.000	379.617	79.999	19.995	100.935	18.719	102.454	0.488
614.500	379.866	79.999	19.996	100.935	18.724	102.069	0.516
615.000	380.124	79.999	19.995	100.935	18.731	101.516	0.519
615.500	380.353	79.999	19.995	100.935	18.731	101.496	0.497
616.000	380.629	79.998	19.997	100.931	18.735	101.205	0.495
616.500	380.858	79.998	19.997	100.927	18.736	101.123	0.505
617.000	381.109	79.999	19.997	100.927	18.746	100.347	0.493
617.500	381.342	79.998	19.998	100.927	18.743	100.576	0.483
618.000	381.581	79.998	19.996	100.925	18.748	100.213	0.478
618.500	381.853	79.998	19.997	100.926	18.754	99.761	0.491
619.000	382.106	79.998	19.996	100.927	18.755	99.712	0.518
619.500	382.338	79.997	19.996	100.926	18.762	99.140	0.506
620.000	382.574	79.998	19.996	100.924	18.766	98.897	0.477
620.500	382.847	79.999	19.997	100.923	18.769	98.626	0.488
621.000	383.105	79.998	19.996	100.925	18.777	98.074	0.520
621.500	383.341	79.998	19.996	100.926	18.781	97.765	0.512
622.000	383.564	79.999	19.996	100.924	18.785	97.434	0.476
622.500	383.837	79.999	19.996	100.924	18.791	96.949	0.477
623.000	384.091	79.995	19.997	100.927	18.795	96.642	0.512
623.500	384.330	79.998	19.997	100.927	18.803	96.046	0.510
624.000	384.533	79.997	19.996	100.929	18.808	95.714	0.468
624.500	384.826	79.998	19.996	100.931	18.817	95.044	0.469
625.000	385.077	79.999	19.997	100.933	18.824	94.488	0.519
625.500	385.352	79.999	19.998	100.933	18.828	94.213	0.535
626.000	385.560	79.998	19.996	100.934	18.837	93.490	0.505
626.500	385.811	79.997	19.997	100.932	18.846	92.826	0.471
627.000	386.050	79.998	19.996	100.931	18.851	92.424	0.475
627.500	386.307	79.999	19.997	100.929	18.860	91.747	0.493
628.001	386.574	79.997	19.995	100.927	18.868	91.170	0.510
628.501	386.813	79.998	19.997	100.926	18.875	90.594	0.515
629.000	387.061	79.999	19.997	100.928	18.883	90.027	0.496
629.500	387.329	79.998	19.996	100.930	18.893	89.223	0.501
630.000	387.564	79.999	19.996	100.931	18.901	88.654	0.509
630.500	387.789	79.999	19.995	100.933	18.905	88.350	0.481
631.000	388.061	79.999	19.998	100.933	18.917	87.446	0.479
631.500	388.337	79.999	19.998	100.933	18.928	86.610	0.523
632.001	388.565	80.000	19.997	100.933	18.938	85.837	0.526
632.501	388.868	79.999	19.997	100.933	18.945	85.289	0.517
633.000	389.086	79.998	19.997	100.933	18.954	84.658	0.526
633.500	389.321	79.999	19.999	100.934	18.965	83.841	0.487
634.000	389.561	79.999	19.997	100.934	18.973	83.213	0.464
634.500	389.838	79.998	19.996	100.935	18.976	82.956	0.496
635.000	390.106	79.999	19.997	100.935	18.984	82.361	0.531
635.500	390.321	80.000	19.996	100.936	19.000	81.174	0.514
636.000	390.594	79.999	19.997	100.935	19.004	80.860	0.485
636.500	390.798	79.999	19.996	100.936	19.014	80.098	0.482
637.000	391.070	80.000	19.997	100.935	19.024	79.350	0.477
637.500	391.306	79.999	19.996	100.937	19.035	78.560	0.492
638.000	391.578	80.001	19.998	100.936	19.041	78.041	0.508
638.500	391.826	80.001	19.997	100.936	19.053	77.171	0.513
639.000	392.090	80.001	19.996	100.935	19.061	76.588	0.516
639.500	392.342	80.000	19.997	100.935	19.068	76.045	0.514
640.000	392.603	80.000	19.997	100.935	19.078	75.281	0.515
640.500	392.811	80.001	19.997	100.935	19.085	74.742	0.492
641.000	393.113	80.000	19.997	100.937	19.095	74.000	0.490
641.500	393.364	79.999	19.996	100.937	19.102	73.457	0.532
642.000	393.660	80.001	19.997	100.937	19.112	72.696	0.550
642.500	393.885	79.999	19.996	100.937	19.121	72.040	0.534
643.000	394.162	79.999	19.997	100.938	19.132	71.168	0.511
643.500	394.408	80.000	19.997	100.940	19.140	70.563	0.513
644.000	394.661	80.000	19.998	100.946	19.148	70.017	0.511
644.500	394.899	80.000	19.996	100.951	19.153	69.570	0.495
645.000	395.180	80.000	19.996	100.956	19.161	68.979	0.505
645.500	395.409	79.999	19.996	100.957	19.167	68.508	0.515
646.000	395.661	79.999	19.998	100.954	19.182	67.425	0.496
646.500	395.938	79.999	19.997	100.950	19.190	66.815	0.505
647.000	396.140	80.000	19.998	100.949	19.195	66.441	0.504
647.500	396.426	79.999	19.997	100.948	19.206	65.566	0.483
648.000	396.689	79.998	19.997	100.951	19.216	64.803	0.519
648.500	396.906	79.998	19.997	100.956	19.224	64.240	0.515
649.000	397.157	79.999	19.998	100.957	19.230	63.737	0.474
649.500	397.397	79.999	19.996	100.955	19.236	63.299	0.480
650.000	397.655	79.999	19.996	100.954	19.245	62.675	0.494
650.500	397.891	79.999	19.997	100.955	19.251	62.198	0.496
651.000	398.190	79.999	19.997	100.955	19.260	61.500	0.515
651.500	398.426	79.999	19.997	100.959	19.269	60.787	0.535
652.000	398.686	80.000	19.998	100.963	19.274	60.469	0.515
652.500	398.932	79.999	19.996	100.966	19.280	59.972	0.501
653.000	399.185	80.000	19.997	100.968	19.286	59.527	0.502
653.500	399.421	79.999	19.998	100.969	19.296	58.779	0.494
654.000	399.683	79.999	19.997	100.970	19.302	58.345	0.494
654.500	399.922	79.999	19.996	100.970	19.306	58.004	0.500
655.000	400.149	79.998	19.997	100.971	19.316	57.275	0.483
655.500	400.443	80.000	19.997	100.970	19.323	56.758	0.493
656.000	400.659	80.000	19.996	100.970	19.328	56.397	0.515
656.500	400.939	79.999	19.997	100.968	19.332	56.046	0.503
657.000	401.192	79.999	19.997	100.968	19.340	55.455	0.515
657.500	401.447	80.000	19.996	100.967	19.345	55.069	0.521
658.000	401.728	79.999	19.996	100.968	19.348	54.835	0.522
658.500	401.914	80.000	19.996	100.969	19.358	54.106	0.502
659.000	402.165	80.000	19.997	100.970	19.362	53.815	0.452
659.500	402.458	80.002	19.996	100.972	19.367	53.424	0.490
660.000	402.731	80.000	19.996	100.974	19.376	52.749	0.555
660.500	402.966	80.002	19.997	100.974	19.377	52.690	0.537
661.000	403.192	80.001	19.995	100.978	19.385	52.028	0.484
661.500	403.439	80.000	19.996	100.979	19.388	51.806	0.467
662.000	403.738	80.001	19.996	100.980	19.398	51.097	0.509
662.500	403.995	80.001	19.995	100.979	19.400	50.939	0.551
663.000	404.245	80.001	19.997	100.982	19.403	50.683	0.532
663.500	404.481	80.002	19.996	100.981	19.410	50.125	0.497
664.000	404.724	80.001	19.996	100.980	19.408	50.279	0.483
664.500	404.998	80.002	19.997	100.979	19.417	49.626	0.498
665.000	405.268	80.002	19.997	100.979	19.420	49.367	0.530
665.500	405.536	80.002	19.996	100.981	19.423	49.207	0.541
666.000	405.741	80.001	19.996	100.984	19.430	48.665	0.505
666.500	406.001	80.000	19.996	100.988	19.438	48.005	0.469
667.000	406.229	80.002	19.997	100.991	19.438	48.007	0.477
667.500	406.515	80.001	19.995	100.992	19.442	47.724	0.501
668.000	406.726	80.002	19.996	100.993	19.448	47.294	0.506
668.500	407.005	80.001	19.996	100.992	19.453	46.892	0.494
669.000	407.280	80.001	19.996	100.994	19.455	46.757	0.522
669.500	407.552	80.000	19.997	100.997	19.456	46.654	0.550
670.000	407.813	80.000	19.995	101.000	19.460	46.344	0.540
670.500	408.054	80.002	19.996	101.001	19.464	46.101	0.518
671.000	408.278	79.999	19.995	101.002	19.470	45.644	0.483
671.500	408.573	80.000	19.997	101.000	19.468	45.782	0.492
672.000	408.817	80.000	19.996	101.001	19.478	45.022	0.529
672.500	409.049	79.998	19.996	101.003	19.475	45.201	0.508
673.000	409.339	80.000	19.995	101.005	19.479	44.906	0.500
673.500	409.565	79.998	19.995	101.007	19.482	44.739	0.519
674.000	409.828	79.998	19.996	101.010	19.486	44.416	0.502
674.500	410.091	79.998	19.996	101.010	19.484	44.570	0.508
675.000	410.353	79.997	19.996	101.009	19.490	44.123	0.526
675.500	410.594	79.997	19.997	101.009	19.493	43.886	0.514
676.000	410.856	79.997	19.996	101.011	19.496	43.653	0.503
676.500	411.098	79.997	19.996	101.012	19.498	43.474	0.504
677.000	411.374	79.999	19.996	101.011	19.502	43.156	0.511
677.500	411.623	79.998	19.997	101.011	19.505	42.985	0.522
678.000	411.885	79.999	19.997	101.009	19.506	42.909	0.518
678.500	412.128	79.998	19.997	101.009	19.511	42.524	0.508
679.000	412.397	79.999	19.995	101.008	19.507	42.804	0.508
679.500	412.637	79.999	19.996	101.009	19.510	42.614	0.510
680.000	412.899	79.997	19.996	101.010	19.512	42.396	0.506
680.500	413.133	79.996	19.996	101.011	19.520	41.811	0.499
681.000	413.381	79.997	19.996	101.012	19.519	41.879	0.489
681.500	413.683	79.997	19.996	101.013	19.522	41.650	0.516
682.000	413.891	79.998	19.995	101.014	19.525	41.464	0.530
682.500	414.158	79.998	19.995	101.014	19.526	41.343	0.492
683.000	414.436	79.998	19.996	101.013	19.525	41.411	0.510
683.500	414.669	79.997	19.997	101.013	19.527	41.264	0.528
684.000	414.906	79.998	19.997	101.013	19.527	41.333	0.491
684.500	415.165	79.998	19.995	101.013	19.531	41.005	0.484
685.000	415.438	79.997	19.997	101.014	19.534	40.799	0.514
685.500	415.696	79.998	19.996	101.016	19.535	40.702	0.531
686.000	415.922	79.998	19.997	101.016	19.537	40.502	0.508
686.500	416.204	79.998	19.996	101.017	19.538	40.482	0.496
687.000	416.419	79.999	19.996	101.016	19.541	40.268	0.502
687.500	416.708	79.998	19.996	101.016	19.544	39.998	0.501
688.000	416.946	79.999	19.996	101.015	19.545	39.903	0.516
688.500	417.210	79.999	19.995	101.015	19.547	39.746	0.515
689.000	417.489	79.996	19.995	101.015	19.549	39.649	0.522
689.500	417.724	79.998	19.996	101.015	19.549	39.641	0.528
690.000	417.995	79.998	19.997	101.015	19.551	39.492	0.510
690.500	418.250	79.998	19.996	101.015	19.555	39.155	0.516
691.000	418.507	79.999	19.996	101.015	19.554	39.264	0.519
691.500	418.763	79.999	19.996	101.015	19.555	39.192	0.512
692.000	419.009	80.000	19.994	101.014	19.555	39.149	0.508
692.500	419.237	79.997	19.995	101.014	19.556	39.120	0.488
693.000	419.517	79.998	19.996	101.013	19.555	39.141	0.491
693.500	419.804	80.000	19.997	101.014	19.562	38.663	0.537
694.000	420.043	80.001	19.996	101.014	19.560	38.801	0.546
694.500	420.303	80.000	19.996	101.014	19.562	38.620	0.513
695.000	420.554	80.000	19.996	101.014	19.561	38.737	0.505
695.500	420.798	79.997	19.996	101.014	19.567	38.236	0.503
696.000	421.061	79.999	19.996	101.014	19.567	38.292	0.501
696.500	421.337	80.001	19.995	101.014	19.570	38.028	0.523
697.000	421.565	79.999	19.996	101.014	19.568	38.188	0.522
697.500	421.830	79.999	19.996	101.014	19.571	37.958	0.498
698.000	422.113	79.999	19.996	101.014	19.573	37.786	0.520
698.500	422.310	79.999	19.996	101.014	19.574	37.749	0.514
699.000	422.613	79.999	19.995	101.014	19.574	37.715	0.490
699.500	422.862	79.999	19.995	101.014	19.577	37.504	0.526
700.000	423.094	79.999	19.997	101.013	19.576	37.554	0.517
700.500	423.374	80.000	19.997	101.013	19.582	37.167	0.497
701.000	423.653	80.000	19.995	101.012	19.582	37.166	0.536
701.500	423.908	79.999	19.996	101.013	19.582	37.094	0.547
702.000	424.184	79.999	19.996	101.013	19.583	37.021	0.532
702.500	424.388	80.000	19.996	101.013	19.583	37.037	0.505
703.000	424.647	79.998	19.997	101.013	19.588	36.662	0.472
703.500	424.922	79.998	19.996	101.014	19.589	36.631	0.498
704.000	425.190	79.998	19.997	101.014	19.588	36.684	0.538
704.500	425.419	79.998	19.996	101.014	19.590	36.493	0.520
705.000	425.677	79.997	19.997	101.015	19.593	36.293	0.492
705.500	425.947	79.999	19.996	101.014	19.593	36.305	0.508
706.000	426.214	79.998	19.997	101.014	19.594	36.254	0.532
706.500	426.408	80.000	19.996	101.014	19.595	36.173	0.499
707.000	426.733	79.998	19.996	101.014	19.595	36.134	0.490
707.500	426.966	79.999	19.997	101.013	19.599	35.831	0.538
708.000	427.217	79.999	19.996	101.013	19.595	36.111	0.521
708.500	427.441	79.998	19.996	101.013	19.603	35.506	0.480
709.000	427.718	79.998	19.997	101.012	19.602	35.576	0.488
709.500	427.964	79.997	19.996	101.012	19.606	35.314	0.512
710.000	428.211	79.998	19.997	101.012	19.604	35.446	0.508
710.500	428.498	79.998	19.997	101.012	19.610	34.984	0.513
711.000	428.729	79.997	19.996	101.012	19.612	34.847	0.526
711.500	429.005	79.998	19.997	101.012	19.608	35.135	0.512
712.000	429.284	79.998	19.997	101.012	19.618	34.406	0.531
712.500	429.528	79.998	19.996	101.012	19.621	34.177	0.539
713.000	429.771	79.997	19.997	101.013	19.623	34.060	0.505
713.500	430.072	79.998	19.997	101.013	19.627	33.719	0.516
714.000	430.290	79.999	19.997	101.012	19.626	33.803	0.532
714.500	430.559	79.998	19.996	101.012	19.630	33.474	0.503
715.000	430.791	80.000	19.998	101.012	19.630	33.480	0.494
715.500	431.052	79.999	19.996	101.012	19.626	33.804	0.496
716.000	431.294	80.000	19.996	101.012	19.629	33.557	0.497
716.500	431.578	79.999	19.996	101.012	19.632	33.364	0.515
717.000	431.805	79.999	19.997	101.012	19.635	33.090	0.519
717.500	432.050	80.000	19.997	101.011	19.637	32.993	0.492
718.000	432.306	79.998	19.997	101.011	19.638	32.859	0.486
718.500	432.593	80.000	19.997	101.010	19.641	32.626	0.521
719.000	432.834	80.000	19.996	101.011	19.646	32.276	0.535
719.500	433.077	80.001	19.996	101.011	19.646	32.285	0.506
720.000	433.329	79.999	19.995	101.011	19.652	31.853	0.489
720.500	433.640	80.000	19.998	101.011	19.652	31.829	0.529
721.000	433.869	80.000	19.997	101.011	19.655	31.578	0.552
721.500	434.113	80.001	19.996	101.011	19.658	31.338	0.506
722.000	434.398	80.000	19.997	101.011	19.661	31.171	0.501
722.500	434.662	80.002	19.995	101.012	19.664	30.916	0.539
723.000	434.882	80.001	19.995	101.011	19.663	30.962	0.516
723.500	435.146	80.000	19.997	101.012	19.671	30.413	0.484
724.000	435.431	80.000	19.995	101.011	19.672	30.281	0.517
724.500	435.657	80.001	19.995	101.010	19.674	30.179	0.530
725.000	435.923	80.001	19.997	101.008	19.678	29.827	0.502
725.500	436.200	80.001	19.996	101.008	19.677	29.900	0.517
726.000	436.447	79.999	19.996	101.008	19.680	29.727	0.533
726.500	436.694	80.001	19.996	101.009	19.682	29.580	0.509
727.000	436.973	80.000	19.997	101.010	19.685	29.335	0.510
727.500	437.200	80.000	19.997	101.012	19.685	29.289	0.516
728.000	437.472	79.999	19.995	101.012	19.690	28.943	0.503
728.500	437.714	79.999	19.996	101.011	19.694	28.674	0.506
729.000	437.973	80.000	19.996	101.011	19.694	28.676	0.507
729.500	438.202	79.998	19.996	101.010	19.701	28.145	0.494
730.000	438.491	79.999	19.996	101.011	19.700	28.200	0.503
730.500	438.685	80.000	19.996	101.009	19.701	28.090	0.501
731.001	438.963	79.998	19.996	101.009	19.703	27.924	0.478
731.500	439.253	80.001	19.997	101.007	19.710	27.463	0.520
732.000	439.488	80.000	19.997	101.005	19.709	27.531	0.546
732.500	439.737	80.000	19.996	101.004	19.709	27.496	0.504
733.000	440.012	79.999	19.995	101.004	19.714	27.114	0.504
733.500	440.272	79.998	19.997	101.004	19.717	26.886	0.530
734.000	440.526	79.999	19.997	101.006	19.717	26.922	0.525
734.500	440.783	79.998	19.996	101.008	19.723	26.459	0.512
735.000	441.041	79.999	19.997	101.010	19.727	26.142	0.513
735.500	441.302	79.998	19.997	101.011	19.727	26.173	0.517
736.001	441.566	79.998	19.997	101.012	19.729	26.027	0.522
736.500	441.800	79.999	19.997	101.011	19.732	25.801	0.511
737.000	442.048	79.998	19.997	101.009	19.734	25.626	0.490
737.500	442.316	79.999	19.997	101.005	19.735	25.558	0.499
738.000	442.573	79.998	19.997	101.001	19.739	25.203	0.520
738.500	442.835	79.999	19.996	100.997	19.742	24.969	0.522
739.000	443.089	79.998	19.996	100.992	19.746	24.716	0.517
739.500	443.321	79.997	19.997	100.992	19.746	24.677	0.501
740.000	443.554	79.997	19.997	100.992	19.751	24.347	0.475
740.500	443.843	79.999	19.996	100.996	19.749	24.478	0.493
741.000	444.076	80.000	19.998	101.000	19.756	23.981	0.522
741.500	444.306	79.999	19.996	101.005	19.753	24.144	0.493
742.000	444.554	79.998	19.997	101.006	19.759	23.712	0.470
742.500	444.810	79.999	19.997	101.010	19.762	23.527	0.491
743.000	445.117	80.000	19.997	101.010	19.762	23.469	0.534
743.500	445.349	79.999	19.996	101.008	19.764	23.364	0.551
744.000	445.592	80.000	19.998	101.007	19.768	23.036	0.507
744.500	445.840	80.000	19.996	101.007	19.770	22.923	0.483
745.000	446.107	80.000	19.997	101.004	19.772	22.717	0.503
745.500	446.355	80.000	19.997	101.005	19.776	22.452	0.515
746.000	446.582	80.000	19.995	101.006	19.777	22.392	0.495
746.500	446.835	80.000	19.997	101.008	19.776	22.448	0.478
747.000	447.073	80.000	19.997	101.009	19.780	22.112	0.486
747.500	447.365	79.999	19.995	101.012	19.784	21.807	0.511
748.000	447.594	80.000	19.997	101.011	19.783	21.924	0.526
748.500	447.859	80.001	19.997	101.010	19.788	21.551	0.507
749.000	448.114	80.000	19.996	101.007	19.790	21.404	0.507
749.500	448.333	80.001	19.996	101.005	19.795	21.009	0.497
750.000	448.621	80.000	19.997	101.003	19.796	20.947	0.491
750.500	448.877	80.000	19.998	101.003	19.799	20.716	0.526
751.000	449.114	79.999	19.996	101.004	19.798	20.770	0.519
751.500	449.371	80.000	19.996	101.007	19.802	20.478	0.493
752.000	449.622	80.001	19.996	101.008	19.802	20.499	0.501
752.500	449.870	79.999	19.995	101.009	19.802	20.491	0.504
753.000	450.123	79.999	19.997	101.009	19.807	20.081	0.500
753.500	450.340	80.000	19.996	101.011	19.811	19.754	0.485
754.000	450.611	79.998	19.996	101.011	19.810	19.828	0.479
754.500	450.864	79.998	19.996	101.011	19.817	19.297	0.506
755.000	451.132	79.998	19.997	101.009	19.815	19.490	0.522
755.500	451.401	79.999	19.997	101.010	19.815	19.441	0.529
756.000	451.649	79.998	19.996	101.010	19.819	19.158	0.527
756.500	451.924	79.998	19.997	101.010	19.823	18.906	0.521
757.000	452.170	79.998	19.996	101.012	19.825	18.682	0.522
757.500	452.387	79.997	19.997	101.013	19.827	18.571	0.492
758.000	452.646	79.998	19.997	101.012	19.828	18.462	0.470
758.500	452.893	79.998	19.997	101.011	19.831	18.284	0.491
759.000	453.145	79.996	19.995	101.010	19.833	18.075	0.502
759.500	453.385	79.997	19.997	101.009	19.832	18.209	0.495
760.000	453.679	79.999	19.996	101.006	19.836	17.885	0.513
760.500	453.921	79.999	19.996	101.006	19.838	17.714	0.535
761.000	454.152	79.999	19.996	101.005	19.842	17.436	0.505
761.500	454.407	79.998	19.996	101.005	19.840	17.583	0.479
762.000	454.688	79.998	19.995	101.007	19.844	17.295	0.511
762.500	454.928	79.998	19.995	101.010	19.849	16.924	0.529
763.000	455.201	79.997	19.996	101.011	19.847	17.068	0.517
763.500	455.446	79.999	19.996	101.012	19.851	16.780	0.515
764.000	455.694	79.998	19.997	101.011	19.853	16.611	0.505
764.500	455.991	79.998	19.996	101.007	19.856	16.348	0.519
765.000	456.213	79.998	19.997	101.007	19.859	16.123	0.532
765.500	456.453	79.998	19.996	101.006	19.859	16.160	0.490
766.000	456.722	79.997	19.995	101.005	19.860	16.030	0.485
766.500	456.957	79.999	19.996	101.007	19.864	15.760	0.506
767.000	457.216	79.998	19.997	101.010	19.870	15.274	0.499
767.500	457.485	79.999	19.996	101.011	19.872	15.190	0.512
768.000	457.724	79.998	19.997	101.011	19.870	15.328	0.518
768.500	457.956	80.000	19.996	101.012	19.875	14.909	0.489
769.000	458.236	79.998	19.996	101.012	19.875	14.930	0.492
769.500	458.480	80.000	19.996	101.009	19.880	14.558	0.518
770.000	458.724	79.999	19.995	101.006	19.884	14.214	0.506
770.500	459.002	79.998	19.996	101.005	19.885	14.144	0.505
771.000	459.257	79.999	19.996	101.003	19.887	14.039	0.528
771.500	459.489	79.998	19.996	101.002	19.889	13.884	0.510
772.000	459.741	79.998	19.995	101.003	19.893	13.559	0.485
772.500	460.006	79.999	19.996	101.006	19.892	13.631	0.501
773.000	460.258	79.997	19.996	101.006	19.896	13.354	0.517
773.500	460.516	80.000	19.995	101.007	19.893	13.533	0.513
774.000	460.739	80.000	19.996	101.008	19.893	13.597	0.495
774.500	461.005	79.999	19.995	101.009	19.900	13.001	0.485
775.000	461.248	79.999	19.996	101.009	19.902	12.865	0.499
775.500	461.499	79.998	19.996	101.009	19.901	12.955	0.501
776.000	461.773	79.999	19.996	101.007	19.905	12.640	0.510
776.500	462.031	79.998	19.996	101.008	19.905	12.694	0.529
777.000	462.300	79.999	19.995	101.008	19.908	12.467	0.530
777.500	462.516	80.000	19.996	101.008	19.906	12.576	0.506
778.000	462.769	79.998	19.996	101.007	19.910	12.277	0.477
778.500	463.024	79.999	19.996	101.007	19.912	12.141	0.488
779.000	463.279	79.999	19.997	101.006	19.916	11.853	0.509
779.500	463.499	79.999	19.995	101.006	19.917	11.737	0.493
780.000	463.790	80.000	19.996	101.007	19.919	11.606	0.493
780.500	464.004	80.000	19.996	101.009	19.921	11.464	0.508
781.000	464.293	80.000	19.996	101.012	19.924	11.184	0.504
781.500	464.530	79.998	19.996	101.012	19.925	11.108	0.514
782.000	464.770	80.000	19.997	101.012	19.929	10.815	0.502
782.500	465.037	79.999	19.996	101.011	19.926	11.060	0.493
783.000	465.298	79.999	19.996	101.011	19.931	10.724	0.518
783.500	465.567	79.999	19.996	101.010	19.932	10.619	0.529
784.000	465.803	79.999	19.996	101.005	19.935	10.387	0.517
784.500	466.025	79.999	19.996	101.003	19.937	10.251	0.481
785.000	466.309	79.998	19.995	101.001	19.937	10.205	0.482
785.501	466.550	79.998	19.996	101.001	19.937	10.265	0.515
786.001	466.797	79.999	19.995	101.002	19.939	10.082	0.506
786.501	467.065	79.999	19.996	101.007	19.942	9.857	0.501
787.001	467.311	79.998	19.994	101.009	19.943	9.808	0.515
787.500	467.561	79.998	19.996	101.011	19.945	9.629	0.505
788.000	467.830	79.998	19.996	101.011	19.949	9.342	0.508
788.500	468.048	79.999	19.996	101.011	19.948	9.439	0.503
789.000	468.344	79.998	19.996	101.011	19.952	9.070	0.500
789.500	468.540	79.999	19.996	101.010	19.954	8.980	0.503
790.000	468.799	79.999	19.996	101.008	19.957	8.703	0.473
790.500	469.055	79.999	19.997	101.009	19.956	8.798	0.485
791.000	469.318	79.998	19.996	101.009	19.959	8.573	0.518
791.501	469.562	79.998	19.996	101.010	19.962	8.341	0.513
792.001	469.810	79.999	19.995	101.011	19.962	8.371	0.499
792.500	470.093	79.998	19.996	101.013	19.963	8.248	0.511
793.000	470.323	80.000	19.995	101.014	19.966	8.040	0.522
793.500	470.559	79.998	19.996	101.013	19.964	8.211	0.490
794.000	470.826	79.998	19.995	101.013	19.965	8.127	0.485
794.500	471.105	80.000	19.996	101.013	19.966	8.057	0.525
795.000	471.317	79.998	19.995	101.013	19.972	7.616	0.518
795.500	471.580	79.999	19.997	101.014	19.971	7.663	0.483
796.000	471.847	79.999	19.996	101.014	19.971	7.678	0.502
796.500	472.118	80.000	19.995	101.014	19.974	7.435	0.534
797.000	472.347	80.000	19.997	101.013	19.979	7.029	0.519
797.500	472.576	79.998	19.995	101.014	19.976	7.263	0.479
798.000	472.843	79.999	19.997	101.015	19.976	7.298	0.477
798.500	473.115	79.998	19.996	101.014	19.980	6.956	0.517
799.000	473.354	80.000	19.995	101.014	19.981	6.934	0.525
799.500	473.598	80.000	19.996	101.015	19.979	7.039	0.497
800.000	473.859	80.000	19.996	101.015	19.980	6.967	0.494
800.500	474.140	79.999	19.995	101.014	19.978	7.103	0.523
801.000	474.391	80.001	19.996	101.012	19.985	6.600	0.537
801.500	474.656	80.000	19.996	101.012	19.987	6.483	0.524
802.000	474.899	80.001	19.995	101.010	19.987	6.460	0.512
802.500	475.169	79.999	19.996	101.008	19.985	6.578	0.510
803.000	475.480	80.000	19.997	101.008	19.984	6.687	0.547
803.500	475.716	80.001	19.996	101.009	19.990	6.254	0.564
804.000	475.958	80.000	19.997	101.009	19.986	6.497	0.513
804.500	476.222	80.000	19.996	101.011	19.988	6.409	0.492
805.000	476.490	80.001	19.996	101.012	19.992	6.087	0.519
805.500	476.705	79.999	19.997	101.012	19.994	5.947	0.507
806.001	476.977	79.999	19.996	101.013	19.995	5.869	0.485
806.501	477.194	79.999	19.996	101.012	19.992	6.102	0.488
807.001	477.478	79.998	19.997	101.012	19.996	5.797	0.495
807.501	477.719	79.999	19.996	101.012	19.996	5.737	0.513
808.001	477.999	79.998	19.996	101.012	19.997	5.663	0.523
808.501	478.237	79.999	19.996	101.009	19.997	5.667	0.520
809.001	478.491	79.998	19.997	101.009	19.999	5.547	0.505
809.501	478.719	80.000	19.997	101.009	19.999	5.554	0.487
810.001	478.991	79.997	19.996	101.009	20.002	5.308	0.491
810.500	479.260	80.000	19.997	101.009	20.001	5.376	0.520
811.000	479.507	79.999	19.995	101.011	20.002	5.274	0.528
811.500	479.769	79.999	19.997	101.012	20.001	5.379	0.513
812.000	480.020	79.999	19.995	101.012	20.003	5.197	0.511
812.500	480.305	79.997	19.995	101.013	20.002	5.274	0.525
813.000	480.551	80.000	19.996	101.014	20.008	4.892	0.534
813.500	480.807	79.998	19.996	101.014	20.003	5.265	0.517
814.000	481.066	79.999	19.996	101.015	20.004	5.172	0.509
814.500	481.315	79.999	19.995	101.015	20.001	5.364	0.512
815.000	481.565	79.999	19.996	101.015	20.003	5.259	0.504
815.500	481.813	80.000	19.996	101.013	20.005	5.057	0.499
816.000	482.039	79.999	19.995	101.012	20.004	5.121	0.486
816.500	482.284	79.998	19.996	101.011	20.008	4.832	0.473
817.000	482.575	79.998	19.996	101.011	20.009	4.804	0.503
817.500	482.822	79.999	19.996	101.011	20.008	4.818	0.536
818.001	483.068	80.000	19.997	101.013	20.012	4.536	0.515
818.500	483.330	80.000	19.997	101.013	20.008	4.888	0.501
819.000	483.609	79.998	19.997	101.012	20.009	4.806	0.525
819.501	483.874	79.999	19.996	101.009	20.011	4.651	0.542
820.001	484.137	79.999	19.996	101.008	20.010	4.738	0.536
820.501	484.353	79.999	19.996	101.008	20.011	4.657	0.503
821.000	484.605	80.000	19.997	101.008	20.008	4.820	0.473
821.500	484.901	80.002	19.996	101.008	20.012	4.583	0.508
822.000	485.132	80.001	19.996	101.011	20.011	4.626	0.538
822.500	485.410	80.000	19.996	101.012	20.011	4.622	0.518
823.000	485.660	80.001	19.997	101.011	20.011	4.604	0.518
823.500	485.909	80.001	19.996	101.011	20.013	4.447	0.514
824.000	486.196	80.000	19.996	101.011	20.012	4.561	0.517
824.500	486.440	80.001	19.996	101.010	20.011	4.608	0.533
825.000	486.709	80.002	19.997	101.009	20.015	4.318	0.522
825.500	486.929	80.001	19.996	101.007	20.012	4.542	0.501
826.000	487.196	80.000	19.995	101.006	20.013	4.487	0.488
826.500	487.460	80.003	19.995	101.006	20.013	4.462	0.509
827.000	487.717	80.003	19.996	101.005	20.016	4.246	0.527
827.500	487.974	80.001	19.996	101.006	20.015	4.305	0.518
828.000	488.216	80.002	19.997	101.007	20.015	4.338	0.506
828.500	488.450	80.001	19.996	101.008	20.017	4.178	0.488
829.000	488.738	80.002	19.996	101.008	20.018	4.120	0.499
829.500	488.968	80.001	19.997	101.008	20.018	4.128	0.519
830.000	489.218	80.001	19.996	101.008	20.017	4.147	0.498
830.500	489.493	80.002	19.996	101.008	20.015	4.326	0.503
831.000	489.746	80.001	19.997	101.008	20.015	4.340	0.527
831.500	490.039	80.001	19.996	101.007	20.015	4.357	0.537
832.000	490.310	80.002	19.997	101.008	20.014	4.365	0.555
832.500	490.544	80.002	19.997	101.007	20.019	4.060	0.535
833.000	490.776	80.002	19.997	101.006	20.019	4.054	0.485
833.500	491.024	80.001	19.996	101.006	20.018	4.120	0.473
834.000	491.315	80.000	19.997	101.006	20.018	4.087	0.510
834.500	491.574	80.000	19.997	101.006	20.018	4.081	0.545
835.000	491.813	79.998	19.996	101.006	20.019	4.007	0.524
835.500	492.058	80.000	19.997	101.007	20.017	4.175	0.491
836.000	492.299	79.999	19.997	101.008	20.018	4.095	0.485
836.500	492.557	79.999	19.998	101.008	20.017	4.181	0.492
837.000	492.808	80.000	19.997	101.009	20.017	4.173	0.504
837.500	493.079	79.999	19.996	101.010	20.020	3.953	0.516
838.000	493.332	79.999	19.997	101.010	20.019	4.008	0.523
838.500	493.591	79.998	19.997	101.010	20.020	3.911	0.518
839.000	493.887	79.999	19.997	101.009	20.024	3.681	0.533
839.500	494.117	79.997	19.997	101.010	20.021	3.887	0.540
840.000	494.373	79.998	19.998	101.009	20.022	3.769	0.506
840.500	494.643	80.000	19.997	101.010	20.020	3.959	0.506
841.000	494.888	79.999	19.997	101.009	20.018	4.103	0.520
841.500	495.161	80.000	19.996	101.007	20.017	4.202	0.516
842.000	495.425	79.998	19.997	101.006	20.017	4.145	0.528
842.500	495.662	79.998	19.996	101.005	20.017	4.136	0.519
843.000	495.894	79.999	19.997	101.004	20.018	4.107	0.485
843.500	496.183	79.998	19.996	101.005	20.018	4.077	0.495
844.000	496.451	79.998	19.996	101.007	20.020	3.932	0.539
844.500	496.672	79.999	19.997	101.006	20.019	4.006	0.523
845.000	496.928	79.999	19.997	101.007	20.020	3.942	0.483
845.500	497.208	79.999	19.996	101.007	20.017	4.138	0.507
846.000	497.435	79.999	19.996	101.007	20.019	3.996	0.522
846.500	497.717	79.999	19.998	101.005	20.017	4.188	0.508
847.000	497.962	79.999	19.996	101.006	20.019	4.004	0.518
847.500	498.234	80.000	19.996	101.005	20.018	4.083	0.522
848.000	498.472	79.999	19.997	101.005	20.019	4.054	0.513
848.500	498.708	80.000	19.997	101.004	20.020	3.949	0.492
849.000	498.991	79.999	19.996	101.002	20.018	4.130	0.496
849.501	499.223	79.999	19.996	100.997	20.018	4.089	0.517
850.000	499.462	79.999	19.996	100.998	20.021	3.871	0.493
850.500	499.721	79.999	19.996	100.998	20.022	3.761	0.485
851.000	500.000	79.998	19.996	100.999	20.021	3.856	0.518
851.500	500.259	79.999	19.996	101.004	20.022	3.780	0.538
852.000	500.536	79.998	19.996	101.007	20.022	3.807	0.537
852.500	500.765	79.998	19.996	101.008	20.022	3.819	0.521
853.000	501.045	79.998	19.996	101.009	20.015	4.303	0.508
853.500	501.295	79.999	19.995	101.006	20.017	4.165	0.519
854.000	501.530	80.000	19.996	101.004	20.021	3.908	0.507
854.500	501.749	80.000	19.995	101.007	20.021	3.848	0.469
855.000	502.021	79.999	19.996	101.003	20.021	3.897	0.472
855.500	502.254	79.999	19.995	101.001	20.022	3.770	0.499
856.000	502.529	79.998	19.996	101.002	20.020	3.970	0.507
856.500	502.764	79.998	19.995	101.002	20.018	4.077	0.509
857.000	503.030	80.000	19.995	101.002	20.017	4.175	0.505
857.500	503.274	80.000	19.995	101.006	20.018	4.089	0.505
858.000	503.539	79.999	19.995	101.008	20.019	4.023	0.509
858.500	503.774	79.999	19.996	101.010	20.016	4.241	0.505
859.000	504.063	79.999	19.995	101.012	20.017	4.169	0.512
859.500	504.271	79.999	19.995	101.012	20.021	3.906	0.511
860.000	504.527	79.999	19.997	101.012	20.017	4.192	0.480
860.500	504.759	80.000	19.996	101.011	20.020	3.953	0.475
861.000	505.028	79.999	19.996	101.009	20.018	4.122	0.494
861.500	505.269	80.001	19.996	101.009	20.017	4.207	0.506
862.000	505.510	79.999	19.995	101.009	20.018	4.102	0.496
862.500	505.789	80.000	19.996	101.010	20.016	4.260	0.501
863.000	506.030	79.999	19.995	101.011	20.018	4.110	0.520
863.500	506.276	79.998	19.996	101.012	20.019	4.048	0.503
864.000	506.542	79.998	19.996	101.012	20.021	3.898	0.500
864.500	506.819	79.998	19.997	101.012	20.017	4.153	0.527
865.000	507.042	79.997	19.996	101.011	20.019	4.013	0.521
865.500	507.334	79.998	19.996	101.011	20.016	4.256	0.507
866.000	507.558	79.997	19.997	101.009	20.018	4.120	0.515
866.500	507.837	79.998	19.996	101.010	20.020	3.982	0.509
867.000	508.053	79.998	19.996	101.010	20.018	4.104	0.499
867.500	508.322	79.997	19.996	101.010	20.017	4.207	0.490
868.000	508.558	79.999	19.996	101.009	20.016	4.244	0.495
868.500	508.850	79.997	19.995	101.011	20.018	4.102	0.517
869.000	509.119	79.999	19.995	101.010	20.019	4.042	0.545
869.500	509.330	79.997	19.996	101.009	20.017	4.165	0.520
870.000	509.597	79.998	19.995	101.010	20.023	3.743	0.479
870.500	509.857	79.998	19.996	101.012	20.021	3.850	0.502
871.000	510.097	79.999	19.996	101.013	20.018	4.095	0.514
871.500	510.367	79.998	19.996	101.014	20.018	4.112	0.505
872.000	510.599	79.998	19.996	101.014	20.020	3.949	0.506
872.500	510.861	79.997	19.997	101.014	20.018	4.077	0.498
873.000	511.110	79.999	19.998	101.014	20.020	3.922	0.502
873.500	511.338	79.998	19.998	101.014	20.019	4.007	0.494
874.000	511.615	79.998	19.997	101.014	20.017	4.157	0.491
874.500	511.837	79.998	19.997	101.015	20.019	4.017	0.502
875.000	512.114	79.999	19.997	101.016	20.022	3.805	0.499
875.500	512.363	79.998	19.996	101.016	20.021	3.875	0.513
876.000	512.615	79.999	19.996	101.016	20.021	3.885	0.514
876.500	512.849	79.998	19.995	101.016	20.018	4.097	0.493
877.000	513.090	79.999	19.995	101.015	20.018	4.108	0.480
877.500	513.369	79.998	19.996	101.013	20.021	3.850	0.497
878.000	513.648	79.999	19.995	101.013	20.019	4.058	0.539
878.500	513.897	80.000	19.995	101.013	20.018	4.101	0.543
879.000	514.170	80.000	19.996	101.013	20.019	4.038	0.525
879.500	514.401	80.000	19.997	101.014	20.020	3.976	0.513
880.001	514.647	80.000	19.995	101.015	20.017	4.143	0.491
880.501	514.899	80.000	19.996	101.015	20.017	4.204	0.487
881.000	515.193	80.000	19.995	101.015	20.015	4.340	0.522
881.500	515.427	79.999	19.995	101.015	20.018	4.103	0.538
882.000	515.711	80.000	19.995	101.015	20.016	4.233	0.523
882.500	515.984	80.001	19.995	101.014	20.015	4.355	0.537
883.000	516.249	80.000	19.996	101.013	20.016	4.279	0.547
883.500	516.497	80.000	19.996	101.012	20.018	4.087	0.526
884.000	516.744	80.002	19.996	101.012	20.018	4.075	0.504
884.500	517.027	80.001	19.996	101.012	20.020	3.910	0.513
885.000	517.266	80.001	19.994	101.012	20.019	4.021	0.526
885.500	517.548	80.000	19.996	101.013	20.019	4.040	0.521
886.000	517.785	80.001	19.996	101.013	20.015	4.357	0.520
886.500	518.034	80.000	19.996	101.013	20.019	4.027	0.502
887.000	518.295	80.001	19.996	101.013	20.017	4.173	0.498
887.500	518.544	80.001	19.996	101.013	20.015	4.326	0.510
888.000	518.815	80.001	19.995	101.012	20.015	4.307	0.515
888.500	519.093	80.001	19.995	101.012	20.019	4.023	0.535
889.000	519.312	80.001	19.995	101.011	20.020	3.970	0.523
889.500	519.591	80.000	19.996	101.011	20.017	4.163	0.498
890.000	519.848	80.001	19.995	101.010	20.019	3.986	0.517
890.500	520.094	80.001	19.996	101.010	20.020	3.932	0.519
891.000	520.396	80.002	19.996	101.009	20.017	4.192	0.525
891.500	520.602	80.001	19.996	101.010	20.021	3.860	0.528
892.000	520.900	80.001	19.996	101.010	20.018	4.097	0.506
892.500	521.117	80.001	19.995	101.010	20.017	4.180	0.510
893.001	521.372	80.001	19.996	101.010	20.016	4.254	0.494
893.500	521.624	80.000	19.995	101.011	20.018	4.132	0.489
894.000	521.906	80.001	19.996	101.011	20.014	4.375	0.520
894.500	522.161	80.000	19.996	101.010	20.016	4.250	0.536
895.000	522.432	80.001	19.996	101.010	20.017	4.182	0.532
895.500	522.683	79.999	19.996	101.009	20.015	4.305	0.524
896.000	522.930	80.001	19.996	101.009	20.015	4.342	0.510
896.500	523.196	80.000	19.997	101.009	20.014	4.429	0.506
897.000	523.452	80.000	19.996	101.010	20.013	4.472	0.518
897.500	523.730	80.000	19.996	101.010	20.015	4.359	0.528
898.000	523.961	80.000	19.996	101.010	20.016	4.278	0.521
898.500	524.255	80.000	19.996	101.010	20.013	4.443	0.517
899.000	524.518	80.000	19.996	101.010	20.013	4.491	0.541
899.500	524.763	79.999	19.997	101.010	20.011	4.666	0.532
900.000	524.980	79.999	19.996	101.011	20.011	4.647	0.485
900.500	525.292	80.000	19.997	101.010	20.012	4.522	0.496
901.000	525.488	80.000	19.996	101.010	20.016	4.245	0.519
901.500	525.768	80.000	19.997	101.010	20.013	4.474	0.492
902.000	526.034	80.001	19.996	101.010	20.013	4.443	0.511
902.500	526.318	80.000	19.996	101.009	20.016	4.268	0.548
903.000	526.565	80.000	19.996	101.009	20.018	4.114	0.540
903.500	526.812	80.000	19.997	101.010	20.015	4.338	0.512
904.000	527.065	80.000	19.997	101.009	20.017	4.211	0.498
904.500	527.374	80.001	19.997	101.010	20.016	4.229	0.531
905.000	527.613	80.000	19.996	101.010	20.015	4.303	0.555
905.500	527.872	80.001	19.996	101.010	20.016	4.283	0.523
906.000	528.143	80.001	19.996	101.010	20.013	4.482	0.514
906.500	528.404	80.002	19.996	101.010	20.016	4.276	0.531
907.000	528.647	80.002	19.997	101.008	20.009	4.748	0.518
907.500	528.898	80.002	19.996	101.007	20.013	4.487	0.499
908.000	529.147	80.002	19.996	101.005	20.010	4.705	0.497
908.500	529.426	80.003	19.996	101.004	20.013	4.468	0.514
909.000	529.672	80.001	19.997	101.004	20.013	4.489	0.527
909.500	529.899	80.001	19.996	101.006	20.010	4.697	0.499
910.000	530.133	80.001	19.995	101.006	20.010	4.732	0.467
910.500	530.406	80.002	19.995	101.008	20.006	4.983	0.484
911.000	530.694	80.001	19.995	101.009	20.007	4.952	0.534
911.500	530.943	80.001	19.995	101.009	20.009	4.773	0.549
912.000	531.215	80.002	19.996	101.008	20.007	4.967	0.529
912.500	531.481	80.003	19.995	101.008	20.007	4.895	0.530
913.000	531.689	80.003	19.997	101.008	20.008	4.851	0.506
913.500	531.985	80.002	19.995	101.008	20.009	4.748	0.489
914.000	532.243	80.001	19.996	101.008	20.006	5.043	0.529
914.500	532.516	80.001	19.994	101.009	20.005	5.055	0.542
915.000	532.785	80.001	19.997	101.009	20.006	4.979	0.536
915.500	533.047	80.001	19.997	101.009	20.003	5.202	0.537
916.000	533.269	80.000	19.996	101.009	20.003	5.232	0.508
916.500	533.581	80.000	19.997	101.009	20.004	5.127	0.509
917.000	533.821	80.000	19.995	101.009	20.005	5.047	0.543
917.500	534.128	80.000	19.996	101.009	20.004	5.129	0.549
918.001	534.349	80.000	19.997	101.009	20.005	5.076	0.538
918.501	534.616	80.001	19.996	101.009	20.004	5.146	0.508
919.000	534.888	79.999	19.996	101.009	20.003	5.206	0.513
919.500	535.171	79.999	19.997	101.009	20.004	5.140	0.547
920.000	535.374	79.998	19.996	101.007	20.007	4.940	0.521
920.500	535.643	79.999	19.996	101.007	20.003	5.216	0.479
921.000	535.904	79.999	19.997	101.007	20.002	5.307	0.501
921.500	536.184	79.999	19.996	101.008	20.000	5.480	0.535
922.000	536.443	79.999	19.996	101.008	20.001	5.395	0.540
922.500	536.672	79.997	19.997	101.010	20.003	5.238	0.514
923.000	536.931	79.998	19.998	101.011	20.002	5.337	0.488
923.500	537.169	79.998	19.996	101.011	19.999	5.523	0.492
924.000	537.406	79.998	19.998	101.011	19.998	5.651	0.486
924.500	537.673	79.997	19.996	101.012	19.996	5.739	0.490
925.000	537.899	79.997	19.997	101.012	19.995	5.875	0.499
925.500	538.185	80.000	19.996	101.012	19.998	5.589	0.502
926.000	538.430	79.997	19.997	101.012	19.996	5.785	0.522
926.500	538.712	79.999	19.996	101.013	19.996	5.795	0.530
927.000	538.984	79.998	19.998	101.013	19.996	5.764	0.541
927.500	539.225	79.998	19.997	101.013	19.996	5.764	0.533
928.000	539.488	79.998	19.997	101.013	19.995	5.803	0.508
928.500	539.721	79.997	19.996	101.013	19.991	6.149	0.500
929.000	540.020	79.998	19.997	101.012	19.992	6.058	0.514
929.500	540.274	79.999	19.997	101.012	19.990	6.194	0.542
930.000	540.513	79.999	19.997	101.012	19.991	6.147	0.523
930.500	540.738	79.999	19.996	101.012	19.990	6.256	0.479
931.000	541.004	79.998	19.996	101.012	19.989	6.262	0.477
931.500	541.265	79.998	19.996	101.011	19.989	6.267	0.509
932.000	541.557	79.999	19.997	101.011	19.990	6.240	0.540
932.500	541.780	79.998	19.996	101.011	19.989	6.314	0.535
933.000	542.025	79.998	19.997	101.010	19.988	6.355	0.492
933.500	542.305	79.999	19.997	101.011	19.987	6.446	0.496
934.000	542.587	80.000	19.997	101.011	19.988	6.374	0.543
934.500	542.793	79.999	19.996	101.011	19.988	6.407	0.525
935.000	543.076	79.999	19.996	101.012	19.989	6.314	0.489
935.500	543.315	79.999	19.996	101.012	19.986	6.522	0.505
936.000	543.589	79.997	19.996	101.012	19.986	6.506	0.517
936.500	543.801	79.999	19.996	101.012	19.988	6.396	0.500
937.000	544.097	80.000	19.995	101.013	19.987	6.444	0.497
937.500	544.342	79.999	19.995	101.013	19.985	6.582	0.525
938.000	544.575	79.999	19.996	101.013	19.983	6.782	0.510
938.500	544.796	79.998	19.995	101.013	19.982	6.825	0.466
939.000	545.098	79.999	19.995	101.013	19.981	6.936	0.488
939.500	545.341	79.999	19.996	101.013	19.981	6.891	0.534
940.000	545.589	79.999	19.996	101.012	19.982	6.825	0.518
940.500	545.835	79.999	19.996	101.012	19.982	6.823	0.492
941.000	546.094	79.998	19.995	101.013	19.982	6.852	0.499
941.500	546.383	80.000	19.995	101.013	19.979	7.072	0.527
942.001	546.643	80.000	19.996	101.014	19.981	6.928	0.549
942.500	546.863	80.000	19.997	101.014	19.980	6.961	0.514
943.000	547.106	79.999	19.996	101.014	19.980	7.006	0.471
943.500	547.396	79.998	19.995	101.014	19.978	7.163	0.497
944.000	547.659	79.998	19.995	101.015	19.980	6.963	0.543
944.500	547.893	79.998	19.995	101.014	19.978	7.144	0.525
945.000	548.136	79.999	19.995	101.014	19.978	7.163	0.487
945.500	548.430	80.000	19.997	101.015	19.978	7.157	0.507
946.000	548.657	79.999	19.995	101.015	19.975	7.348	0.529
946.500	548.938	79.999	19.996	101.015	19.976	7.266	0.515
947.000	549.188	79.999	19.996	101.015	19.975	7.345	0.519
947.500	549.455	79.998	19.997	101.014	19.973	7.543	0.524
948.000	549.688	79.999	19.996	101.016	19.976	7.310	0.509
948.500	549.963	80.000	19.996	101.016	19.972	7.608	0.504
949.000	550.259	80.000	19.995	101.016	19.973	7.534	0.540
949.500	550.480	79.999	19.996	101.016	19.973	7.509	0.544
950.000	550.731	79.999	19.996	101.016	19.971	7.632	0.494
950.500	551.012	79.999	19.995	101.014	19.972	7.575	0.502
951.000	551.244	80.000	19.996	101.014	19.971	7.688	0.523
951.500	551.471	79.999	19.996	101.014	19.971	7.630	0.487
952.000	551.728	79.999	19.996	101.013	19.971	7.663	0.472
952.500	552.001	79.999	19.996	101.013	19.972	7.546	0.507
953.000	552.245	79.999	19.996	101.013	19.971	7.692	0.523
953.500	552.503	79.997	19.996	101.013	19.966	8.005	0.510
954.000	552.768	79.999	19.996	101.013	19.969	7.824	0.513
954.500	553.051	79.998	19.996	101.012	19.965	8.115	0.535
955.000	553.271	79.999	19.997	101.012	19.970	7.766	0.525
955.500	553.545	79.999	19.996	101.012	19.966	8.044	0.498
956.000	553.817	79.998	19.997	101.012	19.965	8.082	0.520
956.500	554.086	80.000	19.996	101.014	19.966	8.006	0.544
957.000	554.316	79.999	19.996	101.017	19.965	8.117	0.520
957.500	554.592	79.998	19.996	101.019	19.964	8.220	0.503
958.000	554.875	79.999	19.996	101.024	19.963	8.260	0.532
958.500	555.077	79.999	19.996	101.025	19.964	8.227	0.522
959.000	555.379	80.000	19.996	101.023	19.961	8.430	0.495
959.500	555.664	79.999	19.996	101.020	19.964	8.187	0.545
960.000	555.896	80.001	19.996	101.017	19.964	8.194	0.552
960.500	556.153	80.001	19.997	101.013	19.966	8.045	0.503
961.000	556.385	80.000	19.996	101.011	19.964	8.164	0.489
961.500	556.633	79.999	19.996	101.011	19.961	8.405	0.485
962.000	556.869	79.999	19.997	101.011	19.958	8.613	0.483
962.500	557.125	80.000	19.996	101.012	19.963	8.265	0.488
963.000	557.396	80.000	19.995	101.013	19.959	8.545	0.509
963.500	557.644	80.001	19.996	101.013	19.958	8.609	0.523
964.000	557.930	80.000	19.996	101.014	19.954	8.985	0.527
964.500	558.189	80.000	19.996	101.015	19.953	8.996	0.540
965.000	558.433	80.001	19.995	101.014	19.950	9.225	0.524
965.500	558.710	80.001	19.996	101.015	19.955	8.852	0.511
966.000	558.954	80.001	19.996	101.016	19.956	8.790	0.521
966.500	559.203	80.001	19.995	101.015	19.954	8.978	0.507
967.000	559.488	80.001	19.996	101.019	19.954	8.954	0.514
967.500	559.703	80.001	19.996	101.022	19.957	8.748	0.518
968.000	560.020	80.003	19.995	101.021	19.951	9.187	0.516
968.500	560.212	80.001	19.995	101.020	19.951	9.166	0.521
969.000	560.511	80.002	19.996	101.024	19.949	9.292	0.500
969.500	560.770	80.002	19.995	101.024	19.952	9.113	0.524
970.000	561.003	80.003	19.996	101.023	19.949	9.313	0.524
970.500	561.266	80.001	19.996	101.025	19.948	9.373	0.493
971.000	561.523	80.001	19.995	101.025	19.946	9.517	0.508
971.500	561.743	80.002	19.995	101.020	19.947	9.506	0.499
972.000	562.022	80.002	19.995	101.015	19.949	9.336	0.488
972.500	562.303	79.999	19.996	101.013	19.945	9.624	0.530
973.000	562.540	80.002	19.995	101.012	19.945	9.624	0.539
973.500	562.805	80.002	19.995	101.013	19.945	9.645	0.510
974.000	563.113	80.001	19.996	101.014	19.946	9.558	0.537
974.501	563.342	80.001	19.996	101.018	19.947	9.512	0.555
975.000	563.608	80.001	19.996	101.024	19.946	9.533	0.516
975.500	563.834	80.002	19.995	101.031	19.943	9.744	0.493
976.000	564.116	80.001	19.996	101.037	19.945	9.641	0.500
976.500	564.367	80.002	19.996	101.043	19.944	9.738	0.520
977.000	564.607	80.002	19.996	101.040	19.945	9.645	0.512
977.500	564.840	80.002	19.995	101.036	19.941	9.925	0.482
978.000	565.127	80.003	19.994	101.031	19.943	9.787	0.496
978.500	565.354	80.001	19.995	101.027	19.945	9.625	0.517
979.000	565.612	80.002	19.996	101.023	19.943	9.781	0.499
979.500	565.863	80.000	19.995	101.025	19.945	9.652	0.497
980.000	566.159	80.000	19.996	101.029	19.941	9.916	0.528
980.500	566.390	80.001	19.996	101.029	19.943	9.749	0.537
981.000	566.679	80.001	19.996	101.031	19.944	9.691	0.523
981.500	566.901	80.001	19.996	101.032	19.942	9.883	0.516
982.000	567.171	80.001	19.995	101.033	19.938	10.141	0.502
982.500	567.414	80.001	19.995	101.029	19.940	10.040	0.503
983.000	567.690	80.000	19.995	101.031	19.943	9.754	0.516
983.500	567.929	80.000	19.995	101.033	19.939	10.076	0.517
984.000	568.194	80.001	19.995	101.035	19.940	9.979	0.510
984.500	568.424	80.002	19.997	101.032	19.939	10.117	0.499
985.000	568.731	80.001	19.996	101.032	19.940	9.977	0.516
985.500	568.970	80.001	19.996	101.028	19.939	10.051	0.541
986.000	569.201	80.000	19.996	101.022	19.938	10.195	0.508
986.500	569.496	80.001	19.996	101.018	19.939	10.115	0.498
987.000	569.714	80.001	19.995	101.017	19.938	10.158	0.519
987.500	569.991	80.001	19.995	101.016	19.942	9.874	0.504
988.000	570.237	80.002	19.995	101.016	19.936	10.347	0.509
988.500	570.503	80.001	19.996	101.016	19.938	10.193	0.518
989.000	570.759	80.001	19.996	101.016	19.936	10.285	0.517
989.500	570.992	80.002	19.995	101.017	19.937	10.253	0.505
990.000	571.253	80.002	19.996	101.018	19.938	10.183	0.491
990.500	571.512	80.000	19.996	101.019	19.939	10.090	0.507
991.000	571.735	80.001	19.996	101.020	19.940	9.998	0.501
991.500	572.015	80.002	19.996	101.025	19.940	9.990	0.492
992.000	572.230	80.001	19.996	101.025	19.938	10.128	0.499
992.500	572.516	80.002	19.995	101.027	19.939	10.061	0.498
993.000	572.768	80.001	19.997	101.027	19.940	9.977	0.519
993.500	573.006	80.002	19.998	101.031	19.940	10.036	0.514
994.000	573.276	80.002	19.996	101.031	19.943	9.809	0.499
994.500	573.528	80.000	19.996	101.035	19.941	9.933	0.515
995.000	573.821	80.001	19.997	101.035	19.939	10.052	0.533
995.500	574.049	80.002	19.996	101.038	19.944	9.735	0.533
996.000	574.341	80.001	19.996	101.040	19.940	10.036	0.521
996.500	574.600	80.003	19.996	101.037	19.937	10.211	0.536
997.000	574.856	80.002	19.996	101.037	19.939	10.104	0.533
997.500	575.096	80.002	19.995	101.039	19.938	10.163	0.505
998.000	575.394	80.001	19.995	101.039	19.941	9.951	0.517
998.500	575.638	80.002	19.996	101.035	19.939	10.062	0.540
999.000	575.899	80.000	19.996	101.033	19.942	9.850	0.524
999.500	576.107	80.002	19.995	101.031	19.940	9.978	0.487
1000.000	576.414	80.001	19.996	101.031	19.942	9.862	0.492
1000.500	576.652	79.999	19.996	101.032	19.942	9.866	0.530
1001.000	576.895	79.998	19.995	101.034	19.940	10.019	0.513
1001.500	577.121	79.999	19.995	101.036	19.945	9.654	0.476
1002.000	577.375	79.998	19.996	101.041	19.942	9.889	0.475
1002.500	577.639	79.998	19.996	101.042	19.941	9.946	0.499
1003.000	577.895	79.999	19.995	101.038	19.943	9.779	0.518
1003.500	578.116	79.999	19.996	101.035	19.945	9.600	0.498
1004.000	578.423	79.999	19.996	101.034	19.942	9.857	0.503
1004.500	578.611	79.998	19.996	101.030	19.944	9.723	0.512
1005.000	578.902	80.000	19.996	101.029	19.944	9.682	0.487
1005.500	579.171	79.999	19.996	101.030	19.944	9.734	0.519
1006.000	579.413	79.998	19.995	101.030	19.946	9.522	0.535
1006.500	579.694	79.998	19.995	101.030	19.946	9.532	0.517
1007.000	579.922	79.998	19.995	101.028	19.946	9.571	0.516
1007.500	580.228	79.999	19.996	101.028	19.945	9.662	0.521
1008.000	580.422	79.998	19.997	101.026	19.943	9.779	0.517
1008.500	580.687	79.998	19.995	101.027	19.944	9.688	0.479
1009.000	580.951	79.997	19.995	101.026	19.948	9.427	0.494
1009.500	581.194	80.000	19.995	101.025	19.947	9.472	0.518
1010.000	581.439	79.998	19.996	101.023	19.949	9.357	0.498
1010.500	581.693	79.998	19.996	101.022	19.947	9.453	0.494
1011.000	581.934	79.998	19.996	101.023	19.949	9.340	0.498
1011.500	582.187	80.000	19.996	101.024	19.950	9.264	0.494
1012.001	582.455	79.999	19.996	101.024	19.947	9.447	0.507
1012.500	582.695	79.998	19.995	101.023	19.951	9.190	0.515
1013.000	582.966	79.999	19.997	101.022	19.952	9.122	0.510
1013.500	583.197	79.998	19.996	101.019	19.950	9.266	0.506
1014.000	583.474	79.999	19.996	101.016	19.952	9.130	0.505
1014.500	583.735	79.999	19.996	101.015	19.953	9.006	0.523
1015.000	583.963	80.000	19.995	101.016	19.953	9.012	0.513
1015.500	584.197	79.998	19.995	101.015	19.958	8.633	0.476
1016.000	584.457	79.998	19.997	101.015	19.955	8.852	0.478
1016.500	584.720	79.999	19.996	101.016	19.957	8.738	0.509
1017.000	584.963	79.997	19.997	101.017	19.959	8.569	0.514
1017.500	585.230	79.998	19.997	101.017	19.958	8.646	0.508
1018.000	585.484	79.999	19.996	101.018	19.960	8.477	0.515
1018.500	585.744	79.999	19.997	101.017	19.963	8.269	0.518
1019.000	585.958	79.998	19.996	101.016	19.960	8.479	0.494
1019.500	586.192	79.997	19.996	101.014	19.962	8.328	0.461
1020.000	586.463	79.998	19.997	101.012	19.964	8.209	0.476
1020.500	586.713	79.998	19.996	101.011	19.964	8.184	0.513
1021.000	586.972	79.999	19.996	101.012	19.966	8.069	0.515
1021.500	587.213	79.998	19.997	101.012	19.968	7.894	0.505
1022.000	587.439	79.997	19.996	101.012	19.968	7.859	0.484
1022.500	587.706	79.999	19.996	101.013	19.970	7.739	0.480
1023.000	587.984	79.999	19.996	101.013	19.970	7.762	0.519
1023.500	588.202	79.999	19.996	101.013	19.972	7.558	0.520
1024.000	588.442	80.000	19.996	101.013	19.971	7.645	0.477
1024.500	588.690	79.998	19.996	101.013	19.972	7.558	0.473
1025.000	588.938	79.998	19.996	101.013	19.971	7.622	0.492
1025.500	589.187	79.998	19.996	101.013	19.977	7.216	0.497
1026.000	589.442	80.000	19.996	101.011	19.978	7.144	0.500
1026.500	589.655	79.998	19.997	101.011	19.976	7.259	0.486
1027.000	589.927	80.000	19.997	101.011	19.978	7.142	0.477
1027.500	590.127	79.999	19.996	101.010	19.979	7.082	0.478
1028.000	590.439	79.998	19.997	101.009	19.983	6.744	0.492
1028.500	590.606	80.000	19.996	101.009	19.979	7.049	0.495
1029.000	590.959	80.000	19.996	101.009	19.987	6.460	0.500
1029.500	591.206	79.999	19.996	101.009	19.984	6.637	0.561
1030.000	591.458	79.999	19.996	101.009	19.985	6.629	0.550
1030.500	591.672	79.998	19.995	101.010	19.984	6.658	0.482
1031.000	591.946	80.000	19.996	101.010	19.990	6.231	0.477
1031.501	592.142	80.000	19.996	101.010	19.989	6.295	0.479
1032.001	592.416	79.999	19.995	101.010	19.995	5.832	0.470
1032.500	592.630	79.998	19.996	101.011	19.993	5.970	0.479
1033.000	592.911	79.999	19.995	101.011	19.998	5.628	0.492
1033.500	593.162	79.998	19.996	101.011	19.999	5.529	0.513
1034.000	593.410	79.998	19.995	101.011	19.999	5.574	0.515
1034.500	593.640	79.998	19.996	101.011	20.000	5.430	0.488
1035.000	593.861	79.999	19.995	101.011	20.001	5.379	0.464
1035.500	594.139	79.999	19.996	101.011	20.002	5.313	0.475
1036.000	594.375	79.999	19.996	101.011	20.003	5.214	0.507
1036.501	594.651	79.998	19.995	101.012	20.003	5.214	0.513
1037.001	594.896	79.999	19.995	101.012	20.003	5.222	0.516
1037.500	595.152	79.997	19.996	101.012	20.004	5.178	0.511
1038.000	595.398	79.998	19.995	101.012	20.004	5.129	0.501
1038.500	595.629	79.998	19.996	101.012	20.007	4.919	0.490
1039.000	595.859	80.000	19.995	101.012	20.013	4.441	0.469
1039.500	596.154	79.998	19.996	101.012	20.010	4.682	0.493
1040.001	596.369	80.000	19.995	101.011	20.014	4.429	0.517
1040.501	596.611	80.000	19.996	101.012	20.016	4.270	0.484
1041.001	596.880	79.999	19.996	101.011	20.017	4.157	0.484
1041.501	597.117	79.999	19.994	101.012	20.013	4.503	0.508
1042.001	597.351	79.999	19.996	101.011	20.014	4.394	0.488
1042.500	597.587	79.999	19.994	101.012	20.016	4.266	0.471
1043.000	597.841	79.999	19.996	101.012	20.020	3.949	0.480
1043.500	598.091	79.998	19.994	101.012	20.022	3.766	0.497
1044.000	598.328	79.999	19.995	101.011	20.023	3.749	0.496
1044.500	598.583	79.999	19.997	101.011	20.023	3.733	0.490
1045.000	598.814	80.000	19.996	101.011	20.021	3.848	0.489
1045.500	599.059	79.999	19.996	101.011	20.025	3.572	0.481
1046.000	599.335	79.999	19.996	101.011	20.024	3.646	0.498
1046.500	599.581	79.999	19.995	101.009	20.024	3.663	0.521
1047.000	599.822	79.999	19.996	101.007	20.024	3.650	0.505
1047.500	600.073	80.001	19.995	101.006	20.028	3.348	0.490
1048.000	600.319	80.001	19.996	101.004	20.024	3.655	0.495
1048.500	600.581	80.000	19.996	101.003	20.024	3.649	0.503
1049.000	600.830	80.000	19.995	101.005	20.030	3.169	0.509
1049.500	601.034	80.000	19.994	101.007	20.028	3.323	0.482
1050.000	601.327	80.001	19.996	101.007	20.030	3.189	0.475
1050.500	601.561	80.001	19.996	101.009	20.025	3.562	0.512
1051.001	601.811	80.000	19.995	101.009	20.027	3.438	0.505
1051.501	602.045	79.999	19.994	101.009	20.029	3.290	0.484
1052.001	602.282	80.001	19.996	101.010	20.030	3.199	0.477
1052.500	602.509	80.000	19.995	101.010	20.031	3.137	0.467
1053.000	602.804	79.999	19.996	101.011	20.029	3.300	0.493
1053.500	603.023	79.998	19.996	101.013	20.030	3.226	0.518
1054.000	603.312	80.000	19.995	101.013	20.030	3.179	0.511
1054.500	603.543	80.001	19.995	101.013	20.032	3.016	0.514
1055.000	603.785	80.000	19.995	101.014	20.033	2.971	0.497
1055.500	604.030	80.000	19.996	101.014	20.032	3.038	0.480
1056.001	604.266	80.001	19.995	101.014	20.031	3.096	0.484
1056.501	604.553	80.000	19.995	101.013	20.030	3.203	0.502
1057.000	604.801	80.000	19.995	101.012	20.028	3.308	0.529
1057.501	605.034	80.002	19.994	101.012	20.033	2.940	0.508
1058.001	605.316	80.000	19.995	101.012	20.034	2.878	0.498
1058.500	605.588	80.001	19.995	101.013	20.032	3.049	0.535
1059.000	605.804	80.000	19.995	101.016	20.032	3.039	0.521
1059.500	606.089	79.999	19.994	101.020	20.032	3.047	0.494
1060.000	606.319	80.000	19.995	101.020	20.032	3.049	0.508
1060.501	606.595	79.999	19.995	101.021	20.033	2.960	0.510
1061.001	606.806	80.000	19.996	101.019	20.033	2.931	0.497
1061.500	607.043	80.000	19.995	101.017	20.031	3.115	0.468
1062.000	607.306	79.999	19.995	101.013	20.031	3.086	0.474
1062.500	607.584	80.001	19.995	101.013	20.028	3.313	0.520
1063.000	607.850	79.999	19.996	101.013	20.029	3.253	0.542
1063.500	608.103	80.000	19.995	101.014	20.029	3.261	0.532
1064.000	608.349	80.000	19.995	101.014	20.034	2.878	0.509
1064.500	608.578	79.999	19.996	101.014	20.030	3.212	0.487
1065.001	608.874	79.999	19.995	101.014	20.031	3.109	0.499
1065.501	609.129	80.000	19.995	101.014	20.033	2.962	0.538
1066.000	609.399	80.001	19.995	101.012	20.033	2.942	0.539
1066.500	609.677	80.000	19.995	101.011	20.034	2.870	0.536
1067.001	609.890	80.000	19.996	101.011	20.033	2.975	0.519
1067.501	610.160	80.000	19.996	101.011	20.034	2.874	0.487
1068.001	610.395	80.000	19.995	101.012	20.033	2.925	0.494
1068.501	610.667	80.000	19.995	101.013	20.035	2.777	0.506
1069.001	610.928	80.000	19.995	101.014	20.035	2.800	0.520
1069.501	611.174	80.001	19.995	101.014	20.033	2.967	0.520
1070.001	611.444	80.000	19.995	101.014	20.033	2.940	0.511
1070.501	611.673	80.000	19.996	101.014	20.032	3.016	0.507
1071.000	611.943	80.000	19.996	101.014	20.036	2.758	0.499
1071.500	612.198	80.000	19.995	101.014	20.032	3.020	0.512
1072.000	612.457	80.001	19.994	101.014	20.031	3.125	0.520
1072.500	612.704	80.000	19.995	101.014	20.032	3.039	0.510
1073.000	612.943	79.999	19.994	101.015	20.033	2.960	0.496
1073.500	613.221	80.000	19.994	101.015	20.034	2.903	0.501
1074.000	613.490	80.001	19.994	101.015	20.031	3.142	0.532
1074.500	613.758	80.000	19.996	101.014	20.031	3.105	0.542
1075.000	613.988	80.000	19.995	101.015	20.033	2.932	0.518
1075.500	614.267	80.002	19.995	101.015	20.030	3.160	0.504
1076.000	614.564	80.001	19.995	101.014	20.035	2.839	0.542
1076.500	614.776	80.001	19.995	101.014	20.033	2.981	0.542
1077.001	615.058	80.001	19.995	101.014	20.031	3.113	0.502
1077.501	615.291	80.001	19.994	101.014	20.032	3.006	0.505
1078.001	615.535	80.002	19.995	101.015	20.031	3.142	0.496
1078.501	615.813	80.002	19.996	101.016	20.030	3.189	0.500
1079.001	616.071	80.001	19.995	101.016	20.034	2.909	0.529
1079.500	616.357	80.001	19.996	101.016	20.032	3.045	0.540
1080.000	616.609	80.000	19.995	101.018	20.030	3.193	0.541
1080.500	616.850	80.001	19.995	101.016	20.034	2.878	0.515
1081.000	617.110	80.000	19.996	101.016	20.033	2.950	0.496
1081.500	617.373	80.000	19.996	101.018	20.032	3.043	0.512
1082.001	617.661	80.000	19.995	101.017	20.031	3.144	0.537
1082.501	617.896	79.999	19.996	101.015	20.033	2.982	0.537
1083.000	618.169	79.998	19.996	101.015	20.029	3.229	0.516
1083.500	618.433	79.999	19.996	101.014	20.031	3.087	0.522
1084.000	618.664	79.999	19.996	101.011	20.031	3.085	0.516
1084.500	618.929	79.999	19.996	101.012	20.032	3.060	0.496
1085.000	619.153	79.999	19.997	101.013	20.033	2.926	0.492
1085.500	619.422	79.998	19.996	101.016	20.029	3.268	0.491
1086.000	619.699	79.999	19.996	101.018	20.032	3.058	0.519
1086.500	619.948	79.998	19.996	101.019	20.032	3.035	0.536
1087.000	620.213	79.997	19.997	101.018	20.032	3.070	0.520
1087.500	620.452	79.998	19.996	101.017	20.031	3.144	0.509
1088.000	620.731	79.999	19.996	101.018	20.033	2.938	0.511
1088.500	620.987	79.999	19.996	101.023	20.031	3.144	0.527
1089.000	621.250	79.999	19.996	101.024	20.032	3.012	0.527
1089.500	621.530	79.998	19.996	101.024	20.030	3.194	0.531
1090.000	621.781	79.999	19.997	101.026	20.031	3.138	0.537
1090.500	622.048	79.998	19.996	101.023	20.032	3.039	0.524
1091.000	622.265	79.999	19.996	101.020	20.029	3.264	0.501
1091.500	622.533	79.999	19.996	101.024	20.032	3.050	0.485
1092.000	622.778	80.000	19.996	101.030	20.030	3.153	0.499
1092.500	623.049	80.000	19.996	101.035	20.028	3.350	0.515
1093.000	623.313	79.999	19.996	101.038	20.029	3.280	0.525
1093.500	623.590	79.998	19.997	101.039	20.030	3.212	0.538
1094.000	623.842	79.999	19.996	101.038	20.031	3.130	0.535
1094.500	624.077	79.998	19.996	101.037	20.028	3.319	0.508
1095.001	624.372	79.999	19.995	101.036	20.027	3.381	0.509
1095.501	624.599	79.997	19.996	101.036	20.029	3.299	0.526
1096.001	624.909	80.001	19.996	101.036	20.028	3.349	0.529
1096.500	625.133	80.000	19.995	101.037	20.029	3.248	0.535
1097.000	625.382	80.000	19.996	101.039	20.028	3.314	0.504
1097.500	625.650	79.999	19.996	101.040	20.029	3.246	0.495
1098.000	625.902	80.000	19.996	101.040	20.030	3.184	0.518
1098.501	626.199	80.000	19.995	101.042	20.028	3.361	0.534
1099.001	626.469	79.999	19.996	101.042	20.029	3.295	0.558
1099.500	626.670	79.998	19.995	101.041	20.027	3.447	0.519
1100.001	626.909	79.998	19.995	101.037	20.027	3.402	0.456
1100.501	627.178	79.999	19.996	101.034	20.030	3.204	0.474
1101.000	627.419	80.000	19.996	101.035	20.026	3.481	0.509
1101.500	627.715	79.999	19.995	101.036	20.027	3.408	0.524
1102.000	627.960	79.999	19.996	101.037	20.032	3.048	0.540
1102.500	628.247	80.000	19.996	101.038	20.028	3.314	0.537
1103.000	628.488	80.000	19.996	101.042	20.027	3.417	0.530
1103.500	628.718	79.999	19.996	101.039	20.028	3.365	0.499
1104.001	628.998	80.000	19.995	101.038	20.030	3.155	0.491
1104.501	629.239	80.000	19.996	101.034	20.028	3.322	0.516
1105.000	629.527	80.000	19.996	101.034	20.030	3.198	0.525
1105.500	629.734	79.999	19.996	101.036	20.027	3.429	0.512
1106.000	630.051	79.999	19.996	101.040	20.027	3.394	0.510
1106.500	630.277	80.000	19.996	101.042	20.027	3.412	0.534
1107.000	630.522	79.998	19.996	101.046	20.026	3.474	0.507
1107.501	630.801	79.999	19.996	101.049	20.028	3.334	0.498
1108.001	631.052	79.997	19.997	101.047	20.028	3.338	0.527
1108.501	631.295	79.998	19.996	101.047	20.029	3.237	0.512
1109.001	631.556	79.999	19.996	101.045	20.028	3.334	0.499
1109.500	631.820	79.999	19.997	101.043	20.029	3.244	0.515
1110.001	632.069	79.999	19.996	101.042	20.028	3.359	0.519
1110.501	632.316	79.998	19.997	101.042	20.025	3.532	0.504
1111.000	632.575	79.999	19.997	101.043	20.026	3.520	0.501
1111.500	632.795	79.999	19.996	101.046	20.026	3.464	0.493
1112.000	633.118	79.999	19.997	101.048	20.028	3.357	0.511
1112.500	633.326	79.999	19.996	101.049	20.028	3.322	0.537
1113.001	633.592	79.999	19.997	101.049	20.026	3.456	0.503
1113.501	633.849	79.999	19.997	101.049	20.029	3.299	0.498
1114.000	634.109	79.998	19.997	101.049	20.030	3.190	0.520
1114.500	634.366	79.998	19.997	101.049	20.026	3.460	0.517
1115.000	634.622	79.999	19.997	101.049	20.030	3.211	0.514
1115.500	634.864	79.999	19.998	101.049	20.030	3.227	0.505
1116.000	635.144	79.998	19.998	101.048	20.026	3.508	0.510
1116.500	635.385	79.998	19.997	101.048	20.028	3.369	0.522
1117.000	635.652	79.997	19.997	101.045	20.027	3.409	0.514
1117.500	635.909	79.998	19.996	101.044	20.029	3.283	0.516
1118.000	636.168	79.997	19.997	101.044	20.026	3.512	0.520
1118.500	636.434	79.999	19.997	101.045	20.027	3.450	0.521
1119.000	636.672	79.999	19.997	101.046	20.030	3.217	0.514
1119.501	636.949	79.998	19.997	101.049	20.029	3.275	0.509
1120.001	637.178	79.999	19.997	101.051	20.028	3.374	0.510
1120.500	637.445	79.999	19.996	101.053	20.027	3.442	0.501
1121.000	637.695	79.999	19.997	101.053	20.025	3.582	0.507
1121.500	637.953	80.000	19.997	101.051	20.023	3.730	0.513
1122.000	638.187	79.999	19.997	101.051	20.026	3.520	0.500
1122.500	638.456	79.998	19.997	101.050	20.027	3.398	0.497
1123.000	638.671	79.999	19.996	101.050	20.024	3.648	0.493
1123.500	638.928	80.000	19.995	101.051	20.026	3.460	0.478
1124.000	639.170	80.001	19.996	101.053	20.025	3.555	0.486
1124.500	639.486	80.000	19.996	101.053	20.025	3.545	0.528
1125.000	639.732	80.000	19.997	101.054	20.027	3.395	0.560
1125.500	639.974	80.000	19.995	101.054	20.025	3.595	0.525
1126.000	640.217	80.001	19.995	101.053	20.025	3.537	0.487
1126.500	640.511	80.001	19.995	101.054	20.021	3.899	0.510
1127.000	640.747	80.001	19.995	101.054	20.023	3.739	0.533
1127.500	641.015	80.001	19.995	101.053	20.024	3.656	0.517
1128.001	641.265	80.000	19.995	101.054	20.027	3.388	0.511
1128.501	641.524	80.001	19.995	101.055	20.023	3.706	0.514
1129.000	641.763	80.001	19.995	101.055	20.022	3.825	0.503
1129.500	642.027	80.001	19.995	101.055	20.023	3.720	0.500
1130.001	642.270	80.001	19.994	101.055	20.021	3.901	0.505
1130.501	642.518	80.000	19.995	101.054	20.022	3.819	0.499
1131.000	642.720	80.001	19.995	101.056	20.025	3.582	0.470
1131.500	643.060	80.001	19.995	101.056	20.023	3.728	0.496
1132.000	643.272	80.002	19.995	101.056	20.023	3.735	0.547
1132.500	643.547	80.000	19.995	101.056	20.023	3.735	0.520
1133.000	643.824	80.001	19.995	101.057	20.025	3.533	0.519
1133.500	644.035	80.000	19.996	101.054	20.027	3.421	0.519
1134.000	644.279	80.001	19.995	101.054	20.024	3.629	0.471
1134.500	644.560	80.001	19.995	101.056	20.022	3.805	0.490
1135.000	644.789	80.000	19.995	101.058	20.026	3.529	0.518
1135.500	645.033	80.000	19.996	101.059	20.025	3.556	0.491
1136.001	645.290	80.001	19.995	101.063	20.022	3.789	0.487
1136.501	645.542	80.001	19.995	101.065	20.021	3.848	0.505
1137.001	645.783	80.000	19.995	101.063	20.023	3.737	0.502
1137.500	646.019	80.000	19.995	101.062	20.022	3.832	0.485
1138.000	646.311	80.001	19.995	101.061	20.022	3.797	0.502
1138.500	646.575	80.000	19.995	101.057	20.024	3.669	0.542
1139.000	646.803	80.000	19.995	101.056	20.024	3.646	0.524
1139.500	647.038	80.000	19.996	101.057	20.018	4.081	0.478
1140.000	647.306	80.001	19.996	101.059	20.021	3.902	0.483
1140.500	647.542	80.000	19.996	101.060	20.022	3.814	0.503
1141.001	647.845	80.000	19.995	101.060	20.022	3.830	0.521
1141.501	648.037	79.999	19.996	101.061	20.019	4.010	0.517
1142.001	648.274	79.999	19.996	101.064	20.021	3.857	0.462
1142.501	648.554	79.999	19.995	101.063	20.019	4.022	0.473
1143.001	648.779	80.000	19.994	101.063	20.018	4.075	0.511
1143.500	649.024	79.999	19.995	101.063	20.016	4.263	0.487
1144.000	649.309	80.001	19.995	101.063	20.017	4.154	0.500
1144.500	649.551	80.000	19.996	101.061	20.018	4.106	0.528
1145.000	649.794	80.001	19.996	101.061	20.018	4.090	0.506
1145.500	650.076	80.000	19.996	101.067	20.017	4.156	0.505
1146.000	650.334	80.001	19.996	101.072	20.020	3.919	0.533
1146.500	650.602	80.000	19.996	101.076	20.020	3.983	0.533
1147.000	650.862	80.002	19.996	101.074	20.018	4.129	0.527
1147.500	651.104	80.002	19.996	101.073	20.017	4.142	0.515
1148.000	651.328	80.002	19.996	101.070	20.019	4.041	0.484
1148.500	651.579	80.002	19.996	101.069	20.021	3.886	0.471
1149.000	651.841	80.001	19.995	101.067	20.020	3.948	0.494
1149.500	652.077	80.001	19.995	101.068	20.018	4.082	0.505
1150.000	652.355	80.002	19.995	101.073	20.017	4.150	0.506
1150.500	652.599	80.002	19.995	101.076	20.017	4.195	0.518
1151.000	652.849	80.002	19.996	101.078	20.018	4.110	0.508
1151.500	653.115	80.002	19.995	101.081	20.015	4.296	0.505
1152.000	653.359	80.003	19.995	101.083	20.018	4.071	0.513
1152.500	653.638	80.002	19.995	101.083	20.017	4.197	0.517
1153.000	653.856	80.002	19.995	101.082	20.016	4.241	0.510
1153.500	654.121	80.003	19.995	101.081	20.015	4.337	0.490
1154.001	654.374	80.003	19.994	101.082	20.016	4.218	0.500
1154.501	654.627	80.004	19.996	101.082	20.017	4.142	0.512
1155.000	654.867	80.004	19.995	101.080	20.016	4.274	0.500
1155.500	655.144	80.003	19.996	101.080	20.017	4.199	0.505
1156.000	655.392	80.004	19.995	101.081	20.017	4.204	0.521
1156.500	655.604	80.004	19.996	101.081	20.015	4.348	0.493
1157.000	655.871	80.005	19.995	101.081	20.015	4.346	0.469
1157.500	656.120	80.004	19.996	101.086	20.020	3.969	0.497
1158.000	656.338	80.004	19.996	101.088	20.017	4.201	0.491
1158.500	656.631	80.003	19.995	101.087	20.017	4.173	0.489
1159.000	656.872	80.003	19.995	101.087	20.016	4.259	0.522
1159.500	657.138	80.003	19.994	101.085	20.016	4.230	0.521
1160.000	657.378	80.002	19.995	101.085	20.015	4.325	0.507
1160.501	657.685	80.002	19.995	101.084	20.015	4.342	0.526
1161.001	657.886	80.003	19.995	101.082	20.015	4.317	0.527
1161.500	658.147	80.003	19.994	101.081	20.016	4.226	0.485
1162.000	658.404	80.002	19.996	101.082	20.017	4.193	0.490
1162.500	658.637	80.003	19.994	101.082	20.017	4.214	0.504
1163.000	658.913	80.001	19.995	101.083	20.017	4.185	0.499
1163.500	659.154	80.001	19.995	101.085	20.019	4.016	0.513
1164.000	659.434	80.002	19.996	101.086	20.013	4.480	0.519
1164.500	659.647	80.000	19.995	101.088	20.016	4.260	0.507
1165.000	659.925	80.001	19.995	101.088	20.013	4.480	0.492
1165.500	660.179	80.001	19.995	101.089	20.017	4.204	0.511
1166.000	660.407	80.001	19.996	101.089	20.017	4.197	0.507
1166.500	660.676	80.002	19.995	101.090	20.014	4.369	0.489
1167.000	660.906	80.000	19.995	101.089	20.014	4.418	0.498
1167.500	661.198	80.000	19.996	101.089	20.013	4.511	0.511
1168.000	661.436	80.000	19.996	101.089	20.015	4.367	0.526
1168.500	661.699	80.002	19.996	101.089	20.012	4.556	0.515
1169.001	661.955	80.001	19.996	101.089	20.013	4.472	0.509
1169.501	662.184	80.002	19.995	101.089	20.014	4.400	0.502
1170.000	662.449	80.001	19.995	101.089	20.014	4.410	0.490
1170.500	662.681	80.001	19.996	101.089	20.013	4.493	0.496
1171.000	662.920	80.001	19.998	101.089	20.015	4.334	0.484
1171.500	663.230	80.000	19.996	101.090	20.012	4.553	0.510
1172.000	663.439	80.000	19.996	101.090	20.011	4.615	0.534
1172.500	663.697	80.001	19.996	101.090	20.015	4.336	0.493
1173.000	663.919	80.000	19.996	101.091	20.016	4.239	0.474
1173.500	664.218	80.000	19.996	101.093	20.014	4.388	0.501
1174.000	664.420	80.000	19.997	101.094	20.013	4.472	0.511
1174.500	664.689	80.000	19.996	101.096	20.014	4.404	0.486
1175.000	664.948	80.001	19.998	101.097	20.015	4.315	0.500
1175.500	665.212	80.001	19.996	101.097	20.013	4.485	0.525
1176.000	665.460	80.001	19.997	101.095	20.014	4.412	0.517
1176.500	665.714	80.001	19.997	101.093	20.013	4.456	0.508
1177.000	665.975	80.001	19.996	101.092	20.014	4.408	0.509
1177.500	666.222	80.000	19.997	101.090	20.012	4.575	0.511
1178.000	666.445	79.999	19.996	101.091	20.014	4.404	0.489
1178.500	666.727	80.000	19.997	101.091	20.012	4.590	0.488
1179.000	666.884	80.001	19.996	101.092	20.011	4.656	0.472
1179.500	667.248	80.000	19.996	101.093	20.015	4.361	0.479
1180.000	667.467	80.001	19.997	101.099	20.016	4.291	0.552
1180.500	667.717	80.001	19.997	101.101	20.015	4.353	0.527
1181.000	667.973	79.999	19.997	101.102	20.011	4.648	0.488
1181.500	668.240	80.000	19.996	101.105	20.013	4.446	0.514
1182.000	668.477	80.000	19.995	101.105	20.012	4.520	0.513
1182.500	668.733	80.000	19.996	101.103	20.010	4.728	0.498
1183.000	669.013	80.000	19.996	101.105	20.014	4.398	0.515
1183.500	669.292	80.000	19.995	101.106	20.012	4.537	0.548
1184.000	669.503	80.000	19.995	101.105	20.014	4.421	0.525
1184.500	669.746	79.999	19.995	101.106	20.006	4.980	0.472
1185.001	670.005	80.000	19.996	101.104	20.011	4.636	0.478
1185.501	670.255	80.001	19.996	101.101	20.011	4.636	0.505
1186.000	670.515	80.000	19.995	101.104	20.012	4.541	0.510
1186.500	670.772	79.999	19.995	101.106	20.010	4.700	0.513
1187.000	671.040	80.000	19.996	101.105	20.009	4.766	0.521
1187.500	671.300	80.001	19.996	101.104	20.009	4.784	0.526
1188.000	671.542	80.000	19.995	101.104	20.012	4.578	0.515
1188.500	671.774	79.999	19.996	101.102	20.006	4.987	0.489
1189.000	672.071	80.001	19.996	101.099	20.008	4.830	0.502
1189.500	672.304	80.000	19.996	101.103	20.010	4.721	0.529
1190.000	672.595	80.000	19.996	101.109	20.010	4.679	0.527
1190.500	672.813	80.000	19.995	101.113	20.009	4.758	0.516
1191.000	673.117	80.000	19.995	101.117	20.007	4.947	0.515
1191.500	673.324	80.000	19.995	101.116	20.009	4.809	0.516
1192.000	673.611	80.000	19.996	101.113	20.008	4.888	0.503
1192.500	673.863	79.999	19.995	101.109	20.006	4.976	0.517
1193.000	674.110	80.000	19.995	101.108	20.009	4.820	0.518
1193.500	674.346	80.000	19.994	101.108	20.009	4.797	0.491
1194.000	674.611	80.000	19.997	101.112	20.008	4.875	0.492
1194.500	674.871	80.000	19.995	101.117	20.005	5.079	0.514
1195.000	675.103	79.999	19.995	101.123	20.004	5.191	0.509
1195.500	675.395	79.998	19.996	101.122	20.006	4.986	0.508
1196.000	675.651	79.998	19.995	101.122	20.008	4.844	0.536
1196.500	675.903	79.997	19.996	101.124	20.006	5.009	0.528
1197.000	676.173	79.998	19.996	101.122	20.007	4.933	0.515
1197.500	676.379	79.999	19.997	101.119	20.005	5.094	0.498
1198.000	676.709	79.999	19.995	101.120	20.005	5.082	0.506
1198.500	676.909	79.998	19.995	101.122	20.006	5.038	0.534
1199.000	677.164	79.999	19.996	101.122	20.006	5.007	0.492
1199.501	677.444	79.998	19.996	101.123	20.006	5.009	0.495
1200.001	677.671	79.999	19.996	101.124	20.005	5.104	0.521
1200.500	677.914	79.998	19.996	101.124	20.007	4.927	0.489
1201.000	678.166	79.998	19.996	101.124	20.008	4.867	0.483
1201.500	678.464	79.998	19.997	101.124	20.005	5.063	0.523
1202.000	678.658	79.999	19.996	101.122	20.010	4.737	0.521
1202.500	678.940	79.999	19.996	101.124	20.005	5.067	0.484
1203.000	679.191	79.999	19.996	101.125	20.010	4.708	0.504
1203.500	679.448	79.998	19.996	101.126	20.003	5.211	0.520
1204.000	679.671	79.998	19.997	101.126	20.005	5.088	0.494
1204.500	679.925	79.998	19.997	101.127	20.006	5.014	0.478
1205.000	680.195	79.998	19.996	101.125	20.004	5.154	0.500
1205.500	680.387	79.997	19.997	101.123	20.004	5.189	0.493
1206.000	680.664	79.999	19.998	101.121	20.005	5.082	0.466
1206.500	680.929	79.998	19.998	101.120	20.004	5.127	0.506
1207.000	681.196	80.000	19.998	101.122	20.006	5.042	0.537
1207.500	681.445	80.000	19.997	101.124	20.002	5.280	0.524
1208.001	681.699	79.999	19.997	101.126	20.003	5.230	0.509
1208.501	681.895	80.000	19.997	101.125	20.006	5.038	0.476
1209.000	682.188	79.999	19.998	101.126	20.006	5.026	0.469
1209.500	682.429	80.001	19.996	101.127	20.004	5.197	0.512
1210.000	682.688	80.001	19.997	101.127	20.008	4.896	0.517
1210.500	682.933	80.001	19.997	101.126	20.006	4.997	0.502
1211.000	683.222	80.000	19.997	101.127	20.008	4.863	0.518
1211.500	683.458	80.000	19.996	101.127	20.007	4.915	0.530
1212.000	683.711	80.001	19.996	101.127	20.005	5.100	0.508
1212.501	683.940	80.000	19.996	101.125	20.008	4.884	0.486
1213.001	684.234	80.001	19.997	101.126	20.005	5.106	0.502
1213.500	684.461	80.001	19.996	101.126	20.006	5.032	0.522
1214.001	684.671	80.002	19.997	101.126	20.004	5.162	0.479
1214.501	684.938	80.001	19.996	101.126	20.004	5.170	0.457
1215.001	685.262	80.002	19.997	101.126	20.005	5.092	0.534
1215.500	685.494	80.001	19.996	101.126	20.006	5.039	0.574
1216.000	685.743	80.002	19.996	101.126	20.005	5.091	0.519
1216.500	685.992	80.003	19.996	101.126	20.003	5.254	0.490
1217.000	686.252	80.001	19.996	101.126	20.005	5.060	0.504
1217.500	686.460	80.001	19.995	101.127	20.002	5.298	0.488
1218.000	686.725	80.001	19.995	101.127	20.003	5.231	0.470
1218.500	686.987	80.002	19.995	101.125	20.003	5.268	0.500
1219.000	687.248	80.002	19.996	101.126	20.005	5.118	0.525
1219.501	687.480	80.001	19.995	101.126	20.003	5.270	0.508
1220.001	687.746	80.001	19.996	101.126	20.002	5.295	0.495
1220.501	687.997	80.000	19.995	101.127	20.001	5.369	0.508
1221.000	688.255	80.001	19.994	101.128	20.002	5.326	0.513
1221.500	688.535	80.001	19.995	101.128	20.002	5.352	0.524
1222.000	688.765	80.000	19.995	101.128	20.004	5.134	0.524
1222.500	689.012	80.001	19.996	101.129	19.999	5.528	0.493
1223.000	689.298	80.002	19.995	101.129	20.001	5.421	0.505
1223.500	689.546	80.001	19.996	101.129	19.999	5.572	0.534
1224.000	689.835	80.001	19.997	101.129	20.001	5.374	0.535
1224.501	690.038	79.999	19.994	101.130	20.000	5.477	0.514
1225.001	690.247	80.002	19.995	101.130	20.001	5.376	0.452
1225.500	690.545	80.001	19.996	101.130	20.001	5.400	0.460
1226.000	690.844	80.000	19.996	101.132	20.000	5.474	0.552
1226.501	691.040	80.002	19.995	101.140	20.000	5.484	0.545
1227.001	691.308	80.001	19.996	101.142	20.002	5.311	0.479
1227.500	691.604	80.001	19.996	101.148	20.002	5.283	0.514
1228.000	691.853	80.002	19.995	101.155	19.999	5.566	0.555
1228.500	692.096	80.002	19.996	101.156	20.001	5.423	0.519
1229.000	692.368	80.001	19.995	101.150	19.999	5.518	0.503
1229.500	692.627	80.002	19.994	101.148	20.001	5.386	0.523
1230.000	692.860	80.002	19.996	101.147	20.000	5.444	0.512
1230.500	693.093	80.001	19.996	101.145	20.002	5.339	0.479
1231.000	693.359	80.000	19.995	101.143	20.000	5.444	0.482
1231.500	693.612	80.002	19.995	101.145	19.997	5.717	0.509
1232.000	693.875	80.002	19.995	101.144	19.999	5.560	0.518
1232.500	694.148	80.002	19.995	101.140	19.999	5.539	0.526
1233.000	694.381	80.002	19.996	101.139	19.999	5.550	0.521
1233.500	694.635	80.002	19.997	101.143	19.998	5.630	0.496
1234.000	694.910	80.002	19.996	101.148	19.995	5.870	0.508
1234.500	695.181	80.003	19.997	101.152	19.996	5.779	0.538
1235.000	695.424	80.002	19.997	101.155	19.997	5.723	0.530
1235.500	695.657	80.003	19.996	101.153	19.997	5.661	0.495
1236.000	695.926	80.002	19.996	101.148	19.996	5.771	0.489
1236.500	696.158	80.004	19.997	101.142	19.997	5.666	0.501
1237.000	696.386	80.003	19.996	101.139	19.995	5.882	0.480
1237.501	696.679	80.002	19.995	101.137	19.997	5.713	0.490
1238.001	696.923	80.004	19.995	101.142	19.993	5.983	0.529
1238.501	697.166	80.003	19.996	101.149	19.998	5.641	0.512
1239.000	697.441	80.003	19.996	101.154	19.994	5.917	0.502
1239.500	697.661	80.002	19.995	101.156	19.995	5.835	0.506
1240.000	697.931	80.003	19.996	101.158	19.996	5.782	0.493
1240.500	698.180	80.004	19.995	101.158	19.991	6.157	0.505
1241.000	698.410	80.004	19.995	101.157	19.994	5.957	0.499
1241.500	698.674	80.003	19.996	101.156	19.995	5.854	0.486
1242.000	698.923	80.003	19.995	101.160	19.994	5.890	0.503
1242.500	699.204	80.003	19.995	101.163	19.994	5.890	0.522
1243.000	699.438	80.003	19.995	101.163	19.995	5.828	0.523
1243.500	699.674	80.002	19.995	101.165	19.993	6.038	0.493
1244.000	699.914	80.002	19.995	101.167	19.993	5.966	0.473
1244.500	700.180	80.000	19.996	101.167	19.993	5.973	0.491
1245.001	700.470	80.001	19.995	101.168	19.993	5.993	0.531
1245.501	700.689	80.001	19.995	101.167	19.994	5.896	0.533
1246.000	700.919	80.001	19.996	101.168	19.994	5.952	0.478
1246.500	701.194	80.001	19.995	101.168	19.995	5.842	0.476
1247.000	701.420	80.000	19.996	101.169	19.994	5.956	0.503
1247.500	701.671	80.000	19.996	101.169	19.994	5.902	0.489
1248.000	701.903	80.000	19.995	101.169	19.995	5.840	0.480
1248.500	702.184	80.000	19.996	101.169	19.994	5.907	0.498
1249.000	702.401	80.001	19.995	101.169	19.993	6.008	0.505
1249.501	702.712	80.000	19.995	101.169	19.992	6.116	0.513
1250.001	702.928	80.000	19.995	101.170	19.990	6.211	0.527
1250.501	703.135	80.000	19.995	101.175	19.991	6.163	0.475
1251.000	703.413	79.999	19.995	101.177	19.993	6.027	0.454
1251.500	703.664	80.000	19.995	101.180	19.989	6.279	0.507
1252.000	703.915	80.000	19.995	101.185	19.989	6.339	0.515
1252.500	704.167	79.999	19.994	101.189	19.990	6.246	0.502
1253.000	704.438	80.000	19.996	101.189	19.989	6.343	0.513
1253.500	704.667	79.999	19.995	101.191	19.990	6.268	0.512
1254.000	704.930	80.001	19.995	101.191	19.991	6.182	0.496
1254.500	705.181	80.000	19.995	101.192	19.991	6.151	0.503
1255.000	705.403	79.999	19.995	101.195	19.993	6.033	0.494
1255.500	705.651	79.999	19.995	101.196	19.992	6.095	0.472
1256.000	705.893	79.999	19.995	101.199	19.990	6.250	0.480
1256.500	706.178	80.000	19.994	101.200	19.989	6.310	0.509
1257.000	706.394	80.000	19.996	101.195	19.989	6.283	0.514
1257.500	706.669	80.000	19.995	101.190	19.988	6.407	0.496
1258.000	706.897	80.001	19.995	101.189	19.988	6.358	0.496
1258.500	707.162	80.000	19.996	101.193	19.987	6.461	0.498
1259.000	707.430	80.001	19.996	101.197	19.987	6.434	0.514
1259.500	707.669	80.001	19.996	101.204	19.989	6.329	0.520
1260.000	707.924	79.999	19.995	101.209	19.986	6.539	0.500
1260.500	708.159	80.001	19.996	101.210	19.982	6.865	0.492
1261.000	708.400	80.000	19.995	101.210	19.982	6.849	0.483
1261.500	708.672	80.000	19.996	101.210	19.987	6.473	0.495
1262.000	708.948	79.999	19.995	101.210	19.986	6.556	0.531
1262.500	709.141	80.001	19.996	101.210	19.986	6.500	0.508
1263.000	709.389	80.001	19.994	101.210	19.985	6.622	0.455
1263.500	709.656	79.999	19.997	101.210	19.987	6.494	0.478
1264.000	709.881	80.000	19.997	101.209	19.983	6.727	0.503
1264.500	710.153	80.000	19.995	101.209	19.983	6.765	0.495
1265.000	710.395	80.000	19.997	101.209	19.984	6.667	0.506
1265.500	710.638	80.000	19.996	101.210	19.987	6.438	0.499
1266.000	710.883	80.000	19.995	101.210	19.981	6.894	0.486
1266.500	711.138	79.999	19.995	101.211	19.982	6.831	0.494
1267.000	711.403	79.999	19.995	101.211	19.981	6.901	0.510
1267.500	711.627	80.000	19.997	101.212	19.983	6.771	0.504
1268.000	711.900	80.000	19.995	101.214	19.980	6.986	0.493
1268.500	712.154	79.999	19.996	101.215	19.983	6.730	0.512
1269.000	712.408	80.000	19.997	101.215	19.983	6.787	0.517
1269.500	712.673	80.000	19.996	101.215	19.981	6.923	0.514
1270.000	712.903	79.999	19.995	101.215	19.981	6.899	0.507
1270.500	713.183	80.000	19.996	101.213	19.983	6.788	0.502
1271.000	713.422	80.000	19.996	101.213	19.978	7.130	0.514
1271.500	713.666	80.000	19.996	101.213	19.978	7.110	0.501
1272.000	713.916	79.999	19.996	101.213	19.978	7.110	0.488
1272.501	714.159	80.000	19.996	101.213	19.978	7.137	0.493
1273.001	714.454	80.000	19.997	101.212	19.978	7.113	0.515
1273.501	714.704	79.999	19.996	101.214	19.980	7.005	0.541
1274.001	714.959	79.999	19.995	101.215	19.979	7.067	0.525
1274.501	715.138	80.000	19.996	101.218	19.978	7.127	0.470
1275.001	715.429	80.000	19.996	101.219	19.976	7.325	0.453
1275.500	715.679	80.001	19.996	101.221	19.977	7.206	0.506
1276.000	715.945	79.999	19.997	101.219	19.977	7.216	0.528
1276.500	716.224	80.001	19.996	101.219	19.977	7.216	0.530
1277.000	716.508	79.999	19.996	101.217	19.977	7.229	0.554
1277.500	716.719	80.000	19.996	101.222	19.980	7.014	0.529
1278.001	717.019	80.000	19.997	101.225	19.980	6.995	0.503
1278.501	717.222	80.000	19.997	101.228	19.981	6.950	0.507
1279.001	717.460	79.999	19.997	101.226	19.980	7.026	0.472
1279.501	717.729	80.000	19.996	101.228	19.979	7.090	0.474
1280.001	717.937	79.998	19.996	101.224	19.979	7.097	0.492
1280.501	718.216	79.999	19.995	101.219	19.977	7.200	0.482
1281.001	718.469	79.999	19.996	101.220	19.975	7.349	0.510
1281.501	718.738	80.001	19.997	101.225	19.975	7.381	0.527
1282.001	718.965	79.999	19.997	101.224	19.977	7.194	0.508
1282.501	719.229	79.999	19.996	101.228	19.980	7.008	0.494
1283.001	719.509	80.000	19.997	101.235	19.976	7.324	0.518
1283.500	719.761	79.999	19.995	101.237	19.975	7.342	0.538
1284.000	719.969	80.000	19.996	101.238	19.972	7.623	0.496
1284.500	720.241	80.000	19.996	101.239	19.971	7.650	0.471
1285.000	720.483	79.999	19.996	101.238	19.977	7.227	0.497
1285.500	720.746	80.001	19.997	101.240	19.974	7.481	0.509
1286.000	721.005	80.001	19.996	101.240	19.974	7.427	0.513
1286.500	721.218	80.001	19.996	101.241	19.972	7.576	0.498
1287.000	721.495	80.001	19.997	101.245	19.970	7.763	0.481
1287.500	721.762	80.000	19.996	101.247	19.972	7.627	0.517
1288.000	721.992	80.001	19.997	101.247	19.973	7.534	0.520
1288.500	722.227	80.000	19.996	101.247	19.972	7.609	0.481
1289.000	722.478	79.998	19.997	101.247	19.971	7.673	0.475
1289.500	722.732	80.001	19.996	101.246	19.972	7.599	0.495
1290.000	722.988	80.001	19.996	101.246	19.973	7.534	0.507
1290.500	723.192	80.001	19.996	101.246	19.973	7.497	0.486
1291.000	723.487	80.002	19.996	101.246	19.974	7.419	0.480
1291.500	723.730	79.999	19.995	101.246	19.971	7.708	0.518
1292.000	723.998	80.003	19.996	101.246	19.974	7.416	0.524
1292.500	724.266	80.000	19.996	101.245	19.970	7.726	0.523
1293.000	724.535	80.001	19.997	101.245	19.973	7.553	0.536
1293.500	724.759	80.000	19.996	101.245	19.969	7.801	0.515
1294.000	725.000	80.000	19.996	101.244	19.971	7.691	0.479
1294.500	725.246	80.001	19.995	101.244	19.968	7.869	0.476
1295.000	725.513	80.000	19.996	101.246	19.967	7.980	0.500
1295.500	725.772	80.001	19.997	101.246	19.970	7.739	0.519
1296.000	726.018	80.001	19.996	101.246	19.973	7.497	0.515
1296.500	726.276	80.000	19.997	101.246	19.973	7.543	0.504
1297.000	726.510	80.001	19.997	101.245	19.973	7.489	0.498
1297.500	726.753	80.001	19.997	101.245	19.972	7.596	0.485
1298.000	726.965	80.001	19.996	101.245	19.971	7.689	0.466
1298.500	727.259	80.000	19.996	101.245	19.972	7.625	0.480
1299.000	727.509	80.001	19.996	101.246	19.969	7.796	0.525
1299.500	727.752	80.001	19.997	101.248	19.968	7.879	0.519
1300.000	728.018	80.001	19.997	101.248	19.971	7.712	0.501
1300.500	728.277	80.002	19.997	101.248	19.968	7.890	0.517
1301.000	728.519	80.001	19.996	101.248	19.969	7.863	0.513
1301.500	728.753	80.001	19.996	101.246	19.966	8.057	0.488
1302.000	729.044	80.000	19.997	101.244	19.969	7.865	0.501
1302.500	729.280	80.001	19.998	101.243	19.968	7.914	0.526
1303.000	729.536	79.999	19.997	101.243	19.965	8.139	0.509
1303.500	729.803	80.001	19.997	101.244	19.966	8.079	0.507
1304.000	730.046	80.001	19.996	101.245	19.969	7.816	0.516
1304.500	730.333	80.001	19.997	101.245	19.967	8.006	0.520
1305.000	730.561	80.000	19.997	101.245	19.967	8.008	0.523
1305.500	730.844	79.999	19.996	101.244	19.969	7.797	0.513
1306.000	731.116	79.999	19.996	101.244	19.965	8.127	0.533
1306.500	731.346	79.999	19.996	101.244	19.965	8.120	0.528
1307.000	731.595	80.001	19.995	101.244	19.966	8.083	0.491
1307.500	731.873	79.999	19.996	101.245	19.968	7.866	0.503
1308.001	732.097	80.000	19.996	101.246	19.972	7.608	0.514
1308.501	732.321	80.001	19.996	101.245	19.972	7.594	0.475
1309.000	732.615	80.000	19.997	101.245	19.968	7.870	0.483
1309.500	732.866	80.001	19.996	101.245	19.968	7.895	0.531
1310.001	733.126	80.001	19.996	101.245	19.972	7.606	0.528
1310.501	733.368	80.001	19.997	101.245	19.970	7.788	0.507
1311.000	733.612	80.002	19.996	101.246	19.969	7.851	0.494
1311.500	733.922	80.002	19.997	101.247	19.969	7.818	0.520
1312.001	734.129	80.001	19.995	101.247	19.968	7.908	0.536
1312.501	734.395	80.002	19.996	101.247	19.968	7.893	0.495
1313.000	734.658	80.001	19.994	101.247	19.971	7.704	0.501
1313.500	734.938	80.002	19.996	101.246	19.968	7.898	0.536
1314.000	735.124	80.001	19.995	101.242	19.967	7.989	0.504
1314.500	735.376	80.002	19.996	101.239	19.969	7.832	0.452
1315.000	735.625	80.002	19.994	101.237	19.967	7.992	0.470
1315.500	735.873	80.002	19.995	101.233	19.967	8.004	0.499
1316.000	736.141	80.003	19.995	101.228	19.966	8.053	0.507
1316.500	736.382	80.003	19.996	101.225	19.968	7.881	0.512
1317.000	736.599	80.001	19.995	101.221	19.968	7.872	0.483
1317.500	736.910	80.002	19.995	101.217	19.972	7.605	0.493
1318.000	737.161	80.003	19.996	101.215	19.967	7.935	0.546
1318.500	737.384	80.003	19.995	101.213	19.970	7.720	0.518
1319.000	737.664	80.003	19.995	101.212	19.973	7.546	0.489
1319.500	737.930	80.003	19.995	101.212	19.968	7.884	0.525
1320.000	738.182	80.002	19.995	101.211	19.966	8.032	0.531
1320.500	738.409	80.003	19.995	101.209	19.971	7.700	0.498
1321.000	738.722	80.003	19.995	101.209	19.973	7.479	0.510
1321.500	738.933	80.001	19.995	101.210	19.975	7.386	0.532
1322.000	739.191	80.003	19.995	101.204	19.975	7.367	0.497
1322.500	739.449	80.002	19.995	101.197	19.974	7.450	0.492
1323.000	739.724	80.002	19.995	101.189	19.977	7.227	0.525
1323.500	739.999	80.003	19.994	101.181	19.981	6.942	0.542
1324.000	740.259	80.001	19.995	101.173	19.976	7.249	0.542
1324.500	740.498	80.003	19.995	101.169	19.979	7.046	0.517
1325.000	740.811	80.002	19.996	101.168	19.982	6.815	0.525
1325.501	741.037	80.001	19.995	101.165	19.985	6.613	0.546
1326.001	741.264	80.001	19.995	101.159	19.984	6.681	0.496
1326.500	741.500	80.001	19.994	101.151	19.988	6.374	0.458
1327.000	741.810	79.999	19.995	101.145	19.984	6.656	0.504
1327.500	742.050	80.000	19.995	101.138	19.991	6.135	0.548
1328.000	742.315	80.001	19.996	101.129	19.991	6.143	0.527
1328.500	742.519	79.999	19.996	101.120	19.993	6.025	0.487
1329.000	742.801	79.999	19.996	101.112	19.997	5.656	0.477
1329.500	743.085	80.000	19.995	101.104	19.994	5.942	0.526
1330.000	743.362	80.001	19.995	101.096	19.994	5.903	0.564
1330.500	743.565	79.999	19.996	101.092	19.997	5.713	0.521
