Sample ID:	C:\MCC\MCC Cal\Test\Rug_pad_MCC_30K_min_211008_R1.txt
Sample Weight (mg):	4.86
Heating Rate (C/s):	0.5
Combustor Temp (C):	900
N2 Flow Rate (cc/min):	80
O2 Flow Rate (cc/min):	20
Calibration File:	C:\MCC\MCC Cal\Coeff1 JN10440_30_210304.txt.txt
T Correction Coefficients:	0	1.024463	0
Time Shift (s):	14
*
Time (s)	Temperature (C)	N2 flow rate (cc/min)	O2 flow rate (cc/min)	Flow Rate (cc/min)	Oxygen (%)	HRR (W/g)	Heating rate (C/s)
0.000	106.230	79.998	19.996	100.775	20.032	0.077	-0.008
0.499	106.233	79.999	19.996	100.775	20.032	0.053	-0.013
1.000	106.222	80.000	19.996	100.776	20.034	-0.040	-0.006
1.500	106.220	80.000	19.997	100.777	20.032	0.109	-0.010
2.000	106.273	80.000	19.998	100.776	20.035	-0.144	0.019
2.500	106.234	79.999	19.995	100.774	20.034	-0.023	0.033
3.000	106.246	79.999	19.997	100.772	20.031	0.120	-0.007
3.499	106.228	80.000	19.996	100.772	20.028	0.336	-0.017
4.000	106.222	79.999	19.998	100.773	20.029	0.245	-0.015
4.500	106.263	79.999	19.995	100.777	20.036	-0.178	0.005
4.999	106.256	79.999	19.998	100.777	20.031	0.118	0.035
5.500	106.252	79.997	19.997	100.778	20.032	0.109	0.011
6.000	106.237	79.998	19.995	100.775	20.034	-0.055	-0.015
6.499	106.224	79.999	19.994	100.772	20.033	0.025	-0.023
6.999	106.205	79.999	19.995	100.772	20.029	0.296	-0.030
7.499	106.269	79.999	19.995	100.775	20.028	0.355	0.006
8.000	106.238	79.999	19.997	100.776	20.031	0.174	0.039
8.500	106.262	79.999	19.996	100.780	20.031	0.127	0.013
8.999	106.286	80.001	19.995	100.783	20.030	0.206	0.020
9.499	106.286	79.999	19.994	100.784	20.035	-0.104	0.036
9.999	106.265	79.999	19.998	100.783	20.028	0.320	0.002
10.499	106.253	79.999	19.996	100.783	20.030	0.192	-0.027
10.999	106.273	79.999	19.996	100.783	20.034	-0.023	-0.013
11.499	106.276	79.998	19.998	100.784	20.030	0.224	0.016
11.999	106.235	79.999	19.997	100.785	20.027	0.405	-0.008
12.499	106.264	79.999	19.998	100.787	20.031	0.125	-0.025
12.999	106.253	80.000	19.995	100.788	20.029	0.252	0.003
13.499	106.244	79.999	19.995	100.787	20.026	0.495	-0.001
14.000	106.263	79.999	19.995	100.787	20.031	0.118	-0.005
14.500	106.237	79.999	19.996	100.786	20.027	0.401	0.001
14.999	106.298	80.001	19.995	100.785	20.027	0.431	0.015
15.499	106.321	80.000	19.994	100.784	20.034	-0.049	0.060
15.999	106.305	80.000	19.997	100.784	20.028	0.315	0.045
16.500	106.297	79.999	19.996	100.784	20.028	0.340	-0.009
17.000	106.293	80.001	19.997	100.787	20.025	0.525	-0.018
17.500	106.269	80.000	19.993	100.790	20.028	0.343	-0.020
18.000	106.289	80.001	19.995	100.795	20.024	0.578	-0.016
18.500	106.276	80.000	19.995	100.801	20.027	0.395	0.001
19.000	106.293	80.000	19.995	100.807	20.027	0.382	0.006
19.500	106.296	79.999	19.995	100.813	20.026	0.490	0.012
20.000	106.345	80.001	19.996	100.821	20.026	0.477	0.036
20.500	106.316	80.001	19.997	100.826	20.026	0.451	0.036
21.000	106.294	80.001	19.996	100.830	20.025	0.541	-0.016
21.500	106.334	80.000	19.994	100.832	20.025	0.505	-0.017
22.000	106.343	80.000	19.993	100.831	20.022	0.703	0.034
22.500	106.359	80.001	19.997	100.826	20.022	0.748	0.037
23.000	106.377	80.000	19.997	100.823	20.020	0.852	0.029
23.500	106.397	80.000	19.993	100.821	20.023	0.666	0.036
24.000	106.393	80.001	19.995	100.823	20.019	0.928	0.027
24.500	106.382	80.002	19.996	100.826	20.020	0.865	0.001
25.000	106.394	79.999	19.997	100.830	20.018	1.008	-0.007
25.500	106.401	80.001	19.995	100.836	20.016	1.110	0.010
26.000	106.417	79.999	19.994	100.842	20.018	1.011	0.021
26.500	106.463	80.001	19.997	100.847	20.021	0.819	0.043
27.000	106.455	79.999	19.996	100.858	20.012	1.351	0.051
27.500	106.494	79.999	19.995	100.870	20.016	1.131	0.035
28.000	106.523	79.999	19.997	100.880	20.016	1.124	0.049
28.500	106.529	79.998	19.997	100.889	20.013	1.314	0.051
29.000	106.558	79.997	19.996	100.896	20.009	1.594	0.036
29.500	106.604	79.998	19.996	100.899	20.010	1.512	0.055
30.000	106.654	79.999	19.996	100.897	20.011	1.445	0.086
30.500	106.656	79.999	19.996	100.895	20.010	1.501	0.074
31.000	106.697	79.998	19.995	100.894	20.014	1.263	0.047
31.500	106.701	79.999	19.996	100.891	20.006	1.771	0.044
32.000	106.754	79.999	19.994	100.887	20.010	1.483	0.051
32.499	106.771	79.998	19.995	100.885	20.007	1.702	0.063
33.000	106.806	79.999	19.996	100.886	20.007	1.714	0.061
33.501	106.882	79.998	19.996	100.886	20.002	2.033	0.081
34.001	106.899	79.998	19.995	100.889	20.007	1.723	0.102
34.501	106.921	79.998	19.996	100.896	20.007	1.720	0.066
35.001	107.006	79.998	19.995	100.900	20.004	1.887	0.073
35.501	107.020	79.998	19.996	100.903	20.006	1.750	0.103
36.001	107.050	80.000	19.996	100.902	20.002	2.003	0.072
36.500	107.051	79.999	19.997	100.902	20.008	1.639	0.037
37.000	107.091	79.998	19.997	100.898	20.006	1.772	0.036
37.500	107.175	79.999	19.996	100.897	20.002	2.007	0.083
38.000	107.185	79.997	19.994	100.896	20.003	1.972	0.110
38.500	107.243	79.998	19.997	100.897	20.008	1.628	0.081
39.000	107.241	79.998	19.997	100.902	20.001	2.095	0.062
39.500	107.350	79.998	19.996	100.911	20.000	2.153	0.081
40.000	107.412	79.998	19.996	100.917	19.998	2.266	0.139
40.500	107.429	79.998	19.997	100.923	20.004	1.924	0.125
41.000	107.497	79.999	19.995	100.929	20.000	2.136	0.082
41.500	107.521	79.999	19.997	100.931	20.001	2.088	0.088
42.000	107.599	80.001	19.996	100.928	20.002	2.049	0.097
42.500	107.677	79.997	19.997	100.930	19.996	2.407	0.129
43.000	107.726	79.999	19.995	100.931	20.000	2.174	0.142
43.500	107.765	79.999	19.997	100.932	19.999	2.236	0.107
44.000	107.830	80.000	19.997	100.932	20.002	2.055	0.096
44.500	107.893	79.998	19.996	100.936	19.998	2.272	0.116
45.000	107.962	79.999	19.997	100.937	20.004	1.912	0.130
45.500	108.033	79.997	19.995	100.937	20.003	1.974	0.136
46.000	108.106	79.999	19.996	100.937	19.997	2.360	0.142
46.500	108.178	79.997	19.997	100.936	19.994	2.527	0.144
47.000	108.214	79.997	19.997	100.935	19.999	2.203	0.126
47.500	108.273	79.997	19.996	100.934	19.995	2.457	0.102
48.000	108.321	79.999	19.996	100.932	19.995	2.471	0.101
48.500	108.455	79.998	19.998	100.933	20.000	2.161	0.144
49.000	108.487	79.999	19.999	100.933	19.998	2.256	0.174
49.500	108.554	79.998	19.997	100.933	19.995	2.466	0.133
50.000	108.663	79.998	19.998	100.934	19.994	2.524	0.137
50.500	108.724	80.000	19.997	100.938	19.996	2.441	0.173
51.000	108.822	79.997	19.996	100.938	20.001	2.081	0.165
51.500	108.879	79.998	19.996	100.938	19.995	2.490	0.157
52.000	108.952	79.998	19.995	100.940	20.001	2.092	0.142
52.500	109.017	79.999	19.998	100.940	20.000	2.171	0.134
53.000	109.096	79.998	19.995	100.939	19.997	2.349	0.141
53.500	109.203	79.999	19.998	100.939	20.000	2.152	0.165
54.000	109.266	79.998	19.996	100.943	19.991	2.735	0.178
54.500	109.399	79.997	19.997	100.947	19.992	2.647	0.183
55.000	109.477	79.998	19.995	100.955	19.994	2.559	0.204
55.500	109.534	79.997	19.998	100.960	19.994	2.531	0.173
56.000	109.631	79.999	19.997	100.967	19.988	2.957	0.144
56.500	109.717	79.997	19.996	100.967	19.991	2.723	0.169
57.000	109.810	79.997	19.997	100.965	19.996	2.432	0.181
57.500	109.920	79.997	19.995	100.961	19.994	2.555	0.190
58.000	110.010	79.998	19.998	100.960	19.992	2.654	0.201
58.500	110.136	79.996	19.994	100.958	19.996	2.436	0.208
59.000	110.255	79.998	19.999	100.963	19.988	2.945	0.231
59.500	110.354	79.997	19.998	100.966	19.990	2.812	0.232
60.000	110.419	79.996	19.998	100.966	19.989	2.868	0.191
60.500	110.519	79.997	19.996	100.962	19.993	2.591	0.164
61.000	110.614	79.999	19.997	100.957	19.993	2.591	0.180
61.500	110.676	79.998	19.997	100.951	19.995	2.494	0.176
62.000	110.817	79.996	19.996	100.948	19.993	2.609	0.180
62.500	110.887	79.998	19.996	100.948	19.989	2.873	0.207
63.000	111.001	79.997	19.997	100.952	19.993	2.602	0.197
63.500	111.126	79.997	19.995	100.954	19.988	2.908	0.211
64.001	111.179	79.996	19.996	100.957	19.990	2.799	0.209
64.500	111.346	79.997	19.997	100.959	19.996	2.406	0.199
64.999	111.430	79.998	19.996	100.962	19.993	2.598	0.235
65.499	111.547	79.997	19.997	100.963	19.988	2.908	0.226
65.999	111.686	79.997	19.997	100.963	19.994	2.515	0.228
66.499	111.775	79.997	19.997	100.963	19.988	2.940	0.242
66.999	111.871	79.999	19.997	100.961	19.992	2.669	0.207
67.499	111.978	79.997	19.996	100.958	19.992	2.646	0.194
67.999	112.102	79.998	19.996	100.957	19.995	2.498	0.217
68.499	112.222	79.998	19.996	100.962	19.992	2.683	0.237
68.999	112.292	79.995	19.995	100.965	19.994	2.572	0.217
69.499	112.423	79.997	19.997	100.970	19.990	2.769	0.196
69.999	112.533	79.998	19.996	100.975	19.991	2.763	0.221
70.499	112.636	79.999	19.997	100.978	19.991	2.717	0.227
70.999	112.766	79.998	19.997	100.978	19.988	2.927	0.223
71.499	112.895	79.998	19.997	100.977	19.985	3.114	0.246
71.999	113.010	79.997	19.996	100.977	19.988	2.958	0.252
72.499	113.155	79.998	19.996	100.977	19.990	2.826	0.252
72.999	113.212	79.997	19.996	100.977	19.991	2.748	0.231
73.499	113.361	79.998	19.997	100.978	19.990	2.773	0.204
73.999	113.491	79.998	19.997	100.978	19.993	2.623	0.242
74.500	113.644	79.999	19.996	100.978	19.988	2.905	0.281
75.000	113.788	79.999	19.996	100.978	19.983	3.274	0.291
75.499	113.934	79.999	19.995	100.978	19.994	2.572	0.293
76.001	114.062	79.997	19.996	100.979	19.983	3.237	0.281
76.501	114.185	79.998	19.996	100.979	19.987	2.976	0.262
76.999	114.305	79.998	19.996	100.978	19.990	2.808	0.247
77.500	114.427	79.998	19.997	100.978	19.987	2.976	0.243
78.000	114.549	79.997	19.995	100.977	19.992	2.672	0.243
78.499	114.704	80.000	19.998	100.976	19.988	2.963	0.261
78.999	114.801	79.999	19.997	100.976	19.988	2.953	0.264
79.499	114.957	79.998	19.997	100.981	19.990	2.784	0.252
79.999	115.085	79.998	19.996	100.984	19.992	2.669	0.269
80.499	115.237	79.997	19.995	100.988	19.984	3.212	0.282
80.999	115.375	79.998	19.997	100.993	19.989	2.893	0.284
81.499	115.465	79.998	19.996	100.997	19.988	2.953	0.258
81.999	115.664	79.999	19.997	100.999	19.984	3.205	0.259
82.499	115.796	79.998	19.997	100.999	19.987	2.994	0.310
82.999	115.913	79.997	19.995	100.998	19.987	2.985	0.290
83.499	116.049	79.998	19.999	100.995	19.987	2.989	0.251
84.000	116.205	79.998	19.997	100.994	19.987	2.984	0.273
84.500	116.285	79.998	19.997	100.991	19.986	3.084	0.264
84.999	116.468	79.998	19.995	100.989	19.988	2.917	0.249
85.499	116.639	79.998	19.997	100.992	19.984	3.181	0.308
85.999	116.743	79.999	19.996	100.994	19.984	3.165	0.315
86.499	116.930	79.999	19.996	100.992	19.986	3.068	0.283
86.999	117.028	79.998	19.997	100.990	19.985	3.153	0.288
87.499	117.231	79.998	19.996	100.990	19.986	3.070	0.293
87.999	117.365	79.998	19.996	100.986	19.981	3.408	0.319
88.499	117.524	79.998	19.995	100.983	19.986	3.045	0.315
88.999	117.668	79.999	19.996	100.982	19.980	3.424	0.299
89.499	117.809	79.998	19.996	100.985	19.987	3.024	0.294
89.999	117.958	79.998	19.995	100.988	19.983	3.252	0.287
90.500	118.111	79.998	19.996	100.986	19.980	3.477	0.296
91.000	118.285	80.000	19.996	100.989	19.986	3.082	0.314
91.499	118.422	79.998	19.994	100.993	19.980	3.483	0.319
91.999	118.595	79.998	19.995	100.996	19.976	3.685	0.311
92.499	118.751	80.000	19.995	100.996	19.982	3.304	0.319
93.000	118.894	79.999	19.997	101.004	19.986	3.058	0.314
93.500	119.056	79.999	19.995	101.007	19.977	3.657	0.302
93.999	119.190	79.999	19.997	101.010	19.979	3.544	0.300
94.499	119.402	79.999	19.994	101.010	19.984	3.181	0.321
94.999	119.540	79.999	19.995	101.013	19.980	3.481	0.348
95.499	119.694	79.999	19.995	101.013	19.976	3.685	0.321
95.999	119.843	79.999	19.995	101.014	19.977	3.654	0.298
96.499	119.987	80.001	19.995	101.014	19.977	3.664	0.298
96.999	120.225	79.999	19.994	101.014	19.979	3.535	0.337
97.499	120.369	79.999	19.995	101.014	19.981	3.377	0.382
97.999	120.523	79.999	19.997	101.013	19.983	3.274	0.340
98.499	120.738	80.000	19.996	101.013	19.977	3.632	0.334
98.999	120.855	80.000	19.996	101.014	19.982	3.313	0.350
99.499	121.045	80.000	19.995	101.014	19.980	3.444	0.319
99.999	121.211	80.000	19.995	101.017	19.978	3.602	0.331
100.499	121.407	80.001	19.996	101.017	19.975	3.766	0.359
100.999	121.563	80.001	19.997	101.017	19.987	3.026	0.357
101.499	121.744	80.002	19.994	101.016	19.973	3.904	0.345
101.999	121.916	80.001	19.994	101.016	19.974	3.812	0.346
102.499	122.108	80.001	19.995	101.013	19.982	3.352	0.359
102.999	122.284	80.002	19.994	101.013	19.979	3.529	0.365
103.499	122.442	80.002	19.996	101.013	19.981	3.391	0.351
104.000	122.592	80.001	19.995	101.013	19.980	3.460	0.321
104.500	122.804	80.000	19.995	101.013	19.976	3.700	0.335
104.999	122.974	80.001	19.995	101.013	19.977	3.655	0.372
105.500	123.181	80.002	19.995	101.014	19.974	3.814	0.379
106.000	123.339	79.999	19.995	101.014	19.975	3.800	0.371
106.499	123.565	80.001	19.995	101.014	19.980	3.476	0.375
106.999	123.720	80.000	19.996	101.014	19.980	3.423	0.382
107.499	123.896	80.001	19.994	101.014	19.976	3.742	0.356
108.000	124.098	80.000	19.996	101.014	19.977	3.670	0.354
108.500	124.256	80.000	19.997	101.014	19.975	3.767	0.369
108.999	124.445	79.998	19.995	101.014	19.982	3.303	0.353
109.499	124.642	80.000	19.997	101.014	19.977	3.645	0.367
109.999	124.834	79.999	19.996	101.014	19.975	3.779	0.388
110.499	124.976	79.999	19.996	101.013	19.977	3.613	0.362
110.999	125.173	79.999	19.996	101.013	19.974	3.809	0.337
111.500	125.366	79.999	19.996	101.012	19.969	4.135	0.365
112.000	125.579	79.997	19.996	101.014	19.978	3.599	0.398
112.499	125.776	79.998	19.994	101.016	19.982	3.352	0.408
112.999	125.953	79.997	19.996	101.017	19.972	3.948	0.392
113.499	126.150	80.000	19.997	101.017	19.975	3.788	0.373
113.999	126.348	79.998	19.996	101.017	19.974	3.813	0.384
114.499	126.544	79.998	19.996	101.016	19.975	3.797	0.395
114.999	126.716	79.998	19.997	101.015	19.972	3.998	0.381
115.499	126.908	79.998	19.995	101.017	19.976	3.732	0.366
115.999	127.107	79.998	19.996	101.017	19.979	3.513	0.377
116.499	127.328	79.998	19.997	101.019	19.973	3.875	0.405
116.999	127.493	79.997	19.997	101.020	19.972	3.972	0.403
117.499	127.691	79.998	19.996	101.019	19.972	3.966	0.374
117.999	127.914	79.999	19.997	101.017	19.975	3.776	0.392
118.499	128.100	79.999	19.996	101.019	19.972	3.970	0.415
118.999	128.317	79.999	19.996	101.018	19.973	3.897	0.406
119.499	128.515	79.999	19.996	101.018	19.973	3.917	0.409
119.999	128.709	79.998	19.996	101.018	19.972	3.957	0.403
120.499	128.916	79.997	19.995	101.018	19.980	3.481	0.396
120.999	129.117	79.997	19.996	101.017	19.970	4.079	0.404
121.499	129.329	79.997	19.995	101.019	19.979	3.486	0.410
121.999	129.533	79.999	19.995	101.019	19.972	3.991	0.415
122.499	129.720	79.997	19.996	101.020	19.973	3.936	0.404
122.999	129.960	79.999	19.997	101.020	19.971	4.010	0.409
123.499	130.112	79.998	19.995	101.021	19.977	3.620	0.410
123.999	130.311	79.997	19.995	101.020	19.974	3.812	0.372
124.499	130.522	79.999	19.996	101.021	19.978	3.587	0.380
124.999	130.735	79.997	19.995	101.022	19.975	3.795	0.417
125.499	130.952	79.998	19.995	101.023	19.978	3.550	0.427
126.000	131.182	79.999	19.997	101.025	19.982	3.351	0.439
126.501	131.333	79.999	19.996	101.028	19.976	3.725	0.414
127.001	131.567	79.999	19.995	101.034	19.979	3.548	0.383
127.500	131.740	79.998	19.996	101.037	19.973	3.890	0.396
127.999	131.955	79.999	19.996	101.036	19.981	3.358	0.397
128.500	132.192	79.997	19.995	101.033	19.977	3.642	0.420
129.000	132.384	79.998	19.996	101.031	19.974	3.873	0.440
129.500	132.610	79.999	19.994	101.026	19.972	3.955	0.423
130.000	132.819	79.998	19.996	101.028	19.976	3.717	0.427
130.500	133.027	79.998	19.994	101.029	19.972	3.961	0.426
131.000	133.219	79.999	19.997	101.029	19.972	3.941	0.408
131.500	133.439	79.998	19.996	101.027	19.976	3.679	0.406
132.000	133.666	79.999	19.997	101.028	19.978	3.566	0.429
132.500	133.899	79.998	19.995	101.023	19.973	3.875	0.454
133.000	134.106	79.998	19.995	101.022	19.972	3.998	0.450
133.500	134.320	79.999	19.996	101.021	19.973	3.934	0.430
134.000	134.544	79.998	19.995	101.021	19.976	3.721	0.430
134.500	134.743	79.998	19.996	101.020	19.981	3.402	0.431
135.000	134.980	79.998	19.994	101.019	19.979	3.509	0.429
135.500	135.205	79.998	19.997	101.019	19.976	3.679	0.448
136.000	135.395	79.996	19.995	101.021	19.975	3.755	0.438
136.500	135.606	79.998	19.996	101.022	19.974	3.848	0.408
137.000	135.818	79.997	19.995	101.025	19.979	3.518	0.412
137.500	136.082	79.997	19.996	101.025	19.978	3.562	0.449
138.000	136.283	79.998	19.996	101.026	19.972	3.968	0.471
138.500	136.493	79.998	19.997	101.023	19.978	3.598	0.438
139.000	136.737	79.997	19.996	101.023	19.976	3.740	0.433
139.500	136.962	79.998	19.996	101.022	19.979	3.509	0.461
140.000	137.217	79.998	19.997	101.021	19.974	3.867	0.474
140.500	137.394	79.998	19.996	101.021	19.977	3.631	0.456
141.000	137.627	79.998	19.997	101.022	19.974	3.867	0.421
141.500	137.826	79.997	19.998	101.023	19.977	3.629	0.421
142.000	138.063	79.999	19.999	101.022	19.978	3.594	0.434
142.500	138.232	79.998	19.998	101.027	19.977	3.647	0.421
143.000	138.491	79.997	19.996	101.028	19.975	3.795	0.417
143.500	138.700	79.998	19.997	101.027	19.976	3.685	0.448
144.000	138.912	79.997	19.996	101.026	19.973	3.892	0.444
144.500	139.143	79.995	19.996	101.025	19.975	3.791	0.432
145.000	139.356	79.996	19.995	101.020	19.974	3.841	0.443
145.500	139.602	79.997	19.997	101.019	19.975	3.749	0.452
146.000	139.849	79.997	19.997	101.021	19.978	3.610	0.477
146.500	140.045	79.997	19.996	101.024	19.981	3.410	0.468
147.000	140.278	79.998	19.998	101.026	19.973	3.927	0.435
147.500	140.513	79.996	19.997	101.027	19.972	3.982	0.448
148.000	140.722	79.997	19.997	101.026	19.975	3.747	0.456
148.500	140.987	79.999	19.997	101.026	19.976	3.712	0.459
149.000	141.196	79.997	19.996	101.028	19.973	3.909	0.474
149.500	141.415	79.998	19.997	101.026	19.974	3.825	0.451
150.000	141.647	79.998	19.998	101.027	19.974	3.818	0.440
150.500	141.896	79.998	19.996	101.027	19.975	3.756	0.466
151.000	142.092	79.998	19.996	101.026	19.974	3.867	0.463
151.500	142.347	79.997	19.997	101.022	19.971	4.017	0.448
152.000	142.588	79.999	19.997	101.020	19.977	3.673	0.474
152.500	142.825	79.999	19.997	101.020	19.974	3.864	0.487
153.000	143.022	79.997	19.995	101.018	19.981	3.387	0.456
153.500	143.301	79.999	19.996	101.017	19.978	3.574	0.455
154.000	143.525	79.998	19.997	101.017	19.976	3.687	0.489
154.500	143.765	79.998	19.995	101.017	19.974	3.858	0.484
155.000	144.003	79.997	19.995	101.017	19.969	4.169	0.471
155.500	144.223	79.998	19.997	101.016	19.972	3.964	0.468
156.000	144.473	79.998	19.996	101.017	19.974	3.849	0.464
156.500	144.681	79.999	19.996	101.016	19.977	3.634	0.464
157.000	144.929	80.000	19.996	101.017	19.972	3.999	0.457
157.500	145.128	80.000	19.995	101.015	19.969	4.160	0.452
158.000	145.401	79.999	19.995	101.016	19.971	4.017	0.460
158.500	145.604	80.000	19.997	101.016	19.974	3.857	0.474
159.000	145.869	80.000	19.996	101.015	19.975	3.807	0.472
159.500	146.152	80.000	19.996	101.015	19.971	4.027	0.507
160.000	146.360	79.999	19.997	101.014	19.973	3.893	0.520
160.500	146.587	79.998	19.996	101.015	19.969	4.146	0.464
161.000	146.781	80.000	19.997	101.015	19.967	4.290	0.428
161.500	147.055	80.000	19.997	101.015	19.967	4.265	0.444
162.000	147.248	80.000	19.997	101.015	19.969	4.161	0.468
162.500	147.498	79.998	19.996	101.015	19.974	3.856	0.455
163.000	147.687	79.999	19.995	101.016	19.968	4.198	0.441
163.500	147.965	79.999	19.997	101.018	19.970	4.121	0.452
164.000	148.202	80.000	19.996	101.019	19.976	3.689	0.491
164.500	148.462	80.000	19.996	101.018	19.976	3.737	0.506
165.000	148.677	79.999	19.996	101.018	19.971	4.028	0.486
165.500	148.914	80.000	19.997	101.017	19.969	4.160	0.464
166.000	149.174	79.999	19.997	101.015	19.970	4.079	0.474
166.500	149.412	79.999	19.997	101.015	19.969	4.183	0.497
167.000	149.642	79.999	19.997	101.015	19.975	3.793	0.483
167.500	149.904	79.999	19.998	101.016	19.973	3.886	0.480
168.000	150.147	79.998	19.997	101.018	19.971	4.015	0.499
168.500	150.366	79.999	19.996	101.018	19.974	3.872	0.483
169.000	150.591	79.998	19.997	101.017	19.972	3.975	0.453
169.500	150.822	79.998	19.997	101.017	19.974	3.840	0.450
170.000	151.054	79.998	19.996	101.016	19.971	4.057	0.459
170.500	151.300	79.999	19.996	101.014	19.967	4.285	0.470
171.000	151.546	80.000	19.997	101.013	19.972	3.973	0.485
171.500	151.764	79.998	19.996	101.013	19.971	4.004	0.478
172.000	151.981	79.998	19.997	101.013	19.970	4.098	0.450
172.500	152.208	79.997	19.996	101.013	19.972	3.937	0.440
173.000	152.462	79.999	19.997	101.013	19.977	3.632	0.462
173.500	152.697	79.999	19.996	101.015	19.972	3.971	0.485
174.000	152.950	80.000	19.997	101.015	19.975	3.784	0.489
174.500	153.185	79.999	19.996	101.017	19.975	3.793	0.488
175.000	153.415	79.998	19.996	101.018	19.976	3.706	0.477
175.500	153.662	79.998	19.997	101.019	19.975	3.795	0.471
176.000	153.891	79.999	19.997	101.017	19.975	3.796	0.476
176.500	154.160	79.998	19.996	101.017	19.975	3.768	0.487
177.000	154.418	79.998	19.997	101.015	19.972	3.957	0.512
177.500	154.612	79.999	19.998	101.013	19.972	3.978	0.490
178.000	154.850	79.999	19.998	101.012	19.972	3.952	0.443
178.500	155.095	79.999	19.997	101.013	19.972	3.969	0.458
179.000	155.324	79.999	19.996	101.013	19.973	3.883	0.478
179.501	155.584	80.001	19.996	101.013	19.970	4.070	0.481
180.001	155.821	80.000	19.996	101.013	19.971	4.059	0.493
180.500	156.069	80.001	19.997	101.014	19.977	3.634	0.491
181.000	156.312	79.999	19.997	101.013	19.973	3.893	0.488
181.500	156.560	80.000	19.997	101.012	19.970	4.117	0.491
182.000	156.807	80.000	19.995	101.012	19.973	3.920	0.493
182.500	157.102	80.000	19.996	101.012	19.976	3.721	0.518
183.000	157.326	80.001	19.996	101.013	19.973	3.916	0.530
183.500	157.546	80.001	19.996	101.013	19.975	3.754	0.482
184.000	157.770	80.002	19.997	101.013	19.972	3.998	0.444
184.500	158.029	80.001	19.995	101.013	19.970	4.102	0.463
185.000	158.282	80.000	19.994	101.012	19.972	3.990	0.498
185.500	158.543	80.001	19.995	101.012	19.973	3.911	0.513
186.000	158.773	80.001	19.995	101.012	19.973	3.883	0.503
186.500	159.022	80.000	19.995	101.012	19.979	3.521	0.485
187.000	159.305	80.000	19.995	101.012	19.974	3.835	0.505
187.500	159.569	80.000	19.996	101.013	19.974	3.858	0.539
188.000	159.785	80.001	19.996	101.013	19.976	3.696	0.513
188.500	160.020	80.001	19.995	101.013	19.973	3.894	0.465
189.000	160.276	80.002	19.995	101.013	19.976	3.721	0.471
189.500	160.532	80.000	19.995	101.014	19.974	3.855	0.502
190.000	160.775	80.001	19.995	101.013	19.973	3.876	0.505
190.500	161.026	79.999	19.995	101.013	19.972	3.964	0.496
191.000	161.257	79.999	19.996	101.013	19.975	3.761	0.488
191.500	161.536	80.000	19.995	101.014	19.974	3.862	0.496
192.000	161.743	79.999	19.994	101.013	19.971	4.031	0.498
192.500	161.981	79.999	19.995	101.013	19.970	4.098	0.466
193.000	162.216	79.998	19.995	101.015	19.974	3.846	0.459
193.500	162.470	79.998	19.996	101.015	19.975	3.802	0.481
194.000	162.667	79.999	19.996	101.015	19.975	3.775	0.470
194.500	162.985	79.998	19.996	101.016	19.976	3.708	0.483
195.000	163.192	79.998	19.995	101.016	19.974	3.872	0.520
195.500	163.446	79.997	19.995	101.016	19.972	3.985	0.493
196.000	163.718	79.998	19.996	101.016	19.973	3.890	0.494
196.500	163.917	79.998	19.996	101.015	19.977	3.618	0.499
197.000	164.184	79.998	19.996	101.016	19.974	3.809	0.469
197.500	164.446	79.998	19.997	101.016	19.975	3.793	0.498
198.000	164.683	79.998	19.996	101.017	19.974	3.849	0.514
198.500	164.977	79.997	19.995	101.018	19.973	3.888	0.515
199.000	165.210	79.998	19.996	101.019	19.970	4.076	0.529
199.500	165.473	79.997	19.996	101.018	19.970	4.078	0.512
200.000	165.741	79.999	19.995	101.018	19.973	3.882	0.513
200.500	165.979	79.997	19.996	101.016	19.967	4.285	0.518
201.000	166.265	79.999	19.997	101.015	19.972	3.981	0.515
201.500	166.462	79.997	19.996	101.015	19.974	3.812	0.504
202.000	166.725	79.997	19.996	101.015	19.969	4.152	0.472
202.500	166.994	79.999	19.997	101.015	19.972	3.985	0.496
203.000	167.225	79.998	19.997	101.017	19.971	4.052	0.515
203.500	167.464	79.997	19.995	101.017	19.967	4.323	0.485
204.000	167.720	79.997	19.995	101.013	19.968	4.227	0.483
204.500	167.937	79.997	19.994	101.011	19.973	3.884	0.484
205.000	168.178	79.999	19.996	101.008	19.966	4.371	0.466
205.500	168.416	79.998	19.996	101.006	19.972	3.946	0.468
206.000	168.642	79.999	19.996	101.004	19.968	4.247	0.471
206.500	168.918	79.997	19.995	101.007	19.973	3.903	0.483
207.000	169.167	79.996	19.995	101.008	19.969	4.157	0.514
207.500	169.427	79.997	19.996	101.011	19.972	3.960	0.518
208.000	169.685	79.997	19.995	101.012	19.976	3.731	0.514
208.500	169.930	79.998	19.996	101.011	19.974	3.847	0.510
209.000	170.186	79.997	19.996	101.008	19.972	3.972	0.502
209.500	170.422	79.998	19.996	101.005	19.971	4.037	0.497
210.000	170.693	79.998	19.995	101.004	19.972	3.953	0.499
210.500	170.971	79.997	19.995	101.004	19.973	3.923	0.528
211.000	171.205	79.998	19.995	101.005	19.975	3.785	0.530
211.500	171.420	79.997	19.995	101.007	19.971	4.007	0.481
212.000	171.659	79.997	19.994	101.010	19.970	4.069	0.452
212.500	171.918	79.998	19.996	101.010	19.966	4.344	0.476
213.000	172.127	79.998	19.996	101.009	19.972	3.986	0.483
213.500	172.360	79.998	19.995	101.009	19.969	4.146	0.455
214.000	172.606	79.997	19.996	101.010	19.972	3.965	0.461
214.500	172.863	79.998	19.995	101.010	19.975	3.757	0.491
215.000	173.095	79.998	19.995	101.011	19.970	4.087	0.496
215.500	173.388	79.998	19.996	101.008	19.968	4.201	0.507
216.000	173.612	79.998	19.995	101.008	19.971	4.037	0.521
216.500	173.853	79.999	19.996	101.006	19.968	4.215	0.491
217.000	174.132	79.998	19.995	101.003	19.972	3.958	0.492
217.500	174.338	79.998	19.995	101.000	19.972	3.958	0.502
218.000	174.594	79.999	19.995	101.003	19.972	3.949	0.474
218.500	174.847	79.998	19.995	101.002	19.974	3.850	0.486
219.000	175.106	79.998	19.995	101.004	19.973	3.926	0.510
219.500	175.344	79.998	19.996	101.004	19.970	4.131	0.504
220.000	175.617	79.998	19.995	101.006	19.972	3.938	0.504
220.500	175.851	80.000	19.996	101.001	19.969	4.164	0.509
221.000	176.089	79.999	19.995	101.002	19.968	4.199	0.489
221.500	176.357	79.998	19.995	101.000	19.966	4.360	0.489
222.000	176.621	79.998	19.996	101.001	19.972	3.995	0.519
222.500	176.855	79.997	19.995	100.997	19.971	4.003	0.515
223.000	177.075	79.998	19.996	100.996	19.970	4.111	0.476
223.500	177.353	79.999	19.996	100.994	19.971	4.005	0.476
224.000	177.567	79.998	19.994	100.993	19.967	4.278	0.495
224.500	177.823	79.997	19.997	100.991	19.970	4.097	0.481
225.000	178.098	79.998	19.996	100.991	19.974	3.852	0.500
225.500	178.361	79.999	19.995	100.995	19.970	4.123	0.534
226.000	178.581	79.998	19.996	100.994	19.971	4.005	0.510
226.500	178.821	80.000	19.996	100.994	19.969	4.178	0.472
227.000	179.048	79.998	19.995	100.995	19.971	4.012	0.464
227.500	179.277	79.999	19.997	100.993	19.974	3.868	0.462
228.000	179.532	79.998	19.996	100.992	19.972	3.940	0.470
228.500	179.782	79.999	19.997	100.992	19.971	4.065	0.494
229.000	180.034	79.999	19.996	100.991	19.975	3.762	0.504
229.500	180.281	79.999	19.995	100.988	19.971	4.063	0.501
230.000	180.530	79.999	19.996	100.994	19.970	4.111	0.497
230.500	180.768	79.997	19.996	100.994	19.972	4.000	0.491
231.000	181.047	79.998	19.996	100.994	19.967	4.264	0.502
231.500	181.291	79.998	19.996	100.994	19.972	3.998	0.520
232.000	181.537	79.999	19.996	100.994	19.972	3.968	0.507
232.500	181.784	79.997	19.996	100.991	19.973	3.919	0.492
233.000	182.024	79.998	19.997	100.988	19.967	4.276	0.490
233.500	182.260	79.999	19.997	100.986	19.969	4.162	0.481
234.000	182.546	79.998	19.997	100.985	19.969	4.160	0.499
234.500	182.755	79.998	19.997	100.985	19.969	4.190	0.509
235.000	182.985	79.998	19.996	100.988	19.968	4.227	0.467
235.500	183.289	79.997	19.996	100.990	19.967	4.262	0.486
236.000	183.504	79.998	19.997	100.991	19.969	4.140	0.527
236.500	183.769	79.998	19.997	100.991	19.971	4.047	0.500
237.000	183.979	80.000	19.996	100.990	19.967	4.304	0.478
237.500	184.237	79.999	19.996	100.988	19.970	4.114	0.472
238.000	184.456	79.999	19.997	100.986	19.969	4.170	0.472
238.500	184.742	80.000	19.997	100.986	19.971	4.005	0.491
239.000	184.987	80.000	19.997	100.987	19.966	4.375	0.518
239.500	185.203	80.001	19.997	100.986	19.968	4.259	0.496
240.000	185.521	79.999	19.997	100.984	19.969	4.156	0.498
240.500	185.753	80.000	19.997	100.983	19.970	4.104	0.542
241.000	186.000	80.001	19.997	100.981	19.967	4.298	0.515
241.500	186.240	79.999	19.997	100.982	19.970	4.130	0.483
242.000	186.514	79.998	19.996	100.982	19.964	4.488	0.500
242.500	186.742	80.001	19.997	100.981	19.966	4.338	0.508
243.000	186.995	79.999	19.997	100.980	19.968	4.245	0.492
243.500	187.285	80.002	19.998	100.981	19.968	4.259	0.512
244.000	187.517	80.001	19.997	100.978	19.968	4.248	0.532
244.500	187.749	80.000	19.997	100.977	19.966	4.366	0.493
245.000	187.977	80.000	19.996	100.977	19.969	4.171	0.462
245.500	188.228	80.000	19.997	100.977	19.967	4.303	0.470
246.000	188.492	80.000	19.997	100.976	19.965	4.428	0.497
246.500	188.714	80.000	19.996	100.976	19.967	4.266	0.500
247.000	188.947	80.001	19.996	100.976	19.967	4.287	0.471
247.500	189.202	79.999	19.996	100.976	19.967	4.303	0.472
248.000	189.447	79.999	19.997	100.976	19.967	4.299	0.494
248.500	189.692	80.000	19.996	100.977	19.964	4.493	0.495
249.000	189.920	80.000	19.996	100.977	19.967	4.278	0.482
249.500	190.171	79.999	19.997	100.977	19.963	4.523	0.476
250.000	190.446	79.999	19.996	100.977	19.968	4.257	0.503
250.500	190.698	79.999	19.997	100.977	19.964	4.477	0.526
251.000	190.920	79.999	19.996	100.977	19.963	4.574	0.500
251.500	191.164	79.999	19.996	100.979	19.968	4.202	0.470
252.000	191.392	79.999	19.996	100.980	19.966	4.335	0.469
252.500	191.650	79.998	19.996	100.982	19.965	4.430	0.480
253.000	191.883	80.000	19.996	100.982	19.964	4.502	0.489
253.500	192.146	79.998	19.996	100.982	19.964	4.481	0.493
254.000	192.384	79.998	19.997	100.981	19.963	4.583	0.498
254.500	192.621	79.998	19.996	100.982	19.966	4.347	0.488
255.000	192.882	79.998	19.996	100.981	19.966	4.373	0.487
255.500	193.110	79.999	19.996	100.981	19.962	4.590	0.493
256.000	193.343	80.000	19.997	100.981	19.966	4.357	0.475
256.500	193.570	79.998	19.997	100.980	19.961	4.682	0.461
257.000	193.853	80.000	19.997	100.979	19.966	4.375	0.485
257.500	194.084	79.999	19.997	100.979	19.965	4.437	0.512
258.000	194.369	79.999	19.996	100.980	19.960	4.722	0.515
258.500	194.576	79.999	19.997	100.982	19.960	4.752	0.504
259.000	194.830	79.998	19.996	100.983	19.962	4.608	0.476
259.500	195.085	80.000	19.998	100.983	19.963	4.583	0.485
260.000	195.314	79.999	19.997	100.984	19.965	4.449	0.497
260.500	195.591	80.000	19.997	100.983	19.959	4.823	0.495
261.000	195.777	79.999	19.995	100.981	19.955	5.048	0.484
261.500	196.036	79.999	19.997	100.980	19.958	4.847	0.454
262.000	196.249	80.000	19.996	100.979	19.961	4.687	0.459
262.500	196.494	80.000	19.996	100.980	19.960	4.756	0.464
263.000	196.720	79.999	19.996	100.980	19.963	4.544	0.464
263.500	197.003	80.000	19.996	100.980	19.961	4.701	0.490
264.000	197.245	80.000	19.996	100.978	19.962	4.616	0.517
264.500	197.473	79.998	19.997	100.978	19.962	4.643	0.498
265.000	197.733	79.999	19.996	100.976	19.956	5.022	0.479
265.500	197.965	80.000	19.997	100.977	19.957	4.964	0.490
266.000	198.213	79.999	19.997	100.978	19.961	4.687	0.486
266.500	198.433	79.999	19.997	100.979	19.961	4.689	0.474
267.000	198.715	79.998	19.997	100.980	19.961	4.696	0.485
267.500	198.962	79.999	19.998	100.982	19.960	4.768	0.516
268.000	199.199	80.000	19.996	100.982	19.960	4.730	0.506
268.500	199.435	79.999	19.996	100.981	19.960	4.742	0.478
269.000	199.688	80.000	19.996	100.980	19.958	4.885	0.481
269.500	199.889	79.999	19.997	100.978	19.954	5.112	0.471
270.000	200.159	80.000	19.997	100.976	19.957	4.913	0.463
270.500	200.403	79.999	19.996	100.975	19.957	4.916	0.493
271.000	200.616	79.999	19.996	100.976	19.954	5.137	0.486
271.500	200.893	79.999	19.996	100.975	19.956	4.978	0.473
272.000	201.127	79.999	19.997	100.976	19.959	4.807	0.501
272.500	201.349	79.998	19.995	100.976	19.957	4.918	0.484
273.000	201.604	79.998	19.996	100.976	19.958	4.904	0.466
273.500	201.853	79.998	19.996	100.976	19.955	5.052	0.490
274.000	202.091	79.998	19.996	100.977	19.952	5.277	0.496
274.500	202.366	79.998	19.995	100.977	19.952	5.297	0.500
275.000	202.605	79.997	19.995	100.977	19.954	5.143	0.513
275.500	202.825	79.998	19.996	100.978	19.955	5.073	0.486
276.000	203.060	79.999	19.997	100.978	19.952	5.263	0.457
276.500	203.338	79.998	19.997	100.978	19.951	5.306	0.485
277.000	203.538	79.998	19.995	100.979	19.952	5.286	0.496
277.500	203.808	79.997	19.996	100.980	19.953	5.189	0.474
278.000	204.045	79.998	19.996	100.982	19.952	5.239	0.488
278.500	204.272	79.998	19.995	100.982	19.954	5.112	0.486
279.000	204.481	79.998	19.996	100.982	19.951	5.329	0.450
279.500	204.736	79.998	19.996	100.982	19.953	5.179	0.450
280.000	205.032	79.998	19.996	100.982	19.955	5.041	0.507
280.500	205.276	79.997	19.995	100.980	19.952	5.258	0.545
281.000	205.516	79.997	19.995	100.979	19.947	5.581	0.512
281.500	205.766	79.997	19.995	100.980	19.954	5.142	0.487
282.000	205.974	79.997	19.996	100.980	19.954	5.115	0.474
282.500	206.259	79.998	19.996	100.981	19.952	5.277	0.475
283.000	206.465	79.998	19.996	100.981	19.951	5.330	0.492
283.500	206.738	79.998	19.997	100.980	19.954	5.119	0.485
284.001	206.965	79.998	19.995	100.979	19.949	5.439	0.489
284.501	207.190	79.998	19.996	100.978	19.952	5.233	0.476
285.000	207.460	79.998	19.994	100.977	19.952	5.276	0.474
285.500	207.722	79.997	19.995	100.976	19.953	5.219	0.514
286.000	207.960	79.999	19.995	100.976	19.949	5.475	0.516
286.500	208.214	79.999	19.995	100.977	19.954	5.115	0.496
287.000	208.467	79.999	19.995	100.976	19.948	5.514	0.499
287.500	208.699	79.998	19.996	100.976	19.949	5.429	0.496
288.000	208.920	79.998	19.996	100.978	19.949	5.436	0.469
288.500	209.164	79.999	19.997	100.978	19.951	5.316	0.459
289.000	209.415	79.998	19.996	100.978	19.948	5.499	0.480
289.500	209.680	79.998	19.996	100.979	19.950	5.371	0.505
290.000	209.923	79.999	19.996	100.980	19.951	5.350	0.512
290.500	210.176	79.999	19.996	100.978	19.947	5.602	0.502
291.000	210.391	80.000	19.995	100.978	19.948	5.529	0.482
291.500	210.650	79.998	19.997	100.977	19.946	5.637	0.471
292.000	210.880	79.999	19.996	100.976	19.947	5.617	0.482
292.500	211.148	79.999	19.996	100.974	19.949	5.487	0.494
293.000	211.410	79.999	19.996	100.974	19.947	5.570	0.514
293.500	211.635	79.997	19.996	100.974	19.951	5.311	0.509
294.000	211.862	79.998	19.996	100.974	19.946	5.626	0.469
294.500	212.128	79.999	19.996	100.974	19.948	5.536	0.472
295.000	212.326	79.998	19.996	100.975	19.951	5.332	0.479
295.500	212.586	80.000	19.996	100.975	19.948	5.524	0.461
296.000	212.890	79.999	19.996	100.975	19.945	5.720	0.511
296.500	213.102	79.998	19.995	100.974	19.949	5.484	0.540
297.000	213.386	79.998	19.995	100.974	19.944	5.752	0.506
297.500	213.593	79.999	19.996	100.974	19.944	5.753	0.493
298.000	213.841	79.999	19.997	100.974	19.943	5.819	0.473
298.500	214.095	80.000	19.996	100.974	19.944	5.792	0.478
299.001	214.351	79.997	19.996	100.975	19.945	5.741	0.506
299.500	214.588	80.001	19.997	100.975	19.942	5.923	0.502
300.000	214.832	79.999	19.995	100.975	19.944	5.797	0.487
300.500	215.053	79.998	19.996	100.974	19.945	5.748	0.473
301.000	215.308	80.000	19.995	100.975	19.944	5.774	0.471
301.500	215.558	79.998	19.997	100.974	19.943	5.817	0.490
302.000	215.777	79.999	19.996	100.972	19.945	5.738	0.487
302.500	216.047	79.999	19.996	100.972	19.946	5.633	0.479
303.000	216.270	79.999	19.997	100.972	19.943	5.822	0.492
303.500	216.530	79.999	19.996	100.972	19.943	5.871	0.488
304.000	216.805	79.999	19.997	100.971	19.946	5.649	0.509
304.500	217.022	79.998	19.996	100.973	19.937	6.217	0.513
305.000	217.278	79.999	19.997	100.974	19.945	5.748	0.482
305.500	217.509	79.998	19.996	100.973	19.940	6.035	0.480
306.000	217.758	79.998	19.995	100.974	19.941	5.961	0.484
306.500	217.995	79.999	19.998	100.975	19.943	5.879	0.483
307.000	218.218	79.999	19.997	100.976	19.940	6.034	0.473
307.500	218.491	79.998	19.996	100.975	19.945	5.727	0.478
308.000	218.719	79.999	19.996	100.975	19.940	6.055	0.499
308.500	218.984	79.999	19.995	100.975	19.943	5.864	0.497
309.000	219.235	79.998	19.997	100.976	19.941	5.959	0.504
309.500	219.481	79.998	19.995	100.976	19.944	5.813	0.507
310.000	219.684	80.000	19.996	100.976	19.941	5.954	0.473
310.500	219.943	79.998	19.996	100.976	19.941	5.967	0.455
311.000	220.167	79.999	19.996	100.976	19.939	6.122	0.473
311.500	220.415	79.999	19.996	100.976	19.941	5.949	0.478
312.000	220.666	79.998	19.996	100.976	19.938	6.185	0.485
312.500	220.890	79.999	19.995	100.977	19.940	6.046	0.487
313.000	221.142	79.999	19.996	100.977	19.933	6.490	0.475
313.500	221.402	79.999	19.995	100.976	19.941	5.973	0.494
314.000	221.631	79.998	19.996	100.976	19.939	6.100	0.501
314.500	221.909	79.998	19.996	100.976	19.941	5.959	0.498
315.000	222.147	79.999	19.996	100.975	19.937	6.250	0.511
315.500	222.439	80.000	19.996	100.976	19.940	6.043	0.523
316.000	222.693	79.998	19.995	100.976	19.941	5.991	0.538
316.500	222.888	80.000	19.996	100.977	19.940	6.062	0.498
317.000	223.175	79.998	19.996	100.976	19.934	6.458	0.466
317.500	223.367	79.999	19.996	100.977	19.937	6.259	0.480
318.000	223.650	79.997	19.997	100.977	19.942	5.933	0.477
318.500	223.855	79.997	19.994	100.978	19.939	6.076	0.482
319.000	224.121	79.999	19.996	100.975	19.934	6.426	0.479
319.500	224.343	79.999	19.995	100.975	19.939	6.082	0.480
320.000	224.643	80.000	19.995	100.975	19.938	6.142	0.505
320.500	224.875	80.000	19.995	100.974	19.934	6.439	0.527
321.000	225.095	79.998	19.995	100.973	19.937	6.229	0.492
321.500	225.387	80.000	19.996	100.976	19.935	6.359	0.482
322.000	225.608	80.000	19.996	100.977	19.937	6.243	0.512
322.500	225.846	80.000	19.995	100.977	19.939	6.081	0.486
323.000	226.077	80.000	19.995	100.976	19.936	6.313	0.464
323.500	226.364	79.999	19.995	100.973	19.938	6.167	0.494
324.000	226.617	79.999	19.996	100.972	19.937	6.204	0.529
324.500	226.857	80.002	19.996	100.971	19.937	6.218	0.516
325.000	227.093	80.000	19.996	100.971	19.934	6.428	0.484
325.500	227.330	80.000	19.995	100.973	19.937	6.220	0.475
326.000	227.596	80.000	19.995	100.977	19.936	6.271	0.488
326.500	227.845	79.999	19.996	100.978	19.930	6.696	0.509
327.000	228.088	79.999	19.996	100.977	19.936	6.283	0.503
327.500	228.357	79.999	19.996	100.977	19.933	6.467	0.502
328.000	228.605	79.999	19.995	100.975	19.937	6.268	0.515
328.500	228.848	80.000	19.995	100.974	19.935	6.372	0.504
329.000	229.107	79.999	19.996	100.973	19.934	6.458	0.497
329.500	229.383	79.999	19.997	100.973	19.931	6.598	0.518
330.000	229.592	80.000	19.997	100.970	19.936	6.272	0.509
330.500	229.853	79.999	19.996	100.968	19.937	6.205	0.478
331.000	230.122	79.998	19.996	100.969	19.931	6.594	0.500
331.500	230.369	79.998	19.997	100.969	19.934	6.404	0.523
332.000	230.593	79.999	19.997	100.969	19.932	6.573	0.494
332.500	230.876	80.000	19.997	100.971	19.929	6.774	0.489
333.000	231.068	79.999	19.996	100.970	19.931	6.636	0.491
333.500	231.324	79.997	19.996	100.970	19.927	6.906	0.462
334.000	231.628	79.999	19.996	100.970	19.936	6.300	0.504
334.500	231.795	79.999	19.997	100.970	19.928	6.849	0.515
335.000	232.089	80.000	19.996	100.970	19.929	6.777	0.466
335.500	232.331	79.999	19.995	100.968	19.931	6.640	0.498
336.000	232.602	79.999	19.996	100.965	19.929	6.758	0.524
336.500	232.806	79.998	19.996	100.964	19.932	6.546	0.494
337.000	233.051	79.999	19.997	100.963	19.927	6.902	0.462
337.500	233.349	79.999	19.996	100.964	19.929	6.770	0.496
338.000	233.519	79.998	19.997	100.969	19.926	6.982	0.505
338.500	233.865	79.999	19.997	100.971	19.925	7.017	0.492
339.000	234.039	79.999	19.996	100.972	19.925	7.029	0.518
339.500	234.292	79.998	19.995	100.973	19.921	7.300	0.474
340.000	234.646	79.999	19.996	100.974	19.925	7.032	0.517
340.500	234.778	79.999	19.995	100.974	19.924	7.080	0.546
341.000	234.926	79.997	19.996	100.977	19.925	7.006	0.383
341.500	235.179	79.999	19.996	100.977	19.922	7.201	0.341
342.000	235.681	79.998	19.996	100.977	19.925	7.041	0.578
342.500	235.667	80.000	19.997	100.976	19.927	6.867	0.622
343.000	235.886	80.000	19.996	100.975	19.923	7.159	0.347
343.500	236.110	79.999	19.996	100.975	19.926	6.923	0.324
344.000	236.428	80.000	19.996	100.975	19.924	7.094	0.492
344.500	236.963	79.999	19.996	100.973	19.930	6.694	0.697
345.000	236.890	80.000	19.997	100.973	19.923	7.161	0.658
345.500	237.459	80.000	19.995	100.971	19.923	7.142	0.479
346.000	237.445	80.000	19.995	100.971	19.926	6.974	0.526
346.500	237.898	80.000	19.996	100.970	19.920	7.338	0.497
347.000	237.869	79.999	19.996	100.971	19.918	7.484	0.431
347.500	238.280	80.002	19.996	100.971	19.919	7.397	0.403
348.000	238.550	80.001	19.996	100.973	19.920	7.365	0.531
348.500	238.709	80.002	19.997	100.971	19.921	7.258	0.555
349.000	239.022	80.000	19.997	100.970	19.919	7.411	0.451
349.500	239.264	80.002	19.997	100.968	19.922	7.215	0.513
350.000	239.490	80.001	19.996	100.964	19.919	7.391	0.511
350.500	239.751	80.002	19.996	100.964	19.920	7.356	0.478
351.000	240.057	80.001	19.996	100.962	19.919	7.379	0.527
351.500	240.200	80.001	19.997	100.962	19.923	7.172	0.508
352.000	240.451	79.999	19.998	100.962	19.919	7.406	0.421
352.500	240.694	80.001	19.995	100.965	19.919	7.399	0.444
353.000	240.960	80.000	19.995	100.966	19.918	7.475	0.502
353.500	241.241	80.001	19.997	100.969	19.918	7.496	0.529
354.000	241.413	79.999	19.997	100.968	19.919	7.388	0.500
354.500	241.723	80.000	19.996	100.968	19.918	7.481	0.467
355.000	241.962	80.000	19.996	100.968	19.920	7.325	0.515
355.500	242.232	79.999	19.995	100.967	19.916	7.577	0.529
356.000	242.454	80.001	19.997	100.967	19.918	7.454	0.501
356.500	242.699	79.998	19.997	100.969	19.917	7.563	0.480
357.000	243.010	79.999	19.997	100.970	19.915	7.639	0.511
357.500	243.246	80.000	19.997	100.970	19.919	7.390	0.551
358.000	243.474	79.998	19.997	100.969	19.918	7.440	0.506
358.500	243.762	79.998	19.997	100.968	19.919	7.403	0.491
359.000	244.021	79.997	19.997	100.966	19.918	7.487	0.532
359.500	244.307	79.997	19.996	100.962	19.918	7.480	0.546
360.000	244.544	79.997	19.998	100.958	19.919	7.394	0.534
360.500	244.762	79.997	19.997	100.957	19.916	7.597	0.489
361.000	244.995	79.996	19.997	100.956	19.920	7.330	0.453
361.500	245.278	79.996	19.998	100.957	19.916	7.581	0.483
362.000	245.521	79.998	19.999	100.962	19.917	7.536	0.521
362.500	245.758	79.997	19.997	100.966	19.915	7.658	0.503
363.000	246.015	79.998	19.999	100.968	19.912	7.880	0.487
363.500	246.303	79.998	19.998	100.968	19.914	7.736	0.519
364.000	246.543	79.998	19.997	100.965	19.913	7.760	0.536
364.500	246.794	79.998	19.997	100.965	19.910	7.954	0.510
365.000	247.084	79.998	19.997	100.963	19.913	7.818	0.516
365.500	247.327	79.999	19.997	100.960	19.912	7.853	0.537
366.000	247.577	79.998	19.997	100.963	19.915	7.638	0.513
366.500	247.831	80.000	19.998	100.967	19.915	7.682	0.499
367.000	248.053	79.999	19.996	100.967	19.913	7.767	0.491
367.500	248.333	79.998	19.997	100.970	19.911	7.904	0.489
368.000	248.573	79.999	19.998	100.972	19.915	7.663	0.510
368.500	248.837	79.999	19.997	100.970	19.912	7.867	0.512
369.000	249.060	79.998	19.998	100.970	19.913	7.760	0.496
369.500	249.365	79.998	19.997	100.971	19.912	7.838	0.508
370.000	249.605	79.998	19.996	100.971	19.912	7.845	0.537
370.500	249.842	80.000	19.996	100.970	19.911	7.950	0.511
371.000	250.133	79.998	19.997	100.970	19.912	7.846	0.502
371.500	250.394	79.998	19.996	100.969	19.912	7.864	0.540
372.000	250.687	79.999	19.997	100.967	19.915	7.661	0.554
372.500	250.923	79.998	19.996	100.967	19.911	7.942	0.542
373.000	251.162	79.998	19.996	100.967	19.912	7.887	0.502
373.500	251.436	79.997	19.998	100.970	19.910	7.973	0.494
374.000	251.695	79.999	19.997	100.971	19.912	7.862	0.523
374.500	251.928	79.997	19.996	100.969	19.911	7.943	0.513
375.000	252.208	79.998	19.996	100.965	19.909	8.048	0.502
375.500	252.457	79.998	19.995	100.960	19.914	7.752	0.521
376.000	252.711	79.997	19.995	100.957	19.908	8.100	0.516
376.500	252.988	79.998	19.997	100.955	19.907	8.170	0.517
377.000	253.186	79.999	19.996	100.953	19.909	8.077	0.503
377.500	253.430	79.998	19.996	100.954	19.908	8.084	0.458
378.000	253.716	79.998	19.995	100.959	19.909	8.035	0.486
378.500	253.903	79.999	19.995	100.960	19.903	8.423	0.501
379.000	254.202	79.999	19.997	100.957	19.902	8.495	0.480
379.500	254.464	79.998	19.996	100.962	19.909	8.053	0.524
380.000	254.754	79.998	19.996	100.963	19.900	8.663	0.556
380.500	254.978	79.998	19.996	100.964	19.902	8.508	0.533
381.000	255.224	79.998	19.995	100.963	19.899	8.730	0.492
381.500	255.469	79.998	19.997	100.965	19.899	8.695	0.480
382.000	255.724	79.999	19.996	100.964	19.898	8.767	0.496
382.500	256.034	79.998	19.994	100.966	19.901	8.563	0.533
383.000	256.267	80.000	19.996	100.961	19.897	8.833	0.554
383.500	256.519	79.998	19.995	100.964	19.892	9.147	0.514
384.000	256.744	79.999	19.996	100.962	19.896	8.870	0.481
384.500	257.020	79.998	19.996	100.959	19.894	9.041	0.489
385.000	257.281	79.998	19.995	100.955	19.897	8.833	0.519
385.500	257.530	79.998	19.996	100.957	19.897	8.857	0.523
386.000	257.764	79.998	19.996	100.952	19.897	8.818	0.496
386.500	258.034	79.997	19.995	100.956	19.894	9.035	0.494
387.000	258.265	79.998	19.996	100.956	19.893	9.093	0.502
387.500	258.512	79.997	19.995	100.959	19.893	9.058	0.489
388.000	258.790	79.998	19.996	100.961	19.895	8.978	0.502
388.500	259.029	79.998	19.996	100.966	19.896	8.882	0.521
389.000	259.292	79.997	19.995	100.963	19.891	9.192	0.510
389.500	259.493	79.998	19.996	100.965	19.893	9.083	0.483
390.000	259.766	79.997	19.995	100.966	19.894	9.002	0.469
390.500	260.026	79.999	19.995	100.966	19.893	9.089	0.503
391.000	260.250	79.998	19.995	100.966	19.891	9.218	0.509
391.500	260.511	79.997	19.994	100.968	19.895	8.989	0.484
392.000	260.744	79.997	19.996	100.969	19.892	9.130	0.489
392.500	260.964	79.996	19.995	100.969	19.891	9.220	0.473
393.000	261.229	79.998	19.996	100.965	19.892	9.167	0.469
393.500	261.480	79.997	19.997	100.960	19.891	9.244	0.501
394.000	261.696	79.998	19.995	100.960	19.891	9.227	0.491
394.500	261.917	79.997	19.996	100.959	19.887	9.481	0.452
395.000	262.233	79.998	19.996	100.958	19.884	9.681	0.487
395.500	262.426	79.996	19.997	100.958	19.887	9.497	0.523
396.000	262.701	79.997	19.997	100.959	19.886	9.546	0.488
396.500	262.972	79.997	19.997	100.957	19.889	9.365	0.507
397.000	263.165	79.998	19.996	100.954	19.890	9.303	0.505
397.500	263.441	79.997	19.998	100.950	19.889	9.317	0.466
398.000	263.702	79.997	19.995	100.951	19.889	9.354	0.503
398.500	263.953	79.998	19.996	100.952	19.888	9.412	0.525
399.000	264.239	79.999	19.996	100.950	19.885	9.634	0.525
399.500	264.439	79.998	19.996	100.954	19.888	9.415	0.511
400.000	264.709	79.998	19.995	100.956	19.888	9.436	0.478
400.500	264.945	79.998	19.996	100.957	19.891	9.185	0.488
401.000	265.191	80.000	19.995	100.959	19.887	9.506	0.494
401.500	265.465	79.997	19.996	100.965	19.888	9.384	0.501
402.000	265.658	79.999	19.996	100.964	19.892	9.178	0.494
402.500	265.948	80.001	19.996	100.967	19.887	9.468	0.475
403.000	266.141	79.999	19.995	100.969	19.889	9.317	0.483
403.500	266.416	80.000	19.996	100.966	19.891	9.237	0.475
404.000	266.697	80.000	19.995	100.966	19.884	9.692	0.512
404.500	266.963	80.000	19.996	100.968	19.887	9.472	0.551
405.000	267.196	79.999	19.994	100.969	19.884	9.684	0.523
405.500	267.490	80.000	19.995	100.970	19.887	9.464	0.513
406.000	267.724	79.999	19.995	100.976	19.879	10.012	0.527
406.500	267.991	79.999	19.996	100.974	19.883	9.730	0.514
407.000	268.236	80.000	19.995	100.973	19.883	9.715	0.506
407.500	268.483	80.000	19.995	100.972	19.879	9.966	0.502
408.000	268.763	79.999	19.997	100.970	19.882	9.784	0.510
408.500	268.967	80.001	19.997	100.969	19.885	9.620	0.505
409.000	269.203	80.000	19.996	100.969	19.879	9.962	0.462
409.500	269.459	80.000	19.994	100.968	19.881	9.879	0.465
410.000	269.698	80.000	19.996	100.966	19.885	9.584	0.493
410.500	269.954	79.998	19.993	100.965	19.884	9.653	0.495
411.000	270.289	80.001	19.996	100.960	19.883	9.724	0.543
411.500	270.532	80.000	19.995	100.957	19.883	9.749	0.585
412.000	270.755	80.001	19.996	100.955	19.879	9.983	0.522
412.500	271.053	79.999	19.996	100.953	19.879	9.976	0.494
413.000	271.279	80.001	19.996	100.950	19.880	9.951	0.522
413.500	271.564	79.999	19.995	100.949	19.876	10.219	0.517
414.000	271.845	80.000	19.996	100.949	19.882	9.811	0.538
414.500	272.127	80.000	19.995	100.947	19.882	9.774	0.564
415.000	272.351	79.999	19.996	100.950	19.879	10.009	0.534
415.500	272.622	79.999	19.996	100.953	19.878	10.088	0.501
416.000	272.819	79.999	19.996	100.957	19.874	10.316	0.482
416.500	273.072	79.998	19.996	100.958	19.876	10.171	0.459
417.000	273.323	79.999	19.997	100.961	19.877	10.116	0.477
417.500	273.545	79.998	19.996	100.956	19.880	9.940	0.488
418.000	273.823	80.000	19.995	100.954	19.876	10.160	0.486
418.500	274.080	80.000	19.996	100.953	19.873	10.398	0.517
419.000	274.310	79.999	19.997	100.950	19.875	10.247	0.511
419.500	274.572	79.999	19.996	100.946	19.874	10.305	0.490
420.000	274.881	79.999	19.996	100.948	19.879	10.023	0.532
420.500	275.096	80.000	19.997	100.947	19.875	10.251	0.547
421.000	275.322	79.999	19.996	100.948	19.874	10.322	0.483
421.500	275.581	79.998	19.996	100.951	19.873	10.353	0.463
422.000	275.876	79.998	19.996	100.952	19.877	10.149	0.519
422.500	276.125	79.999	19.997	100.954	19.873	10.407	0.549
423.000	276.334	80.000	19.997	100.954	19.872	10.417	0.501
423.500	276.630	79.999	19.997	100.951	19.873	10.367	0.481
424.000	276.858	79.999	19.997	100.949	19.876	10.221	0.515
424.500	277.076	79.999	19.997	100.946	19.866	10.843	0.485
425.000	277.366	80.000	19.997	100.943	19.878	10.052	0.477
425.500	277.585	79.998	19.996	100.945	19.872	10.471	0.508
426.000	277.846	80.000	19.996	100.948	19.874	10.309	0.495
426.500	278.087	80.001	19.997	100.949	19.874	10.303	0.491
427.000	278.337	80.000	19.996	100.949	19.871	10.488	0.496
427.500	278.619	80.000	19.997	100.949	19.876	10.180	0.512
428.000	278.837	79.999	19.996	100.946	19.871	10.532	0.516
428.500	279.120	80.000	19.996	100.943	19.874	10.308	0.500
429.000	279.377	80.001	19.997	100.946	19.871	10.534	0.520
429.500	279.621	80.001	19.997	100.945	19.872	10.421	0.520
430.000	279.865	80.000	19.996	100.944	19.875	10.229	0.495
430.500	280.155	80.000	19.997	100.943	19.872	10.421	0.511
431.000	280.362	80.000	19.996	100.942	19.871	10.511	0.515
431.500	280.632	80.001	19.995	100.937	19.875	10.276	0.487
432.000	280.870	80.000	19.994	100.936	19.873	10.386	0.493
432.500	281.113	80.002	19.995	100.936	19.872	10.474	0.495
433.000	281.391	80.001	19.997	100.938	19.872	10.436	0.501
433.500	281.633	80.001	19.997	100.940	19.874	10.320	0.521
434.000	281.874	80.001	19.996	100.941	19.876	10.168	0.501
434.500	282.087	80.000	19.996	100.946	19.872	10.434	0.468
435.000	282.368	80.001	19.997	100.951	19.872	10.446	0.474
435.500	282.616	80.001	19.997	100.951	19.879	9.968	0.512
436.000	282.813	80.000	19.996	100.950	19.874	10.299	0.487
436.500	283.088	80.000	19.994	100.952	19.873	10.393	0.459
437.000	283.333	80.001	19.995	100.949	19.870	10.551	0.496
437.500	283.564	80.000	19.996	100.944	19.868	10.687	0.498
438.000	283.865	80.000	19.996	100.943	19.874	10.294	0.504
438.500	284.084	80.001	19.996	100.944	19.871	10.494	0.526
439.000	284.354	79.999	19.997	100.941	19.874	10.335	0.504
439.500	284.593	79.999	19.995	100.940	19.872	10.457	0.499
440.000	284.886	79.997	19.997	100.941	19.873	10.379	0.521
440.500	285.107	79.999	19.996	100.944	19.873	10.357	0.523
441.000	285.343	79.999	19.995	100.944	19.871	10.518	0.485
441.500	285.597	79.999	19.997	100.945	19.870	10.550	0.473
442.000	285.865	79.999	19.997	100.947	19.874	10.322	0.506
442.500	286.094	79.997	19.996	100.951	19.873	10.409	0.509
443.000	286.341	79.998	19.996	100.950	19.874	10.317	0.486
443.500	286.621	79.998	19.996	100.949	19.875	10.259	0.502
444.000	286.917	79.998	19.996	100.952	19.872	10.435	0.552
444.500	287.115	79.998	19.996	100.952	19.873	10.364	0.535
445.000	287.364	79.998	19.996	100.949	19.872	10.421	0.471
445.500	287.629	79.998	19.996	100.948	19.871	10.530	0.481
446.000	287.850	79.999	19.997	100.948	19.873	10.362	0.500
446.500	288.129	79.998	19.996	100.945	19.868	10.701	0.493
447.000	288.379	79.999	19.997	100.943	19.873	10.385	0.515
447.500	288.596	79.999	19.997	100.941	19.873	10.394	0.498
448.000	288.861	79.996	19.998	100.941	19.878	10.047	0.475
448.500	289.126	79.996	19.996	100.941	19.872	10.439	0.506
449.000	289.370	79.997	19.996	100.947	19.874	10.291	0.519
449.500	289.620	79.998	19.996	100.947	19.870	10.548	0.501
450.000	289.885	79.998	19.998	100.947	19.874	10.323	0.505
450.500	290.142	79.998	19.997	100.947	19.877	10.139	0.519
451.000	290.406	79.998	19.997	100.945	19.876	10.188	0.521
451.500	290.629	79.997	19.997	100.942	19.873	10.409	0.504
452.000	290.872	79.998	19.997	100.941	19.879	9.998	0.477
452.500	291.150	79.996	19.996	100.942	19.876	10.172	0.493
453.000	291.407	79.997	19.999	100.944	19.876	10.202	0.528
453.500	291.641	79.997	19.997	100.945	19.875	10.280	0.513
454.000	291.921	79.996	19.996	100.943	19.877	10.144	0.502
454.500	292.181	79.998	19.998	100.943	19.879	9.975	0.527
455.000	292.451	79.996	19.998	100.942	19.876	10.158	0.535
455.500	292.658	79.998	19.998	100.940	19.872	10.437	0.504
456.000	292.899	79.996	19.997	100.940	19.878	10.026	0.462
456.500	293.158	79.998	19.997	100.940	19.874	10.312	0.474
457.000	293.390	79.997	19.997	100.939	19.875	10.238	0.495
457.500	293.641	79.997	19.998	100.939	19.873	10.351	0.487
458.000	293.914	79.997	19.998	100.939	19.877	10.103	0.504
458.500	294.169	79.996	19.997	100.938	19.878	10.039	0.526
459.000	294.440	79.997	19.997	100.942	19.881	9.877	0.527
459.500	294.677	79.998	19.997	100.945	19.880	9.926	0.517
460.000	294.886	79.997	19.997	100.946	19.878	10.030	0.477
460.500	295.177	79.998	19.998	100.946	19.876	10.187	0.473
461.000	295.455	79.998	19.997	100.946	19.875	10.223	0.535
461.500	295.649	79.997	19.997	100.943	19.881	9.839	0.521
462.000	295.921	79.999	19.996	100.943	19.877	10.105	0.468
462.500	296.196	79.997	19.997	100.942	19.881	9.894	0.506
463.000	296.468	79.997	19.997	100.942	19.876	10.199	0.548
463.500	296.698	79.997	19.997	100.942	19.877	10.118	0.525
464.000	296.914	79.999	19.997	100.942	19.872	10.463	0.474
464.500	297.241	79.999	19.996	100.941	19.876	10.208	0.494
465.000	297.461	79.999	19.996	100.942	19.879	9.972	0.545
465.500	297.710	79.997	19.996	100.941	19.878	10.040	0.508
466.000	297.969	79.999	19.998	100.941	19.875	10.271	0.488
466.500	298.221	79.997	19.997	100.941	19.878	10.070	0.510
467.000	298.461	79.998	19.996	100.941	19.877	10.105	0.501
467.500	298.752	79.997	19.999	100.945	19.878	10.073	0.511
468.000	299.019	79.997	19.996	100.947	19.872	10.428	0.545
468.500	299.235	79.998	19.998	100.949	19.880	9.955	0.520
469.000	299.508	79.999	19.997	100.951	19.874	10.297	0.486
469.500	299.778	79.998	19.997	100.951	19.876	10.195	0.516
470.000	300.006	79.997	19.997	100.947	19.873	10.399	0.521
470.500	300.268	79.998	19.995	100.946	19.877	10.121	0.494
471.000	300.478	79.998	19.996	100.943	19.872	10.427	0.481
471.500	300.762	79.999	19.996	100.942	19.877	10.140	0.483
472.000	301.001	79.998	19.996	100.942	19.874	10.320	0.508
472.500	301.288	79.998	19.996	100.941	19.873	10.396	0.524
473.000	301.537	79.998	19.997	100.941	19.875	10.256	0.531
473.500	301.802	79.999	19.996	100.943	19.872	10.420	0.525
474.000	302.066	79.999	19.995	100.943	19.877	10.122	0.522
474.500	302.294	79.999	19.995	100.944	19.873	10.404	0.510
475.000	302.527	79.999	19.996	100.944	19.876	10.179	0.476
475.500	302.767	79.999	19.995	100.945	19.872	10.423	0.467
476.000	303.054	80.000	19.995	100.943	19.874	10.342	0.500
476.500	303.302	79.999	19.996	100.942	19.870	10.554	0.531
477.000	303.503	79.998	19.996	100.940	19.875	10.267	0.493
477.500	303.785	79.998	19.997	100.940	19.873	10.371	0.466
478.000	304.018	79.997	19.997	100.940	19.875	10.279	0.499
478.500	304.290	79.997	19.995	100.940	19.880	9.932	0.510
479.000	304.559	79.997	19.997	100.939	19.874	10.293	0.523
479.500	304.795	80.000	19.997	100.939	19.875	10.269	0.524
480.000	305.070	80.000	19.996	100.939	19.875	10.255	0.508
480.500	305.256	79.999	19.996	100.938	19.871	10.500	0.485
481.000	305.541	79.998	19.997	100.937	19.875	10.253	0.466
481.500	305.805	79.998	19.996	100.938	19.871	10.489	0.510
482.000	306.026	80.000	19.997	100.937	19.874	10.293	0.517
482.500	306.324	80.000	19.997	100.937	19.875	10.267	0.502
483.000	306.560	79.998	19.995	100.937	19.874	10.306	0.527
483.500	306.807	80.001	19.997	100.936	19.871	10.514	0.508
484.000	307.081	80.000	19.996	100.936	19.872	10.473	0.502
484.500	307.320	79.998	19.996	100.935	19.874	10.313	0.517
485.000	307.568	80.001	19.995	100.935	19.870	10.579	0.500
485.500	307.806	80.000	19.996	100.934	19.868	10.732	0.487
486.000	308.065	80.001	19.997	100.934	19.869	10.612	0.492
486.500	308.327	80.000	19.996	100.933	19.866	10.863	0.509
487.000	308.535	79.999	19.995	100.934	19.866	10.843	0.495
487.500	308.841	79.999	19.995	100.935	19.866	10.811	0.492
488.000	309.085	80.001	19.996	100.935	19.868	10.723	0.532
488.500	309.343	80.000	19.995	100.936	19.870	10.570	0.526
489.000	309.595	80.000	19.995	100.936	19.870	10.600	0.506
489.500	309.855	80.002	19.996	100.937	19.868	10.688	0.511
490.000	310.112	80.000	19.996	100.937	19.869	10.614	0.515
490.500	310.361	80.002	19.996	100.936	19.871	10.508	0.512
491.000	310.624	80.002	19.995	100.936	19.866	10.845	0.509
491.500	310.845	79.999	19.995	100.936	19.865	10.907	0.498
492.000	311.138	80.001	19.996	100.936	19.864	10.968	0.499
492.500	311.410	80.000	19.996	100.936	19.868	10.690	0.540
493.000	311.646	80.002	19.997	100.936	19.864	10.951	0.537
493.500	311.923	80.001	19.998	100.936	19.867	10.785	0.511
494.000	312.157	80.000	19.996	100.936	19.864	10.956	0.512
494.500	312.441	79.999	19.995	100.936	19.863	11.021	0.514
495.000	312.697	80.000	19.994	100.936	19.864	10.968	0.529
495.500	312.940	80.000	19.995	100.937	19.864	10.951	0.519
496.000	313.187	79.999	19.995	100.936	19.865	10.930	0.495
496.500	313.432	79.998	19.995	100.937	19.860	11.240	0.491
497.000	313.690	80.000	19.995	100.937	19.861	11.136	0.497
497.500	313.951	80.002	19.996	100.937	19.862	11.122	0.511
498.000	314.231	80.001	19.995	100.936	19.860	11.231	0.530
498.500	314.440	79.999	19.996	100.937	19.861	11.190	0.516
499.000	314.719	80.000	19.996	100.937	19.861	11.155	0.489
499.500	314.974	80.000	19.996	100.937	19.859	11.301	0.511
500.000	315.183	79.997	19.995	100.937	19.859	11.271	0.499
500.500	315.460	79.999	19.995	100.938	19.858	11.350	0.475
501.000	315.702	79.999	19.995	100.938	19.858	11.347	0.503
501.500	315.968	80.000	19.996	100.938	19.857	11.419	0.513
502.000	316.235	80.000	19.996	100.938	19.856	11.514	0.520
502.500	316.493	80.001	19.995	100.938	19.854	11.631	0.529
503.000	316.739	80.000	19.994	100.938	19.852	11.740	0.514
503.500	317.029	80.000	19.996	100.938	19.856	11.515	0.520
504.000	317.285	80.000	19.996	100.938	19.852	11.759	0.541
504.500	317.521	80.001	19.996	100.937	19.855	11.558	0.520
505.000	317.774	79.999	19.995	100.937	19.853	11.677	0.491
505.500	317.994	79.997	19.995	100.937	19.853	11.700	0.480
506.000	318.251	79.997	19.996	100.937	19.847	12.034	0.475
506.500	318.532	80.001	19.996	100.937	19.849	11.927	0.508
507.000	318.797	80.003	19.996	100.937	19.848	11.999	0.542
507.500	319.029	80.002	19.995	100.938	19.847	12.050	0.521
508.000	319.265	80.002	19.996	100.937	19.845	12.188	0.482
508.500	319.493	79.996	19.997	100.937	19.847	12.092	0.466
509.000	319.787	80.002	19.995	100.937	19.847	12.075	0.493
509.500	320.049	80.000	19.996	100.936	19.850	11.871	0.539
510.000	320.295	79.999	19.996	100.936	19.847	12.034	0.532
510.500	320.503	80.002	19.995	100.936	19.844	12.233	0.481
511.000	320.809	80.002	19.995	100.936	19.846	12.106	0.484
511.500	321.036	80.000	19.995	100.935	19.844	12.267	0.523
512.000	321.297	80.002	19.995	100.934	19.847	12.098	0.510
512.500	321.542	80.003	19.995	100.934	19.841	12.438	0.497
513.000	321.789	80.001	19.996	100.935	19.841	12.468	0.499
513.500	322.070	80.001	19.997	100.934	19.837	12.699	0.510
514.000	322.302	80.002	19.996	100.935	19.843	12.353	0.521
514.500	322.561	79.999	19.996	100.937	19.841	12.427	0.502
515.000	322.850	80.001	19.996	100.936	19.838	12.637	0.519
515.500	323.050	80.001	19.996	100.936	19.835	12.862	0.518
516.000	323.307	80.000	19.996	100.937	19.839	12.594	0.473
516.500	323.566	80.000	19.997	100.937	19.832	13.065	0.486
517.000	323.813	80.003	19.996	100.937	19.828	13.285	0.511
517.500	324.073	80.000	19.996	100.936	19.834	12.876	0.507
518.000	324.307	80.002	19.996	100.936	19.828	13.305	0.500
518.500	324.585	80.001	19.996	100.936	19.826	13.412	0.503
519.000	324.822	79.999	19.995	100.936	19.823	13.604	0.514
519.500	325.060	80.000	19.997	100.937	19.828	13.280	0.495
520.000	325.342	80.000	19.996	100.938	19.825	13.508	0.497
520.500	325.601	80.002	19.997	100.938	19.822	13.670	0.531
521.000	325.819	80.000	19.996	100.937	19.820	13.821	0.509
521.500	326.089	79.999	19.997	100.936	19.818	13.945	0.482
522.000	326.310	79.999	19.997	100.936	19.818	13.959	0.489
522.500	326.592	79.997	19.996	100.936	19.813	14.274	0.497
523.000	326.815	79.999	19.997	100.935	19.816	14.073	0.504
523.500	327.090	79.997	19.997	100.936	19.812	14.309	0.502
524.000	327.351	80.001	19.996	100.938	19.816	14.094	0.517
524.500	327.621	80.001	19.996	100.938	19.807	14.653	0.533
525.000	327.815	79.999	19.996	100.937	19.809	14.507	0.497
525.500	328.123	79.998	19.996	100.937	19.806	14.694	0.483
526.000	328.336	79.999	19.996	100.936	19.803	14.914	0.512
526.500	328.576	79.997	19.994	100.936	19.803	14.914	0.487
527.000	328.820	79.998	19.996	100.935	19.797	15.321	0.468
527.500	329.086	79.998	19.997	100.936	19.799	15.166	0.497
528.000	329.345	80.000	19.997	100.935	19.799	15.190	0.518
528.500	329.610	79.998	19.997	100.936	19.790	15.775	0.525
529.000	329.842	79.996	19.996	100.936	19.794	15.497	0.510
529.500	330.093	79.997	19.995	100.936	19.789	15.802	0.490
530.000	330.344	79.996	19.996	100.937	19.784	16.140	0.493
530.500	330.591	79.998	19.997	100.939	19.783	16.223	0.500
531.000	330.843	79.995	19.997	100.939	19.782	16.268	0.499
531.500	331.085	80.000	19.995	100.939	19.778	16.519	0.497
532.000	331.361	79.999	19.995	100.939	19.779	16.496	0.506
532.500	331.539	79.999	19.995	100.939	19.778	16.541	0.485
533.000	331.825	79.999	19.995	100.938	19.778	16.548	0.459
533.501	332.078	79.996	19.995	100.937	19.770	17.038	0.502
534.000	332.338	79.997	19.995	100.937	19.772	16.920	0.526
534.500	332.576	79.997	19.996	100.937	19.767	17.258	0.505
535.000	332.851	79.996	19.997	100.938	19.765	17.357	0.505
535.500	333.074	79.997	19.998	100.939	19.764	17.417	0.506
536.000	333.346	79.997	19.995	100.939	19.764	17.445	0.497
536.500	333.568	79.998	19.996	100.940	19.756	17.949	0.495
537.000	333.848	79.997	19.996	100.940	19.759	17.790	0.498
537.500	334.101	79.998	19.996	100.939	19.758	17.843	0.517
538.000	334.351	79.998	19.997	100.939	19.755	18.053	0.518
538.500	334.597	79.997	19.995	100.940	19.752	18.199	0.500
539.000	334.821	79.996	19.996	100.940	19.747	18.573	0.484
539.500	335.095	79.999	19.996	100.940	19.745	18.705	0.484
540.000	335.347	80.002	19.995	100.940	19.739	19.076	0.511
540.500	335.610	79.999	19.997	100.939	19.735	19.305	0.520
541.000	335.874	79.998	19.995	100.939	19.733	19.445	0.521
541.500	336.129	79.999	19.996	100.938	19.731	19.605	0.523
542.000	336.348	80.000	19.997	100.938	19.729	19.732	0.496
542.500	336.604	79.998	19.996	100.938	19.726	19.874	0.475
543.000	336.846	79.999	19.996	100.937	19.717	20.461	0.487
543.500	337.132	79.999	19.996	100.936	19.717	20.468	0.513
544.000	337.394	79.998	19.995	100.936	19.711	20.854	0.538
544.500	337.650	80.000	19.998	100.936	19.711	20.859	0.533
545.000	337.863	79.999	19.998	100.935	19.706	21.182	0.493
545.500	338.153	79.996	19.996	100.935	19.703	21.402	0.486
546.000	338.365	79.999	19.997	100.935	19.701	21.533	0.502
546.500	338.608	79.997	19.999	100.935	19.695	21.922	0.479
547.000	338.875	79.997	19.997	100.935	19.695	21.926	0.482
547.500	339.133	79.998	19.998	100.934	19.692	22.111	0.517
548.000	339.362	79.997	19.997	100.934	19.688	22.384	0.506
548.500	339.666	79.999	19.996	100.934	19.683	22.695	0.510
549.000	339.895	79.998	19.997	100.934	19.677	23.111	0.533
549.500	340.180	79.999	19.996	100.935	19.672	23.411	0.523
550.000	340.414	79.996	19.996	100.935	19.666	23.800	0.517
550.500	340.654	79.994	19.997	100.935	19.665	23.870	0.497
551.000	340.951	79.999	19.998	100.934	19.658	24.329	0.506
551.500	341.211	79.997	19.997	100.934	19.653	24.653	0.547
552.000	341.460	79.999	19.998	100.934	19.649	24.893	0.533
552.500	341.688	79.997	19.997	100.934	19.643	25.255	0.493
553.000	341.971	80.000	19.999	100.934	19.640	25.474	0.494
553.500	342.199	79.999	19.996	100.934	19.638	25.639	0.511
554.000	342.469	79.999	19.998	100.934	19.633	25.937	0.505
554.500	342.686	79.998	19.998	100.933	19.628	26.259	0.493
555.000	342.922	79.998	19.997	100.933	19.621	26.721	0.470
555.500	343.207	79.998	19.997	100.931	19.614	27.192	0.487
556.000	343.443	79.997	19.996	100.933	19.607	27.606	0.520
556.500	343.643	79.998	19.997	100.933	19.609	27.500	0.479
557.000	343.894	79.997	19.997	100.935	19.601	27.992	0.444
557.500	344.198	79.997	19.998	100.934	19.596	28.334	0.503
558.000	344.399	79.999	19.997	100.937	19.592	28.605	0.530
558.500	344.695	79.999	19.996	100.936	19.588	28.866	0.501
559.000	344.915	80.001	19.995	100.936	19.581	29.287	0.506
559.500	345.169	79.997	19.996	100.934	19.575	29.721	0.495
560.000	345.442	79.998	19.997	100.934	19.570	30.045	0.501
560.500	345.689	80.001	19.996	100.933	19.562	30.502	0.524
561.000	345.957	79.997	19.997	100.934	19.561	30.623	0.518
561.500	346.192	79.999	19.997	100.933	19.552	31.152	0.509
562.000	346.412	79.998	19.996	100.934	19.547	31.495	0.479
562.500	346.719	79.997	19.995	100.934	19.541	31.878	0.491
563.000	346.924	79.998	19.996	100.935	19.536	32.207	0.519
563.500	347.177	80.002	19.995	100.934	19.533	32.426	0.485
564.000	347.444	80.000	19.995	100.935	19.524	32.992	0.489
564.500	347.670	80.000	19.995	100.934	19.518	33.380	0.506
565.000	347.896	79.998	19.996	100.933	19.509	33.983	0.473
565.500	348.158	80.000	19.997	100.932	19.502	34.384	0.470
566.000	348.407	79.997	19.995	100.931	19.498	34.696	0.499
566.500	348.665	80.000	19.995	100.928	19.490	35.167	0.509
567.000	348.917	80.000	19.995	100.927	19.484	35.576	0.509
567.500	349.171	79.999	19.995	100.928	19.474	36.255	0.508
568.000	349.414	80.001	19.995	100.928	19.472	36.342	0.501
568.500	349.702	80.000	19.995	100.929	19.462	37.000	0.514
569.000	349.948	79.999	19.994	100.933	19.454	37.553	0.533
569.500	350.167	79.999	19.995	100.934	19.446	38.073	0.499
570.000	350.457	80.000	19.995	100.934	19.440	38.445	0.487
570.500	350.678	80.002	19.995	100.932	19.435	38.773	0.510
571.000	350.956	80.001	19.996	100.930	19.426	39.334	0.505
571.500	351.181	80.000	19.996	100.926	19.416	40.001	0.501
572.000	351.442	80.000	19.994	100.924	19.412	40.260	0.495
572.500	351.665	80.001	19.994	100.919	19.402	40.923	0.485
573.000	351.936	80.000	19.996	100.917	19.395	41.377	0.489
573.500	352.246	80.001	19.995	100.915	19.388	41.773	0.538
574.000	352.488	79.999	19.996	100.915	19.380	42.339	0.566
574.500	352.721	80.000	19.995	100.915	19.371	42.881	0.513
575.000	353.005	80.002	19.995	100.917	19.364	43.372	0.496
575.500	353.229	80.000	19.995	100.919	19.354	44.015	0.513
576.000	353.524	79.998	19.994	100.920	19.346	44.509	0.514
576.500	353.731	79.999	19.995	100.918	19.337	45.091	0.510
577.000	354.019	79.999	19.995	100.919	19.329	45.590	0.499
577.500	354.274	80.001	19.996	100.922	19.321	46.123	0.519
578.000	354.539	79.999	19.994	100.923	19.320	46.217	0.531
578.500	354.760	80.000	19.995	100.923	19.305	47.179	0.503
579.000	355.012	80.000	19.995	100.926	19.295	47.805	0.480
579.500	355.259	80.001	19.995	100.923	19.286	48.431	0.486
580.000	355.518	80.001	19.995	100.919	19.279	48.870	0.502
580.500	355.773	79.998	19.996	100.918	19.266	49.711	0.510
581.000	356.045	79.999	19.996	100.923	19.258	50.190	0.521
581.500	356.271	80.001	19.996	100.924	19.252	50.618	0.512
582.000	356.530	79.999	19.996	100.926	19.238	51.481	0.492
582.500	356.792	79.997	19.995	100.925	19.232	51.909	0.503
583.000	357.071	79.998	19.997	100.925	19.220	52.657	0.531
583.500	357.292	79.999	19.996	100.923	19.210	53.307	0.521
584.000	357.559	80.002	19.995	100.920	19.203	53.746	0.494
584.500	357.816	79.997	19.996	100.920	19.193	54.457	0.506
585.000	358.061	79.999	19.996	100.922	19.184	55.014	0.513
585.500	358.298	79.998	19.996	100.920	19.171	55.882	0.492
586.000	358.585	80.000	19.995	100.920	19.165	56.213	0.503
586.500	358.823	80.001	19.995	100.918	19.153	57.046	0.525
587.000	359.013	80.002	19.994	100.913	19.141	57.773	0.477
587.500	359.293	80.000	19.998	100.909	19.129	58.598	0.449
588.000	359.556	79.998	19.997	100.912	19.124	58.867	0.506
588.500	359.857	79.999	19.997	100.909	19.114	59.552	0.553
589.000	360.047	79.999	19.996	100.911	19.102	60.312	0.528
589.500	360.325	80.002	19.996	100.912	19.093	60.932	0.480
590.000	360.588	80.002	19.996	100.912	19.084	61.510	0.504
590.500	360.827	79.999	19.996	100.906	19.073	62.178	0.521
591.000	361.099	80.002	19.996	100.903	19.064	62.778	0.506
591.500	361.314	80.000	19.996	100.901	19.050	63.658	0.499
592.000	361.579	80.000	19.996	100.901	19.041	64.248	0.484
592.500	361.826	79.998	19.996	100.901	19.034	64.752	0.496
593.000	362.078	80.001	19.995	100.901	19.022	65.519	0.505
593.500	362.299	80.000	19.995	100.901	19.013	66.091	0.485
594.000	362.596	80.001	19.994	100.901	18.999	66.969	0.495
594.500	362.791	79.997	19.995	100.900	18.992	67.448	0.505
595.000	363.067	80.002	19.994	100.901	18.982	68.094	0.482
595.500	363.292	79.999	19.994	100.904	18.971	68.808	0.486
596.000	363.585	80.001	19.994	100.904	18.960	69.484	0.509
596.500	363.821	80.002	19.993	100.904	18.945	70.456	0.523
597.000	364.073	79.999	19.995	100.904	18.937	71.012	0.509
597.500	364.325	80.001	19.994	100.902	18.929	71.542	0.496
598.000	364.555	80.000	19.994	100.900	18.918	72.260	0.493
598.500	364.806	79.998	19.994	100.900	18.906	72.983	0.482
599.000	365.047	80.003	19.995	100.900	18.895	73.708	0.486
599.500	365.289	80.003	19.995	100.900	18.888	74.158	0.487
600.000	365.559	80.000	19.994	100.901	18.879	74.747	0.498
600.500	365.821	80.002	19.995	100.901	18.868	75.435	0.522
601.000	366.039	80.001	19.994	100.901	18.858	76.094	0.506
601.500	366.281	80.000	19.995	100.902	18.850	76.638	0.470
602.000	366.537	80.001	19.995	100.901	18.839	77.352	0.479
602.500	366.764	80.000	19.995	100.900	18.829	77.958	0.490
603.000	367.054	79.998	19.994	100.900	18.823	78.339	0.500
603.500	367.281	80.000	19.995	100.900	18.808	79.307	0.517
604.000	367.576	79.998	19.995	100.899	18.803	79.646	0.520
604.500	367.791	79.998	19.994	100.898	18.794	80.271	0.517
605.000	368.059	79.998	19.994	100.895	18.786	80.757	0.496
605.500	368.314	79.997	19.996	100.894	18.771	81.717	0.502
606.000	368.564	80.000	19.996	100.893	18.762	82.306	0.514
606.500	368.837	79.999	19.996	100.893	18.754	82.825	0.514
607.000	369.103	79.998	19.997	100.895	18.747	83.286	0.531
607.500	369.299	79.999	19.995	100.896	18.741	83.668	0.500
608.000	369.566	79.999	19.995	100.891	18.731	84.346	0.462
608.500	369.834	79.999	19.998	100.888	18.724	84.740	0.499
609.000	370.056	80.001	19.997	100.888	18.715	85.381	0.513
609.500	370.307	79.999	19.995	100.886	18.707	85.842	0.482
610.000	370.543	79.998	19.998	100.881	18.697	86.503	0.480
610.500	370.798	80.000	19.996	100.882	18.690	86.971	0.489
611.000	371.058	79.995	19.997	100.883	18.685	87.304	0.503
611.500	371.313	79.999	19.996	100.882	18.673	88.093	0.515
612.000	371.556	80.000	19.996	100.878	18.667	88.464	0.507
612.500	371.784	79.998	19.997	100.880	18.660	88.912	0.485
613.000	372.104	79.998	19.997	100.879	18.655	89.254	0.510
613.500	372.343	79.999	19.996	100.874	18.647	89.721	0.553
614.000	372.608	79.998	19.996	100.869	18.642	90.079	0.531
614.500	372.827	80.000	19.997	100.868	18.637	90.394	0.494
615.000	373.078	79.999	19.996	100.864	18.630	90.875	0.478
615.500	373.417	80.000	19.997	100.862	18.628	91.016	0.530
616.000	373.661	79.999	19.997	100.865	18.625	91.199	0.586
616.500	373.903	80.000	19.996	100.865	18.614	91.873	0.535
617.000	374.151	79.996	19.996	100.864	18.610	92.174	0.488
617.500	374.356	80.000	19.997	100.864	18.605	92.446	0.471
618.000	374.650	79.999	19.996	100.864	18.599	92.868	0.475
618.500	374.863	79.999	19.996	100.859	18.597	92.955	0.503
619.000	375.123	79.998	19.997	100.857	18.592	93.308	0.491
619.500	375.359	80.000	19.997	100.857	18.589	93.502	0.485
620.000	375.633	79.999	19.996	100.857	18.585	93.750	0.503
620.500	375.868	79.997	19.996	100.857	18.582	93.931	0.509
621.000	376.064	80.000	19.996	100.857	18.583	93.902	0.470
621.500	376.393	79.998	19.996	100.857	18.576	94.330	0.479
622.000	376.628	79.999	19.996	100.857	18.573	94.559	0.545
622.500	376.912	79.997	19.996	100.857	18.571	94.695	0.541
623.000	377.142	79.998	19.997	100.857	18.569	94.803	0.516
623.500	377.415	79.999	19.996	100.857	18.568	94.858	0.509
624.000	377.658	79.997	19.996	100.855	18.567	94.927	0.510
624.500	377.898	80.000	19.996	100.855	18.567	94.906	0.500
625.000	378.152	79.999	19.997	100.855	18.566	94.997	0.489
625.500	378.382	80.002	19.996	100.856	18.567	94.924	0.489
626.000	378.643	80.000	19.995	100.856	18.562	95.284	0.487
626.500	378.882	79.999	19.996	100.858	18.566	94.976	0.495
627.000	379.152	80.000	19.996	100.857	18.568	94.882	0.504
627.500	379.394	80.001	19.996	100.856	18.568	94.836	0.510
628.000	379.644	79.998	19.997	100.856	18.570	94.717	0.502
628.500	379.950	79.998	19.997	100.854	18.570	94.739	0.524
629.000	380.174	80.000	19.997	100.852	18.570	94.731	0.543
629.500	380.458	79.999	19.996	100.851	18.574	94.455	0.519
630.000	380.689	79.999	19.996	100.848	18.577	94.291	0.512
630.500	380.959	79.999	19.997	100.845	18.577	94.263	0.508
631.000	381.192	80.000	19.997	100.845	18.584	93.856	0.502
631.500	381.439	80.000	19.996	100.846	18.585	93.789	0.492
632.000	381.689	80.000	19.996	100.846	18.587	93.651	0.488
632.500	381.924	79.999	19.997	100.846	18.588	93.558	0.490
633.000	382.189	79.997	19.998	100.849	18.595	93.126	0.492
633.500	382.460	80.000	19.997	100.850	18.597	92.969	0.518
634.000	382.703	79.998	19.996	100.847	18.604	92.507	0.525
634.500	382.953	79.998	19.997	100.847	18.605	92.481	0.503
635.000	383.207	79.997	19.997	100.851	18.611	92.075	0.499
635.500	383.461	79.997	19.999	100.851	18.616	91.748	0.506
636.000	383.703	79.999	19.997	100.850	18.622	91.384	0.502
636.500	383.964	79.998	19.997	100.854	18.627	91.070	0.500
637.000	384.209	79.999	19.996	100.855	18.634	90.584	0.505
637.500	384.472	80.000	19.997	100.853	18.639	90.292	0.507
638.000	384.711	79.998	19.997	100.852	18.647	89.760	0.505
638.500	384.967	79.997	19.997	100.852	18.654	89.322	0.498
639.000	385.201	79.997	19.998	100.853	18.663	88.747	0.493
639.500	385.464	79.995	19.997	100.851	18.671	88.178	0.493
640.000	385.721	79.998	19.998	100.852	18.676	87.894	0.508
640.500	386.002	79.999	19.997	100.852	18.687	87.194	0.529
641.000	386.205	79.997	19.998	100.853	18.694	86.718	0.512
641.500	386.445	79.995	19.997	100.853	18.697	86.532	0.464
642.000	386.736	79.996	19.999	100.854	18.707	85.871	0.487
642.500	386.999	79.998	20.000	100.855	18.717	85.237	0.542
643.000	387.222	79.996	19.997	100.856	18.719	85.067	0.520
643.500	387.486	79.994	19.998	100.852	18.730	84.403	0.487
644.000	387.711	79.998	19.998	100.851	18.739	83.781	0.488
644.500	388.010	79.997	19.996	100.851	18.746	83.329	0.506
645.000	388.256	79.997	19.999	100.852	18.757	82.609	0.534
645.500	388.489	79.999	19.997	100.853	18.763	82.279	0.512
646.000	388.741	79.997	19.997	100.857	18.774	81.545	0.482
646.500	389.002	79.996	19.996	100.859	18.781	81.102	0.499
647.000	389.254	79.999	19.996	100.859	18.790	80.490	0.513
647.500	389.500	79.998	19.997	100.859	18.798	80.008	0.506
648.000	389.782	80.000	19.996	100.859	18.804	79.615	0.513
648.500	390.016	79.997	19.997	100.859	18.816	78.824	0.522
649.000	390.293	79.999	19.996	100.859	18.825	78.237	0.513
649.500	390.517	79.999	19.997	100.860	18.834	77.646	0.506
650.000	390.779	79.998	19.996	100.860	18.842	77.159	0.494
650.500	391.026	79.998	19.997	100.860	18.853	76.398	0.497
651.000	391.298	79.999	19.996	100.860	18.861	75.884	0.514
651.500	391.513	80.000	19.996	100.860	18.870	75.323	0.503
652.000	391.822	80.000	19.996	100.860	18.877	74.864	0.506
652.500	392.064	79.998	19.997	100.860	18.890	74.040	0.538
653.000	392.341	80.000	19.997	100.860	18.895	73.735	0.535
653.500	392.562	79.999	19.996	100.860	18.906	72.988	0.509
654.000	392.816	80.001	19.996	100.861	18.915	72.414	0.486
654.500	393.106	80.001	19.996	100.861	18.924	71.825	0.509
655.000	393.357	80.000	19.996	100.861	18.936	71.055	0.543
655.500	393.608	79.998	19.995	100.862	18.942	70.677	0.522
656.000	393.864	80.001	19.996	100.862	18.957	69.703	0.504
656.500	394.132	80.000	19.996	100.863	18.965	69.216	0.515
657.000	394.368	80.000	19.996	100.863	18.975	68.559	0.514
657.500	394.605	80.001	19.996	100.863	18.980	68.209	0.488
658.000	394.896	80.001	19.996	100.863	18.990	67.584	0.501
658.500	395.104	80.001	19.995	100.864	18.998	67.086	0.514
659.000	395.377	80.000	19.996	100.863	19.004	66.689	0.490
659.500	395.641	80.000	19.995	100.863	19.015	65.982	0.509
660.000	395.874	79.998	19.995	100.864	19.026	65.214	0.517
660.500	396.148	80.001	19.995	100.868	19.031	64.944	0.502
661.000	396.390	80.001	19.996	100.868	19.039	64.430	0.512
661.500	396.638	79.999	19.997	100.868	19.048	63.840	0.503
662.000	396.894	79.998	19.994	100.875	19.056	63.289	0.497
662.500	397.153	80.001	19.995	100.880	19.064	62.803	0.510
663.000	397.390	79.999	19.996	100.879	19.071	62.305	0.506
663.500	397.619	79.996	19.995	100.882	19.076	61.987	0.481
664.000	397.864	80.000	19.996	100.887	19.084	61.462	0.470
664.500	398.140	80.000	19.996	100.881	19.095	60.775	0.497
665.000	398.406	79.998	19.996	100.880	19.104	60.198	0.532
665.500	398.671	80.001	19.996	100.885	19.110	59.792	0.537
666.000	398.918	79.998	19.996	100.889	19.115	59.487	0.522
666.500	399.129	79.998	19.996	100.891	19.122	59.040	0.484
667.000	399.402	80.000	19.996	100.897	19.129	58.555	0.471
667.500	399.666	79.998	19.996	100.899	19.141	57.815	0.511
668.000	399.922	79.999	19.996	100.901	19.142	57.740	0.529
668.500	400.217	79.998	19.996	100.903	19.152	57.114	0.535
669.000	400.431	79.998	19.996	100.903	19.161	56.511	0.530
669.500	400.675	80.000	19.995	100.903	19.163	56.355	0.483
670.000	400.945	79.997	19.995	100.902	19.169	55.983	0.485
670.500	401.220	80.000	19.996	100.901	19.174	55.675	0.530
671.000	401.458	80.000	19.996	100.901	19.181	55.200	0.530
671.500	401.688	80.000	19.996	100.900	19.185	54.974	0.491
672.000	401.952	80.000	19.996	100.900	19.196	54.250	0.481
672.500	402.208	80.000	19.996	100.901	19.202	53.821	0.507
673.000	402.473	80.000	19.997	100.902	19.208	53.496	0.520
673.500	402.734	80.001	19.995	100.904	19.214	53.088	0.524
674.000	402.977	80.001	19.997	100.906	19.218	52.846	0.515
674.500	403.259	80.001	19.997	100.906	19.224	52.422	0.514
675.000	403.526	79.997	19.996	100.906	19.230	52.068	0.537
675.500	403.738	80.001	19.997	100.905	19.236	51.682	0.514
676.000	403.948	80.003	19.997	100.907	19.239	51.436	0.451
676.500	404.260	80.001	19.995	100.905	19.243	51.223	0.472
677.000	404.478	80.001	19.996	100.905	19.248	50.851	0.526
677.500	404.773	80.002	19.996	100.906	19.251	50.653	0.522
678.000	404.988	80.003	19.995	100.911	19.257	50.290	0.512
678.500	405.246	80.001	19.997	100.908	19.258	50.201	0.492
679.000	405.521	80.002	19.996	100.910	19.266	49.704	0.503
679.500	405.783	80.000	19.997	100.912	19.271	49.417	0.535
680.000	406.014	80.002	19.996	100.913	19.272	49.303	0.514
680.500	406.286	80.002	19.996	100.912	19.280	48.783	0.498
681.000	406.495	80.003	19.995	100.918	19.284	48.524	0.493
681.500	406.739	80.002	19.996	100.920	19.289	48.193	0.467
682.000	407.029	80.001	19.995	100.921	19.289	48.230	0.493
682.500	407.313	80.001	19.996	100.921	19.294	47.918	0.554
683.000	407.506	80.001	19.996	100.921	19.295	47.819	0.525
683.500	407.814	80.000	19.996	100.920	19.300	47.543	0.489
684.000	408.044	80.000	19.995	100.922	19.300	47.543	0.520
684.500	408.296	80.002	19.996	100.926	19.307	47.060	0.511
685.000	408.516	80.001	19.996	100.929	19.308	46.995	0.477
685.500	408.810	79.999	19.995	100.932	19.311	46.796	0.493
686.000	409.054	80.000	19.995	100.934	19.316	46.468	0.526
686.500	409.331	80.000	19.996	100.934	19.317	46.387	0.530
687.000	409.572	79.999	19.996	100.934	19.321	46.169	0.520
687.500	409.839	80.001	19.996	100.934	19.324	45.963	0.513
688.000	410.043	79.999	19.995	100.934	19.328	45.723	0.489
688.500	410.330	80.000	19.996	100.934	19.331	45.512	0.481
689.000	410.592	79.999	19.997	100.934	19.328	45.676	0.520
689.500	410.872	80.000	19.995	100.934	19.333	45.380	0.545
690.000	411.133	79.999	19.996	100.935	19.336	45.148	0.541
690.500	411.345	80.000	19.996	100.935	19.340	44.945	0.507
691.000	411.615	79.999	19.995	100.936	19.340	44.910	0.478
691.500	411.839	79.998	19.995	100.936	19.343	44.754	0.488
692.000	412.141	80.001	19.994	100.936	19.341	44.854	0.510
692.500	412.337	79.999	19.995	100.936	19.345	44.627	0.511
693.000	412.619	79.999	19.995	100.936	19.353	44.091	0.488
693.500	412.880	80.002	19.995	100.936	19.349	44.350	0.511
694.000	413.147	79.999	19.996	100.935	19.352	44.109	0.536
694.500	413.382	80.000	19.995	100.935	19.352	44.113	0.515
695.000	413.615	79.999	19.996	100.935	19.354	43.984	0.485
695.500	413.887	79.998	19.996	100.935	19.357	43.809	0.487
696.000	414.148	80.001	19.995	100.936	19.360	43.622	0.519
696.500	414.354	80.000	19.996	100.936	19.361	43.545	0.499
697.000	414.563	79.998	19.997	100.936	19.363	43.407	0.441
697.500	414.836	80.000	19.997	100.936	19.365	43.306	0.449
698.000	415.094	79.999	19.995	100.937	19.366	43.266	0.506
698.500	415.359	80.001	19.995	100.937	19.367	43.206	0.527
699.000	415.627	79.999	19.996	100.937	19.368	43.141	0.528
699.500	415.859	79.998	19.997	100.937	19.368	43.132	0.516
700.000	416.122	79.998	19.995	100.938	19.370	43.007	0.497
700.500	416.354	79.998	19.996	100.938	19.371	42.908	0.495
701.000	416.598	79.998	19.997	100.939	19.374	42.739	0.485
701.500	416.865	79.998	19.996	100.938	19.372	42.853	0.493
702.000	417.117	79.998	19.997	100.938	19.377	42.548	0.515
702.500	417.398	79.997	19.996	100.937	19.374	42.691	0.526
703.000	417.637	79.998	19.996	100.936	19.379	42.412	0.526
703.500	417.866	79.998	19.997	100.936	19.378	42.455	0.494
704.000	418.126	79.998	19.997	100.936	19.382	42.221	0.479
704.500	418.400	79.999	19.996	100.936	19.378	42.497	0.511
705.000	418.609	79.999	19.995	100.936	19.381	42.280	0.508
705.500	418.852	80.000	19.997	100.938	19.385	41.997	0.468
706.000	419.108	80.000	19.997	100.940	19.383	42.171	0.476
706.500	419.391	79.998	19.997	100.940	19.385	42.006	0.519
707.000	419.641	79.997	19.997	100.939	19.386	41.929	0.535
707.500	419.928	79.997	19.998	100.940	19.389	41.722	0.535
708.000	420.155	79.999	19.997	100.942	19.392	41.565	0.526
708.500	420.394	80.000	19.997	100.946	19.388	41.794	0.490
709.000	420.661	79.997	19.996	100.948	19.390	41.703	0.486
709.500	420.905	79.998	19.996	100.950	19.391	41.610	0.509
710.000	421.159	79.997	19.996	100.950	19.391	41.632	0.505
710.500	421.454	79.998	19.996	100.946	19.393	41.500	0.523
711.000	421.673	79.998	19.997	100.943	19.397	41.212	0.531
711.500	421.917	79.998	19.996	100.943	19.394	41.462	0.488
712.000	422.166	80.000	19.996	100.942	19.393	41.503	0.478
712.500	422.423	79.997	19.996	100.944	19.399	41.084	0.499
713.000	422.654	79.997	19.995	100.944	19.402	40.928	0.497
713.500	422.902	79.999	19.996	100.946	19.401	40.942	0.484
714.000	423.163	79.997	19.997	100.949	19.405	40.685	0.494
714.500	423.408	80.000	19.997	100.954	19.406	40.662	0.508
715.000	423.658	79.999	19.996	100.959	19.405	40.712	0.500
715.500	423.920	79.997	19.995	100.963	19.407	40.581	0.504
716.000	424.149	79.997	19.997	100.964	19.413	40.186	0.502
716.500	424.371	79.998	19.996	100.960	19.414	40.119	0.471
717.000	424.661	79.997	19.996	100.957	19.415	40.037	0.481
717.500	424.919	79.998	19.996	100.955	19.417	39.935	0.530
718.000	425.165	79.998	19.995	100.952	19.413	40.168	0.526
718.500	425.427	79.998	19.996	100.951	19.418	39.869	0.506
719.000	425.680	79.998	19.996	100.955	19.420	39.733	0.512
719.500	425.927	79.999	19.996	100.954	19.422	39.617	0.507
720.000	426.197	79.998	19.996	100.951	19.424	39.506	0.508
720.500	426.450	79.997	19.996	100.951	19.426	39.343	0.520
721.000	426.708	79.996	19.996	100.954	19.426	39.366	0.517
721.500	426.960	79.997	19.996	100.954	19.429	39.153	0.510
722.000	427.211	79.997	19.996	100.956	19.432	38.965	0.506
722.500	427.468	79.996	19.996	100.960	19.431	39.052	0.506
723.000	427.724	79.998	19.997	100.965	19.432	38.991	0.510
723.500	427.985	79.997	19.996	100.964	19.432	38.934	0.515
724.000	428.240	79.997	19.996	100.960	19.437	38.604	0.517
724.500	428.501	79.997	19.996	100.957	19.439	38.473	0.516
725.000	428.741	79.998	19.997	100.954	19.443	38.232	0.508
725.500	428.977	79.999	19.996	100.947	19.446	38.054	0.488
726.000	429.224	79.997	19.996	100.944	19.448	37.904	0.480
726.500	429.506	79.998	19.996	100.944	19.450	37.776	0.506
727.000	429.755	79.997	19.997	100.943	19.453	37.614	0.530
727.500	430.055	79.998	19.997	100.942	19.453	37.573	0.540
728.000	430.283	79.997	19.997	100.941	19.457	37.361	0.539
728.500	430.530	79.999	19.996	100.945	19.459	37.177	0.502
729.000	430.826	79.997	19.997	100.946	19.462	37.027	0.509
729.500	431.040	79.998	19.997	100.949	19.465	36.817	0.526
730.000	431.311	79.997	19.997	100.951	19.470	36.491	0.497
730.500	431.573	79.998	19.995	100.952	19.469	36.530	0.510
731.000	431.859	79.995	19.996	100.948	19.476	36.099	0.541
731.500	432.079	79.996	19.997	100.947	19.480	35.856	0.527
732.000	432.332	79.998	19.996	100.945	19.478	35.952	0.490
732.500	432.564	79.999	19.997	100.942	19.484	35.570	0.479
733.000	432.855	79.998	19.997	100.942	19.486	35.477	0.504
733.500	433.089	79.999	19.995	100.942	19.492	35.084	0.524
734.000	433.357	79.997	19.997	100.942	19.490	35.177	0.513
734.500	433.605	80.001	19.996	100.939	19.495	34.849	0.509
735.000	433.880	79.999	19.997	100.939	19.502	34.425	0.519
735.500	434.141	80.000	19.997	100.939	19.501	34.490	0.530
736.000	434.417	79.999	19.996	100.939	19.508	34.063	0.537
736.500	434.671	80.000	19.996	100.938	19.507	34.099	0.534
737.000	434.923	79.999	19.997	100.939	19.513	33.685	0.518
737.500	435.163	80.000	19.997	100.940	19.514	33.674	0.499
738.000	435.424	80.001	19.996	100.939	19.518	33.405	0.496
738.500	435.706	80.000	19.997	100.938	19.524	32.996	0.522
739.000	435.919	80.000	19.997	100.937	19.528	32.765	0.519
739.500	436.201	80.000	19.996	100.935	19.532	32.469	0.495
740.000	436.463	79.998	19.996	100.934	19.533	32.418	0.520
740.500	436.691	79.999	19.997	100.935	19.537	32.177	0.517
741.000	436.921	80.000	19.996	100.934	19.541	31.891	0.474
741.500	437.182	79.999	19.996	100.935	19.547	31.500	0.474
742.000	437.423	80.000	19.997	100.935	19.549	31.359	0.496
742.500	437.725	80.000	19.996	100.935	19.551	31.214	0.522
743.000	437.962	80.000	19.997	100.935	19.561	30.569	0.541
743.500	438.192	79.998	19.996	100.935	19.563	30.483	0.503
744.000	438.468	80.000	19.996	100.934	19.567	30.211	0.487
744.500	438.712	80.000	19.996	100.934	19.570	30.010	0.513
745.000	438.969	80.000	19.995	100.934	19.571	29.927	0.510
745.500	439.248	79.999	19.996	100.934	19.577	29.584	0.518
746.000	439.484	79.999	19.995	100.934	19.581	29.293	0.525
746.500	439.732	79.999	19.995	100.934	19.587	28.900	0.500
747.000	440.010	79.999	19.996	100.934	19.589	28.757	0.505
747.500	440.219	80.000	19.996	100.935	19.590	28.704	0.506
748.000	440.458	80.000	19.995	100.934	19.592	28.604	0.467
748.500	440.722	79.999	19.995	100.934	19.597	28.231	0.476
749.000	441.005	79.998	19.995	100.935	19.601	27.972	0.526
749.500	441.209	79.999	19.996	100.934	19.606	27.648	0.517
750.000	441.498	79.998	19.995	100.934	19.610	27.428	0.490
750.500	441.764	79.998	19.995	100.935	19.613	27.228	0.524
751.000	442.032	80.001	19.996	100.935	19.614	27.189	0.545
751.500	442.245	80.000	19.995	100.935	19.621	26.678	0.508
752.000	442.464	80.000	19.995	100.936	19.623	26.589	0.456
752.500	442.753	80.001	19.995	100.936	19.625	26.474	0.469
753.000	442.982	80.000	19.995	100.935	19.626	26.365	0.513
753.500	443.243	80.001	19.995	100.934	19.634	25.849	0.504
754.000	443.516	80.001	19.995	100.933	19.637	25.655	0.512
754.500	443.763	80.001	19.995	100.933	19.641	25.409	0.527
755.000	443.975	80.001	19.995	100.933	19.643	25.304	0.490
755.500	444.231	80.001	19.996	100.932	19.647	25.024	0.464
756.000	444.508	80.000	19.995	100.931	19.648	24.931	0.501
756.500	444.808	80.002	19.996	100.931	19.654	24.598	0.555
757.000	445.068	80.000	19.995	100.930	19.657	24.376	0.568
757.500	445.280	80.000	19.996	100.930	19.661	24.115	0.516
758.000	445.560	80.000	19.996	100.930	19.661	24.089	0.482
758.500	445.770	80.001	19.995	100.928	19.665	23.853	0.491
759.000	446.017	80.001	19.996	100.924	19.668	23.648	0.473
759.500	446.248	80.001	19.995	100.920	19.674	23.282	0.468
760.000	446.556	80.002	19.995	100.919	19.672	23.414	0.509
760.500	446.737	80.002	19.995	100.919	19.676	23.132	0.514
761.000	446.985	80.001	19.995	100.921	19.680	22.903	0.459
761.500	447.276	80.001	19.996	100.925	19.680	22.913	0.484
762.000	447.483	79.999	19.997	100.930	19.683	22.667	0.518
762.500	447.732	80.000	19.996	100.931	19.685	22.575	0.477
763.000	448.000	80.000	19.996	100.932	19.693	22.077	0.487
763.500	448.255	80.001	19.996	100.931	19.694	21.971	0.520
764.000	448.512	80.000	19.995	100.932	19.697	21.774	0.517
764.500	448.761	80.001	19.997	100.931	19.695	21.908	0.509
765.000	448.967	80.001	19.996	100.931	19.699	21.674	0.481
765.500	449.267	80.000	19.995	100.930	19.704	21.345	0.481
766.000	449.531	80.000	19.995	100.932	19.705	21.260	0.535
766.500	449.765	80.001	19.996	100.932	19.709	21.028	0.531
767.000	450.005	79.999	19.995	100.933	19.707	21.142	0.485
767.500	450.248	80.000	19.996	100.933	19.715	20.617	0.478
768.000	450.518	79.999	19.996	100.933	19.715	20.614	0.498
768.500	450.737	79.999	19.996	100.933	19.718	20.438	0.501
769.000	451.007	80.001	19.996	100.933	19.719	20.376	0.489
769.500	451.256	79.999	19.997	100.932	19.725	20.003	0.503
770.000	451.527	79.999	19.996	100.932	19.724	20.006	0.519
770.500	451.753	79.999	19.996	100.933	19.726	19.895	0.509
771.000	451.999	79.999	19.996	100.933	19.728	19.784	0.485
771.500	452.251	79.999	19.995	100.933	19.728	19.757	0.485
772.000	452.527	80.000	19.996	100.933	19.730	19.650	0.513
772.500	452.763	79.998	19.996	100.932	19.735	19.354	0.520
773.000	452.995	79.997	19.997	100.932	19.737	19.223	0.490
773.500	453.263	79.999	19.997	100.933	19.738	19.139	0.484
774.000	453.526	79.998	19.996	100.933	19.741	18.964	0.516
774.500	453.772	79.998	19.996	100.934	19.745	18.693	0.520
775.000	454.038	80.000	19.996	100.936	19.748	18.458	0.510
775.500	454.298	79.999	19.996	100.937	19.750	18.338	0.519
776.000	454.529	80.000	19.995	100.937	19.753	18.183	0.509
776.500	454.801	80.000	19.996	100.938	19.755	18.042	0.497
777.000	455.066	79.998	19.996	100.938	19.757	17.866	0.520
777.500	455.326	79.998	19.997	100.938	19.760	17.736	0.531
778.000	455.554	79.997	19.995	100.937	19.764	17.427	0.506
778.500	455.816	79.998	19.996	100.937	19.765	17.348	0.489
779.000	456.094	79.998	19.996	100.938	19.769	17.094	0.515
779.500	456.311	79.999	19.996	100.939	19.768	17.197	0.517
780.000	456.595	80.000	19.996	100.939	19.772	16.929	0.498
780.500	456.825	79.999	19.996	100.940	19.771	16.963	0.508
781.000	457.110	80.000	19.996	100.939	19.778	16.540	0.514
781.500	457.315	80.000	19.996	100.939	19.779	16.476	0.503
782.000	457.594	79.999	19.996	100.939	19.781	16.334	0.488
782.500	457.863	79.999	19.996	100.938	19.783	16.194	0.516
783.000	458.070	79.998	19.995	100.938	19.785	16.099	0.512
783.500	458.359	80.000	19.996	100.938	19.786	16.045	0.486
784.000	458.628	79.998	19.995	100.938	19.790	15.782	0.527
784.500	458.847	79.997	19.997	100.938	19.793	15.580	0.523
785.000	459.124	79.999	19.995	100.938	19.793	15.585	0.492
785.500	459.367	80.000	19.996	100.937	19.796	15.357	0.508
786.000	459.602	79.999	19.996	100.937	19.799	15.204	0.499
786.500	459.856	80.000	19.995	100.935	19.800	15.142	0.483
787.000	460.152	79.998	19.996	100.935	19.807	14.685	0.520
787.500	460.413	79.999	19.996	100.935	19.807	14.645	0.553
788.000	460.650	79.998	19.995	100.935	19.809	14.501	0.527
788.500	460.904	79.998	19.995	100.935	19.814	14.221	0.495
789.000	461.150	79.999	19.996	100.935	19.817	14.010	0.496
789.500	461.417	79.999	19.995	100.935	19.818	13.959	0.507
790.000	461.696	79.998	19.996	100.935	19.820	13.795	0.530
790.500	461.933	79.999	19.995	100.936	19.821	13.738	0.531
791.000	462.191	79.998	19.996	100.937	19.823	13.597	0.505
791.500	462.468	79.998	19.995	100.939	19.823	13.630	0.515
792.000	462.724	79.998	19.996	100.938	19.828	13.287	0.534
792.500	462.966	80.000	19.996	100.938	19.828	13.313	0.516
793.000	463.217	79.999	19.996	100.937	19.833	13.000	0.495
793.500	463.459	79.999	19.996	100.937	19.836	12.778	0.493
794.000	463.708	79.998	19.996	100.936	19.837	12.725	0.492
794.500	463.949	79.998	19.996	100.937	19.843	12.335	0.490
795.000	464.220	79.999	19.997	100.937	19.842	12.376	0.501
795.500	464.495	79.998	19.997	100.938	19.844	12.282	0.529
796.000	464.684	79.999	19.996	100.937	19.849	11.963	0.505
796.500	464.925	79.998	19.996	100.935	19.850	11.861	0.447
797.000	465.209	79.997	19.996	100.935	19.852	11.771	0.477
797.500	465.488	79.998	19.995	100.934	19.855	11.519	0.544
798.000	465.702	79.996	19.997	100.933	19.857	11.426	0.528
798.500	466.006	79.999	19.997	100.930	19.859	11.260	0.505
799.000	466.232	79.998	19.997	100.928	19.863	11.023	0.523
799.500	466.507	79.997	19.997	100.927	19.859	11.269	0.515
800.000	466.755	79.998	19.996	100.926	19.865	10.904	0.513
800.500	467.017	79.999	19.997	100.928	19.865	10.875	0.517
801.000	467.295	79.997	19.998	100.931	19.868	10.735	0.525
801.500	467.559	79.999	19.996	100.935	19.870	10.552	0.541
802.000	467.796	79.997	19.997	100.934	19.872	10.427	0.521
802.500	468.080	79.998	19.997	100.936	19.876	10.194	0.511
803.000	468.308	79.997	19.997	100.935	19.875	10.229	0.517
803.500	468.559	79.997	19.996	100.936	19.877	10.094	0.496
804.000	468.799	79.999	19.995	100.935	19.877	10.134	0.485
804.500	469.066	79.998	19.997	100.936	19.879	9.962	0.499
805.000	469.329	79.998	19.996	100.935	19.879	9.988	0.518
805.500	469.525	79.998	19.996	100.934	19.886	9.571	0.494
806.000	469.832	79.997	19.997	100.934	19.888	9.417	0.481
806.500	470.089	79.999	19.996	100.934	19.888	9.382	0.534
807.000	470.364	79.999	19.996	100.933	19.892	9.149	0.548
807.500	470.628	79.999	19.996	100.932	19.896	8.883	0.535
808.000	470.848	79.998	19.996	100.933	19.895	8.926	0.512
808.500	471.130	79.999	19.997	100.933	19.898	8.732	0.493
809.000	471.364	80.000	19.996	100.933	19.897	8.846	0.509
809.500	471.612	79.999	19.997	100.933	19.897	8.797	0.499
810.000	471.875	79.999	19.995	100.935	19.905	8.295	0.497
810.500	472.120	79.999	19.997	100.934	19.901	8.561	0.510
811.000	472.396	79.999	19.996	100.933	19.906	8.215	0.514
811.500	472.661	79.999	19.996	100.934	19.905	8.279	0.531
812.000	472.924	79.999	19.997	100.934	19.908	8.119	0.534
812.500	473.154	79.999	19.996	100.931	19.908	8.098	0.511
813.000	473.413	79.999	19.995	100.931	19.909	8.050	0.491
813.500	473.687	79.999	19.996	100.929	19.909	8.073	0.511
814.000	473.953	80.000	19.996	100.930	19.911	7.948	0.537
814.500	474.216	80.000	19.997	100.929	19.912	7.858	0.534
815.000	474.463	80.001	19.996	100.932	19.911	7.888	0.519
815.500	474.765	80.000	19.996	100.933	19.913	7.787	0.529
816.000	474.998	80.001	19.997	100.934	19.916	7.585	0.542
816.500	475.254	79.999	19.997	100.934	19.916	7.581	0.512
817.000	475.522	80.001	19.997	100.934	19.918	7.435	0.507
817.500	475.797	80.001	19.996	100.932	19.920	7.328	0.534
818.000	476.034	80.002	19.996	100.932	19.921	7.271	0.528
818.500	476.300	80.001	19.996	100.932	19.919	7.398	0.507
819.000	476.535	80.000	19.996	100.932	19.920	7.347	0.502
819.500	476.806	80.002	19.997	100.928	19.919	7.403	0.504
820.000	477.092	79.999	19.996	100.929	19.924	7.095	0.532
820.500	477.303	80.000	19.996	100.929	19.922	7.218	0.527
821.000	477.609	80.000	19.997	100.927	19.925	6.991	0.507
821.500	477.867	79.999	19.997	100.927	19.923	7.139	0.540
822.000	478.115	79.999	19.996	100.929	19.925	7.044	0.535
822.500	478.401	79.999	19.997	100.930	19.925	7.025	0.520
823.000	478.648	79.999	19.996	100.930	19.927	6.850	0.533
823.500	478.863	79.999	19.997	100.932	19.927	6.884	0.497
824.000	479.131	80.000	19.996	100.930	19.928	6.790	0.473
824.500	479.392	80.001	19.997	100.930	19.931	6.644	0.506
825.001	479.624	79.999	19.997	100.928	19.933	6.524	0.511
825.500	479.923	79.999	19.997	100.927	19.933	6.475	0.512
826.000	480.182	79.999	19.998	100.926	19.935	6.373	0.545
826.500	480.397	79.998	19.998	100.928	19.935	6.369	0.516
827.000	480.680	79.998	19.997	100.929	19.935	6.336	0.486
827.500	480.928	79.997	19.997	100.931	19.937	6.204	0.514
828.000	481.201	79.998	19.998	100.932	19.936	6.272	0.526
828.500	481.463	79.999	19.997	100.933	19.937	6.253	0.528
829.000	481.681	80.000	19.997	100.932	19.937	6.242	0.507
829.500	481.956	79.998	19.997	100.932	19.939	6.128	0.486
830.000	482.211	79.999	19.998	100.932	19.938	6.147	0.511
830.500	482.500	79.999	19.997	100.930	19.937	6.202	0.537
831.000	482.754	79.997	19.998	100.930	19.941	5.966	0.544
831.500	483.010	79.999	19.997	100.931	19.943	5.834	0.527
832.000	483.256	79.998	19.998	100.931	19.943	5.827	0.506
832.500	483.500	79.997	19.998	100.930	19.941	6.001	0.496
833.000	483.761	80.000	19.997	100.932	19.942	5.922	0.497
833.500	483.996	79.998	19.996	100.932	19.940	6.056	0.501
834.000	484.264	79.997	19.997	100.932	19.942	5.916	0.500
834.500	484.541	79.999	19.997	100.932	19.942	5.920	0.524
835.000	484.793	80.000	19.997	100.933	19.940	6.059	0.537
835.500	485.070	79.997	19.996	100.933	19.941	5.949	0.530
836.000	485.332	80.001	19.997	100.933	19.943	5.840	0.534
836.500	485.566	80.002	19.995	100.934	19.945	5.722	0.517
837.000	485.843	79.999	19.996	100.934	19.946	5.673	0.503
837.500	486.098	79.999	19.997	100.934	19.947	5.557	0.521
838.000	486.357	80.001	19.996	100.934	19.947	5.566	0.523
838.500	486.612	79.999	19.996	100.931	19.946	5.625	0.514
839.000	486.859	80.000	19.995	100.929	19.947	5.578	0.508
839.500	487.144	80.001	19.997	100.929	19.947	5.590	0.517
840.000	487.366	80.000	19.995	100.929	19.947	5.574	0.519
840.500	487.636	80.001	19.995	100.930	19.949	5.486	0.499
841.000	487.909	80.000	19.995	100.933	19.950	5.374	0.517
841.500	488.188	80.001	19.996	100.935	19.952	5.291	0.548
842.000	488.400	80.002	19.995	100.936	19.952	5.291	0.522
842.500	488.683	80.001	19.995	100.936	19.951	5.353	0.493
843.000	488.911	80.002	19.996	100.933	19.952	5.288	0.503
843.500	489.219	80.001	19.995	100.934	19.952	5.265	0.524
844.000	489.442	80.000	19.996	100.934	19.953	5.210	0.534
844.500	489.689	80.002	19.995	100.933	19.954	5.152	0.500
845.000	489.979	80.000	19.994	100.926	19.954	5.153	0.503
845.500	490.236	80.002	19.995	100.925	19.958	4.850	0.542
846.000	490.446	80.001	19.995	100.922	19.956	4.982	0.507
846.500	490.738	80.000	19.995	100.921	19.957	4.912	0.484
847.000	490.998	80.000	19.996	100.921	19.956	5.023	0.526
847.500	491.229	80.000	19.995	100.928	19.955	5.071	0.521
848.000	491.484	80.003	19.995	100.926	19.953	5.205	0.489
848.500	491.741	79.999	19.996	100.927	19.956	5.034	0.499
849.000	491.995	80.001	19.996	100.928	19.955	5.055	0.511
849.500	492.257	80.001	19.996	100.927	19.951	5.344	0.514
850.000	492.509	80.000	19.996	100.925	19.956	5.020	0.516
850.500	492.775	80.000	19.997	100.930	19.953	5.169	0.516
851.000	492.997	80.000	19.995	100.928	19.954	5.134	0.503
851.500	493.272	79.998	19.996	100.928	19.954	5.120	0.492
852.000	493.540	79.999	19.996	100.929	19.956	4.976	0.520
852.500	493.772	79.998	19.996	100.930	19.953	5.169	0.522
853.000	494.092	79.998	19.996	100.931	19.955	5.072	0.526
853.500	494.311	79.999	19.996	100.934	19.953	5.169	0.546
854.000	494.554	79.998	19.996	100.934	19.955	5.037	0.501
854.500	494.842	79.998	19.996	100.934	19.958	4.841	0.497
855.000	495.124	79.997	19.996	100.935	19.961	4.683	0.550
855.500	495.379	80.000	19.997	100.933	19.960	4.769	0.553
856.000	495.630	80.000	19.996	100.928	19.958	4.900	0.521
856.500	495.855	80.000	19.997	100.928	19.962	4.641	0.491
857.000	496.125	79.998	19.997	100.928	19.959	4.785	0.486
857.500	496.402	79.997	19.996	100.928	19.957	4.912	0.521
858.000	496.646	79.998	19.997	100.928	19.960	4.750	0.534
858.500	496.918	79.998	19.996	100.933	19.959	4.784	0.518
859.000	497.176	79.999	19.997	100.935	19.956	5.005	0.523
859.500	497.447	79.999	19.996	100.935	19.959	4.789	0.530
860.000	497.686	79.997	19.996	100.935	19.958	4.884	0.519
860.500	497.983	79.998	19.996	100.936	19.960	4.764	0.523
861.000	498.169	79.997	19.996	100.934	19.960	4.769	0.510
861.500	498.454	79.998	19.995	100.934	19.963	4.579	0.477
862.000	498.719	79.998	19.995	100.933	19.964	4.484	0.510
862.500	498.949	79.998	19.996	100.932	19.959	4.797	0.523
863.000	499.195	79.998	19.996	100.930	19.961	4.701	0.486
863.500	499.441	79.999	19.996	100.931	19.957	4.921	0.484
864.000	499.703	80.000	19.996	100.927	19.964	4.510	0.500
864.501	499.976	79.998	19.996	100.926	19.959	4.803	0.521
865.000	500.213	79.999	19.996	100.927	19.960	4.718	0.523
865.500	500.493	79.998	19.996	100.928	19.962	4.636	0.514
866.000	500.732	79.998	19.997	100.930	19.961	4.648	0.518
866.500	500.981	80.000	19.995	100.932	19.963	4.568	0.503
867.000	501.318	79.998	19.996	100.933	19.965	4.413	0.537
867.500	501.517	80.000	19.995	100.934	19.963	4.547	0.561
868.000	501.782	80.000	19.996	100.931	19.964	4.501	0.500
868.500	502.063	79.998	19.996	100.930	19.966	4.362	0.505
869.000	502.296	80.000	19.996	100.930	19.963	4.517	0.530
869.500	502.558	80.000	19.996	100.932	19.961	4.697	0.504
870.000	502.800	80.000	19.996	100.931	19.962	4.616	0.500
870.500	503.062	80.000	19.996	100.933	19.962	4.583	0.504
871.000	503.307	79.999	19.995	100.931	19.960	4.713	0.505
871.500	503.545	79.999	19.996	100.929	19.965	4.413	0.495
872.000	503.806	80.000	19.996	100.928	19.965	4.422	0.491
872.500	504.085	79.999	19.997	100.927	19.961	4.711	0.520
873.000	504.296	80.001	19.995	100.926	19.961	4.660	0.515
873.500	504.552	80.001	19.995	100.929	19.961	4.655	0.478
874.000	504.817	80.000	19.996	100.930	19.964	4.478	0.493
874.500	505.087	80.000	19.996	100.931	19.963	4.568	0.528
875.000	505.342	80.000	19.996	100.931	19.962	4.597	0.531
875.500	505.579	79.999	19.995	100.931	19.960	4.773	0.509
876.000	505.893	79.999	19.996	100.932	19.963	4.535	0.522
876.500	506.120	79.999	19.996	100.932	19.962	4.634	0.546
877.000	506.392	80.000	19.995	100.931	19.962	4.630	0.520
877.500	506.588	79.999	19.996	100.929	19.958	4.877	0.483
878.000	506.919	79.999	19.996	100.926	19.961	4.685	0.497
878.500	507.099	80.000	19.997	100.925	19.957	4.933	0.519
879.000	507.391	79.999	19.995	100.925	19.962	4.590	0.492
879.500	507.630	80.001	19.996	100.925	19.958	4.880	0.501
880.000	507.865	79.999	19.997	100.927	19.961	4.688	0.503
880.500	508.148	80.000	19.996	100.931	19.961	4.648	0.496
881.000	508.405	79.999	19.996	100.931	19.963	4.526	0.529
881.500	508.664	80.001	19.995	100.931	19.963	4.556	0.528
882.000	508.922	80.001	19.995	100.931	19.963	4.517	0.517
882.500	509.187	79.998	19.996	100.930	19.962	4.616	0.520
883.000	509.443	80.000	19.996	100.927	19.964	4.514	0.521
883.500	509.675	79.998	19.997	100.924	19.964	4.457	0.504
884.000	509.922	79.999	19.996	100.924	19.962	4.623	0.484
884.500	510.178	79.998	19.996	100.923	19.964	4.488	0.491
885.000	510.426	80.000	19.996	100.925	19.961	4.692	0.503
885.500	510.695	79.998	19.996	100.929	19.961	4.671	0.511
886.000	510.961	79.999	19.997	100.933	19.961	4.709	0.526
886.500	511.183	79.998	19.997	100.934	19.960	4.759	0.511
887.000	511.408	79.998	19.996	100.935	19.962	4.611	0.467
887.500	511.642	79.999	19.997	100.933	19.959	4.787	0.453
888.000	511.928	79.999	19.997	100.933	19.960	4.762	0.489
888.500	512.184	79.999	19.997	100.932	19.959	4.789	0.531
889.000	512.440	80.000	19.997	100.931	19.960	4.715	0.527
889.500	512.687	79.999	19.997	100.931	19.958	4.871	0.508
890.000	512.897	79.999	19.997	100.933	19.962	4.618	0.480
890.500	513.166	79.999	19.997	100.932	19.959	4.776	0.468
891.000	513.426	79.997	19.997	100.933	19.961	4.708	0.504
891.500	513.680	79.999	19.997	100.933	19.960	4.771	0.521
892.000	513.942	79.997	19.997	100.933	19.960	4.720	0.515
892.500	514.196	80.000	19.997	100.932	19.960	4.717	0.517
893.000	514.461	79.999	19.998	100.930	19.962	4.609	0.517
893.500	514.720	80.000	19.998	100.929	19.960	4.752	0.521
894.000	515.001	79.999	19.997	100.929	19.961	4.674	0.532
894.500	515.263	79.999	19.997	100.929	19.963	4.535	0.542
895.000	515.536	80.000	19.996	100.930	19.961	4.653	0.539
895.500	515.767	80.001	19.998	100.932	19.961	4.655	0.519
896.000	516.047	79.999	19.997	100.934	19.960	4.724	0.507
896.500	516.277	80.000	19.997	100.931	19.960	4.727	0.510
897.000	516.554	80.000	19.997	100.929	19.960	4.717	0.508
897.500	516.780	79.999	19.997	100.928	19.963	4.576	0.505
898.000	517.024	79.999	19.997	100.928	19.959	4.780	0.487
898.500	517.310	79.999	19.997	100.927	19.958	4.852	0.500
899.000	517.523	80.000	19.996	100.929	19.955	5.074	0.515
899.500	517.790	79.999	19.997	100.930	19.954	5.124	0.490
900.000	518.050	80.000	19.996	100.930	19.958	4.859	0.503
900.500	518.286	80.000	19.997	100.928	19.961	4.658	0.511
901.000	518.518	79.999	19.995	100.926	19.959	4.810	0.482
901.500	518.781	79.999	19.997	100.927	19.958	4.843	0.482
902.000	519.039	80.001	19.996	100.928	19.961	4.671	0.508
902.500	519.291	79.999	19.996	100.928	19.961	4.673	0.515
903.000	519.576	79.999	19.996	100.930	19.958	4.849	0.524
903.500	519.824	79.999	19.996	100.932	19.956	5.022	0.535
904.000	520.091	80.000	19.997	100.932	19.958	4.900	0.524
904.500	520.351	80.000	19.996	100.931	19.958	4.842	0.521
905.000	520.604	79.999	19.996	100.931	19.959	4.782	0.520
905.500	520.881	79.998	19.997	100.932	19.960	4.741	0.522
906.000	521.126	79.999	19.996	100.933	19.958	4.854	0.526
906.500	521.354	79.999	19.996	100.933	19.957	4.914	0.497
907.000	521.653	79.998	19.995	100.935	19.960	4.740	0.500
907.500	521.917	79.999	19.997	100.934	19.958	4.895	0.545
908.000	522.142	79.999	19.996	100.933	19.957	4.934	0.525
908.500	522.433	79.998	19.995	100.932	19.960	4.764	0.502
909.000	522.636	79.999	19.995	100.929	19.954	5.129	0.505
909.500	522.930	79.998	19.997	100.929	19.957	4.970	0.496
910.000	523.200	79.998	19.996	100.930	19.956	5.002	0.531
910.500	523.456	79.999	19.995	100.932	19.955	5.055	0.545
911.000	523.717	79.998	19.996	100.929	19.955	5.090	0.521
911.500	523.946	79.997	19.998	100.931	19.956	5.032	0.503
912.000	524.204	79.998	19.997	100.932	19.952	5.245	0.489
912.500	524.402	79.998	19.997	100.932	19.952	5.233	0.472
913.000	524.710	79.998	19.997	100.931	19.955	5.050	0.481
913.500	524.937	79.998	19.996	100.935	19.952	5.256	0.520
914.000	525.209	79.997	19.996	100.935	19.953	5.201	0.517
914.500	525.498	80.000	19.997	100.935	19.955	5.062	0.530
915.000	525.756	79.998	19.996	100.935	19.954	5.102	0.554
915.500	525.998	79.999	19.996	100.936	19.950	5.368	0.523
916.000	526.246	79.999	19.997	100.937	19.955	5.060	0.495
916.500	526.508	79.999	19.998	100.937	19.957	4.947	0.500
917.000	526.778	79.998	19.997	100.938	19.955	5.043	0.521
917.500	527.040	79.999	19.996	100.938	19.953	5.191	0.532
918.000	527.274	79.999	19.996	100.938	19.955	5.074	0.514
918.500	527.507	79.998	19.997	100.938	19.956	5.014	0.482
919.000	527.793	80.000	19.997	100.938	19.954	5.141	0.493
919.500	528.028	80.000	19.997	100.937	19.952	5.279	0.519
920.000	528.302	80.001	19.997	100.936	19.957	4.956	0.515
920.500	528.578	80.000	19.997	100.936	19.955	5.071	0.530
921.000	528.849	79.999	19.997	100.936	19.954	5.125	0.549
921.501	529.087	80.000	19.997	100.935	19.955	5.087	0.528
922.000	529.314	79.999	19.996	100.934	19.954	5.150	0.487
922.500	529.583	80.000	19.996	100.934	19.953	5.215	0.480
923.000	529.842	79.999	19.996	100.934	19.954	5.154	0.512
923.500	530.111	80.000	19.996	100.933	19.951	5.339	0.528
924.000	530.357	80.001	19.997	100.934	19.953	5.175	0.521
924.500	530.615	79.999	19.997	100.934	19.952	5.233	0.509
925.000	530.872	80.000	19.997	100.934	19.952	5.236	0.509
925.500	531.099	80.002	19.996	100.931	19.951	5.351	0.500
926.000	531.374	80.000	19.996	100.929	19.951	5.298	0.493
926.500	531.678	80.001	19.997	100.929	19.949	5.467	0.541
927.000	531.890	79.999	19.996	100.929	19.951	5.338	0.547
927.500	532.160	80.001	19.997	100.929	19.950	5.420	0.499
928.000	532.448	80.001	19.997	100.933	19.949	5.471	0.520
928.500	532.727	80.000	19.996	100.934	19.948	5.497	0.562
929.000	532.948	80.001	19.997	100.934	19.948	5.527	0.533
929.500	533.221	80.000	19.996	100.934	19.946	5.654	0.497
930.000	533.476	80.000	19.996	100.933	19.947	5.592	0.511
930.501	533.766	80.000	19.996	100.932	19.948	5.527	0.536
931.000	533.992	79.999	19.995	100.932	19.947	5.615	0.530
931.500	534.231	80.000	19.996	100.933	19.949	5.473	0.491
932.000	534.511	79.999	19.996	100.933	19.945	5.717	0.492
932.500	534.792	79.999	19.996	100.933	19.947	5.573	0.540
933.000	535.006	79.999	19.997	100.935	19.946	5.656	0.528
933.500	535.293	80.000	19.995	100.934	19.944	5.784	0.497
934.000	535.536	79.999	19.996	100.934	19.946	5.677	0.515
934.500	535.822	79.998	19.995	100.934	19.944	5.813	0.529
935.000	536.053	79.999	19.996	100.933	19.943	5.857	0.523
935.500	536.331	80.000	19.996	100.933	19.946	5.666	0.513
936.000	536.582	79.999	19.996	100.933	19.945	5.716	0.520
936.500	536.841	79.998	19.996	100.934	19.945	5.744	0.519
937.000	537.117	79.999	19.996	100.932	19.945	5.695	0.522
937.500	537.320	80.000	19.997	100.931	19.944	5.792	0.507
938.000	537.599	79.999	19.996	100.931	19.942	5.927	0.481
938.500	537.874	79.999	19.995	100.931	19.941	5.955	0.518
939.000	538.105	79.998	19.996	100.931	19.939	6.073	0.530
939.500	538.354	79.999	19.996	100.933	19.941	5.989	0.493
940.000	538.631	79.999	19.996	100.935	19.939	6.077	0.503
940.500	538.860	79.998	19.996	100.935	19.941	6.003	0.516
941.000	539.135	79.998	19.996	100.935	19.939	6.111	0.505
941.500	539.396	79.999	19.995	100.935	19.939	6.123	0.520
942.000	539.648	79.998	19.996	100.935	19.936	6.280	0.524
942.500	539.889	79.999	19.995	100.934	19.937	6.264	0.503
943.000	540.117	79.999	19.997	100.934	19.937	6.204	0.481
943.500	540.376	79.999	19.996	100.935	19.935	6.338	0.478
944.000	540.626	79.998	19.996	100.934	19.940	6.038	0.498
944.500	540.931	79.999	19.996	100.934	19.937	6.237	0.532
945.000	541.167	79.999	19.996	100.933	19.934	6.443	0.548
945.500	541.437	79.999	19.995	100.933	19.935	6.373	0.524
946.000	541.656	79.999	19.996	100.933	19.935	6.378	0.498
946.500	541.961	79.999	19.995	100.932	19.936	6.278	0.506
947.000	542.187	79.999	19.995	100.932	19.933	6.464	0.527
947.500	542.446	79.999	19.997	100.935	19.933	6.514	0.508
948.000	542.706	79.997	19.997	100.935	19.932	6.553	0.502
948.500	542.954	80.001	19.997	100.935	19.932	6.569	0.513
949.000	543.230	79.999	19.997	100.935	19.934	6.403	0.516
949.500	543.464	79.999	19.996	100.934	19.933	6.473	0.518
950.000	543.731	79.999	19.996	100.934	19.931	6.599	0.506
950.500	543.988	79.999	19.996	100.935	19.932	6.560	0.512
951.000	544.285	79.999	19.996	100.934	19.933	6.488	0.539
951.500	544.484	80.000	19.996	100.938	19.932	6.567	0.525
952.000	544.775	79.999	19.997	100.939	19.933	6.468	0.493
952.500	544.995	79.999	19.997	100.939	19.928	6.842	0.500
953.000	545.275	79.999	19.996	100.938	19.928	6.842	0.506
953.500	545.481	80.000	19.996	100.938	19.927	6.868	0.493
954.000	545.754	79.999	19.997	100.934	19.928	6.828	0.482
954.500	546.016	79.999	19.995	100.934	19.927	6.880	0.507
955.000	546.288	80.000	19.996	100.934	19.930	6.717	0.534
955.500	546.529	79.999	19.997	100.935	19.925	7.009	0.524
956.000	546.802	80.000	19.997	100.935	19.924	7.055	0.514
956.500	547.017	80.000	19.996	100.935	19.923	7.140	0.501
957.000	547.319	79.998	19.995	100.934	19.922	7.235	0.503
957.500	547.588	80.000	19.996	100.934	19.923	7.113	0.544
958.000	547.831	80.000	19.996	100.933	19.921	7.256	0.542
958.500	548.121	80.000	19.997	100.935	19.921	7.270	0.522
959.000	548.355	80.000	19.996	100.935	19.921	7.300	0.528
959.500	548.605	79.999	19.997	100.935	19.918	7.459	0.504
960.000	548.881	80.001	19.996	100.935	19.918	7.491	0.505
960.500	549.138	80.001	19.996	100.936	19.918	7.484	0.529
961.000	549.368	80.000	19.995	100.937	19.915	7.649	0.510
961.500	549.650	80.000	19.996	100.937	19.920	7.351	0.500
962.000	549.893	79.999	19.995	100.937	19.916	7.600	0.518
962.500	550.141	79.999	19.996	100.938	19.914	7.709	0.508
963.000	550.445	79.999	19.995	100.939	19.912	7.852	0.522
963.500	550.675	79.999	19.996	100.938	19.915	7.655	0.543
964.000	550.939	79.998	19.995	100.937	19.913	7.811	0.514
964.500	551.206	80.000	19.997	100.938	19.913	7.776	0.512
965.000	551.456	79.998	19.996	100.937	19.914	7.731	0.524
965.500	551.701	79.999	19.996	100.936	19.914	7.717	0.506
966.000	551.998	79.999	19.996	100.936	19.909	8.064	0.519
966.500	552.224	80.000	19.995	100.936	19.908	8.107	0.533
967.000	552.478	80.000	19.997	100.936	19.906	8.261	0.502
967.500	552.731	79.999	19.995	100.937	19.904	8.352	0.493
968.000	552.998	79.999	19.995	100.936	19.904	8.373	0.513
968.500	553.245	80.001	19.996	100.937	19.905	8.305	0.517
969.000	553.535	79.998	19.995	100.937	19.903	8.416	0.525
969.500	553.800	79.998	19.995	100.939	19.905	8.280	0.546
970.000	554.028	79.998	19.995	100.939	19.906	8.245	0.525
970.500	554.286	79.999	19.996	100.940	19.904	8.398	0.489
971.000	554.537	79.998	19.995	100.942	19.902	8.526	0.497
971.500	554.805	79.998	19.996	100.942	19.899	8.681	0.514
972.000	555.057	79.999	19.995	100.942	19.899	8.685	0.520
972.500	555.326	79.998	19.995	100.944	19.898	8.747	0.521
973.000	555.589	79.999	19.995	100.944	19.899	8.713	0.527
973.500	555.834	79.998	19.995	100.943	19.901	8.569	0.520
974.000	556.090	79.999	19.996	100.942	19.899	8.698	0.504
974.500	556.328	79.998	19.995	100.944	19.897	8.810	0.497
975.000	556.587	79.998	19.996	100.943	19.897	8.822	0.495
975.500	556.865	80.000	19.995	100.946	19.896	8.922	0.517
976.000	557.096	79.998	19.995	100.947	19.894	9.033	0.523
976.500	557.344	80.000	19.996	100.948	19.893	9.072	0.494
977.000	557.608	79.999	19.996	100.946	19.894	9.013	0.496
977.500	557.848	80.000	19.996	100.945	19.894	9.023	0.508
978.000	558.102	80.000	19.996	100.942	19.892	9.129	0.499
978.500	558.339	80.000	19.995	100.942	19.893	9.111	0.493
979.000	558.637	79.999	19.997	100.942	19.892	9.160	0.513
979.500	558.878	80.001	19.997	100.942	19.890	9.278	0.537
980.000	559.152	79.998	19.997	100.941	19.888	9.408	0.527
980.500	559.395	80.000	19.997	100.941	19.888	9.400	0.516
981.000	559.613	80.001	19.996	100.940	19.889	9.375	0.489
981.500	559.893	80.001	19.996	100.939	19.886	9.541	0.479
982.000	560.139	80.002	19.995	100.938	19.883	9.759	0.512
982.500	560.388	80.001	19.996	100.939	19.883	9.705	0.510
983.000	560.670	80.000	19.996	100.939	19.883	9.707	0.513
983.500	560.895	80.001	19.996	100.939	19.881	9.843	0.520
984.000	561.153	80.000	19.996	100.942	19.884	9.667	0.496
984.500	561.457	80.000	19.995	100.947	19.880	9.950	0.522
985.000	561.660	80.000	19.996	100.952	19.880	9.936	0.534
985.500	561.912	79.998	19.996	100.954	19.880	9.954	0.481
986.000	562.179	80.000	19.995	100.955	19.880	9.926	0.487
986.500	562.429	80.000	19.996	100.953	19.878	10.041	0.518
987.000	562.683	80.000	19.997	100.954	19.880	9.931	0.511
987.500	562.981	79.999	19.997	100.955	19.878	10.063	0.528
988.000	563.212	80.000	19.996	100.958	19.877	10.153	0.541
988.500	563.474	80.000	19.996	100.959	19.874	10.298	0.511
989.000	563.726	79.999	19.996	100.959	19.876	10.193	0.503
989.500	563.955	79.999	19.996	100.953	19.872	10.440	0.498
990.000	564.222	79.999	19.997	100.950	19.879	10.004	0.488
990.500	564.466	80.000	19.996	100.950	19.875	10.239	0.503
991.000	564.766	80.000	19.996	100.950	19.874	10.338	0.528
991.500	564.979	80.001	19.997	100.949	19.871	10.542	0.529
992.000	565.226	79.999	19.996	100.950	19.873	10.367	0.487
992.500	565.512	80.000	19.997	100.951	19.874	10.293	0.496
993.000	565.778	80.000	19.997	100.952	19.874	10.332	0.542
993.500	565.993	79.999	19.996	100.956	19.870	10.552	0.517
994.000	566.281	80.001	19.996	100.961	19.870	10.552	0.492
994.500	566.542	79.999	19.996	100.963	19.873	10.385	0.526
995.000	566.824	80.001	19.997	100.961	19.870	10.605	0.546
995.500	567.046	79.998	19.996	100.960	19.871	10.539	0.524
996.000	567.304	79.999	19.996	100.961	19.868	10.708	0.492
996.500	567.562	79.999	19.996	100.960	19.869	10.660	0.497
997.000	567.864	79.999	19.995	100.962	19.868	10.678	0.538
997.500	568.074	80.001	19.996	100.964	19.868	10.738	0.536
998.000	568.339	80.000	19.996	100.962	19.864	10.979	0.494
998.500	568.588	79.999	19.996	100.961	19.864	10.938	0.494
999.000	568.831	80.001	19.996	100.962	19.861	11.192	0.503
999.500	569.114	80.000	19.995	100.961	19.863	11.026	0.509
1000.001	569.363	80.000	19.997	100.958	19.865	10.920	0.529
1000.500	569.647	80.002	19.996	100.959	19.862	11.123	0.533
1001.000	569.932	80.000	19.996	100.954	19.860	11.225	0.551
1001.500	570.177	80.002	19.996	100.953	19.861	11.192	0.550
1002.000	570.438	80.001	19.996	100.954	19.859	11.316	0.518
1002.500	570.655	80.001	19.997	100.958	19.857	11.403	0.492
1003.000	570.941	80.001	19.996	100.963	19.860	11.204	0.491
1003.500	571.189	80.002	19.997	100.968	19.862	11.107	0.519
1004.000	571.456	80.001	19.996	100.969	19.860	11.241	0.524
1004.500	571.714	80.000	19.996	100.970	19.858	11.355	0.520
1005.000	571.965	80.001	19.995	100.968	19.856	11.495	0.517
1005.500	572.258	80.001	19.996	100.966	19.856	11.454	0.527
1006.000	572.499	80.001	19.996	100.965	19.856	11.500	0.539
1006.500	572.764	80.001	19.996	100.961	19.856	11.493	0.520
1007.000	573.040	80.002	19.994	100.956	19.855	11.523	0.523
1007.500	573.326	80.001	19.998	100.956	19.856	11.479	0.552
1008.000	573.589	80.002	19.998	100.957	19.854	11.620	0.555
1008.500	573.847	80.000	19.997	100.959	19.852	11.772	0.535
1009.000	574.126	80.002	19.997	100.959	19.854	11.617	0.529
1009.500	574.397	80.002	19.997	100.963	19.854	11.585	0.544
1010.000	574.634	80.001	19.997	100.965	19.853	11.675	0.529
1010.500	574.885	80.001	19.996	100.963	19.857	11.407	0.498
1011.000	575.178	79.999	19.997	100.960	19.854	11.625	0.516
1011.500	575.425	80.000	19.998	100.963	19.852	11.713	0.542
1012.000	575.672	80.000	19.997	100.964	19.853	11.653	0.517
1012.500	575.925	80.001	19.998	100.964	19.854	11.648	0.497
1013.000	576.210	80.000	19.997	100.962	19.851	11.821	0.519
1013.500	576.464	80.000	19.997	100.962	19.850	11.870	0.538
1014.000	576.698	80.000	19.997	100.962	19.852	11.747	0.513
1014.500	576.981	79.999	19.998	100.960	19.851	11.818	0.503
1015.000	577.224	79.999	19.997	100.961	19.848	11.994	0.522
1015.500	577.481	79.997	19.997	100.963	19.849	11.946	0.512
1016.000	577.732	79.997	19.997	100.966	19.852	11.732	0.504
1016.500	578.010	79.998	19.997	100.964	19.850	11.855	0.519
1017.000	578.291	79.998	19.997	100.966	19.852	11.727	0.544
1017.500	578.579	79.999	19.997	100.966	19.850	11.865	0.564
1018.000	578.833	79.997	19.998	100.966	19.849	11.939	0.556
1018.500	579.031	79.998	19.998	100.966	19.847	12.047	0.497
1019.000	579.291	79.998	19.998	100.968	19.849	11.969	0.455
1019.500	579.509	79.996	19.996	100.967	19.850	11.880	0.468
1020.000	579.786	79.998	19.997	100.968	19.847	12.060	0.486
1020.500	580.046	79.998	19.997	100.969	19.850	11.887	0.516
1021.000	580.328	79.997	19.997	100.968	19.849	11.932	0.540
1021.500	580.584	79.998	19.996	100.968	19.849	11.925	0.540
1022.000	580.836	79.998	19.996	100.966	19.849	11.927	0.523
1022.500	581.075	79.998	19.997	100.963	19.848	11.998	0.500
1023.000	581.316	79.997	19.997	100.963	19.852	11.713	0.485
1023.500	581.603	79.998	19.996	100.965	19.849	11.909	0.504
1024.000	581.873	79.999	19.996	100.965	19.849	11.921	0.542
1024.499	582.110	79.998	19.996	100.965	19.852	11.737	0.532
1024.999	582.353	79.998	19.996	100.963	19.850	11.905	0.494
1025.500	582.620	79.998	19.997	100.958	19.849	11.931	0.495
1026.000	582.879	79.999	19.995	100.953	19.848	12.013	0.518
1026.499	583.143	79.998	19.996	100.954	19.850	11.851	0.525
1026.999	583.373	79.998	19.995	100.955	19.852	11.773	0.508
1027.499	583.668	79.999	19.996	100.959	19.855	11.546	0.509
1027.999	583.897	79.999	19.996	100.962	19.853	11.680	0.524
1028.499	584.183	80.000	19.996	100.966	19.853	11.706	0.519
1028.999	584.393	79.999	19.995	100.966	19.854	11.645	0.506
1029.499	584.661	79.999	19.996	100.966	19.854	11.620	0.487
1029.999	584.912	80.000	19.997	100.967	19.854	11.622	0.498
1030.499	585.182	79.999	19.997	100.969	19.854	11.632	0.519
1030.999	585.409	79.999	19.997	100.971	19.853	11.662	0.509
1031.499	585.661	79.999	19.995	100.969	19.854	11.623	0.488
1031.999	585.925	79.999	19.996	100.967	19.855	11.526	0.498
1032.500	586.156	79.999	19.996	100.965	19.856	11.479	0.506
1033.001	586.430	80.000	19.997	100.964	19.857	11.406	0.500
1033.500	586.670	79.999	19.996	100.959	19.856	11.516	0.509
1033.999	586.952	79.999	19.995	100.960	19.856	11.493	0.518
1034.499	587.179	79.998	19.995	100.962	19.855	11.552	0.516
1034.999	587.438	79.999	19.995	100.961	19.860	11.196	0.498
1035.499	587.679	80.000	19.996	100.958	19.858	11.377	0.493
1035.999	587.941	80.000	19.997	100.960	19.862	11.069	0.501
1036.499	588.233	80.000	19.996	100.959	19.861	11.139	0.528
1036.999	588.459	79.999	19.997	100.954	19.863	11.039	0.536
1037.499	588.710	80.000	19.996	100.951	19.862	11.093	0.498
1037.999	588.950	80.000	19.996	100.950	19.864	10.998	0.484
1038.499	589.231	79.999	19.995	100.949	19.864	10.937	0.506
1038.999	589.492	79.999	19.996	100.948	19.863	11.023	0.531
1039.499	589.675	80.000	19.997	100.950	19.866	10.819	0.493
1039.999	589.975	79.999	19.996	100.952	19.868	10.699	0.464
1040.499	590.220	80.000	19.996	100.954	19.869	10.624	0.515
1040.999	590.497	79.999	19.995	100.955	19.872	10.416	0.534
1041.499	590.756	79.999	19.996	100.959	19.869	10.627	0.529
1041.999	591.003	79.998	19.996	100.963	19.870	10.589	0.521
1042.499	591.243	80.000	19.996	100.963	19.875	10.253	0.497
1042.999	591.510	80.000	19.995	100.964	19.873	10.393	0.497
1043.499	591.758	80.000	19.996	100.966	19.876	10.166	0.511
1043.999	592.025	79.999	19.997	100.963	19.879	10.006	0.515
1044.499	592.251	79.999	19.996	100.961	19.877	10.122	0.504
1044.999	592.482	79.998	19.996	100.964	19.877	10.153	0.475
1045.499	592.777	79.999	19.996	100.959	19.878	10.026	0.492
1045.999	592.991	79.999	19.996	100.956	19.883	9.753	0.517
1046.499	593.271	79.998	19.995	100.954	19.882	9.783	0.501
1046.999	593.498	79.999	19.995	100.953	19.883	9.709	0.501
1047.499	593.772	79.999	19.995	100.953	19.884	9.683	0.504
1047.999	594.016	80.000	19.995	100.954	19.888	9.389	0.510
1048.499	594.283	79.999	19.996	100.949	19.889	9.326	0.514
1048.999	594.547	79.998	19.997	100.948	19.888	9.414	0.520
1049.499	594.778	79.999	19.997	100.944	19.891	9.240	0.513
1050.000	595.067	79.999	19.996	100.942	19.892	9.139	0.508
1050.500	595.313	79.999	19.997	100.940	19.892	9.138	0.528
1050.999	595.573	79.999	19.996	100.942	19.891	9.196	0.521
1051.500	595.780	80.000	19.996	100.944	19.899	8.724	0.487
1052.000	596.058	79.999	19.996	100.947	19.897	8.799	0.476
1052.499	596.284	79.999	19.995	100.946	19.897	8.821	0.495
1052.999	596.552	80.000	19.996	100.949	19.900	8.655	0.499
1053.500	596.802	79.999	19.995	100.950	19.899	8.669	0.506
1054.001	597.073	79.998	19.996	100.950	19.902	8.482	0.520
1054.500	597.325	79.999	19.996	100.948	19.904	8.373	0.522
1055.000	597.607	80.000	19.995	100.948	19.907	8.153	0.529
1055.501	597.844	79.999	19.996	100.947	19.906	8.241	0.527
1056.001	598.085	79.999	19.995	100.945	19.910	7.969	0.498
1056.500	598.348	79.999	19.995	100.944	19.913	7.777	0.491
1057.000	598.605	79.999	19.996	100.943	19.913	7.784	0.512
1057.501	598.844	79.999	19.996	100.943	19.913	7.816	0.508
1058.001	599.120	80.000	19.996	100.946	19.915	7.656	0.505
1058.500	599.347	79.999	19.995	100.950	19.920	7.353	0.509
1058.999	599.572	80.000	19.996	100.954	19.920	7.325	0.477
1059.499	599.853	80.000	19.996	100.956	19.924	7.102	0.479
1059.999	600.117	80.000	19.996	100.957	19.924	7.046	0.526
1060.500	600.319	80.002	19.995	100.955	19.925	7.004	0.505
1061.000	600.588	80.001	19.996	100.950	19.927	6.896	0.468
1061.499	600.870	80.000	19.995	100.946	19.929	6.740	0.511
1061.999	601.136	80.001	19.996	100.943	19.933	6.516	0.550
1062.499	601.323	80.000	19.995	100.941	19.933	6.519	0.500
1062.999	601.634	80.000	19.996	100.939	19.935	6.378	0.475
1063.499	601.900	80.001	19.997	100.939	19.937	6.220	0.537
1063.999	602.065	80.001	19.994	100.939	19.942	5.920	0.504
1064.499	602.375	80.001	19.995	100.940	19.946	5.674	0.454
1064.999	602.562	80.001	19.996	100.940	19.944	5.783	0.486
1065.499	602.867	80.000	19.996	100.939	19.947	5.561	0.494
1065.999	603.113	80.000	19.996	100.939	19.947	5.617	0.521
1066.499	603.359	80.001	19.996	100.937	19.949	5.458	0.521
1066.999	603.601	80.001	19.995	100.935	19.948	5.499	0.490
1067.499	603.855	80.001	19.996	100.935	19.952	5.279	0.492
1067.999	604.108	80.002	19.997	100.935	19.952	5.244	0.502
1068.499	604.343	80.001	19.996	100.936	19.955	5.046	0.497
1068.999	604.605	80.001	19.997	100.936	19.954	5.103	0.492
1069.499	604.825	80.002	19.998	100.937	19.958	4.886	0.489
1069.999	605.104	80.000	19.996	100.937	19.959	4.782	0.490
1070.499	605.362	80.001	19.996	100.936	19.962	4.629	0.518
1070.999	605.608	80.001	19.996	100.935	19.962	4.593	0.521
1071.499	605.876	80.000	19.997	100.935	19.965	4.410	0.509
1071.999	606.106	79.999	19.997	100.936	19.967	4.289	0.506
1072.499	606.336	79.999	19.996	100.936	19.964	4.479	0.479
1072.999	606.638	80.000	19.996	100.937	19.968	4.195	0.496
1073.499	606.881	80.001	19.997	100.938	19.969	4.164	0.539
1073.999	607.093	80.000	19.997	100.939	19.969	4.160	0.500
1074.499	607.356	80.000	19.996	100.939	19.967	4.320	0.465
1074.999	607.618	79.999	19.996	100.938	19.970	4.116	0.500
1075.499	607.853	80.000	19.997	100.937	19.969	4.169	0.511
1075.999	608.121	80.000	19.997	100.937	19.969	4.167	0.499
1076.499	608.375	80.000	19.996	100.934	19.972	3.941	0.512
1077.000	608.639	80.000	19.998	100.934	19.972	3.978	0.520
1077.500	608.885	80.001	19.996	100.934	19.975	3.744	0.514
1077.999	609.164	80.000	19.997	100.934	19.975	3.749	0.517
1078.499	609.446	80.001	19.997	100.934	19.976	3.721	0.543
1078.999	609.669	80.000	19.997	100.935	19.976	3.697	0.533
1079.499	609.885	80.001	19.997	100.935	19.976	3.728	0.472
1080.000	610.178	80.001	19.997	100.934	19.978	3.559	0.474
1080.500	610.424	80.000	19.997	100.935	19.977	3.665	0.524
1080.999	610.666	80.000	19.997	100.935	19.978	3.554	0.513
1081.499	610.881	80.000	19.997	100.935	19.975	3.769	0.473
1081.999	611.157	80.001	19.997	100.934	19.976	3.713	0.474
1082.499	611.428	80.001	19.997	100.935	19.978	3.577	0.518
1082.999	611.677	80.000	19.996	100.935	19.978	3.600	0.533
1083.499	611.932	80.000	19.997	100.937	19.977	3.639	0.512
1083.999	612.189	80.001	19.997	100.936	19.979	3.542	0.508
1084.499	612.447	80.002	19.997	100.937	19.980	3.461	0.514
1085.000	612.676	80.002	19.996	100.936	19.981	3.373	0.501
1085.500	612.934	80.001	19.996	100.935	19.980	3.457	0.487
1085.999	613.207	80.001	19.998	100.933	19.982	3.307	0.509
1086.499	613.418	80.001	19.996	100.933	19.983	3.240	0.507
1086.999	613.685	80.003	19.997	100.933	19.981	3.374	0.481
1087.499	613.932	80.002	19.996	100.933	19.980	3.434	0.496
1087.999	614.171	80.002	19.997	100.933	19.982	3.337	0.500
1088.499	614.459	80.003	19.996	100.933	19.981	3.374	0.506
1088.999	614.710	80.002	19.996	100.933	19.980	3.425	0.533
1089.499	614.966	80.003	19.997	100.933	19.983	3.240	0.524
1089.999	615.257	80.003	19.996	100.935	19.980	3.434	0.527
1090.499	615.461	80.001	19.997	100.940	19.983	3.270	0.520
1091.000	615.734	80.003	19.997	100.945	19.981	3.381	0.486
1091.500	615.956	80.002	19.997	100.948	19.980	3.450	0.486
1091.999	616.253	80.002	19.997	100.948	19.980	3.425	0.507
1092.499	616.503	80.002	19.996	100.946	19.981	3.351	0.533
1092.999	616.748	80.002	19.996	100.941	19.979	3.538	0.521
1093.499	616.977	80.002	19.996	100.939	19.979	3.501	0.485
1093.999	617.262	80.002	19.996	100.936	19.980	3.420	0.494
1094.499	617.502	80.001	19.996	100.939	19.980	3.420	0.519
1094.999	617.748	80.001	19.996	100.942	19.980	3.436	0.505
1095.499	618.025	80.001	19.996	100.943	19.980	3.443	0.505
1095.999	618.241	80.002	19.996	100.943	19.981	3.355	0.508
1096.499	618.480	80.001	19.997	100.943	19.983	3.248	0.474
1096.999	618.744	80.000	19.996	100.941	19.980	3.422	0.479
1097.499	618.997	80.000	19.996	100.939	19.981	3.373	0.510
1097.999	619.271	79.999	19.997	100.938	19.984	3.172	0.522
1098.500	619.530	80.000	19.997	100.936	19.981	3.352	0.530
1099.001	619.759	79.998	19.996	100.937	19.983	3.258	0.510
1099.500	620.008	80.000	19.997	100.936	19.980	3.417	0.483
1099.999	620.263	79.999	19.997	100.937	19.981	3.352	0.491
1100.499	620.551	79.998	19.997	100.937	19.984	3.163	0.524
1100.999	620.795	79.998	19.997	100.940	19.982	3.302	0.538
1101.499	621.016	79.998	19.997	100.943	19.982	3.348	0.498
1101.999	621.271	79.999	19.997	100.943	19.981	3.361	0.471
1102.500	621.536	79.999	19.997	100.942	19.986	3.066	0.498
1103.001	621.821	79.999	19.996	100.941	19.984	3.167	0.535
1103.500	622.074	79.998	19.996	100.939	19.986	3.065	0.544
1103.999	622.279	79.998	19.997	100.937	19.983	3.271	0.498
1104.499	622.554	79.999	19.997	100.937	19.983	3.264	0.469
1104.999	622.799	80.000	19.997	100.938	19.984	3.170	0.500
1105.499	623.006	79.999	19.998	100.939	19.986	3.029	0.486
1105.999	623.288	79.998	19.997	100.939	19.985	3.144	0.470
1106.499	623.539	79.999	19.997	100.942	19.987	3.010	0.511
1106.999	623.772	79.999	19.997	100.945	19.983	3.283	0.509
1107.499	624.050	79.997	19.996	100.946	19.983	3.287	0.498
1107.999	624.280	79.999	19.997	100.949	19.985	3.128	0.509
1108.499	624.555	79.997	19.997	100.953	19.984	3.171	0.506
1108.999	624.800	79.999	19.997	100.951	19.983	3.234	0.513
1109.499	625.033	79.998	19.998	100.948	19.983	3.264	0.499
1110.000	625.330	79.998	19.997	100.951	19.981	3.375	0.504
1110.500	625.585	79.999	19.997	100.948	19.985	3.123	0.541
1110.999	625.834	79.998	19.997	100.948	19.982	3.317	0.528
1111.499	626.053	80.000	19.997	100.949	19.985	3.104	0.486
1111.999	626.318	80.000	19.996	100.950	19.986	3.077	0.475
1112.499	626.544	79.998	19.997	100.950	19.984	3.208	0.488
1112.999	626.814	79.999	19.997	100.955	19.986	3.070	0.494
1113.499	627.076	79.999	19.997	100.953	19.981	3.359	0.514
1114.000	627.329	79.999	19.997	100.958	19.982	3.289	0.524
1114.500	627.600	79.998	19.996	100.961	19.982	3.336	0.520
1114.999	627.843	79.998	19.997	100.960	19.983	3.254	0.519
1115.499	628.090	79.998	19.997	100.957	19.983	3.284	0.501
1115.999	628.326	79.999	19.998	100.957	19.984	3.176	0.486
1116.499	628.629	79.999	19.996	100.954	19.983	3.232	0.511
1116.999	628.883	79.999	19.997	100.954	19.982	3.317	0.549
1117.499	629.161	80.000	19.996	100.955	19.982	3.294	0.544
1117.999	629.376	80.000	19.995	100.959	19.985	3.146	0.512
1118.499	629.603	79.999	19.996	100.961	19.983	3.282	0.468
1118.999	629.868	80.000	19.996	100.964	19.981	3.386	0.468
1119.499	630.129	79.999	19.996	100.966	19.981	3.370	0.509
1119.999	630.361	79.999	19.995	100.965	19.980	3.435	0.510
1120.499	630.647	79.999	19.995	100.967	19.984	3.194	0.505
1120.999	630.867	79.999	19.997	100.970	19.982	3.347	0.512
1121.500	631.136	80.000	19.996	100.971	19.981	3.402	0.497
1122.000	631.365	79.999	19.996	100.972	19.981	3.386	0.493
1122.500	631.680	79.998	19.996	100.973	19.982	3.289	0.521
1123.000	631.897	79.999	19.996	100.971	19.980	3.435	0.538
1123.499	632.110	79.999	19.995	100.969	19.979	3.516	0.482
1123.999	632.392	80.000	19.996	100.967	19.981	3.414	0.462
1124.499	632.615	79.999	19.996	100.967	19.979	3.494	0.499
1124.999	632.890	79.999	19.996	100.968	19.982	3.321	0.502
1125.499	633.126	79.999	19.995	100.968	19.980	3.464	0.505
1126.000	633.449	80.000	19.996	100.971	19.981	3.414	0.535
1126.501	633.641	80.000	19.996	100.972	19.977	3.626	0.537
1127.001	633.903	79.999	19.996	100.969	19.979	3.536	0.485
1127.500	634.128	79.998	19.996	100.967	19.981	3.388	0.470
1127.999	634.422	80.000	19.996	100.968	19.979	3.522	0.503
1128.499	634.662	79.999	19.996	100.968	19.980	3.448	0.527
1128.999	634.920	79.999	19.997	100.969	19.977	3.666	0.516
1129.499	635.149	80.000	19.996	100.974	19.980	3.467	0.492
1129.999	635.469	79.998	19.996	100.976	19.976	3.689	0.518
1130.499	635.672	80.000	19.996	100.976	19.978	3.559	0.536
1130.999	635.935	79.998	19.996	100.975	19.980	3.430	0.495
1131.499	636.133	80.000	19.996	100.974	19.978	3.559	0.464
1131.999	636.428	79.998	19.996	100.974	19.977	3.663	0.477
1132.499	636.688	79.999	19.995	100.974	19.976	3.702	0.524
1132.999	636.930	80.000	19.996	100.974	19.977	3.659	0.528
1133.499	637.166	80.000	19.997	100.975	19.977	3.631	0.490
1133.999	637.417	79.999	19.996	100.974	19.978	3.608	0.483
1134.499	637.682	79.999	19.997	100.974	19.975	3.793	0.502
1135.000	637.930	80.000	19.997	100.975	19.976	3.723	0.515
1135.500	638.153	80.000	19.996	100.975	19.973	3.897	0.492
1135.999	638.429	79.999	19.996	100.975	19.977	3.624	0.485
1136.499	638.664	79.999	19.997	100.976	19.977	3.617	0.505
1136.999	638.898	79.999	19.996	100.975	19.975	3.778	0.490
1137.499	639.167	79.999	19.997	100.975	19.975	3.767	0.486
1137.999	639.426	79.999	19.996	100.975	19.976	3.719	0.515
1138.499	639.681	79.999	19.997	100.975	19.980	3.458	0.521
1138.999	639.946	79.999	19.996	100.975	19.975	3.744	0.517
1139.499	640.148	79.999	19.996	100.976	19.975	3.747	0.494
1139.999	640.405	80.000	19.996	100.976	19.974	3.813	0.463
1140.499	640.627	79.999	19.998	100.975	19.977	3.675	0.469
1140.999	640.932	79.999	19.996	100.975	19.975	3.769	0.503
1141.499	641.135	80.001	19.996	100.975	19.972	3.966	0.518
1141.999	641.442	80.000	19.995	100.976	19.974	3.848	0.509
1142.499	641.696	80.000	19.995	100.975	19.976	3.700	0.535
1142.999	641.940	80.001	19.995	100.976	19.972	3.944	0.529
1143.499	642.181	80.001	19.996	100.976	19.976	3.734	0.492
1143.999	642.427	80.001	19.996	100.975	19.977	3.649	0.486
1144.499	642.696	80.000	19.996	100.975	19.974	3.845	0.501
1144.999	642.955	80.000	19.996	100.976	19.977	3.670	0.521
1145.499	643.167	80.000	19.995	100.978	19.975	3.778	0.499
1146.000	643.439	80.002	19.996	100.980	19.976	3.711	0.477
1146.501	643.678	80.001	19.996	100.981	19.973	3.922	0.498
1147.001	643.907	80.000	19.995	100.985	19.977	3.670	0.490
1147.501	644.150	80.001	19.995	100.986	19.973	3.873	0.470
1148.000	644.417	80.001	19.995	100.983	19.975	3.796	0.491
1148.500	644.612	80.002	19.995	100.984	19.975	3.803	0.486
1149.000	644.939	80.000	19.995	100.983	19.980	3.478	0.492
1149.500	645.187	80.001	19.996	100.978	19.976	3.722	0.548
1150.000	645.397	80.000	19.996	100.977	19.977	3.625	0.516
1150.500	645.701	80.001	19.995	100.977	19.977	3.646	0.486
1151.000	645.962	80.001	19.997	100.976	19.976	3.730	0.540
1151.500	646.196	80.000	19.997	100.977	19.977	3.657	0.530
1152.000	646.448	80.002	19.996	100.983	19.975	3.801	0.490
1152.500	646.721	80.001	19.995	100.985	19.976	3.706	0.505
1153.000	646.951	79.999	19.996	100.987	19.977	3.623	0.514
1153.500	647.210	80.000	19.996	100.990	19.972	3.946	0.496
1154.000	647.471	80.001	19.997	100.990	19.974	3.824	0.505
1154.500	647.749	80.000	19.995	100.987	19.974	3.858	0.530
1155.000	648.008	80.001	19.996	100.984	19.970	4.087	0.538
1155.500	648.221	80.000	19.996	100.984	19.972	3.987	0.505
1156.000	648.510	80.001	19.995	100.982	19.976	3.717	0.487
1156.500	648.754	80.000	19.995	100.982	19.972	3.987	0.518
1157.000	648.972	79.999	19.996	100.985	19.974	3.819	0.498
1157.500	649.262	80.002	19.996	100.989	19.974	3.849	0.485
1158.000	649.535	80.000	19.996	100.989	19.976	3.696	0.535
1158.500	649.765	80.000	19.996	100.989	19.976	3.691	0.533
1159.000	650.025	80.000	19.996	100.991	19.972	3.980	0.496
1159.500	650.264	80.000	19.995	100.991	19.973	3.934	0.494
1160.000	650.539	79.999	19.996	100.988	19.973	3.874	0.506
1160.500	650.790	80.001	19.996	100.991	19.971	4.022	0.520
1161.000	651.018	80.000	19.996	100.993	19.970	4.126	0.502
1161.500	651.271	80.000	19.997	100.992	19.973	3.936	0.480
1162.000	651.575	80.000	19.995	100.995	19.971	4.010	0.519
1162.500	651.793	80.000	19.995	101.000	19.971	4.034	0.540
1163.000	652.077	80.000	19.996	101.000	19.971	4.019	0.512
1163.500	652.341	80.001	19.996	100.999	19.971	4.015	0.525
1164.000	652.571	80.001	19.996	101.001	19.971	4.036	0.521
1164.500	652.850	80.001	19.996	101.003	19.972	3.938	0.501
1165.000	653.095	80.000	19.995	101.004	19.970	4.103	0.517
1165.500	653.361	80.001	19.996	101.008	19.972	3.985	0.518
1166.000	653.627	80.000	19.997	101.013	19.971	4.059	0.521
1166.500	653.862	80.001	19.996	101.015	19.970	4.094	0.517
1167.000	654.150	80.001	19.997	101.015	19.972	4.001	0.512
1167.500	654.385	80.001	19.996	101.015	19.969	4.170	0.522
1168.000	654.648	80.000	19.996	101.015	19.972	3.946	0.510
1168.500	654.886	80.001	19.997	101.014	19.971	4.066	0.500
1169.000	655.114	80.002	19.996	101.012	19.973	3.923	0.484
1169.500	655.377	80.001	19.996	101.011	19.969	4.172	0.478
1170.000	655.641	80.000	19.996	101.011	19.970	4.117	0.509
1170.500	655.941	80.002	19.996	101.010	19.971	4.036	0.546
1171.000	656.170	80.002	19.997	101.010	19.969	4.149	0.546
1171.500	656.429	80.002	19.996	101.012	19.971	4.056	0.508
1172.000	656.729	80.002	19.997	101.013	19.971	4.042	0.523
1172.500	656.941	80.001	19.996	101.013	19.969	4.170	0.536
1173.000	657.205	80.002	19.996	101.013	19.969	4.163	0.494
1173.500	657.457	80.002	19.996	101.014	19.971	4.036	0.496
1174.000	657.670	80.002	19.996	101.014	19.970	4.080	0.491
1174.500	657.949	80.002	19.996	101.014	19.971	4.013	0.478
1175.000	658.244	80.002	19.996	101.014	19.970	4.126	0.533
1175.500	658.494	80.000	19.996	101.014	19.971	4.066	0.559
1176.000	658.705	80.002	19.997	101.014	19.970	4.084	0.503
1176.500	658.975	80.001	19.996	101.014	19.969	4.190	0.471
1177.000	659.216	80.001	19.996	101.014	19.966	4.357	0.496
1177.500	659.514	80.001	19.996	101.014	19.966	4.356	0.525
1178.000	659.747	80.000	19.996	101.014	19.968	4.220	0.535
1178.500	659.978	79.999	19.996	101.013	19.967	4.275	0.498
1179.000	660.249	80.000	19.996	101.013	19.966	4.352	0.483
1179.500	660.507	79.999	19.996	101.013	19.967	4.290	0.516
1180.000	660.756	79.999	19.996	101.013	19.967	4.322	0.518
1180.500	661.033	80.000	19.996	101.013	19.965	4.419	0.516
1181.000	661.292	79.998	19.996	101.013	19.967	4.303	0.530
1181.500	661.557	79.998	19.997	101.014	19.967	4.285	0.530
1182.000	661.815	79.999	19.996	101.014	19.964	4.493	0.524
1182.500	662.072	79.999	19.998	101.014	19.966	4.352	0.519
1183.000	662.290	80.000	19.997	101.014	19.967	4.320	0.495
1183.500	662.521	79.999	19.996	101.014	19.966	4.329	0.462
1184.000	662.825	79.998	19.997	101.014	19.963	4.548	0.492
1184.500	663.060	79.998	19.996	101.015	19.965	4.435	0.536
1185.000	663.281	79.997	19.996	101.016	19.966	4.329	0.497
1185.500	663.540	79.999	19.996	101.017	19.962	4.606	0.468
1186.000	663.776	79.999	19.996	101.017	19.964	4.488	0.488
1186.500	664.068	79.999	19.996	101.017	19.965	4.429	0.512
1187.000	664.289	79.999	19.995	101.017	19.967	4.271	0.520
1187.500	664.553	79.998	19.997	101.018	19.965	4.422	0.499
1188.000	664.818	79.999	19.997	101.018	19.964	4.490	0.507
1188.500	665.051	79.998	19.995	101.018	19.965	4.400	0.513
1189.000	665.323	79.998	19.996	101.019	19.966	4.352	0.502
1189.500	665.553	79.997	19.996	101.021	19.964	4.481	0.504
1190.000	665.835	79.998	19.996	101.020	19.966	4.349	0.507
1190.500	666.078	79.999	19.996	101.019	19.964	4.465	0.518
1191.000	666.293	79.999	19.996	101.019	19.965	4.433	0.491
1191.501	666.538	79.998	19.997	101.019	19.963	4.539	0.459
1192.001	666.804	79.999	19.996	101.018	19.963	4.532	0.486
1192.501	667.063	79.997	19.995	101.018	19.962	4.590	0.518
1193.001	667.294	79.998	19.997	101.018	19.965	4.448	0.508
1193.500	667.542	79.999	19.997	101.019	19.964	4.485	0.485
1194.000	667.780	79.999	19.996	101.019	19.962	4.597	0.482
1194.501	668.084	79.999	19.997	101.018	19.961	4.680	0.514
1195.001	668.279	80.000	19.997	101.019	19.966	4.336	0.520
1195.500	668.559	79.998	19.997	101.019	19.961	4.652	0.487
1196.000	668.764	80.000	19.997	101.017	19.965	4.428	0.480
1196.500	669.037	79.999	19.997	101.016	19.966	4.349	0.482
1197.000	669.270	79.999	19.997	101.015	19.962	4.594	0.492
1197.500	669.542	79.999	19.997	101.014	19.961	4.656	0.505
1198.001	669.813	79.999	19.997	101.014	19.963	4.550	0.523
1198.501	670.015	79.998	19.997	101.014	19.962	4.591	0.508
1199.001	670.310	79.999	19.996	101.017	19.964	4.510	0.485
1199.500	670.545	79.998	19.997	101.018	19.961	4.715	0.514
1200.000	670.795	79.998	19.997	101.018	19.962	4.614	0.507
1200.500	671.010	79.999	19.997	101.020	19.964	4.521	0.475
1201.000	671.326	79.998	19.997	101.021	19.961	4.692	0.498
1201.500	671.564	79.999	19.997	101.019	19.960	4.773	0.542
1202.000	671.809	79.998	19.997	101.020	19.961	4.702	0.519
1202.500	672.049	79.998	19.998	101.022	19.960	4.734	0.484
1203.000	672.285	79.998	19.997	101.021	19.962	4.613	0.481
1203.501	672.535	79.999	19.997	101.023	19.957	4.960	0.481
1204.001	672.818	80.001	19.997	101.027	19.959	4.839	0.510
1204.501	673.052	79.998	19.997	101.028	19.962	4.593	0.525
1205.001	673.324	80.000	19.997	101.025	19.963	4.548	0.512
1205.501	673.545	79.999	19.998	101.025	19.963	4.553	0.499
1206.000	673.814	79.998	19.997	101.025	19.962	4.636	0.491
1206.500	674.035	80.000	19.997	101.024	19.963	4.528	0.490
1207.000	674.309	80.000	19.997	101.026	19.964	4.488	0.493
1207.500	674.566	80.000	19.997	101.030	19.963	4.576	0.513
1208.000	674.845	79.998	19.997	101.033	19.959	4.791	0.534
1208.500	675.017	80.001	19.997	101.036	19.959	4.786	0.494
1209.000	675.315	80.000	19.997	101.037	19.962	4.623	0.460
1209.500	675.543	80.000	19.996	101.040	19.960	4.772	0.498
1210.000	675.808	80.000	19.996	101.042	19.960	4.779	0.510
1210.500	676.078	79.999	19.997	101.044	19.960	4.764	0.514
1211.000	676.300	80.000	19.996	101.045	19.960	4.757	0.514
1211.500	676.541	79.998	19.996	101.044	19.962	4.611	0.478
1212.000	676.827	79.998	19.996	101.042	19.964	4.503	0.495
1212.500	677.036	79.999	19.996	101.044	19.962	4.597	0.511
1213.000	677.310	79.999	19.996	101.044	19.964	4.477	0.489
1213.500	677.583	79.999	19.996	101.046	19.962	4.613	0.515
1214.001	677.801	79.998	19.996	101.050	19.964	4.509	0.519
1214.501	678.041	79.999	19.997	101.052	19.961	4.666	0.474
1215.001	678.295	79.999	19.997	101.051	19.961	4.713	0.476
1215.500	678.546	79.998	19.995	101.051	19.960	4.763	0.500
1216.000	678.790	80.000	19.997	101.051	19.960	4.735	0.500
1216.500	679.017	79.999	19.996	101.051	19.962	4.599	0.483
1217.000	679.259	79.999	19.997	101.051	19.961	4.664	0.470
1217.500	679.507	79.999	19.997	101.052	19.963	4.571	0.480
1218.000	679.778	80.000	19.996	101.051	19.960	4.749	0.505
1218.500	680.006	80.000	19.996	101.052	19.961	4.713	0.509
1219.000	680.270	80.000	19.997	101.052	19.961	4.692	0.496
1219.500	680.560	79.999	19.996	101.052	19.961	4.685	0.523
1220.000	680.791	80.000	19.996	101.052	19.961	4.685	0.538
1220.500	681.039	79.999	19.997	101.052	19.961	4.710	0.500
1221.000	681.295	79.999	19.996	101.051	19.960	4.724	0.491
1221.500	681.549	79.999	19.996	101.049	19.959	4.789	0.507
1222.000	681.815	80.000	19.996	101.049	19.959	4.782	0.515
1222.500	682.007	80.000	19.996	101.048	19.958	4.911	0.489
1223.000	682.264	80.000	19.996	101.048	19.958	4.849	0.453
1223.500	682.495	79.998	19.997	101.048	19.959	4.832	0.469
1224.000	682.781	79.999	19.996	101.049	19.961	4.666	0.503
1224.500	683.013	80.000	19.996	101.049	19.961	4.671	0.517
1225.000	683.278	80.000	19.996	101.051	19.958	4.883	0.507
1225.500	683.529	80.001	19.995	101.051	19.958	4.881	0.506
1226.000	683.784	80.000	19.996	101.052	19.956	5.022	0.511
1226.500	684.057	79.999	19.997	101.052	19.958	4.897	0.517
1227.000	684.264	80.001	19.997	101.052	19.956	5.029	0.504
1227.500	684.544	80.001	19.996	101.053	19.954	5.139	0.483
1228.000	684.757	80.000	19.995	101.053	19.956	4.988	0.490
1228.500	685.033	80.001	19.996	101.053	19.959	4.794	0.491
1229.000	685.252	80.000	19.996	101.053	19.957	4.935	0.492
1229.500	685.515	80.001	19.996	101.054	19.959	4.831	0.488
1230.000	685.726	80.001	19.996	101.054	19.955	5.044	0.478
1230.500	685.997	80.000	19.997	101.054	19.957	4.965	0.478
1231.000	686.265	80.000	19.996	101.054	19.955	5.088	0.510
1231.500	686.490	80.001	19.996	101.055	19.953	5.196	0.516
1232.000	686.745	80.001	19.995	101.054	19.955	5.053	0.487
1232.500	687.000	80.000	19.996	101.054	19.957	4.939	0.495
1233.000	687.266	80.001	19.996	101.054	19.955	5.054	0.515
1233.500	687.479	80.000	19.996	101.053	19.957	4.964	0.500
1234.000	687.763	80.000	19.996	101.053	19.955	5.043	0.488
1234.500	687.998	80.001	19.996	101.054	19.956	5.038	0.508
1235.000	688.202	80.000	19.996	101.054	19.956	5.041	0.479
1235.500	688.492	80.001	19.996	101.055	19.955	5.043	0.466
1236.000	688.726	80.000	19.996	101.056	19.956	5.016	0.509
1236.500	688.965	80.000	19.996	101.056	19.956	5.006	0.499
1237.000	689.205	80.001	19.995	101.056	19.955	5.071	0.476
1237.500	689.485	80.000	19.996	101.057	19.956	5.041	0.499
1238.000	689.725	79.999	19.997	101.058	19.955	5.103	0.520
1238.500	690.009	80.001	19.996	101.061	19.956	4.988	0.522
1239.000	690.237	80.001	19.996	101.068	19.954	5.116	0.518
1239.500	690.504	80.001	19.995	101.072	19.953	5.199	0.504
1240.000	690.730	80.000	19.996	101.072	19.954	5.112	0.494
1240.500	690.976	80.001	19.996	101.074	19.956	4.989	0.482
1241.000	691.216	80.001	19.995	101.073	19.953	5.179	0.478
1241.500	691.464	80.001	19.996	101.072	19.953	5.231	0.487
1242.000	691.694	80.000	19.997	101.074	19.954	5.111	0.484
1242.500	691.960	80.000	19.996	101.074	19.952	5.241	0.487
1243.000	692.189	79.999	19.995	101.078	19.955	5.043	0.495
1243.500	692.490	80.000	19.997	101.084	19.954	5.142	0.512
1244.000	692.693	80.000	19.996	101.084	19.958	4.885	0.518
1244.500	692.968	80.000	19.996	101.085	19.957	4.978	0.491
1245.000	693.206	80.000	19.997	101.089	19.953	5.233	0.495
1245.500	693.466	80.000	19.995	101.089	19.957	4.966	0.505
1246.000	693.704	80.001	19.996	101.086	19.959	4.815	0.498
1246.500	693.994	80.002	19.997	101.088	19.951	5.349	0.513
1247.000	694.222	80.002	19.997	101.082	19.964	4.495	0.524
1247.500	694.472	80.000	19.998	101.078	19.967	4.303	0.498
1248.000	694.706	80.001	19.996	101.077	19.963	4.543	0.481
1248.500	694.980	80.001	19.996	101.078	19.950	5.416	0.496
1249.000	695.257	80.001	19.995	101.078	19.953	5.218	0.530
1249.500	695.487	80.001	19.996	101.085	19.951	5.359	0.529
1250.001	695.737	80.000	19.995	101.090	19.947	5.585	0.494
1250.501	695.997	80.002	19.996	101.092	19.948	5.561	0.495
1251.000	696.286	80.002	19.994	101.093	19.950	5.427	0.530
1251.500	696.510	80.002	19.996	101.094	19.945	5.735	0.531
1252.000	696.751	80.002	19.995	101.094	19.946	5.628	0.488
1252.500	696.997	80.001	19.995	101.095	19.947	5.570	0.476
1253.000	697.246	80.002	19.995	101.094	19.948	5.531	0.492
1253.500	697.522	80.001	19.996	101.091	19.945	5.704	0.510
1254.000	697.779	80.002	19.995	101.091	19.944	5.815	0.528
1254.500	698.019	80.002	19.995	101.091	19.943	5.888	0.515
1255.000	698.262	80.002	19.995	101.091	19.946	5.656	0.491
1255.500	698.526	80.002	19.995	101.092	19.944	5.789	0.495
1256.000	698.751	80.001	19.997	101.096	19.947	5.572	0.498
1256.500	699.051	80.002	19.995	101.103	19.946	5.660	0.507
1257.000	699.248	80.001	19.996	101.105	19.945	5.749	0.511
1257.500	699.577	80.001	19.995	101.106	19.945	5.698	0.511
1258.000	699.794	80.000	19.995	101.105	19.945	5.717	0.536
1258.500	700.063	80.002	19.996	101.104	19.943	5.841	0.516
1259.000	700.298	80.003	19.996	101.097	19.942	5.929	0.495
1259.500	700.571	80.000	19.996	101.094	19.945	5.728	0.506
1260.000	700.807	80.002	19.995	101.093	19.946	5.636	0.508
1260.500	701.085	80.001	19.996	101.092	19.948	5.518	0.511
1261.000	701.301	80.000	19.996	101.092	19.944	5.793	0.504
1261.500	701.576	80.001	19.996	101.095	19.945	5.740	0.493
1262.000	701.812	80.000	19.996	101.096	19.942	5.947	0.501
1262.500	702.051	80.000	19.997	101.095	19.944	5.802	0.493
1263.000	702.337	79.999	19.997	101.096	19.944	5.762	0.500
1263.500	702.588	79.999	19.997	101.096	19.942	5.942	0.531
1264.000	702.821	79.999	19.997	101.094	19.943	5.863	0.511
1264.500	703.067	80.000	19.997	101.094	19.945	5.728	0.482
1265.000	703.362	79.999	19.998	101.099	19.944	5.789	0.510
1265.500	703.576	80.000	19.997	101.102	19.941	5.965	0.525
1266.000	703.840	79.999	19.996	101.103	19.945	5.732	0.493
1266.500	704.159	80.000	19.996	101.105	19.941	5.988	0.530
1267.000	704.362	79.999	19.997	101.108	19.942	5.916	0.553
1267.500	704.619	79.999	19.996	101.107	19.947	5.619	0.491
1268.000	704.820	79.999	19.996	101.109	19.944	5.760	0.459
1268.500	705.084	79.999	19.997	101.112	19.944	5.789	0.462
1269.000	705.364	80.001	19.996	101.117	19.943	5.856	0.504
1269.500	705.622	79.998	19.997	101.118	19.942	5.923	0.541
1270.000	705.863	79.999	19.996	101.119	19.945	5.748	0.519
1270.500	706.094	79.999	19.997	101.119	19.941	6.018	0.486
1271.000	706.329	80.000	19.997	101.118	19.944	5.824	0.469
1271.500	706.587	80.002	19.995	101.116	19.942	5.935	0.479
1272.000	706.825	80.000	19.996	101.115	19.942	5.903	0.494
1272.500	707.106	80.001	19.997	101.118	19.942	5.914	0.508
1273.000	707.342	79.999	19.997	101.120	19.938	6.167	0.518
1273.500	707.652	79.999	19.998	101.122	19.940	6.022	0.531
1274.000	707.848	80.000	19.997	101.125	19.939	6.131	0.526
1274.500	708.156	79.999	19.996	101.127	19.937	6.274	0.505
1275.000	708.418	80.001	19.996	101.127	19.939	6.098	0.537
1275.500	708.634	80.000	19.996	101.128	19.936	6.344	0.523
1276.000	708.918	80.001	19.997	101.129	19.935	6.360	0.489
1276.500	709.087	80.001	19.996	101.128	19.933	6.491	0.477
1277.000	709.370	80.000	19.997	101.130	19.937	6.254	0.453
1277.500	709.633	80.000	19.997	101.130	19.937	6.231	0.499
1278.000	709.882	80.000	19.997	101.130	19.939	6.136	0.529
1278.500	710.105	80.000	19.997	101.130	19.936	6.304	0.492
1279.000	710.351	80.001	19.996	101.131	19.936	6.316	0.471
1279.500	710.650	80.000	19.997	101.131	19.939	6.111	0.507
1280.000	710.888	80.000	19.996	101.131	19.939	6.126	0.540
1280.500	711.149	80.000	19.997	101.132	19.936	6.308	0.518
1281.000	711.392	80.001	19.996	101.133	19.937	6.273	0.502
1281.500	711.700	80.001	19.997	101.133	19.936	6.325	0.528
1282.000	711.923	80.001	19.997	101.133	19.935	6.385	0.541
1282.500	712.165	79.999	19.997	101.134	19.936	6.345	0.498
1283.000	712.395	79.999	19.997	101.133	19.932	6.583	0.469
1283.500	712.659	80.000	19.997	101.133	19.933	6.529	0.483
1284.000	712.922	79.998	19.995	101.134	19.937	6.271	0.510
1284.500	713.167	79.999	19.996	101.134	19.933	6.504	0.518
1285.000	713.418	80.000	19.996	101.133	19.933	6.511	0.502
1285.500	713.653	79.999	19.996	101.135	19.933	6.478	0.491
1286.000	713.915	80.000	19.998	101.138	19.932	6.541	0.492
1286.500	714.164	80.000	19.997	101.141	19.933	6.488	0.504
1287.000	714.402	79.999	19.996	101.144	19.935	6.405	0.499
1287.500	714.635	79.999	19.997	101.148	19.933	6.492	0.479
1288.000	714.883	79.999	19.997	101.153	19.933	6.480	0.475
1288.500	715.141	80.000	19.997	101.155	19.935	6.397	0.494
1289.001	715.378	79.999	19.997	101.157	19.934	6.462	0.501
1289.501	715.653	80.001	19.996	101.156	19.931	6.662	0.503
1290.000	715.888	79.998	19.998	101.152	19.932	6.584	0.511
1290.500	716.155	79.998	19.997	101.147	19.932	6.566	0.506
1291.000	716.463	79.998	19.998	101.141	19.930	6.727	0.538
1291.500	716.724	79.999	19.996	101.139	19.929	6.748	0.572
1292.000	716.954	80.000	19.996	101.145	19.930	6.687	0.530
1292.500	717.232	80.000	19.998	101.152	19.930	6.699	0.500
1293.000	717.449	79.998	19.998	101.158	19.926	6.967	0.502
1293.501	717.703	80.000	19.998	101.160	19.926	6.982	0.483
1294.001	717.949	79.998	19.998	101.163	19.927	6.867	0.485
1294.500	718.169	79.999	19.998	101.163	19.932	6.605	0.483
1295.000	718.475	79.999	19.997	101.163	19.926	6.939	0.496
1295.500	718.702	79.999	19.999	101.165	19.928	6.812	0.530
1296.000	718.917	79.998	19.999	101.170	19.926	6.934	0.487
1296.500	719.183	80.000	19.998	101.167	19.923	7.178	0.461
1297.000	719.436	79.998	19.997	101.167	19.926	6.955	0.500
1297.500	719.660	79.999	19.996	101.167	19.922	7.217	0.498
1298.000	719.910	79.999	19.997	101.167	19.922	7.250	0.476
1298.500	720.182	79.999	19.997	101.167	19.926	6.938	0.498
1299.000	720.450	80.000	19.997	101.170	19.920	7.332	0.531
1299.500	720.672	79.998	19.997	101.171	19.926	6.940	0.515
1300.000	720.971	79.999	19.998	101.172	19.924	7.074	0.506
1300.500	721.215	79.998	19.998	101.172	19.926	6.950	0.532
1301.000	721.468	79.999	19.997	101.172	19.926	6.933	0.520
1301.501	721.723	79.999	19.998	101.173	19.923	7.133	0.502
1302.001	721.941	80.000	19.996	101.174	19.925	7.062	0.491
1302.500	722.256	79.999	19.997	101.176	19.924	7.100	0.503
1303.000	722.457	79.998	19.997	101.176	19.924	7.110	0.524
1303.501	722.706	79.999	19.997	101.176	19.922	7.216	0.483
1304.001	722.996	79.999	19.996	101.176	19.924	7.064	0.494
1304.500	723.230	79.999	19.997	101.176	19.923	7.138	0.532
1305.000	723.468	79.999	19.996	101.174	19.921	7.288	0.498
1305.500	723.730	80.002	19.996	101.174	19.920	7.348	0.486
1306.000	723.974	80.001	19.996	101.180	19.921	7.283	0.503
1306.500	724.214	80.000	19.996	101.180	19.923	7.166	0.495
1307.000	724.479	80.001	19.996	101.179	19.921	7.317	0.494
1307.500	724.763	80.001	19.997	101.179	19.922	7.229	0.527
1308.000	724.982	79.999	19.997	101.179	19.920	7.324	0.526
1308.500	725.246	80.002	19.997	101.178	19.920	7.368	0.493
1309.000	725.460	80.003	19.996	101.178	19.923	7.174	0.480
1309.500	725.672	80.003	19.996	101.181	19.920	7.338	0.452
1310.000	725.998	80.001	19.996	101.181	19.923	7.161	0.482
1310.500	726.162	80.000	19.996	101.183	19.922	7.232	0.514
1311.000	726.520	80.001	19.997	101.182	19.921	7.323	0.506
1311.500	726.748	80.000	19.996	101.182	19.920	7.351	0.554
1312.000	726.947	80.001	19.997	101.184	19.919	7.443	0.506
1312.500	727.188	80.002	19.996	101.190	19.918	7.490	0.433
1313.000	727.483	80.001	19.996	101.195	19.917	7.540	0.488
1313.500	727.731	80.001	19.995	101.196	19.918	7.469	0.539
1314.000	727.970	80.001	19.996	101.199	19.918	7.467	0.515
1314.500	728.218	80.000	19.995	101.196	19.921	7.285	0.487
1315.000	728.475	80.001	19.996	101.191	19.918	7.481	0.497
1315.500	728.716	80.000	19.995	101.189	19.920	7.347	0.502
1316.000	729.008	80.000	19.996	101.191	19.918	7.476	0.515
1316.500	729.224	80.000	19.996	101.193	19.918	7.476	0.520
1317.000	729.472	80.000	19.995	101.198	19.919	7.428	0.485
1317.500	729.723	80.000	19.995	101.204	19.918	7.465	0.481
1318.000	729.946	79.999	19.995	101.201	19.921	7.302	0.487
1318.500	730.225	79.999	19.997	101.199	19.919	7.414	0.488
1319.000	730.423	79.999	19.996	101.200	19.919	7.437	0.490
1319.500	730.716	79.999	19.995	101.195	19.922	7.202	0.484
1320.000	730.952	80.000	19.995	101.194	19.918	7.470	0.510
1320.500	731.197	80.000	19.995	101.195	19.917	7.525	0.505
1321.000	731.495	80.000	19.995	101.197	19.919	7.394	0.512
1321.500	731.720	80.000	19.996	101.197	19.921	7.312	0.533
1322.000	731.973	80.000	19.996	101.202	19.917	7.519	0.500
1322.500	732.199	80.000	19.996	101.201	19.921	7.298	0.479
1323.000	732.479	80.001	19.996	101.201	19.919	7.441	0.493
1323.500	732.762	80.001	19.995	101.200	19.916	7.628	0.535
1324.000	732.952	80.000	19.997	101.198	19.919	7.388	0.518
1324.500	733.253	80.001	19.996	101.197	19.917	7.555	0.482
1325.000	733.462	80.001	19.997	101.198	19.916	7.619	0.501
1325.500	733.723	80.002	19.997	101.198	19.917	7.564	0.490
1326.000	733.978	80.001	19.997	101.198	19.916	7.620	0.493
1326.500	734.247	80.000	19.996	101.199	19.914	7.735	0.520
1327.000	734.450	80.001	19.995	101.196	19.918	7.488	0.498
1327.500	734.724	80.001	19.996	101.195	19.914	7.751	0.475
1328.000	734.997	80.001	19.996	101.195	19.915	7.696	0.512
1328.500	735.199	80.001	19.996	101.193	19.914	7.738	0.511
1329.000	735.495	80.002	19.997	101.192	19.913	7.830	0.487
1329.500	735.722	80.001	19.996	101.193	19.915	7.692	0.510
1330.000	735.971	80.002	19.997	101.194	19.913	7.821	0.499
1330.501	736.235	80.000	19.996	101.193	19.913	7.787	0.495
1331.000	736.495	80.002	19.996	101.195	19.911	7.919	0.519
1331.500	736.713	80.001	19.996	101.192	19.911	7.920	0.501
1332.000	737.008	80.002	19.996	101.188	19.915	7.670	0.495
1332.500	737.225	80.003	19.996	101.182	19.913	7.788	0.513
1333.000	737.478	80.003	19.995	101.181	19.913	7.816	0.492
1333.500	737.762	80.003	19.996	101.176	19.913	7.816	0.504
1334.000	737.997	80.003	19.996	101.175	19.912	7.856	0.528
1334.500	738.256	80.004	19.996	101.176	19.915	7.697	0.506
1335.000	738.517	80.003	19.996	101.175	19.913	7.826	0.507
1335.500	738.788	80.004	19.996	101.174	19.917	7.544	0.526
1336.000	739.037	80.003	19.995	101.173	19.914	7.751	0.526
1336.500	739.283	80.003	19.996	101.172	19.917	7.534	0.507
1337.000	739.488	80.003	19.995	101.169	19.915	7.656	0.473
1337.500	739.765	80.003	19.996	101.167	19.918	7.463	0.467
1338.000	739.985	80.003	19.996	101.165	19.918	7.486	0.490
1338.500	740.235	80.003	19.996	101.165	19.917	7.524	0.484
1339.000	740.465	80.001	19.996	101.164	19.918	7.487	0.475
1339.500	740.716	80.002	19.996	101.164	19.921	7.312	0.480
1340.000	740.974	80.002	19.995	101.165	19.913	7.782	0.495
1340.500	741.236	80.002	19.997	101.163	19.918	7.488	0.515
1341.000	741.494	80.002	19.996	101.157	19.919	7.422	0.520
1341.500	741.730	80.002	19.996	101.150	19.918	7.468	0.507
1342.000	741.996	80.002	19.996	101.142	19.920	7.363	0.498
1342.500	742.221	80.001	19.996	101.134	19.919	7.384	0.497
1343.000	742.490	80.002	19.996	101.130	19.920	7.325	0.493
1343.500	742.775	80.002	19.996	101.122	19.923	7.170	0.524
1344.000	742.976	80.000	19.996	101.120	19.924	7.065	0.520
1344.500	743.227	80.001	19.996	101.119	19.925	7.024	0.469
1345.000	743.576	80.000	19.995	101.115	19.925	7.050	0.526
