Sample ID:	C:\MCC\MCC Cal\Test\PMMA_R03_MCC_30K_min_211015_R2.txt
Sample Weight (mg):	4.83
Heating Rate (C/s):	0.5
Combustor Temp (C):	900
N2 Flow Rate (cc/min):	80
O2 Flow Rate (cc/min):	20
Calibration File:	C:\MCC\MCC Cal\Coeff1 JN10440_30_210304.txt.txt
T Correction Coefficients:	0	1.024463	0
Time Shift (s):	14
*
Time (s)	Temperature (C)	N2 flow rate (cc/min)	O2 flow rate (cc/min)	Flow Rate (cc/min)	Oxygen (%)	HRR (W/g)	Heating rate (C/s)
0.000	108.051	80.000	19.995	102.813	19.816	0.205	-0.015
0.500	108.098	79.999	19.996	102.812	19.814	0.319	-0.028
1.000	108.075	79.998	19.994	102.812	19.816	0.219	0.011
1.500	108.039	79.998	19.996	102.814	19.816	0.196	-0.017
2.000	108.042	79.998	19.997	102.815	19.817	0.105	-0.046
2.500	108.025	79.999	19.996	102.815	19.817	0.136	-0.024
3.000	108.035	79.998	19.995	102.816	19.814	0.326	-0.011
3.500	108.065	79.998	19.996	102.816	19.818	0.045	0.017
4.000	108.039	79.997	19.996	102.817	19.819	0.009	0.022
4.500	108.078	79.997	19.994	102.817	19.813	0.412	0.008
5.000	108.060	79.997	19.996	102.817	19.815	0.247	0.017
5.500	108.067	79.997	19.997	102.818	19.815	0.227	0.005
6.000	108.051	79.997	19.997	102.818	19.812	0.479	-0.010
6.500	108.035	79.997	19.994	102.819	19.815	0.263	-0.021
7.000	108.011	79.998	19.993	102.819	19.815	0.277	-0.036
7.500	108.049	79.997	19.996	102.820	19.814	0.332	-0.013
8.000	108.044	79.997	19.996	102.820	19.811	0.490	0.023
8.500	108.053	79.996	19.995	102.820	19.814	0.345	0.019
9.000	108.048	79.998	19.995	102.820	19.813	0.384	0.004
9.500	108.038	79.996	19.996	102.822	19.815	0.287	-0.006
10.000	108.045	79.997	19.995	102.822	19.815	0.288	-0.009
10.500	108.042	79.997	19.994	102.826	19.811	0.497	0.000
11.000	108.028	79.999	19.995	102.831	19.813	0.406	-0.007
11.500	108.021	79.997	19.995	102.838	19.812	0.444	-0.019
12.001	108.012	79.998	19.995	102.843	19.809	0.635	-0.019
12.501	108.051	79.997	19.995	102.854	19.808	0.697	0.007
13.000	108.053	79.996	19.997	102.865	19.809	0.666	0.036
13.500	108.048	79.996	19.996	102.876	19.807	0.775	0.019
14.000	108.037	79.995	19.994	102.884	19.807	0.789	-0.009
14.500	108.086	79.995	19.997	102.893	19.805	0.904	0.011
15.000	108.067	79.995	19.993	102.897	19.807	0.789	0.034
15.500	108.031	79.996	19.995	102.898	19.805	0.947	-0.013
16.000	108.108	79.996	19.996	102.900	19.801	1.194	-0.008
16.500	108.066	79.998	19.999	102.904	19.805	0.893	0.038
17.000	108.055	79.997	19.995	102.904	19.804	0.960	-0.009
17.500	108.119	79.996	19.994	102.904	19.807	0.815	0.000
18.000	108.123	79.996	19.998	102.904	19.803	1.067	0.060
18.500	108.159	79.995	19.998	102.901	19.802	1.145	0.054
19.000	108.143	79.996	19.996	102.898	19.800	1.234	0.030
19.500	108.179	79.996	19.995	102.897	19.802	1.138	0.020
20.000	108.164	79.996	19.997	102.897	19.799	1.312	0.020
20.500	108.227	79.996	19.997	102.897	19.797	1.426	0.034
21.000	108.230	79.997	19.998	102.899	19.802	1.134	0.057
21.500	108.251	79.998	19.996	102.905	19.799	1.299	0.045
22.000	108.223	79.997	19.996	102.912	19.796	1.497	0.009
22.500	108.278	79.996	19.995	102.919	19.792	1.776	0.010
23.000	108.303	79.996	19.997	102.928	19.797	1.430	0.053
23.500	108.345	79.997	19.995	102.933	19.794	1.675	0.074
24.000	108.352	79.996	19.995	102.937	19.796	1.499	0.058
24.500	108.379	79.994	19.998	102.939	19.794	1.669	0.041
25.000	108.444	79.997	19.997	102.943	19.794	1.642	0.063
25.500	108.509	79.996	19.998	102.943	19.793	1.709	0.111
26.000	108.471	79.996	19.995	102.943	19.792	1.771	0.078
26.500	108.537	79.996	19.995	102.943	19.791	1.829	0.027
27.000	108.568	79.995	19.997	102.944	19.792	1.784	0.062
27.500	108.606	79.997	19.998	102.942	19.792	1.795	0.083
28.000	108.609	79.996	19.998	102.942	19.789	1.993	0.056
28.500	108.685	79.995	19.997	102.942	19.792	1.778	0.060
29.000	108.713	79.996	19.996	102.941	19.792	1.791	0.091
29.500	108.768	79.995	19.998	102.938	19.791	1.876	0.094
30.000	108.789	79.997	19.995	102.937	19.788	2.069	0.080
30.500	108.836	79.997	19.996	102.936	19.789	1.991	0.072
31.000	108.917	79.996	19.997	102.936	19.787	2.090	0.098
31.500	108.929	79.999	19.997	102.934	19.789	1.989	0.110
32.000	108.974	79.997	19.994	102.933	19.788	2.063	0.075
32.500	109.045	79.997	19.997	102.934	19.786	2.152	0.087
33.000	109.120	79.997	19.996	102.938	19.787	2.125	0.131
33.500	109.189	79.996	19.996	102.943	19.786	2.154	0.145
34.000	109.174	79.998	19.995	102.949	19.789	2.016	0.099
34.500	109.254	79.995	19.996	102.956	19.787	2.085	0.059
35.000	109.291	79.998	19.995	102.962	19.788	2.024	0.091
35.500	109.331	79.996	19.995	102.961	19.792	1.811	0.097
36.000	109.386	79.998	19.994	102.958	19.787	2.131	0.086
36.500	109.428	79.997	19.995	102.957	19.788	2.055	0.097
37.000	109.514	79.999	19.994	102.958	19.789	1.964	0.113
37.500	109.575	79.997	19.997	102.955	19.786	2.155	0.138
38.000	109.645	79.997	19.996	102.960	19.788	2.039	0.139
38.500	109.663	79.999	19.996	102.965	19.786	2.211	0.109
39.000	109.700	79.996	19.994	102.966	19.790	1.912	0.072
39.500	109.797	79.997	19.995	102.965	19.788	2.058	0.095
40.000	109.832	79.997	19.996	102.962	19.786	2.153	0.133
40.500	109.892	79.996	19.997	102.957	19.791	1.872	0.113
41.000	109.958	79.997	19.994	102.957	19.788	2.053	0.111
41.500	110.009	79.996	19.995	102.957	19.786	2.171	0.122
42.000	110.124	79.997	19.995	102.956	19.788	2.082	0.142
42.500	110.184	79.997	19.995	102.962	19.786	2.206	0.170
43.000	110.250	79.997	19.996	102.967	19.788	2.066	0.151
43.500	110.283	79.998	19.995	102.968	19.789	1.953	0.113
44.000	110.372	79.997	19.996	102.968	19.789	1.997	0.110
44.500	110.426	79.996	19.995	102.969	19.786	2.191	0.132
45.000	110.457	79.997	19.993	102.970	19.785	2.226	0.114
45.500	110.539	79.997	19.995	102.971	19.788	2.084	0.099
46.000	110.633	79.998	19.995	102.971	19.784	2.333	0.145
46.500	110.685	79.997	19.995	102.972	19.780	2.567	0.161
47.000	110.764	79.998	19.995	102.975	19.783	2.355	0.138
47.500	110.883	79.999	19.995	102.980	19.786	2.217	0.164
48.000	110.959	79.999	19.995	102.987	19.784	2.320	0.196
48.500	111.017	79.998	19.994	102.991	19.782	2.428	0.164
49.000	111.126	79.999	19.996	102.997	19.783	2.398	0.151
49.500	111.207	79.998	19.997	102.999	19.778	2.689	0.178
50.000	111.287	79.999	19.994	102.997	19.783	2.377	0.176
50.501	111.368	79.998	19.995	102.992	19.782	2.457	0.162
51.001	111.472	79.998	19.994	102.994	19.781	2.486	0.173
51.500	111.559	79.999	19.995	102.995	19.783	2.371	0.188
52.000	111.643	79.998	19.997	102.994	19.783	2.415	0.181
52.500	111.749	79.999	19.995	102.998	19.784	2.342	0.181
53.001	111.841	79.998	19.995	103.002	19.781	2.551	0.194
53.501	111.899	79.997	19.995	103.004	19.782	2.435	0.174
54.000	111.983	79.999	19.994	103.005	19.780	2.570	0.146
54.500	112.127	79.997	19.996	103.009	19.781	2.539	0.185
55.000	112.211	79.996	19.995	103.010	19.777	2.761	0.228
55.500	112.257	80.000	19.995	103.010	19.777	2.795	0.179
56.000	112.391	79.998	19.995	103.010	19.780	2.579	0.155
56.500	112.470	79.998	19.996	103.011	19.779	2.677	0.197
57.000	112.582	79.998	19.996	103.013	19.774	2.986	0.202
57.500	112.669	80.000	19.997	103.014	19.777	2.761	0.195
58.000	112.780	79.998	19.996	103.014	19.778	2.746	0.199
58.500	112.879	79.999	19.996	103.015	19.776	2.828	0.204
59.000	113.013	79.998	19.995	103.016	19.776	2.833	0.221
59.500	113.096	79.998	19.995	103.018	19.776	2.882	0.225
60.000	113.181	79.998	19.994	103.017	19.773	3.075	0.193
60.500	113.301	79.997	19.993	103.017	19.771	3.180	0.186
61.000	113.415	79.997	19.994	103.018	19.770	3.240	0.219
61.500	113.505	79.998	19.995	103.016	19.773	3.068	0.219
62.000	113.636	79.998	19.995	103.016	19.772	3.117	0.213
62.500	113.725	79.997	19.995	103.022	19.772	3.106	0.220
63.000	113.818	79.998	19.995	103.025	19.770	3.222	0.201
63.500	113.949	79.998	19.994	103.030	19.772	3.142	0.203
64.000	114.071	79.999	19.993	103.033	19.769	3.313	0.239
64.500	114.182	79.998	19.994	103.037	19.769	3.326	0.243
65.000	114.332	79.997	19.995	103.038	19.769	3.297	0.247
65.500	114.447	79.997	19.995	103.042	19.769	3.289	0.263
66.000	114.582	79.999	19.995	103.045	19.768	3.384	0.258
66.500	114.677	79.997	19.995	103.048	19.770	3.249	0.240
67.000	114.853	79.999	19.996	103.049	19.766	3.513	0.250
67.500	114.961	79.999	19.996	103.049	19.769	3.289	0.277
68.000	115.056	79.996	19.996	103.049	19.770	3.257	0.244
68.500	115.184	79.999	19.995	103.049	19.771	3.162	0.213
69.000	115.313	79.998	19.995	103.049	19.769	3.324	0.240
69.500	115.411	79.999	19.996	103.049	19.770	3.237	0.242
70.000	115.568	79.998	19.996	103.050	19.768	3.378	0.241
70.500	115.694	79.998	19.994	103.051	19.766	3.520	0.269
71.000	115.824	79.998	19.995	103.052	19.766	3.500	0.270
71.500	115.939	79.998	19.996	103.054	19.768	3.384	0.251
72.000	116.105	79.999	19.996	103.054	19.767	3.456	0.263
72.500	116.214	79.998	19.995	103.054	19.765	3.562	0.278
73.000	116.337	79.999	19.995	103.053	19.765	3.576	0.254
73.501	116.512	79.999	19.994	103.053	19.768	3.413	0.265
74.001	116.618	79.999	19.995	103.053	19.766	3.542	0.289
74.500	116.766	80.000	19.994	103.053	19.764	3.651	0.267
75.001	116.913	80.000	19.993	103.053	19.764	3.618	0.275
75.501	117.029	79.999	19.995	103.053	19.769	3.324	0.279
76.000	117.184	80.000	19.994	103.053	19.765	3.615	0.267
76.500	117.339	80.000	19.994	103.052	19.763	3.729	0.291
77.000	117.485	80.000	19.995	103.052	19.766	3.502	0.306
77.500	117.623	79.999	19.996	103.052	19.765	3.597	0.293
78.000	117.774	79.999	19.995	103.052	19.762	3.782	0.286
78.500	117.931	80.001	19.994	103.052	19.766	3.530	0.299
79.000	118.066	80.000	19.994	103.052	19.766	3.486	0.300
79.501	118.232	80.001	19.994	103.051	19.764	3.634	0.296
80.001	118.370	79.998	19.994	103.050	19.762	3.757	0.302
80.500	118.504	79.999	19.994	103.050	19.764	3.662	0.289
81.000	118.682	79.999	19.995	103.051	19.765	3.563	0.292
81.500	118.828	80.000	19.995	103.050	19.763	3.692	0.317
82.001	118.978	79.999	19.996	103.051	19.764	3.648	0.310
82.501	119.149	79.999	19.995	103.051	19.764	3.628	0.308
83.000	119.241	79.999	19.994	103.052	19.764	3.665	0.292
83.500	119.425	79.999	19.995	103.052	19.765	3.557	0.270
84.000	119.587	79.998	19.995	103.053	19.764	3.650	0.311
84.500	119.782	79.998	19.996	103.053	19.760	3.886	0.351
85.001	119.907	79.998	19.995	103.053	19.763	3.752	0.339
85.501	120.056	79.998	19.995	103.053	19.765	3.583	0.297
86.000	120.195	79.997	19.994	103.058	19.763	3.730	0.281
86.500	120.392	79.995	19.995	103.059	19.764	3.654	0.312
87.000	120.510	79.997	19.995	103.059	19.761	3.848	0.326
87.500	120.711	79.996	19.996	103.065	19.760	3.901	0.317
88.000	120.847	79.996	19.995	103.070	19.762	3.795	0.328
88.500	121.063	79.994	19.996	103.072	19.762	3.786	0.344
89.000	121.237	79.997	19.995	103.076	19.761	3.864	0.371
89.500	121.407	79.996	19.996	103.079	19.765	3.612	0.367
90.000	121.567	79.997	19.996	103.079	19.767	3.470	0.337
90.500	121.704	79.997	19.995	103.080	19.760	3.946	0.313
91.000	121.914	79.996	19.996	103.076	19.764	3.644	0.322
91.500	122.061	79.996	19.996	103.076	19.765	3.608	0.352
92.000	122.257	79.997	19.996	103.078	19.761	3.859	0.350
92.500	122.440	79.997	19.995	103.078	19.762	3.775	0.361
93.000	122.615	79.996	19.996	103.079	19.764	3.664	0.369
93.500	122.800	79.999	19.996	103.083	19.764	3.630	0.359
94.000	122.981	79.997	19.996	103.084	19.764	3.663	0.363
94.500	123.161	79.996	19.995	103.083	19.766	3.546	0.363
95.000	123.348	79.997	19.996	103.082	19.762	3.779	0.364
95.500	123.539	79.997	19.994	103.080	19.760	3.888	0.373
96.000	123.712	79.997	19.995	103.078	19.761	3.852	0.371
96.500	123.880	79.998	19.994	103.081	19.761	3.832	0.352
97.000	124.083	79.997	19.995	103.082	19.760	3.893	0.356
97.500	124.247	79.997	19.996	103.083	19.762	3.757	0.369
98.000	124.462	79.997	19.995	103.084	19.760	3.904	0.373
98.500	124.617	79.996	19.996	103.081	19.759	3.997	0.375
99.000	124.822	79.999	19.996	103.077	19.760	3.915	0.365
99.500	125.021	79.996	19.995	103.077	19.759	3.973	0.382
100.000	125.193	79.998	19.995	103.077	19.761	3.866	0.388
100.500	125.385	79.997	19.996	103.078	19.763	3.752	0.368
101.001	125.560	79.997	19.995	103.079	19.761	3.821	0.365
101.501	125.793	79.998	19.995	103.079	19.760	3.897	0.387
102.001	125.954	79.998	19.996	103.078	19.757	4.130	0.401
102.500	126.143	79.997	19.996	103.078	19.758	4.043	0.372
103.001	126.354	79.999	19.995	103.077	19.759	3.988	0.376
103.501	126.553	79.995	19.995	103.078	19.760	3.912	0.405
104.000	126.748	79.999	19.995	103.081	19.760	3.892	0.402
104.500	126.950	79.997	19.995	103.082	19.759	3.999	0.395
105.000	127.173	79.997	19.996	103.083	19.759	4.006	0.411
105.500	127.339	79.995	19.996	103.082	19.756	4.197	0.407
106.000	127.526	79.998	19.995	103.081	19.760	3.892	0.372
106.500	127.727	79.995	19.996	103.081	19.757	4.113	0.371
107.000	127.913	79.997	19.995	103.083	19.757	4.152	0.388
107.501	128.101	79.996	19.996	103.082	19.756	4.161	0.381
108.001	128.314	79.997	19.996	103.081	19.758	4.046	0.387
108.500	128.545	79.997	19.997	103.081	19.758	4.037	0.422
109.000	128.742	79.998	19.997	103.081	19.756	4.155	0.436
109.500	128.916	79.996	19.996	103.081	19.758	4.084	0.399
110.000	129.113	79.997	19.996	103.082	19.757	4.090	0.371
110.500	129.338	79.998	19.996	103.086	19.758	4.023	0.397
111.000	129.551	79.998	19.995	103.088	19.762	3.763	0.430
111.500	129.741	79.998	19.995	103.088	19.760	3.886	0.421
112.000	129.965	79.998	19.995	103.089	19.758	4.073	0.409
112.500	130.182	79.997	19.996	103.089	19.758	4.072	0.427
113.000	130.348	79.998	19.996	103.088	19.758	4.072	0.412
113.500	130.586	79.996	19.995	103.088	19.759	4.006	0.393
114.000	130.805	79.995	19.997	103.088	19.756	4.159	0.430
114.500	130.996	79.997	19.996	103.088	19.757	4.146	0.433
115.000	131.201	79.996	19.997	103.087	19.757	4.132	0.403
115.500	131.426	79.998	19.997	103.087	19.752	4.455	0.413
116.000	131.604	79.996	19.996	103.086	19.757	4.139	0.417
116.500	131.817	79.997	19.996	103.086	19.755	4.259	0.397
117.000	132.046	79.998	19.995	103.086	19.755	4.261	0.417
117.500	132.249	79.997	19.997	103.086	19.752	4.471	0.437
118.000	132.468	79.997	19.997	103.086	19.754	4.341	0.427
118.500	132.694	79.996	19.998	103.086	19.753	4.373	0.434
119.000	132.883	79.998	19.997	103.086	19.756	4.164	0.430
119.500	133.102	79.995	19.997	103.086	19.754	4.297	0.412
120.000	133.315	79.998	19.997	103.087	19.758	4.033	0.420
120.500	133.507	79.997	19.995	103.087	19.756	4.199	0.418
121.000	133.742	79.996	19.997	103.086	19.751	4.511	0.416
121.500	133.942	79.998	19.996	103.085	19.755	4.283	0.432
122.000	134.196	79.996	19.996	103.085	19.753	4.410	0.445
122.500	134.439	79.997	19.996	103.085	19.751	4.537	0.475
123.000	134.592	79.997	19.997	103.085	19.754	4.288	0.446
123.500	134.847	79.997	19.996	103.086	19.755	4.232	0.402
124.000	135.038	79.996	19.997	103.087	19.754	4.295	0.427
124.500	135.253	79.996	19.996	103.085	19.754	4.308	0.426
125.000	135.513	79.996	19.997	103.085	19.755	4.263	0.441
125.500	135.739	79.999	19.997	103.086	19.756	4.188	0.481
126.000	135.942	79.996	19.997	103.085	19.757	4.139	0.458
126.500	136.161	79.997	19.997	103.086	19.753	4.408	0.425
127.000	136.369	79.998	19.995	103.088	19.752	4.433	0.424
127.500	136.596	79.999	19.994	103.089	19.755	4.282	0.431
128.000	136.827	79.998	19.996	103.088	19.754	4.350	0.446
128.500	137.057	79.997	19.995	103.087	19.751	4.539	0.460
129.000	137.254	79.997	19.994	103.086	19.754	4.313	0.444
129.500	137.510	79.999	19.994	103.086	19.753	4.379	0.440
130.000	137.705	79.997	19.995	103.084	19.751	4.488	0.452
130.500	137.943	79.998	19.995	103.084	19.751	4.537	0.442
131.000	138.164	79.999	19.996	103.086	19.751	4.519	0.446
131.500	138.419	79.999	19.996	103.087	19.750	4.568	0.468
132.000	138.666	79.997	19.996	103.087	19.748	4.693	0.489
132.500	138.854	79.999	19.994	103.090	19.752	4.449	0.469
133.000	139.067	80.000	19.995	103.090	19.749	4.647	0.418
133.500	139.338	79.999	19.996	103.091	19.749	4.636	0.442
134.000	139.566	80.000	19.995	103.091	19.747	4.751	0.491
134.500	139.778	79.997	19.995	103.091	19.748	4.740	0.470
135.000	140.007	79.997	19.994	103.091	19.750	4.573	0.441
135.500	140.211	80.000	19.994	103.089	19.751	4.501	0.437
136.000	140.472	79.998	19.994	103.089	19.749	4.677	0.449
136.500	140.686	79.998	19.995	103.088	19.753	4.415	0.470
137.000	140.946	79.999	19.996	103.087	19.746	4.855	0.474
137.500	141.181	79.998	19.997	103.087	19.750	4.582	0.484
138.000	141.449	80.002	19.996	103.088	19.750	4.597	0.499
138.500	141.668	79.998	19.996	103.087	19.744	4.956	0.495
139.000	141.908	79.999	19.995	103.087	19.744	4.987	0.473
139.500	142.104	80.000	19.995	103.088	19.746	4.882	0.448
140.000	142.309	80.001	19.995	103.088	19.743	5.020	0.418
140.500	142.595	80.000	19.993	103.089	19.742	5.145	0.445
141.000	142.821	80.001	19.994	103.089	19.743	5.037	0.501
141.500	143.037	80.000	19.995	103.089	19.744	4.958	0.477
142.000	143.305	79.998	19.997	103.089	19.744	5.009	0.463
142.500	143.520	79.997	19.996	103.086	19.743	5.026	0.483
143.000	143.748	79.999	19.995	103.082	19.742	5.113	0.463
143.500	144.030	79.997	19.997	103.080	19.742	5.113	0.476
144.000	144.220	79.997	19.996	103.080	19.741	5.194	0.491
144.500	144.456	79.998	19.996	103.079	19.740	5.224	0.450
145.000	144.733	79.998	19.994	103.082	19.742	5.113	0.470
145.500	144.937	79.997	19.995	103.086	19.742	5.100	0.497
146.000	145.202	79.998	19.995	103.089	19.740	5.258	0.475
146.500	145.456	79.998	19.994	103.090	19.741	5.183	0.494
147.000	145.682	79.998	19.994	103.089	19.741	5.167	0.499
147.500	145.904	79.997	19.995	103.089	19.740	5.232	0.464
148.000	146.134	79.996	19.996	103.088	19.743	5.020	0.450
148.500	146.415	79.995	19.994	103.089	19.743	5.045	0.481
149.000	146.636	79.996	19.995	103.087	19.743	5.062	0.507
149.500	146.877	79.997	19.996	103.085	19.742	5.143	0.482
150.000	147.138	80.001	19.996	103.085	19.744	5.009	0.482
150.500	147.328	79.998	19.996	103.085	19.740	5.265	0.476
151.000	147.590	79.995	19.995	103.085	19.738	5.358	0.452
151.500	147.827	79.998	19.996	103.087	19.738	5.372	0.476
152.000	148.075	79.998	19.995	103.090	19.738	5.378	0.492
152.500	148.330	79.998	19.996	103.089	19.742	5.134	0.494
153.000	148.547	79.998	19.995	103.089	19.741	5.216	0.488
153.500	148.806	79.998	19.995	103.087	19.742	5.143	0.474
154.000	149.027	79.999	19.994	103.086	19.742	5.101	0.478
154.500	149.274	79.997	19.994	103.085	19.737	5.437	0.474
155.000	149.529	79.997	19.994	103.086	19.738	5.356	0.485
155.500	149.767	79.998	19.994	103.087	19.739	5.321	0.498
156.000	150.036	79.999	19.996	103.088	19.734	5.628	0.500
156.500	150.257	79.999	19.995	103.087	19.735	5.570	0.498
157.000	150.490	80.001	19.995	103.084	19.740	5.225	0.472
157.500	150.736	79.998	19.995	103.080	19.736	5.539	0.467
158.000	150.960	80.000	19.994	103.079	19.735	5.586	0.475
158.500	151.191	80.001	19.995	103.079	19.734	5.624	0.463
159.000	151.479	80.000	19.994	103.078	19.736	5.506	0.487
159.500	151.695	80.002	19.994	103.082	19.735	5.615	0.511
160.000	151.975	80.000	19.994	103.085	19.731	5.819	0.500
160.500	152.200	80.000	19.996	103.084	19.731	5.861	0.501
161.000	152.468	79.999	19.994	103.084	19.732	5.812	0.499
161.500	152.692	79.999	19.994	103.085	19.734	5.639	0.492
162.000	152.961	79.998	19.996	103.085	19.732	5.792	0.492
162.500	153.201	80.003	19.996	103.085	19.734	5.651	0.501
163.000	153.435	80.001	19.995	103.085	19.733	5.733	0.492
163.500	153.689	79.999	19.995	103.085	19.732	5.766	0.481
164.000	153.930	79.999	19.995	103.084	19.730	5.893	0.492
164.500	154.170	80.001	19.994	103.084	19.734	5.630	0.488
165.000	154.428	80.001	19.995	103.080	19.731	5.866	0.490
165.500	154.659	79.999	19.994	103.078	19.730	5.906	0.494
166.000	154.901	79.999	19.993	103.075	19.730	5.890	0.481
166.500	155.119	80.000	19.995	103.074	19.731	5.832	0.466
167.000	155.365	80.000	19.996	103.074	19.731	5.881	0.462
167.500	155.612	79.998	19.994	103.076	19.731	5.877	0.478
168.000	155.893	79.997	19.996	103.077	19.728	6.017	0.511
168.500	156.147	79.998	19.994	103.080	19.724	6.292	0.532
169.000	156.387	79.998	19.995	103.075	19.731	5.827	0.515
169.500	156.627	79.999	19.994	103.072	19.726	6.210	0.487
170.000	156.871	79.996	19.995	103.069	19.727	6.098	0.482
170.500	157.093	79.999	19.994	103.069	19.727	6.112	0.474
171.000	157.365	79.996	19.995	103.070	19.727	6.143	0.480
171.500	157.633	79.996	19.996	103.074	19.724	6.290	0.517
172.000	157.861	79.999	19.996	103.076	19.723	6.383	0.518
172.500	158.158	79.998	19.995	103.077	19.724	6.325	0.510
173.000	158.356	79.996	19.995	103.076	19.725	6.270	0.510
173.500	158.577	79.997	19.995	103.070	19.725	6.279	0.458
174.000	158.836	79.997	19.996	103.068	19.724	6.337	0.450
174.500	159.097	79.997	19.996	103.069	19.725	6.243	0.500
175.000	159.369	79.999	19.995	103.070	19.723	6.363	0.526
175.500	159.621	79.997	19.995	103.072	19.722	6.462	0.528
176.000	159.854	79.997	19.996	103.075	19.721	6.522	0.505
176.500	160.103	79.997	19.994	103.078	19.724	6.344	0.484
177.000	160.343	80.000	19.995	103.078	19.720	6.551	0.486
177.500	160.602	79.996	19.995	103.076	19.719	6.642	0.494
178.000	160.846	79.996	19.995	103.075	19.719	6.662	0.501
178.500	161.112	79.999	19.996	103.072	19.717	6.793	0.507
179.000	161.362	79.999	19.996	103.071	19.723	6.394	0.513
179.500	161.619	79.997	19.996	103.067	19.719	6.648	0.512
180.000	161.868	79.997	19.997	103.065	19.722	6.450	0.506
180.500	162.137	79.995	19.996	103.062	19.720	6.606	0.511
181.000	162.350	79.998	19.996	103.062	19.716	6.820	0.500
181.500	162.633	79.996	19.995	103.060	19.718	6.742	0.489
182.000	162.861	79.999	19.996	103.060	19.718	6.697	0.504
182.500	163.085	80.000	19.995	103.061	19.721	6.497	0.482
183.000	163.349	80.000	19.996	103.061	19.720	6.602	0.470
183.500	163.614	79.998	19.996	103.060	19.718	6.742	0.508
184.000	163.835	79.997	19.995	103.059	19.719	6.635	0.508
184.500	164.139	79.997	19.996	103.058	19.713	7.038	0.506
185.000	164.380	79.996	19.995	103.055	19.719	6.651	0.535
185.500	164.617	79.998	19.996	103.055	19.716	6.860	0.511
186.000	164.865	79.998	19.996	103.054	19.715	6.937	0.481
186.500	165.127	79.998	19.996	103.052	19.717	6.811	0.498
187.000	165.376	79.995	19.996	103.051	19.716	6.844	0.511
187.500	165.711	79.999	19.996	103.050	19.715	6.913	0.547
188.000	165.940	79.995	19.996	103.050	19.717	6.788	0.574
188.500	166.157	79.997	19.996	103.054	19.714	7.002	0.505
189.000	166.453	79.999	19.995	103.055	19.715	6.886	0.480
189.500	166.673	80.001	19.995	103.057	19.716	6.857	0.514
190.000	166.921	79.998	19.995	103.057	19.714	6.962	0.492
190.500	167.145	79.996	19.996	103.056	19.710	7.256	0.470
191.000	167.398	79.997	19.995	103.053	19.710	7.240	0.474
191.500	167.653	79.997	19.995	103.053	19.710	7.236	0.493
192.000	167.898	79.997	19.996	103.051	19.710	7.225	0.504
192.500	168.150	79.999	19.995	103.051	19.713	7.074	0.498
193.000	168.398	79.998	19.997	103.052	19.716	6.876	0.498
193.500	168.642	79.998	19.996	103.052	19.709	7.312	0.496
194.000	168.900	79.998	19.996	103.051	19.710	7.249	0.497
194.500	169.173	79.998	19.995	103.052	19.713	7.067	0.517
195.000	169.412	79.997	19.995	103.052	19.712	7.129	0.522
195.500	169.673	79.998	19.994	103.053	19.709	7.280	0.506
196.000	169.939	79.996	19.995	103.053	19.710	7.225	0.513
196.500	170.172	79.998	19.996	103.055	19.712	7.096	0.512
197.000	170.431	79.996	19.997	103.056	19.708	7.396	0.495
197.500	170.721	79.997	19.996	103.056	19.711	7.149	0.521
198.000	170.963	79.994	19.996	103.058	19.709	7.314	0.541
198.500	171.175	79.998	19.996	103.060	19.711	7.198	0.493
199.000	171.415	79.996	19.997	103.058	19.713	7.060	0.453
199.500	171.679	79.997	19.995	103.058	19.710	7.261	0.478
200.000	171.941	79.995	19.995	103.057	19.710	7.220	0.516
200.500	172.174	79.999	19.996	103.055	19.712	7.116	0.511
201.000	172.425	79.996	19.996	103.053	19.712	7.121	0.489
201.500	172.732	79.995	19.996	103.052	19.713	7.076	0.521
202.000	172.955	79.997	19.997	103.052	19.711	7.165	0.544
202.500	173.181	79.997	19.997	103.052	19.713	7.074	0.490
203.000	173.479	79.994	19.996	103.053	19.708	7.363	0.487
203.500	173.730	79.997	19.996	103.053	19.708	7.409	0.536
204.000	173.969	79.994	19.996	103.053	19.710	7.263	0.520
204.500	174.187	79.997	19.995	103.053	19.713	7.038	0.474
205.000	174.463	79.994	19.996	103.053	19.711	7.205	0.476
205.500	174.683	79.998	19.996	103.053	19.713	7.076	0.495
206.000	174.967	79.997	19.995	103.052	19.712	7.089	0.500
206.500	175.209	79.995	19.997	103.052	19.710	7.221	0.514
207.000	175.484	79.996	19.996	103.051	19.712	7.105	0.521
207.500	175.701	79.995	19.996	103.052	19.714	6.993	0.504
208.000	175.960	79.998	19.995	103.052	19.710	7.238	0.484
208.500	176.207	79.997	19.996	103.051	19.715	6.929	0.491
209.000	176.446	79.996	19.997	103.052	19.716	6.876	0.496
209.500	176.692	79.999	19.997	103.051	19.710	7.256	0.486
210.000	176.962	79.996	19.996	103.051	19.713	7.071	0.501
210.500	177.188	79.996	19.997	103.051	19.710	7.218	0.506
211.000	177.481	79.997	19.996	103.050	19.715	6.929	0.507
211.500	177.744	79.994	19.997	103.050	19.713	7.069	0.538
212.000	177.996	79.997	19.995	103.049	19.711	7.169	0.535
212.500	178.224	79.995	19.997	103.049	19.707	7.427	0.497
213.000	178.471	79.996	19.998	103.050	19.711	7.198	0.477
213.500	178.727	79.999	19.997	103.051	19.711	7.156	0.489
214.000	178.999	79.997	19.997	103.051	19.712	7.087	0.515
214.500	179.219	79.998	19.997	103.051	19.713	7.045	0.510
215.000	179.466	79.998	19.997	103.051	19.712	7.140	0.480
215.500	179.705	79.997	19.995	103.050	19.713	7.052	0.477
216.000	179.999	79.998	19.996	103.050	19.711	7.205	0.510
216.500	180.225	79.998	19.996	103.050	19.712	7.090	0.527
217.000	180.480	79.998	19.995	103.050	19.715	6.901	0.500
217.500	180.740	79.998	19.996	103.051	19.713	7.030	0.498
218.000	181.014	79.996	19.996	103.051	19.715	6.936	0.524
218.500	181.262	79.997	19.995	103.051	19.713	7.063	0.528
219.000	181.497	79.998	19.996	103.051	19.716	6.871	0.503
219.500	181.739	79.999	19.996	103.051	19.716	6.874	0.480
220.000	182.007	79.999	19.995	103.051	19.715	6.885	0.494
220.500	182.258	79.998	19.995	103.052	19.713	7.068	0.515
221.000	182.486	79.997	19.995	103.052	19.716	6.869	0.498
221.500	182.735	79.996	19.995	103.052	19.718	6.716	0.478
222.000	182.990	79.997	19.995	103.053	19.717	6.747	0.491
222.500	183.269	80.000	19.995	103.052	19.710	7.234	0.519
223.000	183.469	80.000	19.996	103.052	19.718	6.712	0.507
223.500	183.712	79.998	19.994	103.052	19.716	6.848	0.461
224.000	184.010	79.998	19.996	103.051	19.720	6.588	0.492
224.500	184.246	79.999	19.995	103.051	19.717	6.795	0.537
225.000	184.504	79.998	19.995	103.051	19.714	6.975	0.514
225.500	184.747	79.998	19.995	103.050	19.714	6.977	0.498
226.000	184.951	79.995	19.996	103.050	19.719	6.627	0.474
226.500	185.254	79.996	19.995	103.050	19.717	6.754	0.477
227.000	185.499	79.996	19.995	103.049	19.715	6.905	0.527
227.500	185.726	79.997	19.996	103.048	19.715	6.903	0.510
228.000	186.002	79.998	19.996	103.047	19.716	6.858	0.487
228.500	186.236	79.999	19.995	103.045	19.716	6.865	0.507
229.000	186.527	79.997	19.996	103.045	19.717	6.752	0.518
229.500	186.797	80.000	19.995	103.046	19.715	6.901	0.543
230.000	187.051	79.999	19.995	103.046	19.719	6.616	0.543
230.500	187.314	79.999	19.996	103.044	19.716	6.870	0.520
231.000	187.522	80.000	19.997	103.045	19.719	6.616	0.494
231.500	187.780	80.000	19.996	103.045	19.715	6.881	0.469
232.000	188.010	79.995	19.996	103.045	19.718	6.709	0.477
232.500	188.272	79.999	19.994	103.046	19.714	6.974	0.490
233.000	188.497	79.999	19.996	103.048	19.717	6.785	0.490
233.500	188.760	80.000	19.995	103.046	19.715	6.897	0.488
234.000	189.021	79.998	19.997	103.044	19.718	6.690	0.506
234.500	189.256	80.001	19.996	103.040	19.714	6.970	0.509
235.000	189.534	79.999	19.996	103.037	19.716	6.867	0.504
235.500	189.771	79.999	19.995	103.036	19.719	6.640	0.514
236.000	190.060	80.000	19.996	103.037	19.720	6.603	0.521
236.500	190.280	79.998	19.996	103.036	19.716	6.840	0.518
237.000	190.532	80.001	19.995	103.039	19.715	6.883	0.490
237.500	190.790	79.999	19.995	103.040	19.718	6.689	0.491
238.000	191.039	80.002	19.995	103.042	19.717	6.801	0.509
238.500	191.275	80.001	19.995	103.042	19.719	6.623	0.496
239.000	191.519	79.999	19.996	103.043	19.719	6.672	0.483
239.500	191.779	79.999	19.994	103.045	19.719	6.643	0.492
240.000	192.066	79.999	19.996	103.046	19.719	6.616	0.525
240.500	192.265	80.001	19.994	103.044	19.714	6.955	0.516
241.000	192.502	79.998	19.995	103.044	19.720	6.550	0.461
241.500	192.777	80.001	19.996	103.044	19.716	6.819	0.474
242.000	193.001	80.001	19.995	103.045	19.716	6.877	0.505
242.500	193.228	79.999	19.995	103.045	19.719	6.630	0.475
243.000	193.535	80.000	19.994	103.044	19.722	6.477	0.492
243.500	193.749	80.002	19.995	103.041	19.722	6.448	0.528
244.000	194.024	79.998	19.995	103.039	19.723	6.381	0.505
244.500	194.234	80.003	19.994	103.038	19.720	6.605	0.487
245.000	194.473	80.001	19.997	103.035	19.715	6.886	0.467
245.500	194.719	80.000	19.996	103.037	19.722	6.439	0.467
246.000	194.939	80.002	19.995	103.041	19.717	6.753	0.476
246.500	195.204	79.998	19.995	103.043	19.717	6.753	0.476
247.000	195.437	80.001	19.994	103.043	19.720	6.568	0.491
247.500	195.696	79.998	19.996	103.044	19.722	6.449	0.495
248.000	195.927	80.000	19.996	103.043	19.720	6.582	0.492
248.500	196.183	79.999	19.995	103.043	19.719	6.616	0.489
249.000	196.424	79.999	19.995	103.041	19.720	6.582	0.492
249.500	196.731	79.999	19.996	103.036	19.722	6.467	0.522
250.000	196.916	79.997	19.997	103.038	19.722	6.430	0.520
250.500	197.177	79.998	19.996	103.036	19.718	6.701	0.469
251.000	197.418	79.998	19.993	103.034	19.720	6.587	0.474
251.500	197.651	79.997	19.995	103.034	19.717	6.779	0.488
252.000	197.906	79.998	19.995	103.036	19.717	6.803	0.481
252.500	198.145	79.997	19.995	103.031	19.719	6.629	0.491
253.000	198.440	79.995	19.995	103.030	19.720	6.578	0.514
253.500	198.687	79.997	19.994	103.030	19.720	6.556	0.538
254.000	198.919	79.999	19.994	103.031	19.721	6.540	0.511
254.500	199.168	79.998	19.994	103.033	19.720	6.552	0.480
255.000	199.419	79.999	19.996	103.034	19.718	6.679	0.490
255.500	199.624	79.996	19.996	103.035	19.719	6.663	0.478
256.000	199.875	79.997	19.995	103.034	19.720	6.581	0.456
256.500	200.158	79.999	19.996	103.033	19.721	6.538	0.495
257.000	200.408	80.000	19.996	103.031	19.724	6.334	0.534
257.500	200.632	79.998	19.995	103.032	19.720	6.577	0.503
258.000	200.881	79.996	19.996	103.035	19.725	6.263	0.473
258.500	201.101	79.998	19.996	103.039	19.720	6.574	0.471
259.000	201.358	79.998	19.994	103.042	19.725	6.259	0.473
259.500	201.584	79.999	19.996	103.045	19.722	6.414	0.480
260.000	201.874	79.996	19.994	103.046	19.724	6.303	0.499
260.500	202.106	79.999	19.994	103.043	19.723	6.352	0.519
261.000	202.323	79.998	19.996	103.035	19.723	6.376	0.486
261.500	202.612	79.998	19.997	103.035	19.729	5.986	0.477
262.000	202.835	79.999	19.995	103.035	19.726	6.169	0.509
262.500	203.086	79.997	19.995	103.038	19.726	6.163	0.493
263.000	203.375	79.995	19.995	103.042	19.726	6.205	0.507
263.500	203.622	79.996	19.995	103.050	19.724	6.327	0.538
264.000	203.820	79.997	19.996	103.048	19.727	6.140	0.490
264.500	204.073	79.997	19.995	103.043	19.726	6.185	0.447
265.000	204.319	79.998	19.994	103.039	19.726	6.169	0.475
265.500	204.561	79.999	19.995	103.038	19.729	5.973	0.494
266.000	204.833	79.998	19.994	103.035	19.727	6.140	0.502
266.500	205.062	79.998	19.995	103.036	19.731	5.844	0.507
267.000	205.339	79.998	19.995	103.038	19.729	5.958	0.503
267.500	205.588	79.999	19.995	103.036	19.727	6.095	0.516
268.000	205.834	79.999	19.996	103.034	19.725	6.269	0.511
268.500	206.039	79.998	19.997	103.033	19.726	6.171	0.474
269.000	206.336	80.000	19.995	103.032	19.726	6.211	0.477
269.500	206.571	80.000	19.996	103.031	19.723	6.353	0.517
270.000	206.813	79.998	19.996	103.030	19.723	6.371	0.504
270.500	207.072	79.998	19.996	103.030	19.728	6.047	0.489
271.000	207.256	79.998	19.996	103.030	19.726	6.183	0.472
271.500	207.555	79.997	19.998	103.032	19.726	6.165	0.463
272.000	207.787	79.997	19.996	103.032	19.731	5.832	0.507
272.500	208.054	79.996	19.996	103.036	19.728	6.047	0.515
273.000	208.330	79.998	19.995	103.037	19.725	6.261	0.521
273.500	208.558	79.998	19.996	103.036	19.726	6.174	0.523
274.000	208.797	79.997	19.995	103.035	19.729	5.961	0.485
274.500	209.071	79.997	19.996	103.036	19.729	5.965	0.490
275.000	209.309	79.997	19.995	103.037	19.727	6.102	0.512
275.500	209.560	79.999	19.996	103.039	19.728	6.055	0.500
276.000	209.787	79.998	19.996	103.040	19.728	6.020	0.484
276.500	210.050	79.996	19.995	103.039	19.728	6.034	0.484
277.000	210.263	79.996	19.996	103.040	19.726	6.207	0.482
277.500	210.516	79.998	19.996	103.040	19.729	5.963	0.471
278.000	210.824	79.998	19.996	103.038	19.730	5.917	0.514
278.500	211.041	79.996	19.996	103.038	19.731	5.830	0.543
279.000	211.283	79.998	19.996	103.041	19.730	5.890	0.492
279.500	211.543	79.998	19.996	103.042	19.730	5.888	0.480
280.000	211.768	79.998	19.995	103.043	19.731	5.870	0.493
280.500	212.035	79.997	19.997	103.042	19.730	5.928	0.488
281.000	212.244	79.999	19.996	103.038	19.733	5.723	0.484
281.500	212.535	79.997	19.996	103.036	19.729	5.972	0.488
282.000	212.779	79.997	19.995	103.030	19.730	5.881	0.518
282.500	213.041	79.994	19.995	103.026	19.732	5.774	0.520
283.000	213.256	79.998	19.995	103.023	19.732	5.786	0.491
283.500	213.494	79.994	19.995	103.023	19.736	5.489	0.465
284.000	213.773	79.996	19.996	103.020	19.730	5.906	0.485
284.500	213.984	79.997	19.996	103.024	19.731	5.852	0.503
285.000	214.205	79.996	19.995	103.026	19.731	5.876	0.461
285.500	214.500	79.998	19.995	103.033	19.731	5.821	0.475
286.000	214.733	79.999	19.997	103.037	19.734	5.674	0.522
286.500	214.977	79.999	19.996	103.039	19.732	5.756	0.502
287.000	215.236	79.999	19.996	103.037	19.734	5.652	0.490
287.500	215.453	79.997	19.995	103.034	19.734	5.645	0.490
288.000	215.721	79.998	19.996	103.027	19.731	5.854	0.481
288.500	215.930	80.002	19.997	103.024	19.731	5.817	0.481
289.000	216.220	79.996	19.994	103.020	19.728	6.044	0.488
289.500	216.412	79.996	19.995	103.018	19.733	5.723	0.490
290.000	216.695	79.998	19.995	103.017	19.736	5.527	0.478
290.500	216.918	79.998	19.996	103.018	19.733	5.741	0.490
291.000	217.134	79.999	19.996	103.016	19.738	5.396	0.472
291.500	217.442	80.001	19.996	103.015	19.734	5.617	0.482
292.000	217.657	80.001	19.997	103.014	19.735	5.612	0.524
292.500	217.944	79.998	19.996	103.015	19.734	5.664	0.512
293.000	218.133	80.000	19.996	103.014	19.738	5.376	0.489
293.500	218.417	79.999	19.996	103.014	19.734	5.621	0.474
294.000	218.648	80.000	19.996	103.013	19.733	5.690	0.494
294.500	218.893	80.000	19.996	103.013	19.729	5.980	0.496
295.000	219.133	80.000	19.997	103.013	19.738	5.379	0.481
295.500	219.410	79.999	19.995	103.016	19.735	5.576	0.501
296.000	219.621	79.998	19.996	103.018	19.728	6.050	0.503
296.500	219.877	79.998	19.997	103.020	19.733	5.745	0.477
297.000	220.137	79.996	19.997	103.023	19.733	5.741	0.492
297.500	220.410	79.998	19.997	103.023	19.733	5.730	0.525
298.000	220.593	79.998	19.996	103.021	19.728	6.044	0.494
298.500	220.833	80.001	19.996	103.018	19.734	5.646	0.439
299.000	221.081	79.999	19.996	103.019	19.739	5.287	0.455
299.500	221.330	80.000	19.997	103.016	19.735	5.561	0.493
300.000	221.630	80.001	19.997	103.014	19.734	5.658	0.523
300.500	221.803	80.000	19.998	103.012	19.733	5.701	0.511
301.000	222.138	79.998	19.996	103.012	19.741	5.202	0.490
301.500	222.364	80.000	19.997	103.009	19.739	5.291	0.535
302.000	222.604	79.998	19.997	103.010	19.739	5.323	0.514
302.500	222.853	79.998	19.996	103.010	19.743	5.015	0.477
303.000	223.083	79.998	19.996	103.010	19.739	5.285	0.484
303.500	223.308	80.000	19.997	103.009	19.742	5.145	0.467
304.000	223.564	79.998	19.997	103.009	19.739	5.292	0.469
304.500	223.797	79.996	19.995	103.009	19.738	5.369	0.485
305.000	224.068	79.996	19.997	103.009	19.741	5.209	0.496
305.500	224.269	79.997	19.996	103.010	19.738	5.379	0.488
306.000	224.594	79.997	19.998	103.011	19.737	5.439	0.500
306.500	224.790	79.996	19.996	103.013	19.740	5.238	0.524
307.000	225.066	79.998	19.997	103.013	19.739	5.329	0.496
307.500	225.294	79.997	19.996	103.013	19.744	4.991	0.488
308.000	225.593	80.000	19.997	103.013	19.741	5.171	0.515
308.500	225.753	79.999	19.996	103.014	19.745	4.897	0.493
309.000	226.147	79.997	19.996	103.014	19.748	4.737	0.507
309.500	226.155	79.997	19.997	103.013	19.745	4.900	0.478
310.000	226.375	79.998	19.995	103.014	19.742	5.084	0.315
310.500	226.587	79.997	19.996	103.016	19.741	5.205	0.330
311.000	226.836	80.001	19.996	103.016	19.744	5.009	0.447
311.500	227.113	79.999	19.995	103.014	19.744	4.975	0.493
312.000	227.394	80.000	19.996	103.014	19.744	4.976	0.542
312.500	227.615	79.999	19.995	103.013	19.742	5.120	0.530
313.000	228.044	79.999	19.995	103.012	19.745	4.940	0.576
313.500	228.095	79.999	19.996	103.012	19.741	5.191	0.565
314.000	228.535	79.999	19.995	103.013	19.744	4.971	0.486
314.500	228.781	80.000	19.996	103.013	19.746	4.866	0.589
315.000	229.064	80.000	19.995	103.013	19.741	5.193	0.607
315.500	229.308	80.000	19.996	103.012	19.741	5.194	0.528
316.000	229.520	80.002	19.995	103.012	19.744	5.007	0.492
316.500	229.822	80.000	19.996	103.011	19.744	5.002	0.485
317.000	229.966	79.999	19.994	103.012	19.742	5.111	0.480
317.500	230.301	80.000	19.994	103.013	19.740	5.267	0.462
318.000	230.546	79.998	19.994	103.013	19.737	5.474	0.529
318.500	230.779	79.999	19.996	103.012	19.740	5.265	0.529
319.000	230.986	80.001	19.995	103.013	19.740	5.251	0.459
319.500	231.223	79.999	19.995	103.012	19.744	5.009	0.442
320.000	231.562	79.998	19.994	103.011	19.739	5.302	0.510
320.500	231.708	80.000	19.994	103.011	19.742	5.093	0.530
321.000	231.976	80.002	19.996	103.010	19.739	5.320	0.449
321.500	232.223	80.000	19.996	103.009	19.739	5.338	0.465
322.000	232.446	79.999	19.995	103.010	19.738	5.358	0.492
322.500	232.786	80.001	19.995	103.011	19.735	5.588	0.516
323.000	232.996	80.003	19.996	103.011	19.741	5.194	0.556
323.500	233.196	80.001	19.995	103.012	19.738	5.367	0.480
324.000	233.478	80.001	19.995	103.015	19.735	5.608	0.446
324.500	233.706	80.000	19.995	103.018	19.739	5.316	0.496
325.000	233.938	80.000	19.994	103.017	19.733	5.726	0.485
325.500	234.217	80.000	19.995	103.017	19.737	5.416	0.485
326.000	234.461	80.000	19.995	103.017	19.738	5.394	0.517
326.500	234.693	80.001	19.995	103.015	19.733	5.687	0.500
327.000	234.955	80.001	19.996	103.012	19.735	5.596	0.485
327.500	235.165	80.001	19.994	103.012	19.734	5.614	0.483
328.000	235.439	80.000	19.994	103.012	19.733	5.710	0.478
328.500	235.657	79.998	19.997	103.011	19.734	5.641	0.488
329.000	235.904	80.002	19.996	103.011	19.734	5.661	0.478
329.500	236.156	79.996	19.994	103.011	19.734	5.659	0.482
330.000	236.436	80.001	19.996	103.012	19.731	5.821	0.516
330.500	236.613	80.001	19.995	103.013	19.733	5.732	0.495
331.000	236.905	80.001	19.994	103.013	19.732	5.748	0.463
331.500	237.160	80.001	19.995	103.013	19.738	5.380	0.508
332.000	237.397	80.000	19.996	103.012	19.731	5.861	0.520
332.500	237.636	79.999	19.995	103.013	19.732	5.756	0.484
333.000	237.881	79.999	19.994	103.012	19.734	5.627	0.479
333.500	238.112	79.998	19.996	103.012	19.735	5.605	0.480
334.000	238.388	79.999	19.995	103.013	19.730	5.894	0.492
334.500	238.593	79.999	19.995	103.014	19.730	5.914	0.494
335.000	238.824	79.999	19.995	103.014	19.728	6.030	0.458
335.500	239.069	79.998	19.996	103.015	19.727	6.139	0.456
336.000	239.365	79.999	19.997	103.015	19.727	6.132	0.508
336.500	239.570	80.000	19.994	103.015	19.727	6.115	0.521
337.000	239.803	79.997	19.996	103.014	19.725	6.232	0.470
337.500	240.026	79.998	19.997	103.015	19.727	6.116	0.447
338.000	240.279	79.997	19.995	103.014	19.725	6.221	0.466
338.500	240.577	79.999	19.996	103.014	19.726	6.212	0.514
339.000	240.823	79.998	19.995	103.014	19.721	6.504	0.548
339.500	241.078	79.998	19.996	103.014	19.723	6.375	0.522
340.000	241.269	79.999	19.995	103.014	19.721	6.539	0.473
340.500	241.549	79.998	19.995	103.014	19.720	6.566	0.459
341.000	241.788	79.997	19.994	103.017	19.718	6.724	0.495
341.500	242.043	79.997	19.995	103.017	19.715	6.886	0.506
342.000	242.262	79.996	19.995	103.018	19.711	7.174	0.484
342.500	242.493	79.997	19.995	103.018	19.715	6.915	0.462
343.000	242.758	79.996	19.996	103.017	19.713	7.071	0.473
343.500	243.017	79.997	19.994	103.015	19.709	7.332	0.510
344.000	243.275	79.999	19.995	103.014	19.708	7.383	0.520
344.500	243.542	79.998	19.994	103.015	19.709	7.318	0.521
345.000	243.753	79.999	19.995	103.016	19.708	7.398	0.502
345.500	244.015	79.998	19.995	103.016	19.706	7.526	0.476
346.000	244.263	79.998	19.994	103.017	19.705	7.548	0.491
346.500	244.533	79.999	19.995	103.019	19.698	8.026	0.514
347.000	244.764	79.999	19.996	103.019	19.700	7.891	0.510
347.500	245.023	80.001	19.994	103.023	19.699	8.000	0.496
348.000	245.255	79.998	19.995	103.025	19.702	7.790	0.490
348.500	245.510	79.999	19.995	103.026	19.701	7.826	0.489
349.000	245.750	79.999	19.996	103.029	19.697	8.080	0.491
349.500	246.004	79.998	19.995	103.030	19.696	8.164	0.495
350.000	246.234	79.999	19.995	103.025	19.693	8.365	0.489
350.500	246.502	79.998	19.995	103.023	19.692	8.466	0.491
351.000	246.738	79.998	19.996	103.023	19.691	8.525	0.501
351.500	246.980	79.996	19.995	103.020	19.686	8.828	0.491
352.000	247.210	79.999	19.995	103.021	19.687	8.771	0.475
352.500	247.452	80.000	19.995	103.025	19.683	9.018	0.472
353.000	247.698	79.998	19.995	103.028	19.686	8.846	0.480
353.500	247.991	80.000	19.994	103.027	19.682	9.078	0.514
354.000	248.187	80.000	19.995	103.026	19.683	9.018	0.515
354.500	248.443	79.998	19.995	103.024	19.676	9.533	0.471
355.000	248.654	79.996	19.995	103.023	19.677	9.427	0.459
355.500	248.921	79.997	19.996	103.023	19.677	9.471	0.472
356.000	249.160	79.998	19.995	103.025	19.671	9.811	0.492
356.500	249.458	79.999	19.996	103.025	19.671	9.823	0.521
357.000	249.703	79.998	19.996	103.026	19.667	10.135	0.540
357.500	249.958	79.996	19.996	103.026	19.667	10.099	0.521
358.000	250.187	79.999	19.994	103.025	19.663	10.390	0.492
358.500	250.432	79.997	19.996	103.024	19.666	10.160	0.479
359.000	250.697	79.998	19.994	103.026	19.663	10.371	0.492
359.500	250.937	79.998	19.996	103.026	19.658	10.696	0.507
360.000	251.213	79.997	19.996	103.023	19.658	10.688	0.510
360.500	251.439	79.998	19.996	103.021	19.653	11.006	0.509
361.000	251.671	79.998	19.995	103.018	19.650	11.233	0.480
361.500	251.928	79.999	19.996	103.015	19.653	11.052	0.474
362.000	252.170	80.000	19.997	103.017	19.650	11.267	0.494
362.500	252.430	79.997	19.996	103.024	19.646	11.496	0.500
363.000	252.716	80.000	19.995	103.031	19.642	11.781	0.524
363.500	252.944	79.998	19.997	103.037	19.641	11.866	0.530
364.000	253.153	79.998	19.997	103.038	19.635	12.253	0.476
364.500	253.419	79.997	19.995	103.034	19.636	12.193	0.456
365.000	253.681	79.997	19.997	103.028	19.632	12.443	0.501
365.500	253.917	79.998	19.996	103.025	19.629	12.629	0.513
366.000	254.120	79.998	19.996	103.021	19.623	13.053	0.468
366.500	254.403	79.998	19.997	103.026	19.623	13.048	0.463
367.000	254.649	79.998	19.997	103.032	19.621	13.180	0.508
367.500	254.916	79.999	19.996	103.036	19.620	13.268	0.521
368.000	255.167	79.997	19.997	103.036	19.619	13.301	0.515
368.500	255.409	79.998	19.996	103.042	19.613	13.708	0.506
369.000	255.629	79.996	19.996	103.039	19.611	13.853	0.477
369.500	255.876	79.997	19.997	103.036	19.610	13.897	0.464
370.000	256.146	79.999	19.997	103.032	19.602	14.418	0.492
370.500	256.371	79.998	19.997	103.030	19.603	14.342	0.506
371.000	256.597	79.999	19.996	103.026	19.598	14.725	0.473
371.500	256.864	79.998	19.997	103.027	19.597	14.738	0.472
372.000	257.116	79.998	19.996	103.031	19.589	15.270	0.507
372.500	257.365	79.998	19.995	103.035	19.586	15.523	0.510
373.000	257.640	79.999	19.997	103.040	19.586	15.512	0.512
373.500	257.837	79.998	19.996	103.042	19.579	15.935	0.498
374.000	258.125	79.999	19.995	103.042	19.580	15.897	0.479
374.500	258.379	79.998	19.996	103.042	19.578	16.008	0.514
375.000	258.631	79.999	19.996	103.041	19.575	16.217	0.524
375.500	258.870	80.000	19.997	103.040	19.573	16.366	0.499
376.000	259.120	79.999	19.996	103.037	19.568	16.678	0.490
376.500	259.386	80.000	19.996	103.037	19.565	16.922	0.502
377.000	259.643	80.000	19.996	103.033	19.565	16.920	0.519
377.500	259.851	80.000	19.994	103.034	19.558	17.338	0.494
378.000	260.123	79.999	19.996	103.035	19.553	17.708	0.473
378.500	260.356	79.999	19.996	103.038	19.554	17.608	0.493
379.000	260.569	80.001	19.997	103.040	19.549	17.995	0.476
379.500	260.847	80.000	19.996	103.044	19.545	18.235	0.468
380.000	261.085	79.999	19.995	103.043	19.545	18.202	0.503
380.500	261.325	80.000	19.997	103.043	19.540	18.535	0.497
381.000	261.578	80.000	19.995	103.045	19.536	18.804	0.486
381.500	261.846	80.000	19.996	103.045	19.534	18.949	0.507
382.000	262.088	80.000	19.996	103.046	19.526	19.503	0.515
382.500	262.323	80.001	19.995	103.046	19.524	19.632	0.493
383.000	262.567	79.999	19.995	103.046	19.521	19.826	0.478
383.500	262.870	80.000	19.996	103.046	19.520	19.901	0.513
384.000	263.088	79.999	19.995	103.045	19.515	20.242	0.534
384.500	263.337	80.001	19.996	103.046	19.511	20.486	0.494
385.000	263.607	80.000	19.995	103.047	19.504	20.927	0.493
385.500	263.824	80.000	19.995	103.047	19.500	21.250	0.503
386.000	264.065	79.999	19.995	103.047	19.497	21.410	0.473
386.500	264.292	79.998	19.996	103.049	19.494	21.599	0.463
387.000	264.546	79.998	19.996	103.048	19.489	21.939	0.474
387.500	264.829	79.999	19.995	103.049	19.485	22.224	0.508
388.000	265.042	80.000	19.998	103.049	19.480	22.524	0.516
388.500	265.329	79.999	19.996	103.049	19.480	22.531	0.498
389.000	265.561	79.997	19.996	103.049	19.471	23.163	0.510
389.500	265.811	79.998	19.996	103.049	19.469	23.281	0.501
390.000	266.056	79.999	19.996	103.049	19.462	23.730	0.489
390.500	266.308	79.999	19.996	103.050	19.462	23.755	0.496
391.000	266.561	79.998	19.996	103.050	19.456	24.182	0.501
391.500	266.816	79.999	19.997	103.050	19.451	24.505	0.506
392.000	267.050	79.999	19.997	103.050	19.450	24.540	0.498
392.500	267.290	79.999	19.997	103.050	19.445	24.920	0.481
393.000	267.585	79.996	19.995	103.050	19.440	25.250	0.505
393.500	267.853	79.998	19.997	103.050	19.434	25.613	0.549
394.000	268.097	79.997	19.996	103.051	19.434	25.648	0.537
394.500	268.320	79.998	19.997	103.051	19.429	25.935	0.489
395.000	268.557	79.998	19.996	103.052	19.422	26.399	0.464
395.500	268.825	79.997	19.996	103.053	19.420	26.561	0.483
396.000	269.074	79.997	19.996	103.053	19.412	27.054	0.511
396.500	269.308	79.998	19.997	103.052	19.409	27.312	0.500
397.000	269.588	79.997	19.996	103.052	19.403	27.714	0.498
397.500	269.846	79.999	19.998	103.052	19.401	27.823	0.526
398.000	270.092	79.997	19.996	103.051	19.394	28.318	0.521
398.500	270.365	79.997	19.997	103.052	19.390	28.548	0.512
399.000	270.616	79.997	19.997	103.053	19.388	28.708	0.522
399.500	270.860	79.999	19.996	103.054	19.382	29.061	0.509
400.000	271.141	80.000	19.997	103.053	19.379	29.295	0.510
400.500	271.366	79.999	19.996	103.053	19.373	29.686	0.516
401.000	271.602	80.000	19.997	103.052	19.369	29.959	0.483
401.500	271.849	80.001	19.997	103.054	19.367	30.088	0.472
402.000	272.108	80.000	19.997	103.053	19.361	30.486	0.494
402.500	272.382	80.001	19.996	103.053	19.358	30.679	0.520
403.000	272.596	80.000	19.995	103.053	19.352	31.059	0.511
403.500	272.852	80.000	19.996	103.053	19.345	31.529	0.479
404.000	273.085	80.001	19.995	103.051	19.339	31.921	0.480
404.500	273.347	80.001	19.996	103.051	19.340	31.902	0.492
405.000	273.612	80.001	19.994	103.052	19.331	32.475	0.510
405.500	273.847	80.001	19.996	103.053	19.327	32.748	0.514
406.000	274.111	80.000	19.996	103.055	19.319	33.276	0.500
406.500	274.391	80.000	19.995	103.057	19.320	33.222	0.521
407.000	274.610	80.000	19.995	103.060	19.314	33.605	0.522
407.500	274.846	80.002	19.996	103.061	19.309	33.927	0.478
408.000	275.136	80.000	19.994	103.062	19.305	34.219	0.490
408.500	275.346	80.000	19.995	103.063	19.303	34.346	0.513
409.000	275.591	80.000	19.995	103.067	19.290	35.201	0.478
409.500	275.870	79.998	19.995	103.066	19.290	35.200	0.490
410.000	276.130	79.999	19.994	103.063	19.282	35.725	0.532
410.500	276.360	79.999	19.996	103.061	19.281	35.796	0.515
411.000	276.594	80.001	19.994	103.060	19.279	35.974	0.477
411.500	276.867	79.998	19.995	103.055	19.268	36.678	0.485
412.000	277.100	79.998	19.995	103.057	19.267	36.737	0.506
412.500	277.352	79.999	19.994	103.059	19.263	37.009	0.496
413.000	277.613	79.998	19.994	103.059	19.256	37.487	0.499
413.500	277.881	79.999	19.995	103.058	19.249	37.964	0.521
414.000	278.146	79.997	19.994	103.062	19.247	38.081	0.531
414.500	278.350	79.998	19.995	103.063	19.237	38.709	0.501
415.000	278.633	79.996	19.994	103.064	19.240	38.560	0.478
415.500	278.877	79.998	19.996	103.066	19.232	39.065	0.507
416.000	279.132	79.997	19.995	103.069	19.229	39.283	0.513
416.500	279.407	79.998	19.995	103.072	19.226	39.491	0.515
417.000	279.671	79.999	19.995	103.069	19.219	39.909	0.534
417.500	279.860	79.998	19.995	103.070	19.218	39.973	0.496
418.000	280.134	79.998	19.995	103.076	19.212	40.396	0.458
418.500	280.390	79.997	19.996	103.078	19.208	40.681	0.497
419.000	280.619	79.998	19.995	103.076	19.209	40.614	0.507
419.500	280.865	79.998	19.995	103.080	19.197	41.375	0.480
420.000	281.145	79.998	19.994	103.083	19.198	41.323	0.501
420.500	281.371	79.998	19.997	103.080	19.196	41.463	0.516
421.000	281.633	79.998	19.995	103.080	19.186	42.107	0.497
421.500	281.911	79.998	19.997	103.081	19.185	42.202	0.514
422.000	282.149	79.997	19.996	103.081	19.179	42.574	0.528
422.500	282.394	79.998	19.996	103.078	19.176	42.831	0.499
423.000	282.649	79.998	19.997	103.077	19.172	43.097	0.491
423.500	282.891	79.997	19.996	103.075	19.167	43.404	0.499
424.000	283.102	79.999	19.996	103.070	19.168	43.362	0.475
424.500	283.400	79.998	19.994	103.066	19.164	43.583	0.482
425.000	283.625	80.000	19.997	103.063	19.157	44.037	0.516
425.500	283.870	79.997	19.995	103.063	19.156	44.151	0.496
426.000	284.137	79.998	19.996	103.064	19.153	44.317	0.491
426.500	284.386	79.998	19.995	103.067	19.148	44.687	0.514
427.000	284.605	79.998	19.996	103.067	19.146	44.801	0.492
427.500	284.857	79.998	19.996	103.070	19.141	45.149	0.470
428.000	285.122	79.999	19.995	103.072	19.140	45.173	0.494
428.500	285.353	79.997	19.996	103.073	19.136	45.485	0.506
429.000	285.615	79.999	19.996	103.072	19.125	46.181	0.494
429.500	285.866	79.998	19.995	103.072	19.131	45.817	0.503
430.000	286.139	79.999	19.996	103.072	19.124	46.256	0.519
430.500	286.360	79.997	19.996	103.070	19.121	46.438	0.509
431.000	286.636	79.997	19.996	103.067	19.115	46.832	0.495
431.500	286.860	79.999	19.998	103.068	19.120	46.528	0.498
432.000	287.170	79.998	19.996	103.070	19.112	47.065	0.517
432.500	287.406	79.999	19.995	103.071	19.112	47.029	0.540
433.000	287.646	79.996	19.997	103.072	19.111	47.147	0.511
433.500	287.922	79.997	19.996	103.072	19.108	47.340	0.496
434.000	288.173	79.998	19.994	103.070	19.109	47.280	0.522
434.500	288.400	79.999	19.996	103.071	19.105	47.530	0.502
435.000	288.618	79.999	19.995	103.069	19.105	47.506	0.461
435.500	288.915	79.998	19.995	103.069	19.095	48.170	0.479
436.000	289.194	79.999	19.996	103.069	19.099	47.899	0.545
436.500	289.420	79.999	19.995	103.067	19.097	48.054	0.541
437.000	289.641	79.997	19.995	103.064	19.088	48.627	0.476
437.500	289.904	79.998	19.995	103.063	19.090	48.491	0.465
438.000	290.184	79.998	19.995	103.059	19.090	48.518	0.513
438.500	290.403	79.999	19.996	103.056	19.088	48.676	0.521
439.000	290.691	79.998	19.996	103.054	19.091	48.468	0.503
439.500	290.940	79.999	19.996	103.053	19.095	48.191	0.522
440.000	291.201	79.999	19.996	103.057	19.093	48.314	0.524
440.500	291.418	79.998	19.995	103.063	19.095	48.192	0.494
441.000	291.704	79.998	19.995	103.065	19.087	48.734	0.490
441.500	291.948	79.998	19.995	103.066	19.091	48.428	0.516
442.000	292.232	80.001	19.995	103.068	19.091	48.444	0.529
442.500	292.445	79.999	19.995	103.062	19.089	48.607	0.512
443.000	292.721	79.999	19.994	103.059	19.090	48.491	0.493
443.500	292.951	79.999	19.995	103.057	19.092	48.367	0.498
444.000	293.198	79.998	19.995	103.056	19.094	48.258	0.492
444.500	293.435	79.998	19.994	103.054	19.095	48.198	0.481
445.000	293.689	79.998	19.996	103.054	19.094	48.235	0.487
445.500	293.951	79.998	19.996	103.051	19.088	48.629	0.503
446.000	294.190	79.998	19.996	103.050	19.091	48.430	0.509
446.500	294.448	80.000	19.997	103.050	19.094	48.268	0.499
447.000	294.716	79.999	19.996	103.050	19.100	47.826	0.511
447.500	294.958	79.998	19.996	103.051	19.099	47.930	0.518
448.000	295.212	79.998	19.996	103.052	19.097	48.065	0.503
448.500	295.447	79.998	19.996	103.052	19.102	47.731	0.493
449.000	295.736	79.998	19.995	103.055	19.101	47.764	0.506
449.500	295.971	79.999	19.995	103.055	19.102	47.741	0.523
450.000	296.201	79.997	19.996	103.054	19.105	47.500	0.494
450.500	296.463	79.999	19.995	103.052	19.108	47.320	0.479
451.000	296.696	79.998	19.996	103.051	19.110	47.172	0.494
451.500	296.911	79.996	19.994	103.049	19.111	47.087	0.472
452.000	297.197	79.998	19.995	103.049	19.119	46.566	0.475
452.500	297.453	79.997	19.995	103.049	19.118	46.668	0.521
453.000	297.704	79.997	19.995	103.048	19.120	46.480	0.524
453.500	297.985	79.998	19.995	103.047	19.126	46.085	0.520
454.000	298.226	79.998	19.996	103.048	19.130	45.811	0.527
454.500	298.508	79.999	19.996	103.047	19.132	45.706	0.522
455.000	298.781	79.998	19.997	103.047	19.134	45.553	0.539
455.500	299.014	79.997	19.997	103.047	19.142	45.047	0.530
456.000	299.255	80.000	19.996	103.048	19.142	45.034	0.490
456.500	299.541	79.999	19.995	103.049	19.151	44.446	0.501
457.000	299.788	79.999	19.996	103.047	19.152	44.412	0.530
457.500	300.020	79.998	19.996	103.046	19.157	44.037	0.505
458.000	300.294	80.000	19.997	103.045	19.160	43.820	0.493
458.500	300.580	79.999	19.996	103.041	19.166	43.420	0.533
459.000	300.810	80.000	19.996	103.039	19.165	43.488	0.538
459.500	301.035	79.999	19.996	103.042	19.176	42.766	0.485
460.000	301.269	79.999	19.996	103.043	19.180	42.544	0.457
460.500	301.527	79.998	19.995	103.044	19.183	42.331	0.476
461.000	301.765	80.002	19.998	103.046	19.194	41.552	0.494
461.500	302.048	80.000	19.996	103.045	19.194	41.612	0.509
462.000	302.331	80.000	19.996	103.040	19.200	41.172	0.544
462.500	302.539	79.999	19.996	103.036	19.204	40.942	0.528
463.000	302.809	79.999	19.995	103.033	19.215	40.164	0.484
463.500	303.071	80.000	19.996	103.030	19.221	39.804	0.505
464.000	303.336	79.997	19.995	103.027	19.224	39.602	0.529
464.500	303.588	79.999	19.995	103.024	19.227	39.398	0.522
465.000	303.847	79.998	19.995	103.021	19.233	38.993	0.514
465.500	304.095	79.999	19.995	103.018	19.242	38.361	0.509
466.000	304.317	80.001	19.997	103.014	19.245	38.197	0.488
466.500	304.588	80.000	19.996	103.014	19.257	37.408	0.481
467.000	304.836	80.000	19.995	103.017	19.255	37.552	0.506
467.500	305.095	79.999	19.995	103.022	19.260	37.224	0.513
468.000	305.379	79.999	19.994	103.028	19.269	36.574	0.524
468.500	305.601	79.999	19.996	103.033	19.276	36.108	0.524
469.000	305.867	79.998	19.995	103.035	19.279	35.938	0.497
469.500	306.152	79.998	19.996	103.035	19.282	35.709	0.519
470.000	306.367	79.998	19.995	103.029	19.290	35.194	0.526
470.500	306.648	79.997	19.995	103.026	19.296	34.774	0.498
471.000	306.902	79.998	19.996	103.021	19.300	34.529	0.516
471.500	307.141	79.999	19.996	103.019	19.306	34.122	0.514
472.000	307.381	79.999	19.996	103.019	19.317	33.389	0.486
472.500	307.644	79.999	19.996	103.020	19.322	33.043	0.491
473.000	307.881	79.999	19.995	103.018	19.320	33.184	0.502
473.500	308.184	79.998	19.996	103.019	19.332	32.372	0.520
474.000	308.396	79.999	19.996	103.017	19.334	32.293	0.527
474.500	308.667	79.997	19.995	103.016	19.338	32.008	0.499
475.000	308.932	79.998	19.995	103.013	19.344	31.591	0.510
475.500	309.166	79.998	19.995	103.013	19.346	31.463	0.518
476.000	309.424	79.998	19.995	103.013	19.354	30.935	0.495
476.500	309.689	79.998	19.994	103.015	19.355	30.886	0.508
477.000	309.926	79.998	19.996	103.019	19.360	30.561	0.513
477.500	310.176	79.999	19.996	103.026	19.363	30.363	0.494
478.000	310.454	79.997	19.995	103.033	19.368	30.037	0.507
478.500	310.689	80.000	19.995	103.041	19.368	30.019	0.520
479.000	310.934	79.999	19.994	103.045	19.369	29.943	0.496
479.500	311.209	79.999	19.996	103.049	19.369	29.950	0.500
480.000	311.484	79.998	19.996	103.050	19.372	29.748	0.535
480.500	311.709	79.999	19.995	103.050	19.369	29.969	0.525
481.000	311.993	79.999	19.996	103.047	19.375	29.536	0.504
481.500	312.273	80.000	19.996	103.041	19.380	29.239	0.536
482.000	312.505	79.999	19.997	103.035	19.383	29.013	0.538
482.500	312.760	79.998	19.998	103.028	19.380	29.224	0.500
483.000	312.987	80.000	19.995	103.021	19.385	28.852	0.484
483.500	313.285	80.001	19.996	103.016	19.387	28.737	0.503
484.000	313.504	80.001	19.997	103.015	19.381	29.167	0.521
484.500	313.777	79.999	19.995	103.013	19.387	28.759	0.505
485.000	314.061	80.000	19.997	103.012	19.385	28.872	0.524
485.500	314.285	80.000	19.996	103.012	19.391	28.491	0.533
486.000	314.559	80.000	19.997	103.012	19.390	28.569	0.503
486.500	314.800	80.001	19.996	103.016	19.391	28.482	0.506
487.000	315.060	80.000	19.996	103.021	19.391	28.457	0.508
487.500	315.336	80.001	19.998	103.024	19.389	28.633	0.518
488.000	315.555	79.999	19.996	103.028	19.386	28.834	0.515
488.500	315.805	80.001	19.997	103.030	19.384	28.923	0.483
489.000	316.040	80.000	19.996	103.032	19.383	29.039	0.477
489.500	316.339	79.999	19.996	103.032	19.384	28.964	0.509
490.000	316.554	80.001	19.996	103.033	19.383	29.031	0.524
490.500	316.805	80.001	19.997	103.033	19.380	29.234	0.490
491.000	317.087	79.998	19.996	103.032	19.378	29.327	0.500
491.500	317.342	79.999	19.997	103.029	19.377	29.386	0.535
492.000	317.585	80.001	19.997	103.031	19.381	29.176	0.517
492.500	317.827	80.001	19.997	103.034	19.373	29.682	0.492
493.000	318.066	80.001	19.997	103.031	19.371	29.784	0.483
493.500	318.319	80.000	19.997	103.032	19.373	29.668	0.486
494.000	318.550	79.999	19.996	103.035	19.369	29.927	0.488
494.500	318.795	79.998	19.996	103.033	19.365	30.229	0.480
495.000	319.071	80.001	19.997	103.031	19.365	30.220	0.499
495.500	319.287	79.999	19.996	103.033	19.358	30.681	0.507
496.000	319.518	79.998	19.997	103.035	19.353	31.031	0.470
496.500	319.787	79.999	19.996	103.035	19.353	30.994	0.473
497.000	320.025	79.999	19.996	103.035	19.351	31.132	0.503
497.500	320.294	80.000	19.996	103.035	19.347	31.432	0.507
498.000	320.541	79.998	19.994	103.038	19.346	31.468	0.511
498.500	320.787	79.999	19.994	103.038	19.335	32.215	0.504
499.000	321.020	79.998	19.996	103.040	19.334	32.283	0.486
499.500	321.319	79.999	19.994	103.042	19.327	32.744	0.506
500.000	321.521	79.999	19.996	103.046	19.319	33.276	0.516
500.500	321.789	79.999	19.996	103.047	19.318	33.340	0.486
501.000	322.050	79.998	19.995	103.049	19.307	34.075	0.500
501.500	322.280	79.999	19.996	103.049	19.302	34.393	0.510
502.000	322.522	79.998	19.996	103.049	19.300	34.566	0.481
502.500	322.778	79.998	19.994	103.049	19.299	34.596	0.485
503.000	323.039	79.999	19.995	103.049	19.289	35.257	0.508
503.500	323.268	79.998	19.996	103.049	19.284	35.599	0.504
504.000	323.499	79.999	19.996	103.049	19.279	35.954	0.475
504.500	323.728	79.998	19.995	103.048	19.273	36.350	0.460
505.000	324.008	79.997	19.996	103.047	19.267	36.770	0.484
505.500	324.299	79.998	19.995	103.047	19.262	37.038	0.540
506.000	324.517	79.998	19.995	103.047	19.262	37.075	0.540
506.500	324.734	79.999	19.996	103.047	19.258	37.340	0.472
507.000	325.041	80.000	19.996	103.047	19.250	37.836	0.480
507.500	325.227	80.000	19.997	103.048	19.247	38.040	0.509
508.000	325.532	79.999	19.996	103.049	19.244	38.240	0.492
508.500	325.770	79.998	19.995	103.049	19.237	38.767	0.517
509.000	326.020	79.998	19.996	103.049	19.229	39.308	0.515
509.500	326.282	79.999	19.995	103.050	19.236	38.822	0.500
510.000	326.502	79.999	19.996	103.048	19.224	39.637	0.497
510.500	326.771	79.999	19.995	103.047	19.218	40.013	0.486
511.000	327.005	80.000	19.995	103.048	19.209	40.631	0.496
511.500	327.287	79.999	19.996	103.048	19.205	40.910	0.510
512.000	327.546	79.999	19.995	103.053	19.198	41.373	0.529
512.500	327.774	79.998	19.994	103.063	19.197	41.397	0.514
513.000	328.044	80.000	19.995	103.070	19.188	42.041	0.492
513.500	328.313	79.999	19.995	103.077	19.183	42.379	0.518
514.000	328.483	80.000	19.996	103.084	19.179	42.623	0.489
514.500	328.741	79.999	19.997	103.082	19.177	42.752	0.433
515.000	328.991	79.998	19.996	103.076	19.172	43.045	0.467
515.500	329.306	79.998	19.994	103.069	19.170	43.175	0.536
516.000	329.529	80.000	19.995	103.062	19.156	44.145	0.552
516.500	329.782	79.999	19.997	103.054	19.150	44.501	0.507
517.000	330.059	79.999	19.996	103.051	19.147	44.760	0.503
517.500	330.293	79.997	19.995	103.049	19.136	45.469	0.521
518.000	330.506	80.000	19.995	103.051	19.138	45.358	0.479
518.500	330.791	79.999	19.995	103.058	19.135	45.537	0.472
519.000	331.044	79.999	19.995	103.067	19.120	46.565	0.518
519.500	331.291	79.999	19.996	103.073	19.105	47.527	0.519
520.000	331.542	79.999	19.996	103.080	19.104	47.645	0.499
520.500	331.781	79.999	19.995	103.094	19.087	48.766	0.494
521.000	332.052	80.000	19.996	103.100	19.070	49.878	0.500
521.500	332.277	79.999	19.996	103.101	19.077	49.445	0.503
522.000	332.561	79.998	19.996	103.104	19.048	51.339	0.502
522.500	332.769	79.997	19.994	103.111	19.044	51.651	0.501
523.000	333.063	79.999	19.994	103.111	19.032	52.451	0.497
523.500	333.273	79.999	19.996	103.113	19.034	52.320	0.503
524.000	333.576	79.998	19.995	103.114	19.033	52.380	0.509
524.500	333.775	79.998	19.995	103.112	19.019	53.277	0.508
525.000	334.061	79.999	19.996	103.107	19.011	53.811	0.494
525.500	334.339	79.998	19.995	103.101	18.994	54.944	0.524
526.000	334.577	79.998	19.995	103.094	18.976	56.143	0.540
526.500	334.837	80.000	19.996	103.088	18.964	56.993	0.507
527.000	335.068	79.999	19.995	103.082	18.957	57.430	0.494
527.500	335.351	79.998	19.996	103.074	18.954	57.647	0.502
528.000	335.582	79.998	19.994	103.073	18.941	58.518	0.514
528.500	335.858	79.999	19.995	103.073	18.929	59.259	0.511
529.000	336.095	79.999	19.994	103.076	18.922	59.758	0.510
529.500	336.321	80.000	19.997	103.083	18.910	60.559	0.488
530.000	336.580	79.998	19.994	103.096	18.902	61.053	0.473
530.500	336.831	80.000	19.995	103.104	18.886	62.142	0.497
531.000	337.079	79.999	19.995	103.112	18.876	62.789	0.505
531.500	337.328	79.998	19.996	103.119	18.859	63.912	0.499
532.000	337.505	79.999	19.995	103.130	18.843	64.997	0.461
532.500	337.728	79.999	19.996	103.137	18.829	65.966	0.412
533.000	338.020	79.998	19.994	103.144	18.814	66.933	0.458
533.500	338.253	79.999	19.995	103.149	18.799	67.954	0.521
534.000	338.508	79.999	19.995	103.154	18.785	68.862	0.506
534.500	338.764	79.999	19.997	103.160	18.771	69.821	0.499
535.000	339.049	79.999	19.994	103.164	18.751	71.139	0.526
535.500	339.242	79.998	19.993	103.164	18.737	72.063	0.510
536.000	339.535	79.997	19.995	103.165	18.712	73.732	0.482
536.500	339.746	79.997	19.993	103.168	18.703	74.356	0.495
537.000	340.074	79.998	19.995	103.166	18.681	75.841	0.521
537.500	340.260	79.999	19.994	103.158	18.670	76.641	0.526
538.000	340.499	79.998	19.996	103.151	18.654	77.728	0.469
538.500	340.734	79.999	19.996	103.154	18.644	78.384	0.449
539.000	341.038	79.998	19.994	103.153	18.631	79.289	0.507
539.500	341.252	80.000	19.995	103.146	18.612	80.516	0.529
540.000	341.491	80.000	19.995	103.141	18.601	81.257	0.485
540.500	341.752	79.999	19.994	103.137	18.590	81.966	0.476
541.000	342.014	80.000	19.994	103.128	18.576	82.820	0.512
541.500	342.239	80.000	19.996	103.121	18.567	83.414	0.505
542.000	342.504	80.001	19.995	103.121	18.553	84.301	0.488
542.500	342.767	80.001	19.996	103.123	18.540	85.186	0.509
543.000	343.036	80.001	19.995	103.124	18.528	85.943	0.530
543.500	343.239	80.000	19.994	103.129	18.511	87.080	0.502
544.000	343.528	80.001	19.995	103.133	18.491	88.416	0.482
544.500	343.779	80.000	19.995	103.135	18.482	88.982	0.516
545.000	344.009	80.000	19.995	103.138	18.464	90.193	0.510
545.500	344.264	79.998	19.996	103.145	18.441	91.713	0.483
546.000	344.484	80.000	19.996	103.149	18.411	93.765	0.480
546.500	344.725	79.999	19.995	103.154	18.386	95.526	0.468
547.000	345.023	80.001	19.995	103.161	18.368	96.825	0.500
547.500	345.283	79.999	19.995	103.185	18.337	98.915	0.549
548.000	345.520	79.999	19.996	103.226	18.320	100.068	0.528
548.500	345.835	80.000	19.997	103.272	18.293	101.889	0.524
549.000	346.063	80.000	19.996	103.297	18.277	102.913	0.547
549.500	346.291	79.999	19.996	103.307	18.259	104.081	0.499
550.000	346.584	79.999	19.995	103.298	18.248	104.778	0.489
550.500	346.788	80.000	19.996	103.272	18.234	105.671	0.509
551.000	347.079	79.999	19.996	103.249	18.220	106.592	0.496
551.500	347.330	79.999	19.996	103.223	18.220	106.548	0.518
552.000	347.570	79.999	19.996	103.195	18.206	107.438	0.516
552.500	347.816	80.000	19.996	103.164	18.195	108.122	0.489
553.000	348.088	79.998	19.996	103.132	18.190	108.474	0.503
553.500	348.281	80.000	19.995	103.095	18.189	108.497	0.491
554.000	348.555	79.999	19.995	103.072	18.171	109.741	0.466
554.500	348.806	79.998	19.997	103.064	18.160	110.538	0.496
555.000	349.055	79.999	19.996	103.060	18.132	112.501	0.512
555.500	349.349	79.999	19.995	103.053	18.110	114.017	0.521
556.000	349.594	80.001	19.997	103.055	18.087	115.607	0.541
556.500	349.814	80.000	19.997	103.075	18.066	117.009	0.503
557.000	350.038	80.000	19.996	103.120	18.047	118.214	0.455
557.500	350.309	79.999	19.995	103.210	18.031	119.259	0.469
558.000	350.540	79.998	19.994	103.293	18.009	120.661	0.498
558.500	350.765	79.998	19.997	103.339	17.994	121.603	0.479
559.000	351.027	79.999	19.996	103.363	17.987	121.987	0.472
559.500	351.264	80.000	19.996	103.361	17.974	122.999	0.493
560.000	351.498	79.999	19.995	103.315	17.968	123.408	0.485
560.500	351.770	79.998	19.997	103.291	17.967	123.553	0.488
561.000	352.020	80.001	19.996	103.275	17.960	124.070	0.514
561.500	352.303	79.999	19.995	103.244	17.950	124.749	0.528
562.000	352.553	80.000	19.997	103.208	17.940	125.299	0.533
562.500	352.801	80.000	19.997	103.172	17.919	126.589	0.515
563.000	353.038	80.001	19.997	103.124	17.899	127.909	0.491
563.500	353.379	80.002	19.996	103.091	17.878	129.225	0.532
564.000	353.597	80.001	19.996	103.075	17.845	131.398	0.568
564.500	353.831	80.001	19.996	103.068	17.831	132.406	0.506
565.000	354.129	80.001	19.996	103.099	17.811	133.826	0.492
565.500	354.342	80.000	19.995	103.175	17.804	134.393	0.521
566.000	354.556	80.002	19.997	103.257	17.800	134.672	0.469
566.500	354.831	80.000	19.995	103.312	17.808	134.172	0.458
567.000	355.039	80.000	19.995	103.354	17.801	134.613	0.486
567.500	355.314	80.001	19.996	103.356	17.796	134.863	0.483
568.000	355.576	80.000	19.995	103.311	17.770	136.510	0.510
568.500	355.813	80.001	19.995	103.249	17.740	138.563	0.517
569.000	356.085	80.001	19.995	103.197	17.719	139.998	0.504
569.500	356.345	80.002	19.996	103.141	17.690	141.966	0.521
570.000	356.576	80.001	19.996	103.113	17.680	142.629	0.512
570.500	356.850	80.000	19.995	103.185	17.671	143.264	0.498
571.000	357.078	80.000	19.996	103.242	17.676	142.876	0.503
571.500	357.353	80.000	19.996	103.274	17.672	143.112	0.503
572.000	357.593	80.001	19.995	103.308	17.677	142.735	0.509
572.500	357.844	80.000	19.996	103.314	17.683	142.271	0.503
573.000	358.124	80.000	19.996	103.223	17.670	143.145	0.511
573.500	358.410	79.999	19.996	103.156	17.659	143.931	0.548
574.000	358.629	80.001	19.995	103.123	17.648	144.739	0.535
574.500	358.906	80.000	19.997	103.086	17.627	146.199	0.501
575.000	359.143	79.999	19.996	103.053	17.611	147.341	0.505
575.500	359.383	80.000	19.997	103.094	17.607	147.610	0.496
576.000	359.632	79.999	19.996	103.175	17.598	148.148	0.483
576.500	359.850	79.999	19.997	103.234	17.592	148.505	0.478
577.000	360.124	79.999	19.997	103.276	17.588	148.814	0.480
577.500	360.385	79.998	19.997	103.296	17.581	149.221	0.513
578.000	360.663	79.998	19.996	103.251	17.577	149.485	0.537
578.500	360.913	79.997	19.996	103.188	17.573	149.737	0.533
579.000	361.176	79.998	19.996	103.162	17.568	150.071	0.521
579.500	361.409	79.999	19.997	103.188	17.564	150.343	0.505
580.000	361.681	79.997	19.996	103.233	17.563	150.412	0.501
580.500	361.932	79.997	19.997	103.244	17.563	150.404	0.514
581.000	362.220	79.997	19.997	103.240	17.562	150.440	0.531
581.500	362.472	79.998	19.997	103.254	17.558	150.754	0.539
582.000	362.722	79.998	19.997	103.233	17.550	151.293	0.522
582.500	362.974	79.998	19.997	103.184	17.539	152.053	0.502
583.000	363.193	80.000	19.998	103.151	17.537	152.163	0.486
583.500	363.471	79.998	19.996	103.127	17.521	153.278	0.484
584.000	363.739	79.999	19.998	103.120	17.523	153.164	0.521
584.500	363.982	79.998	19.995	103.151	17.517	153.552	0.528
585.000	364.226	79.998	19.998	103.202	17.512	153.888	0.499
585.500	364.503	79.997	19.995	103.255	17.510	153.964	0.504
586.000	364.764	79.996	19.996	103.293	17.505	154.304	0.530
586.500	365.013	79.997	19.995	103.292	17.494	155.036	0.524
587.000	365.252	79.997	19.995	103.267	17.495	154.943	0.499
587.500	365.535	79.997	19.996	103.255	17.480	155.954	0.505
588.000	365.777	80.000	19.997	103.254	17.480	155.971	0.524
588.500	366.072	79.998	19.996	103.248	17.474	156.397	0.531
589.000	366.309	79.997	19.996	103.238	17.474	156.347	0.535
589.500	366.566	79.998	19.996	103.234	17.467	156.830	0.513
590.000	366.836	79.998	19.995	103.229	17.458	157.396	0.510
590.500	367.052	79.999	19.996	103.217	17.456	157.517	0.507
591.000	367.337	79.998	19.996	103.211	17.451	157.848	0.494
591.500	367.547	79.998	19.995	103.213	17.447	158.160	0.498
592.000	367.799	80.000	19.996	103.209	17.433	159.088	0.478
592.500	368.085	79.999	19.995	103.207	17.428	159.412	0.500
593.000	368.329	79.999	19.995	103.217	17.428	159.428	0.534
593.500	368.568	80.000	19.995	103.230	17.414	160.324	0.506
594.000	368.827	79.999	19.995	103.240	17.410	160.608	0.491
594.500	369.119	79.998	19.994	103.253	17.402	161.135	0.525
595.000	369.370	80.000	19.997	103.262	17.396	161.537	0.547
595.500	369.620	80.000	19.996	103.258	17.391	161.862	0.522
596.000	369.885	79.999	19.996	103.252	17.386	162.215	0.508
596.500	370.155	79.998	19.996	103.249	17.374	163.043	0.525
597.000	370.355	79.999	19.996	103.248	17.368	163.432	0.502
597.500	370.635	79.999	19.995	103.244	17.368	163.411	0.475
598.000	370.885	80.000	19.996	103.240	17.360	163.978	0.505
598.500	371.138	80.000	19.996	103.239	17.355	164.286	0.517
599.000	371.388	79.998	19.995	103.238	17.344	165.011	0.503
599.500	371.630	79.999	19.994	103.234	17.342	165.161	0.497
600.000	371.896	79.998	19.995	103.231	17.342	165.127	0.500
600.500	372.166	79.998	19.996	103.228	17.329	165.973	0.522
601.000	372.428	79.998	19.996	103.222	17.330	165.942	0.534
601.500	372.667	79.998	19.995	103.218	17.322	166.501	0.516
602.000	372.928	79.999	19.995	103.216	17.312	167.118	0.501
602.500	373.157	79.999	19.995	103.217	17.309	167.345	0.495
603.000	373.406	79.997	19.995	103.217	17.309	167.333	0.484
603.500	373.711	79.998	19.996	103.216	17.302	167.793	0.516
604.000	373.938	79.997	19.996	103.216	17.294	168.308	0.543
604.500	374.219	79.997	19.995	103.216	17.293	168.424	0.520
605.000	374.454	79.997	19.994	103.214	17.289	168.673	0.512
605.500	374.749	79.997	19.996	103.216	17.290	168.607	0.523
606.000	374.977	79.998	19.996	103.220	17.286	168.846	0.527
606.500	375.247	79.998	19.997	103.217	17.285	168.930	0.510
607.000	375.477	79.998	19.996	103.221	17.281	169.207	0.499
607.500	375.754	79.998	19.995	103.223	17.280	169.263	0.504
608.000	376.005	79.998	19.996	103.222	17.275	169.551	0.518
608.500	376.285	79.997	19.996	103.223	17.271	169.815	0.530
609.000	376.514	79.997	19.996	103.226	17.275	169.554	0.520
609.500	376.776	79.998	19.995	103.222	17.273	169.690	0.499
610.000	377.002	79.996	19.995	103.220	17.272	169.746	0.489
610.500	377.285	79.996	19.996	103.221	17.269	169.909	0.499
611.000	377.560	79.996	19.995	103.217	17.269	169.961	0.534
611.500	377.773	79.997	19.997	103.214	17.270	169.879	0.523
612.000	378.053	79.998	19.996	103.213	17.273	169.663	0.491
612.500	378.310	79.998	19.997	103.213	17.272	169.709	0.515
613.000	378.569	79.997	19.995	103.212	17.276	169.495	0.526
613.500	378.801	79.997	19.996	103.211	17.275	169.567	0.503
614.000	379.077	79.997	19.996	103.211	17.278	169.306	0.499
614.500	379.324	79.997	19.996	103.211	17.275	169.513	0.515
615.000	379.574	79.998	19.995	103.209	17.284	168.937	0.510
615.500	379.826	79.998	19.996	103.208	17.288	168.689	0.499
616.000	380.098	79.998	19.995	103.207	17.284	168.923	0.513
616.500	380.342	79.998	19.996	103.206	17.295	168.227	0.520
617.000	380.570	79.998	19.996	103.205	17.296	168.092	0.494
617.500	380.853	80.000	19.998	103.202	17.300	167.877	0.492
618.000	381.097	79.998	19.995	103.197	17.309	167.267	0.519
618.500	381.342	79.999	19.996	103.194	17.318	166.620	0.508
619.000	381.618	79.998	19.996	103.190	17.320	166.499	0.505
619.500	381.845	79.999	19.995	103.185	17.326	166.077	0.512
620.000	382.113	80.000	19.996	103.180	17.337	165.352	0.499
620.500	382.382	79.998	19.996	103.178	17.344	164.916	0.516
621.000	382.632	80.000	19.996	103.176	17.348	164.617	0.528
621.500	382.852	80.000	19.997	103.176	17.357	164.005	0.494
622.000	383.113	80.000	19.996	103.175	17.363	163.599	0.476
622.500	383.361	80.000	19.996	103.175	17.370	163.184	0.495
623.000	383.645	80.000	19.997	103.175	17.384	162.214	0.520
623.500	383.861	80.000	19.995	103.176	17.394	161.564	0.516
624.000	384.141	80.001	19.996	103.175	17.400	161.117	0.498
624.500	384.380	80.001	19.995	103.173	17.409	160.510	0.508
625.000	384.610	80.000	19.995	103.173	17.426	159.380	0.494
625.500	384.863	79.999	19.996	103.172	17.434	158.854	0.476
626.000	385.110	80.000	19.995	103.169	17.450	157.826	0.491
626.500	385.373	80.001	19.996	103.168	17.456	157.433	0.504
627.000	385.620	80.000	19.996	103.168	17.469	156.546	0.509
627.500	385.894	80.000	19.995	103.168	17.481	155.714	0.516
628.000	386.188	80.000	19.996	103.166	17.495	154.774	0.545
628.500	386.379	80.002	19.995	103.164	17.509	153.881	0.526
629.000	386.641	80.000	19.995	103.159	17.522	153.000	0.469
629.500	386.862	80.001	19.997	103.156	17.535	152.108	0.468
630.000	387.133	80.001	19.994	103.155	17.548	151.241	0.488
630.500	387.392	80.001	19.996	103.154	17.564	150.190	0.511
631.000	387.652	80.000	19.995	103.153	17.583	148.940	0.524
631.500	387.891	80.001	19.994	103.154	17.595	148.116	0.509
632.000	388.187	80.001	19.996	103.154	17.613	146.891	0.517
632.500	388.430	80.002	19.996	103.151	17.629	145.843	0.538
633.000	388.667	80.000	19.996	103.147	17.641	145.023	0.510
633.500	388.922	80.001	19.996	103.145	17.657	143.970	0.486
634.000	389.176	80.001	19.996	103.140	17.675	142.780	0.500
634.500	389.454	80.000	19.996	103.136	17.689	141.853	0.520
635.000	389.647	79.998	19.995	103.132	17.708	140.580	0.501
635.500	389.933	80.001	19.996	103.132	17.725	139.451	0.475
636.000	390.160	80.001	19.996	103.130	17.745	138.124	0.497
636.500	390.437	80.000	19.995	103.129	17.757	137.288	0.508
637.000	390.698	80.000	19.996	103.129	17.774	136.134	0.520
637.500	390.928	79.999	19.995	103.129	17.798	134.584	0.515
638.000	391.171	80.000	19.995	103.128	17.818	133.185	0.482
638.500	391.463	79.998	19.997	103.126	17.828	132.528	0.504
639.000	391.703	80.000	19.997	103.126	17.845	131.379	0.533
639.500	391.922	80.000	19.995	103.126	17.865	130.061	0.495
640.000	392.207	80.000	19.997	103.126	17.891	128.333	0.481
640.500	392.460	80.001	19.995	103.124	17.906	127.366	0.521
641.000	392.720	80.000	19.995	103.119	17.927	125.910	0.525
641.500	392.978	79.999	19.996	103.112	17.944	124.835	0.515
642.000	393.270	80.000	19.997	103.106	17.961	123.640	0.534
642.500	393.478	80.001	19.997	103.101	17.978	122.564	0.525
643.000	393.761	80.001	19.996	103.095	18.002	120.954	0.496
643.500	394.041	80.000	19.997	103.093	18.023	119.568	0.527
644.000	394.246	80.000	19.996	103.091	18.042	118.246	0.524
644.500	394.494	80.001	19.996	103.090	18.061	116.991	0.469
645.000	394.761	80.001	19.996	103.088	18.080	115.753	0.484
645.500	395.070	80.000	19.995	103.088	18.100	114.384	0.546
646.000	395.312	80.001	19.996	103.087	18.119	113.134	0.563
646.500	395.522	80.000	19.996	103.087	18.140	111.723	0.501
647.000	395.812	80.000	19.996	103.085	18.162	110.243	0.476
647.500	396.049	80.001	19.996	103.083	18.176	109.364	0.514
648.000	396.340	80.000	19.996	103.081	18.204	107.485	0.528
648.500	396.588	80.001	19.996	103.080	18.218	106.564	0.533
649.000	396.863	80.000	19.996	103.072	18.245	104.754	0.531
649.500	397.104	80.001	19.995	103.068	18.259	103.788	0.520
650.000	397.355	80.001	19.997	103.061	18.282	102.295	0.504
650.500	397.613	80.002	19.996	103.058	18.303	100.884	0.500
651.000	397.859	80.001	19.995	103.053	18.323	99.511	0.506
651.500	398.122	80.001	19.995	103.053	18.344	98.156	0.506
652.000	398.374	80.003	19.997	103.052	18.364	96.779	0.512
652.500	398.642	80.000	19.995	103.053	18.385	95.443	0.518
653.000	398.893	80.000	19.995	103.051	18.398	94.518	0.519
653.500	399.166	80.001	19.994	103.049	18.423	92.886	0.521
654.000	399.428	79.999	19.996	103.048	18.443	91.571	0.530
654.500	399.668	80.001	19.996	103.047	18.466	90.050	0.519
655.000	399.939	80.000	19.995	103.047	18.481	89.051	0.506
655.500	400.161	80.000	19.996	103.047	18.506	87.387	0.502
656.000	400.430	80.000	19.995	103.047	18.530	85.736	0.492
656.500	400.676	80.000	19.996	103.046	18.552	84.315	0.502
657.000	400.946	80.000	19.996	103.044	18.569	83.170	0.515
657.500	401.217	80.000	19.995	103.039	18.586	82.063	0.529
658.000	401.441	79.999	19.995	103.034	18.609	80.492	0.519
658.500	401.692	79.999	19.994	103.030	18.628	79.267	0.485
659.000	401.949	80.000	19.995	103.024	18.646	78.071	0.491
659.500	402.228	79.999	19.996	103.020	18.670	76.467	0.522
660.000	402.445	79.998	19.995	103.020	18.686	75.400	0.516
660.500	402.752	79.998	19.995	103.018	18.705	74.133	0.510
661.000	402.975	79.999	19.995	103.016	18.722	73.004	0.527
661.500	403.259	79.999	19.996	103.019	18.743	71.605	0.519
662.000	403.505	79.999	19.996	103.019	18.761	70.384	0.519
662.500	403.734	79.999	19.996	103.017	18.780	69.115	0.502
663.000	404.021	79.997	19.995	103.016	18.796	68.047	0.495
663.500	404.218	79.998	19.995	103.016	18.817	66.622	0.500
664.000	404.461	79.999	19.996	103.014	18.832	65.623	0.462
664.500	404.768	79.997	19.995	103.014	18.848	64.608	0.495
665.000	405.041	79.999	19.996	103.014	18.865	63.420	0.565
665.500	405.265	79.997	19.996	103.014	18.883	62.250	0.539
666.000	405.527	79.998	19.996	103.014	18.898	61.241	0.491
666.500	405.759	79.998	19.996	103.012	18.918	59.893	0.490
667.000	405.984	79.997	19.996	103.009	18.931	59.084	0.476
667.500	406.299	79.998	19.996	103.008	18.947	58.028	0.499
668.000	406.522	79.997	19.997	103.009	18.964	56.867	0.538
668.500	406.785	79.997	19.995	103.009	18.983	55.566	0.512
669.000	407.059	79.998	19.996	103.006	18.999	54.507	0.512
669.500	407.313	79.998	19.996	103.006	19.021	53.101	0.533
670.000	407.571	79.998	19.996	103.007	19.034	52.238	0.520
670.500	407.803	79.998	19.997	103.006	19.045	51.461	0.501
671.000	408.090	79.998	19.995	103.006	19.065	50.130	0.505
671.500	408.317	79.999	19.998	103.006	19.081	49.059	0.516
672.000	408.568	79.997	19.996	103.002	19.093	48.304	0.496
672.500	408.814	79.998	19.996	102.997	19.107	47.362	0.488
673.000	409.078	79.999	19.997	102.990	19.125	46.155	0.504
673.500	409.354	79.999	19.998	102.982	19.138	45.306	0.525
674.000	409.610	79.998	19.996	102.978	19.149	44.533	0.536
674.500	409.837	79.997	19.997	102.978	19.165	43.508	0.508
675.000	410.092	79.998	19.995	102.976	19.176	42.774	0.483
675.500	410.356	79.997	19.996	102.977	19.191	41.756	0.501
676.000	410.591	79.998	19.996	102.977	19.206	40.783	0.509
676.500	410.859	79.997	19.997	102.978	19.219	39.919	0.501
677.000	411.125	79.998	19.997	102.978	19.233	38.946	0.518
677.500	411.373	79.999	19.996	102.977	19.245	38.183	0.524
678.000	411.610	79.998	19.996	102.976	19.257	37.351	0.500
678.500	411.887	80.000	19.996	102.977	19.275	36.168	0.499
679.000	412.110	79.999	19.998	102.976	19.283	35.641	0.507
679.500	412.382	79.997	19.996	102.975	19.295	34.869	0.497
680.000	412.652	79.999	19.996	102.975	19.311	33.789	0.519
680.500	412.852	79.999	19.996	102.975	19.322	33.024	0.507
681.000	413.126	79.999	19.996	102.973	19.336	32.117	0.472
681.500	413.331	79.999	19.995	102.972	19.346	31.451	0.476
682.000	413.587	80.000	19.997	102.972	19.351	31.094	0.470
682.500	413.854	79.997	19.996	102.971	19.368	30.007	0.492
683.000	414.104	79.997	19.995	102.970	19.378	29.315	0.520
683.500	414.376	79.999	19.997	102.970	19.385	28.880	0.520
684.000	414.597	79.999	19.996	102.971	19.394	28.283	0.508
684.500	414.871	80.001	19.996	102.972	19.409	27.243	0.494
685.000	415.074	80.002	19.996	102.972	19.415	26.847	0.485
685.500	415.355	79.998	19.995	102.972	19.428	25.994	0.480
686.000	415.602	79.999	19.996	102.972	19.435	25.544	0.506
686.500	415.848	80.000	19.995	102.971	19.444	24.909	0.510
687.000	416.106	80.001	19.996	102.970	19.458	24.034	0.498
687.500	416.373	79.999	19.995	102.970	19.465	23.520	0.515
688.000	416.618	79.998	19.996	102.970	19.471	23.142	0.518
688.500	416.839	79.997	19.996	102.972	19.479	22.587	0.489
689.000	417.133	80.000	19.995	102.971	19.495	21.569	0.491
689.500	417.383	79.999	19.997	102.970	19.502	21.074	0.530
690.000	417.610	79.998	19.997	102.968	19.504	20.932	0.511
690.500	417.893	79.998	19.995	102.968	19.509	20.607	0.493
691.000	418.130	79.998	19.996	102.967	19.522	19.747	0.515
691.500	418.340	79.997	19.995	102.968	19.526	19.481	0.484
692.000	418.611	79.997	19.996	102.969	19.534	18.931	0.464
692.500	418.900	80.000	19.995	102.971	19.541	18.459	0.521
693.000	419.187	80.000	19.996	102.971	19.547	18.065	0.568
693.500	419.399	79.998	19.997	102.971	19.556	17.506	0.537
694.000	419.650	79.999	19.995	102.971	19.564	16.982	0.482
694.500	419.917	79.999	19.996	102.972	19.573	16.384	0.491
695.000	420.159	80.000	19.996	102.972	19.578	16.001	0.513
695.500	420.425	79.999	19.995	102.972	19.578	16.046	0.508
696.000	420.687	79.999	19.997	102.972	19.585	15.543	0.518
696.500	420.943	79.998	19.996	102.972	19.593	15.021	0.523
697.000	421.215	79.999	19.996	102.971	19.597	14.748	0.523
697.500	421.466	79.999	19.996	102.971	19.600	14.523	0.525
698.000	421.716	79.999	19.997	102.970	19.610	13.880	0.512
698.500	421.929	79.998	19.996	102.970	19.610	13.918	0.482
699.000	422.189	80.000	19.996	102.969	19.621	13.161	0.468
699.500	422.433	79.999	19.994	102.969	19.623	13.003	0.489
700.000	422.698	79.999	19.996	102.968	19.630	12.552	0.507
700.500	422.950	80.001	19.995	102.969	19.637	12.080	0.513
701.000	423.213	79.999	19.996	102.969	19.639	11.954	0.516
701.500	423.456	80.000	19.996	102.968	19.646	11.484	0.511
702.000	423.687	80.001	19.995	102.968	19.646	11.487	0.490
702.500	423.961	80.001	19.996	102.966	19.651	11.144	0.490
703.000	424.198	80.001	19.995	102.962	19.655	10.906	0.508
703.500	424.473	80.001	19.995	102.961	19.660	10.558	0.512
704.000	424.698	80.002	19.996	102.961	19.665	10.213	0.506
704.500	424.936	79.999	19.995	102.961	19.667	10.081	0.481
705.000	425.182	80.000	19.997	102.963	19.673	9.731	0.473
705.500	425.454	80.001	19.996	102.967	19.677	9.415	0.501
706.000	425.688	80.002	19.995	102.967	19.678	9.370	0.512
706.500	425.943	80.002	19.997	102.967	19.681	9.170	0.498
707.000	426.216	80.002	19.996	102.965	19.681	9.175	0.509
707.500	426.434	80.000	19.996	102.966	19.687	8.745	0.509
708.000	426.728	80.002	19.996	102.965	19.692	8.407	0.502
708.500	426.969	80.000	19.996	102.963	19.696	8.172	0.524
709.000	427.247	80.001	19.996	102.960	19.696	8.169	0.527
709.500	427.506	80.001	19.996	102.957	19.701	7.862	0.528
710.000	427.725	80.000	19.997	102.954	19.699	7.973	0.507
710.500	427.970	80.000	19.996	102.955	19.703	7.733	0.470
711.000	428.247	80.000	19.998	102.957	19.710	7.230	0.493
711.500	428.481	80.001	19.996	102.959	19.716	6.856	0.517
712.000	428.721	80.000	19.995	102.963	19.719	6.624	0.493
712.500	428.980	80.001	19.997	102.966	19.719	6.638	0.486
713.000	429.259	80.000	19.996	102.965	19.721	6.475	0.518
713.500	429.488	80.000	19.995	102.960	19.719	6.634	0.523
714.000	429.756	79.999	19.996	102.959	19.730	5.912	0.503
714.500	429.983	80.001	19.996	102.960	19.729	5.949	0.496
715.000	430.250	79.999	19.996	102.961	19.728	6.054	0.494
715.500	430.528	80.001	19.996	102.963	19.729	5.989	0.520
716.000	430.740	80.000	19.995	102.968	19.735	5.597	0.518
716.500	431.013	80.001	19.996	102.971	19.736	5.510	0.488
717.000	431.242	80.000	19.996	102.967	19.741	5.205	0.493
717.500	431.533	80.000	19.996	102.964	19.735	5.568	0.511
718.000	431.750	80.000	19.996	102.963	19.742	5.129	0.514
718.500	432.062	80.000	19.995	102.962	19.745	4.931	0.519
719.000	432.303	80.000	19.997	102.962	19.743	5.069	0.541
719.500	432.547	79.999	19.995	102.967	19.745	4.938	0.519
720.000	432.776	80.001	19.996	102.971	19.750	4.572	0.479
720.500	433.052	80.001	19.996	102.972	19.752	4.436	0.489
721.000	433.297	80.000	19.995	102.973	19.753	4.397	0.513
721.500	433.535	79.999	19.995	102.974	19.751	4.508	0.502
722.000	433.819	79.999	19.996	102.972	19.761	3.853	0.503
722.500	434.082	80.000	19.994	102.971	19.759	3.996	0.535
723.000	434.324	80.000	19.995	102.968	19.758	4.056	0.526
723.500	434.580	80.000	19.995	102.965	19.758	4.023	0.501
724.000	434.816	80.000	19.995	102.960	19.761	3.871	0.495
724.500	435.117	79.999	19.994	102.959	19.758	4.049	0.515
725.000	435.377	80.002	19.996	102.959	19.765	3.610	0.549
725.500	435.635	79.998	19.996	102.962	19.769	3.318	0.539
726.000	435.883	80.000	19.995	102.965	19.761	3.815	0.512
726.500	436.127	80.001	19.996	102.968	19.765	3.577	0.499
727.000	436.366	80.002	19.997	102.970	19.770	3.279	0.488
727.500	436.644	80.002	19.995	102.971	19.773	3.071	0.500
728.000	436.888	80.001	19.995	102.971	19.771	3.187	0.519
728.500	437.170	80.001	19.997	102.972	19.772	3.125	0.524
729.000	437.394	80.001	19.995	102.974	19.773	3.076	0.516
729.500	437.613	80.000	19.994	102.974	19.776	2.875	0.475
730.000	437.873	80.001	19.996	102.974	19.775	2.933	0.461
730.500	438.128	80.003	19.995	102.973	19.771	3.179	0.497
731.000	438.395	80.001	19.996	102.973	19.774	2.963	0.518
731.500	438.634	80.001	19.996	102.973	19.770	3.218	0.514
732.000	438.873	80.000	19.994	102.973	19.772	3.123	0.493
732.500	439.179	80.001	19.994	102.973	19.777	2.813	0.512
733.000	439.428	80.001	19.996	102.973	19.776	2.833	0.550
733.500	439.659	80.000	19.995	102.971	19.779	2.619	0.517
734.000	439.920	80.001	19.995	102.971	19.776	2.856	0.486
734.500	440.194	80.000	19.995	102.971	19.777	2.778	0.514
735.000	440.461	80.001	19.997	102.971	19.779	2.662	0.538
735.500	440.670	80.001	19.995	102.971	19.780	2.606	0.508
736.000	440.935	79.998	19.994	102.972	19.776	2.829	0.474
736.500	441.203	79.998	19.997	102.972	19.777	2.776	0.504
737.000	441.428	80.000	19.996	102.970	19.780	2.604	0.513
737.500	441.654	79.999	19.995	102.970	19.783	2.414	0.472
738.000	441.944	79.998	19.996	102.970	19.777	2.817	0.484
738.500	442.194	79.998	19.997	102.970	19.780	2.606	0.528
739.000	442.457	79.999	19.996	102.968	19.778	2.689	0.527
739.500	442.712	79.998	19.997	102.967	19.776	2.835	0.515
740.000	442.971	79.998	19.997	102.966	19.781	2.521	0.516
740.500	443.215	79.998	19.996	102.964	19.781	2.510	0.508
741.000	443.487	79.996	19.997	102.965	19.787	2.107	0.510
741.500	443.728	79.998	19.995	102.965	19.782	2.419	0.514
742.000	444.007	79.997	19.996	102.965	19.783	2.406	0.516
742.500	444.268	79.997	19.997	102.965	19.786	2.178	0.531
743.000	444.501	79.997	19.995	102.963	19.784	2.316	0.517
743.500	444.787	79.997	19.996	102.964	19.786	2.190	0.506
744.000	445.006	79.997	19.996	102.965	19.781	2.508	0.512
744.500	445.270	79.998	19.995	102.963	19.785	2.270	0.494
745.000	445.494	79.998	19.995	102.958	19.780	2.590	0.486
745.500	445.721	79.999	19.996	102.956	19.781	2.506	0.469
746.000	446.002	79.998	19.996	102.953	19.785	2.219	0.479
746.500	446.270	79.998	19.995	102.952	19.788	2.038	0.528
747.000	446.511	79.997	19.996	102.955	19.786	2.185	0.529
747.500	446.778	79.998	19.996	102.958	19.784	2.326	0.508
748.000	447.049	79.999	19.997	102.963	19.785	2.248	0.523
748.500	447.267	79.998	19.996	102.965	19.786	2.189	0.514
749.000	447.523	79.999	19.997	102.966	19.787	2.107	0.482
749.500	447.769	79.999	19.995	102.965	19.783	2.386	0.488
750.000	448.031	79.999	19.997	102.967	19.785	2.227	0.505
750.500	448.286	79.999	19.996	102.963	19.783	2.414	0.513
751.000	448.544	79.998	19.995	102.962	19.786	2.172	0.515
751.500	448.793	79.998	19.996	102.961	19.788	2.069	0.510
752.000	449.041	79.998	19.996	102.960	19.782	2.459	0.502
752.500	449.267	79.999	19.996	102.963	19.787	2.134	0.486
753.000	449.555	79.999	19.996	102.966	19.792	1.816	0.494
753.500	449.803	79.999	19.997	102.962	19.789	1.989	0.525
754.000	450.032	79.999	19.997	102.961	19.788	2.049	0.506
754.500	450.302	79.999	19.997	102.961	19.793	1.749	0.488
755.000	450.566	79.997	19.996	102.960	19.789	1.991	0.517
755.500	450.845	79.999	19.996	102.959	19.787	2.116	0.539
756.000	451.117	79.999	19.996	102.962	19.789	1.992	0.547
756.500	451.370	79.998	19.997	102.964	19.789	1.991	0.538
757.000	451.609	79.999	19.997	102.964	19.790	1.945	0.509
757.500	451.891	79.998	19.996	102.962	19.790	1.951	0.507
758.000	452.134	79.999	19.996	102.963	19.785	2.239	0.523
758.500	452.341	79.998	19.996	102.964	19.788	2.080	0.487
759.000	452.623	80.000	19.996	102.965	19.785	2.227	0.469
759.500	452.872	79.998	19.997	102.966	19.783	2.401	0.510
760.000	453.140	79.998	19.997	102.967	19.787	2.150	0.525
760.500	453.387	79.999	19.997	102.968	19.785	2.248	0.516
761.000	453.683	79.999	19.996	102.968	19.785	2.254	0.529
761.500	453.902	79.997	19.996	102.967	19.787	2.127	0.529
762.000	454.154	80.000	19.997	102.964	19.788	2.061	0.493
762.500	454.408	79.999	19.996	102.961	19.782	2.430	0.489
763.000	454.652	79.998	19.996	102.959	19.789	1.972	0.502
763.500	454.921	79.998	19.997	102.957	19.788	2.078	0.506
764.000	455.192	79.998	19.997	102.957	19.789	1.972	0.526
764.500	455.436	80.000	19.997	102.957	19.785	2.255	0.527
765.000	455.695	79.998	19.998	102.956	19.789	2.005	0.509
765.500	455.979	79.998	19.997	102.954	19.786	2.167	0.523
766.000	456.179	79.998	19.997	102.953	19.787	2.147	0.514
766.500	456.469	79.997	19.997	102.951	19.791	1.876	0.487
767.000	456.731	79.997	19.997	102.952	19.790	1.936	0.521
767.500	456.993	79.998	19.998	102.955	19.787	2.109	0.538
768.000	457.258	79.997	19.997	102.956	19.792	1.778	0.525
768.500	457.496	79.997	19.996	102.959	19.790	1.923	0.515
769.000	457.773	79.997	19.996	102.963	19.784	2.290	0.509
769.500	457.997	79.998	19.996	102.964	19.784	2.328	0.508
770.000	458.264	79.997	19.996	102.962	19.785	2.239	0.496
770.500	458.526	79.998	19.998	102.960	19.787	2.101	0.510
771.000	458.809	79.998	19.997	102.955	19.786	2.172	0.537
771.500	459.047	79.997	19.997	102.953	19.787	2.118	0.533
772.000	459.306	79.997	19.997	102.952	19.786	2.196	0.509
772.500	459.553	79.998	19.997	102.954	19.790	1.895	0.502
773.000	459.780	79.998	19.997	102.957	19.784	2.330	0.490
773.500	460.052	79.998	19.996	102.959	19.784	2.310	0.486
774.000	460.306	79.998	19.997	102.956	19.791	1.869	0.512
774.500	460.567	79.997	19.996	102.954	19.785	2.281	0.520
775.000	460.793	79.999	19.996	102.952	19.788	2.074	0.502
775.500	461.066	79.999	19.996	102.954	19.788	2.056	0.493
776.000	461.318	79.999	19.996	102.956	19.784	2.332	0.512
776.500	461.554	79.998	19.995	102.959	19.785	2.276	0.507
777.000	461.838	79.997	19.995	102.963	19.784	2.328	0.504
777.500	462.101	79.998	19.996	102.965	19.787	2.149	0.533
778.000	462.347	79.998	19.995	102.963	19.787	2.111	0.527
778.500	462.620	79.999	19.995	102.961	19.789	1.953	0.514
779.000	462.877	79.998	19.995	102.957	19.781	2.528	0.525
779.500	463.126	80.000	19.997	102.956	19.786	2.216	0.519
780.000	463.383	79.999	19.996	102.952	19.790	1.918	0.506
780.500	463.631	79.998	19.997	102.953	19.786	2.216	0.506
781.000	463.905	79.999	19.996	102.956	19.790	1.947	0.513
781.500	464.165	79.999	19.996	102.960	19.788	2.083	0.528
782.000	464.405	79.999	19.995	102.960	19.790	1.920	0.517
782.500	464.644	79.999	19.995	102.964	19.789	1.973	0.489
783.000	464.891	80.000	19.996	102.966	19.792	1.804	0.482
783.500	465.127	79.999	19.995	102.967	19.790	1.946	0.484
784.000	465.364	80.000	19.995	102.965	19.788	2.022	0.478
784.500	465.623	80.000	19.996	102.966	19.787	2.129	0.485
785.000	465.914	79.999	19.996	102.967	19.786	2.201	0.524
785.500	466.156	79.999	19.995	102.967	19.787	2.107	0.542
786.000	466.416	80.000	19.996	102.966	19.786	2.156	0.517
786.500	466.644	79.999	19.996	102.970	19.791	1.885	0.495
787.000	466.932	80.000	19.996	102.970	19.791	1.845	0.502
787.500	467.184	80.001	19.996	102.968	19.787	2.134	0.528
788.000	467.462	79.999	19.996	102.967	19.786	2.194	0.535
788.500	467.677	80.001	19.996	102.967	19.783	2.364	0.511
789.000	467.956	80.000	19.996	102.966	19.787	2.090	0.493
789.500	468.164	80.001	19.995	102.966	19.786	2.152	0.491
790.000	468.432	80.001	19.996	102.967	19.787	2.096	0.482
790.500	468.674	80.000	19.996	102.966	19.786	2.198	0.493
791.000	468.897	79.999	19.995	102.964	19.784	2.321	0.488
791.500	469.214	80.001	19.994	102.963	19.785	2.237	0.502
792.000	469.449	80.001	19.995	102.963	19.786	2.177	0.546
792.500	469.718	80.000	19.996	102.964	19.787	2.109	0.528
793.000	469.971	80.000	19.994	102.965	19.783	2.393	0.513
793.500	470.263	80.000	19.994	102.968	19.786	2.179	0.534
794.000	470.535	79.999	19.996	102.970	19.786	2.189	0.555
794.500	470.755	80.000	19.995	102.972	19.787	2.109	0.528
795.000	471.001	79.999	19.996	102.971	19.790	1.916	0.479
795.500	471.307	79.999	19.996	102.969	19.786	2.154	0.509
796.000	471.541	80.000	19.996	102.963	19.785	2.252	0.546
796.500	471.794	80.000	19.996	102.957	19.787	2.090	0.513
797.000	472.033	79.998	19.996	102.953	19.785	2.277	0.489
797.500	472.308	80.000	19.995	102.953	19.788	2.063	0.503
798.000	472.545	79.998	19.996	102.954	19.789	2.007	0.513
798.500	472.826	79.998	19.996	102.959	19.785	2.273	0.515
799.000	473.047	80.000	19.997	102.959	19.789	2.016	0.510
799.500	473.338	80.000	19.996	102.959	19.788	2.081	0.507
800.000	473.595	79.999	19.996	102.960	19.788	2.034	0.530
800.500	473.841	80.000	19.995	102.962	19.786	2.167	0.526
801.000	474.103	79.998	19.995	102.960	19.784	2.303	0.506
801.500	474.357	80.000	19.995	102.961	19.789	1.987	0.512
802.000	474.616	79.998	19.995	102.960	19.786	2.183	0.515
802.500	474.894	80.000	19.995	102.957	19.785	2.245	0.525
803.000	475.146	80.000	19.996	102.953	19.783	2.384	0.534
803.500	475.381	79.999	19.996	102.954	19.787	2.112	0.508
804.000	475.640	79.999	19.996	102.956	19.790	1.925	0.490
804.500	475.887	79.998	19.995	102.959	19.786	2.152	0.500
805.000	476.100	80.000	19.997	102.962	19.788	2.023	0.483
805.500	476.358	79.999	19.995	102.963	19.785	2.241	0.466
806.000	476.636	79.998	19.995	102.963	19.786	2.214	0.503
806.500	476.904	79.999	19.995	102.964	19.787	2.127	0.540
807.000	477.207	80.002	19.995	102.959	19.786	2.196	0.558
807.500	477.432	80.000	19.996	102.958	19.787	2.145	0.550
808.000	477.714	80.001	19.994	102.957	19.784	2.288	0.517
808.500	477.971	80.000	19.995	102.950	19.787	2.123	0.523
809.000	478.186	80.000	19.995	102.946	19.786	2.172	0.505
809.500	478.404	80.001	19.996	102.948	19.783	2.399	0.453
810.000	478.701	80.000	19.994	102.946	19.785	2.283	0.474
810.500	478.993	80.000	19.995	102.947	19.785	2.259	0.552
811.000	479.211	80.002	19.995	102.950	19.788	2.058	0.549
811.500	479.487	80.001	19.995	102.953	19.782	2.421	0.502
812.000	479.712	80.000	19.996	102.953	19.782	2.455	0.497
812.500	479.999	80.001	19.994	102.953	19.783	2.379	0.507
813.000	480.264	80.001	19.996	102.952	19.784	2.303	0.532
813.500	480.505	80.002	19.995	102.953	19.785	2.247	0.529
814.000	480.790	80.000	19.995	102.954	19.784	2.330	0.516
814.500	481.015	80.001	19.994	102.955	19.788	2.023	0.518
815.000	481.291	80.002	19.994	102.957	19.786	2.203	0.506
815.500	481.517	80.001	19.996	102.958	19.787	2.107	0.502
816.000	481.818	80.001	19.994	102.959	19.788	2.070	0.515
816.500	482.023	80.003	19.995	102.958	19.786	2.179	0.517
817.000	482.309	80.002	19.995	102.958	19.784	2.319	0.498
817.500	482.560	80.001	19.995	102.959	19.784	2.288	0.513
818.000	482.808	80.000	19.995	102.957	19.784	2.315	0.518
818.500	483.048	80.002	19.995	102.956	19.784	2.323	0.494
819.000	483.297	80.000	19.995	102.956	19.779	2.626	0.488
819.500	483.517	80.000	19.995	102.958	19.785	2.283	0.479
820.000	483.828	79.999	19.996	102.959	19.785	2.221	0.500
820.500	484.065	80.000	19.995	102.959	19.785	2.268	0.540
821.000	484.328	80.000	19.996	102.958	19.785	2.228	0.524
821.500	484.567	79.998	19.996	102.958	19.786	2.181	0.501
822.000	484.856	79.999	19.994	102.956	19.785	2.258	0.515
822.500	485.086	79.998	19.994	102.956	19.787	2.119	0.523
823.000	485.353	79.999	19.995	102.959	19.782	2.419	0.508
823.500	485.617	79.999	19.997	102.960	19.786	2.161	0.514
824.000	485.856	79.998	19.995	102.961	19.784	2.312	0.517
824.500	486.134	79.998	19.995	102.960	19.787	2.119	0.510
825.000	486.379	79.999	19.997	102.958	19.786	2.183	0.520
825.500	486.645	80.000	19.996	102.956	19.787	2.114	0.517
826.000	486.872	79.998	19.995	102.955	19.782	2.426	0.502
826.500	487.177	79.999	19.995	102.954	19.788	2.049	0.513
827.000	487.402	79.999	19.995	102.953	19.786	2.156	0.532
827.500	487.664	79.998	19.997	102.954	19.783	2.363	0.509
828.000	487.939	79.998	19.997	102.954	19.787	2.130	0.512
828.500	488.149	79.999	19.995	102.958	19.786	2.167	0.510
829.000	488.393	79.998	19.996	102.960	19.787	2.143	0.469
829.500	488.699	79.998	19.996	102.960	19.789	1.958	0.502
830.000	488.950	79.998	19.996	102.962	19.789	1.989	0.554
830.500	489.206	79.999	19.996	102.960	19.787	2.138	0.532
831.000	489.465	79.998	19.996	102.959	19.786	2.208	0.511
831.500	489.751	79.998	19.996	102.960	19.793	1.751	0.530
832.000	489.998	80.000	19.997	102.964	19.791	1.829	0.539
832.500	490.226	79.998	19.996	102.963	19.787	2.089	0.504
833.000	490.459	79.998	19.995	102.965	19.791	1.833	0.468
833.500	490.741	80.000	19.996	102.959	19.789	1.994	0.488
834.000	491.013	80.000	19.996	102.957	19.794	1.659	0.534
834.500	491.276	79.998	19.995	102.957	19.787	2.107	0.545
835.000	491.515	79.998	19.996	102.959	19.793	1.733	0.519
835.500	491.810	79.998	19.996	102.959	19.790	1.945	0.518
836.000	492.057	79.999	19.996	102.959	19.792	1.793	0.538
836.500	492.315	79.999	19.996	102.957	19.792	1.800	0.523
837.000	492.548	80.000	19.995	102.956	19.789	1.958	0.498
837.500	492.834	80.000	19.997	102.955	19.789	1.985	0.505
838.000	493.083	79.999	19.995	102.955	19.788	2.056	0.527
838.500	493.385	79.998	19.996	102.960	19.790	1.940	0.543
839.000	493.600	79.999	19.996	102.963	19.785	2.219	0.534
839.500	493.899	79.999	19.995	102.962	19.789	1.976	0.515
840.000	494.125	80.000	19.995	102.960	19.790	1.913	0.519
840.500	494.412	80.001	19.997	102.958	19.789	1.996	0.519
841.000	494.650	80.000	19.996	102.958	19.794	1.677	0.519
841.500	494.922	80.000	19.996	102.958	19.786	2.171	0.517
842.000	495.202	79.998	19.996	102.960	19.789	1.993	0.531
842.500	495.455	79.999	19.996	102.962	19.793	1.717	0.543
843.000	495.711	80.001	19.995	102.963	19.792	1.817	0.521
843.500	495.986	80.000	19.996	102.960	19.792	1.780	0.520
844.000	496.256	79.999	19.995	102.956	19.791	1.820	0.538
844.500	496.501	79.999	19.995	102.955	19.793	1.731	0.531
845.000	496.744	80.000	19.997	102.958	19.793	1.731	0.502
845.500	497.031	80.000	19.996	102.961	19.789	2.000	0.509
846.000	497.290	79.999	19.997	102.966	19.788	2.032	0.538
846.500	497.541	79.999	19.996	102.969	19.789	1.998	0.528
847.000	497.761	80.000	19.997	102.971	19.792	1.773	0.490
847.500	498.034	79.999	19.995	102.971	19.790	1.898	0.482
848.000	498.337	80.000	19.996	102.968	19.793	1.729	0.534
848.500	498.606	79.998	19.996	102.965	19.792	1.760	0.574
849.000	498.838	79.999	19.996	102.965	19.789	1.965	0.537
849.500	499.115	79.998	19.996	102.965	19.793	1.733	0.505
850.000	499.326	79.998	19.995	102.966	19.790	1.920	0.498
850.500	499.638	79.997	19.996	102.970	19.793	1.751	0.506
851.000	499.878	79.998	19.996	102.973	19.790	1.934	0.538
851.500	500.117	79.998	19.996	102.973	19.791	1.875	0.515
852.000	500.358	79.997	19.997	102.972	19.792	1.753	0.480
852.500	500.637	79.999	19.996	102.971	19.791	1.876	0.500
853.000	500.868	79.999	19.996	102.968	19.795	1.611	0.515
853.500	501.144	79.999	19.997	102.966	19.793	1.719	0.508
854.000	501.411	79.997	19.997	102.963	19.793	1.689	0.525
854.500	501.686	79.998	19.997	102.963	19.789	1.982	0.543
855.000	501.917	79.998	19.997	102.963	19.791	1.826	0.524
855.500	502.178	79.998	19.997	102.964	19.788	2.031	0.499
856.000	502.441	79.998	19.996	102.966	19.791	1.838	0.508
856.500	502.670	79.998	19.997	102.964	19.789	1.989	0.508
857.000	502.949	79.997	19.998	102.963	19.793	1.697	0.500
857.500	503.198	79.998	19.997	102.961	19.794	1.679	0.518
858.000	503.483	79.997	19.997	102.962	19.791	1.838	0.531
858.500	503.720	79.997	19.996	102.961	19.792	1.813	0.529
859.000	503.966	79.998	19.998	102.965	19.785	2.268	0.503
859.500	504.239	79.998	19.997	102.964	19.790	1.915	0.500
860.000	504.470	79.996	19.997	102.963	19.796	1.533	0.511
860.500	504.723	79.996	19.996	102.959	19.788	2.031	0.494
861.000	504.998	79.997	19.996	102.956	19.793	1.702	0.506
861.500	505.260	79.998	19.998	102.957	19.792	1.764	0.533
862.000	505.534	79.997	19.997	102.960	19.790	1.914	0.536
862.500	505.750	79.996	19.996	102.963	19.790	1.896	0.513
863.000	506.008	79.996	19.997	102.967	19.789	1.960	0.482
863.500	506.295	79.999	19.996	102.967	19.791	1.842	0.509
864.000	506.529	79.998	19.997	102.964	19.791	1.862	0.533
864.500	506.820	79.997	19.995	102.963	19.791	1.845	0.523
865.000	507.049	79.999	19.997	102.962	19.791	1.867	0.522
865.500	507.264	79.998	19.996	102.963	19.789	2.010	0.482
866.000	507.550	79.999	19.996	102.967	19.786	2.199	0.473
866.500	507.819	80.000	19.996	102.970	19.792	1.811	0.529
867.000	508.062	79.999	19.996	102.971	19.787	2.089	0.534
867.500	508.337	80.000	19.995	102.968	19.788	2.032	0.515
868.000	508.560	79.999	19.995	102.962	19.791	1.858	0.508
868.500	508.837	80.001	19.995	102.962	19.790	1.900	0.499
869.000	509.122	80.001	19.995	102.959	19.790	1.904	0.531
869.500	509.379	80.001	19.995	102.959	19.786	2.194	0.552
870.000	509.592	80.002	19.996	102.962	19.788	2.040	0.506
870.500	509.859	80.000	19.995	102.965	19.789	1.993	0.475
871.000	510.112	80.000	19.995	102.961	19.789	2.003	0.500
871.500	510.331	80.000	19.996	102.961	19.790	1.913	0.495
872.000	510.587	80.000	19.995	102.956	19.787	2.140	0.473
872.500	510.850	80.000	19.995	102.951	19.788	2.072	0.498
873.000	511.129	79.999	19.994	102.946	19.787	2.127	0.531
873.500	511.355	79.999	19.996	102.946	19.785	2.223	0.523
874.000	511.633	80.000	19.995	102.945	19.789	2.016	0.504
874.500	511.870	80.000	19.996	102.948	19.789	2.009	0.509
875.000	512.150	80.000	19.995	102.951	19.786	2.161	0.516
875.500	512.364	80.000	19.996	102.952	19.786	2.214	0.505
876.000	512.633	79.999	19.996	102.951	19.781	2.502	0.489
876.500	512.890	80.001	19.996	102.948	19.783	2.404	0.505
877.000	513.159	80.000	19.995	102.947	19.785	2.246	0.526
877.500	513.435	80.000	19.996	102.950	19.786	2.167	0.535
878.000	513.678	80.001	19.996	102.956	19.787	2.116	0.532
878.500	513.900	79.999	19.995	102.959	19.787	2.121	0.492
879.000	514.169	80.000	19.995	102.964	19.787	2.121	0.478
879.500	514.421	80.000	19.996	102.964	19.786	2.161	0.506
880.000	514.677	80.001	19.996	102.961	19.788	2.054	0.514
880.500	514.930	80.000	19.996	102.961	19.786	2.217	0.508
881.000	515.191	80.000	19.996	102.962	19.788	2.076	0.511
881.500	515.482	80.001	19.996	102.962	19.787	2.085	0.533
882.000	515.718	80.000	19.995	102.963	19.789	1.998	0.540
882.500	515.985	80.000	19.995	102.965	19.790	1.945	0.515
883.000	516.205	80.001	19.996	102.962	19.791	1.880	0.494
883.500	516.450	80.001	19.996	102.962	19.787	2.143	0.476
884.000	516.697	80.001	19.995	102.964	19.792	1.784	0.479
884.500	516.982	79.999	19.995	102.965	19.790	1.895	0.512
885.000	517.244	80.001	19.996	102.963	19.788	2.029	0.540
885.500	517.516	80.000	19.996	102.958	19.791	1.846	0.541
886.000	517.756	80.000	19.997	102.953	19.792	1.760	0.523
886.500	518.021	80.000	19.996	102.949	19.792	1.809	0.508
887.000	518.278	79.999	19.995	102.946	19.792	1.805	0.513
887.500	518.528	80.000	19.996	102.944	19.790	1.922	0.515
888.000	518.792	80.000	19.996	102.947	19.793	1.717	0.511
888.500	519.044	80.000	19.995	102.951	19.788	2.023	0.515
889.000	519.293	80.002	19.995	102.950	19.790	1.893	0.508
889.500	519.555	80.002	19.995	102.947	19.792	1.809	0.506
890.000	519.812	80.001	19.995	102.949	19.789	1.978	0.515
890.500	520.037	80.002	19.995	102.948	19.792	1.758	0.500
891.000	520.296	80.000	19.995	102.946	19.790	1.887	0.483
891.500	520.543	80.001	19.996	102.950	19.790	1.905	0.496
892.000	520.803	80.001	19.996	102.957	19.791	1.847	0.507
892.500	521.075	80.001	19.995	102.961	19.789	2.014	0.519
893.000	521.313	80.003	19.996	102.965	19.788	2.025	0.521
893.500	521.594	80.002	19.996	102.968	19.792	1.764	0.515
894.000	521.864	80.003	19.996	102.969	19.791	1.862	0.535
894.500	522.101	80.002	19.995	102.969	19.790	1.913	0.528
895.000	522.366	80.001	19.995	102.969	19.788	2.051	0.504
895.500	522.597	80.001	19.995	102.968	19.788	2.049	0.499
896.000	522.861	80.002	19.995	102.966	19.792	1.798	0.495
896.500	523.126	80.002	19.995	102.965	19.789	1.953	0.512
897.000	523.352	80.003	19.995	102.960	19.792	1.780	0.511
897.500	523.596	80.002	19.995	102.956	19.789	1.974	0.481
898.000	523.896	80.001	19.996	102.955	19.786	2.183	0.506
898.500	524.141	80.001	19.995	102.955	19.790	1.911	0.544
899.000	524.401	80.002	19.995	102.958	19.788	2.038	0.525
899.500	524.699	80.002	19.995	102.962	19.788	2.076	0.532
900.000	524.959	80.002	19.996	102.966	19.785	2.270	0.558
900.500	525.208	80.002	19.995	102.967	19.789	1.976	0.533
901.000	525.432	80.001	19.995	102.964	19.787	2.096	0.491
901.500	525.723	80.000	19.995	102.958	19.787	2.094	0.494
902.000	525.964	80.001	19.995	102.956	19.787	2.096	0.524
902.500	526.196	80.000	19.994	102.955	19.790	1.927	0.503
903.000	526.489	80.000	19.995	102.950	19.789	1.996	0.499
903.500	526.726	79.999	19.995	102.946	19.790	1.923	0.528
904.000	526.985	79.999	19.996	102.947	19.788	2.083	0.513
904.500	527.235	79.999	19.995	102.948	19.787	2.139	0.502
905.000	527.458	80.000	19.997	102.950	19.790	1.898	0.491
905.500	527.739	80.000	19.995	102.955	19.788	2.078	0.489
906.000	528.027	79.999	19.996	102.962	19.793	1.742	0.537
906.500	528.270	79.998	19.996	102.967	19.786	2.201	0.550
907.000	528.493	79.999	19.994	102.969	19.793	1.751	0.498
907.500	528.743	79.999	19.995	102.965	19.789	2.014	0.470
908.000	529.000	79.999	19.996	102.961	19.792	1.800	0.490
908.500	529.296	80.001	19.996	102.957	19.790	1.894	0.530
909.000	529.557	79.999	19.996	102.951	19.792	1.778	0.555
909.500	529.779	79.999	19.994	102.947	19.793	1.740	0.520
910.000	530.047	79.999	19.996	102.948	19.792	1.769	0.486
910.500	530.327	79.999	19.995	102.951	19.791	1.833	0.519
911.000	530.563	80.000	19.995	102.954	19.791	1.842	0.532
911.500	530.847	79.998	19.996	102.960	19.790	1.927	0.518
912.000	531.038	80.000	19.995	102.962	19.791	1.874	0.498
912.500	531.332	80.000	19.995	102.962	19.791	1.838	0.480
913.000	531.590	79.999	19.996	102.959	19.786	2.197	0.518
913.500	531.850	79.999	19.996	102.955	19.789	1.979	0.535
914.000	532.080	79.999	19.996	102.954	19.785	2.246	0.504
914.500	532.389	80.000	19.995	102.954	19.788	2.027	0.515
915.000	532.609	80.000	19.994	102.950	19.791	1.824	0.534
915.500	532.846	79.998	19.995	102.954	19.788	2.032	0.493
916.000	533.109	80.000	19.995	102.956	19.788	2.049	0.478
916.500	533.368	80.000	19.996	102.956	19.787	2.130	0.511
917.000	533.619	79.999	19.995	102.957	19.787	2.131	0.516
917.500	533.919	79.998	19.995	102.957	19.790	1.895	0.531
918.000	534.159	79.999	19.996	102.953	19.787	2.118	0.545
918.500	534.427	79.998	19.996	102.949	19.787	2.093	0.524
919.000	534.690	79.998	19.995	102.943	19.789	2.002	0.520
919.500	534.941	79.998	19.996	102.941	19.786	2.176	0.523
920.000	535.193	79.998	19.995	102.939	19.786	2.176	0.508
920.500	535.450	79.998	19.996	102.939	19.789	2.007	0.506
921.000	535.732	80.000	19.996	102.941	19.789	1.963	0.524
921.500	535.979	79.999	19.996	102.946	19.786	2.214	0.534
922.000	536.232	80.000	19.996	102.949	19.787	2.127	0.515
922.500	536.515	80.000	19.996	102.950	19.784	2.310	0.518
923.000	536.781	80.000	19.996	102.951	19.789	1.985	0.542
923.500	536.999	79.999	19.996	102.949	19.785	2.245	0.517
924.000	537.301	79.999	19.995	102.945	19.784	2.299	0.502
924.500	537.530	79.998	19.995	102.941	19.788	2.025	0.526
925.000	537.788	79.998	19.996	102.944	19.787	2.085	0.509
925.500	538.032	79.998	19.996	102.946	19.785	2.239	0.494
926.000	538.306	79.998	19.996	102.950	19.786	2.208	0.510
926.500	538.528	80.000	19.996	102.954	19.784	2.337	0.507
927.000	538.804	79.999	19.996	102.960	19.788	2.074	0.497
927.500	539.060	79.999	19.995	102.964	19.786	2.206	0.515
928.000	539.329	79.998	19.996	102.968	19.786	2.181	0.528
928.500	539.564	79.998	19.995	102.970	19.786	2.166	0.514
929.000	539.800	79.999	19.996	102.972	19.787	2.141	0.487
929.500	540.093	80.000	19.995	102.972	19.788	2.032	0.500
930.000	540.314	80.000	19.996	102.970	19.784	2.291	0.522
930.500	540.604	79.998	19.995	102.966	19.788	2.068	0.512
931.000	540.834	79.999	19.996	102.963	19.785	2.255	0.515
931.500	541.070	80.000	19.997	102.959	19.787	2.114	0.493
932.000	541.365	79.997	19.996	102.957	19.787	2.099	0.499
932.500	541.600	79.998	19.996	102.959	19.785	2.226	0.530
933.001	541.867	79.999	19.995	102.963	19.787	2.085	0.516
933.500	542.125	79.998	19.995	102.967	19.786	2.176	0.514
934.000	542.354	79.998	19.994	102.970	19.786	2.181	0.507
934.500	542.603	79.999	19.995	102.970	19.785	2.223	0.483
935.000	542.850	79.999	19.996	102.969	19.784	2.297	0.487
935.500	543.124	80.000	19.996	102.964	19.786	2.161	0.508
936.000	543.394	79.999	19.995	102.963	19.786	2.183	0.532
936.500	543.626	79.998	19.995	102.964	19.791	1.876	0.523
937.000	543.899	79.998	19.995	102.958	19.787	2.130	0.503
937.500	544.169	79.999	19.996	102.952	19.786	2.156	0.524
938.000	544.362	79.999	19.996	102.952	19.786	2.190	0.503
938.500	544.637	79.999	19.996	102.952	19.786	2.208	0.465
939.000	544.888	79.997	19.995	102.948	19.783	2.399	0.497
939.500	545.155	79.997	19.995	102.948	19.789	1.989	0.522
940.000	545.397	79.998	19.996	102.950	19.784	2.348	0.513
940.500	545.676	79.999	19.996	102.946	19.786	2.186	0.515
941.000	545.906	80.000	19.997	102.941	19.785	2.241	0.515
941.500	546.176	79.999	19.996	102.942	19.785	2.219	0.504
942.000	546.402	79.998	19.996	102.944	19.783	2.393	0.498
942.500	546.694	79.998	19.996	102.945	19.781	2.517	0.507
943.000	546.944	79.999	19.996	102.949	19.783	2.391	0.530
943.500	547.218	79.999	19.996	102.953	19.784	2.313	0.533
944.000	547.483	79.998	19.997	102.952	19.783	2.377	0.532
944.500	547.733	79.999	19.996	102.956	19.782	2.450	0.527
945.000	547.987	80.000	19.996	102.958	19.784	2.299	0.509
945.500	548.222	80.000	19.995	102.959	19.783	2.397	0.497
946.000	548.472	79.999	19.996	102.960	19.787	2.147	0.487
946.500	548.752	79.999	19.996	102.960	19.787	2.143	0.507
947.000	549.003	80.000	19.996	102.955	19.787	2.105	0.531
947.500	549.267	79.999	19.996	102.955	19.784	2.315	0.523
948.000	549.514	79.999	19.996	102.952	19.788	2.054	0.513
948.500	549.778	80.000	19.996	102.950	19.786	2.163	0.511
949.000	550.069	80.000	19.997	102.948	19.789	1.954	0.533
949.500	550.310	80.000	19.996	102.949	19.786	2.166	0.543
950.000	550.565	80.000	19.995	102.944	19.787	2.132	0.514
950.500	550.805	80.001	19.996	102.943	19.790	1.892	0.496
951.000	551.080	80.000	19.997	102.944	19.788	2.032	0.505
951.500	551.323	80.001	19.996	102.949	19.786	2.204	0.516
952.000	551.575	80.001	19.996	102.949	19.786	2.186	0.507
952.500	551.796	80.000	19.997	102.950	19.787	2.103	0.484
953.000	552.068	80.001	19.996	102.949	19.785	2.221	0.483
953.500	552.331	79.999	19.996	102.944	19.789	1.967	0.514
954.000	552.589	79.999	19.995	102.941	19.786	2.189	0.528
954.500	552.846	79.998	19.996	102.944	19.789	1.974	0.518
955.000	553.075	80.000	19.996	102.947	19.788	2.065	0.500
955.500	553.317	80.001	19.997	102.953	19.786	2.172	0.478
956.000	553.627	80.001	19.997	102.959	19.785	2.237	0.512
956.500	553.889	80.000	19.996	102.958	19.788	2.052	0.562
957.000	554.123	80.000	19.996	102.953	19.787	2.099	0.534
957.500	554.390	79.999	19.996	102.948	19.785	2.226	0.499
958.000	554.643	79.999	19.997	102.944	19.785	2.272	0.511
958.500	554.912	79.999	19.997	102.941	19.783	2.411	0.521
959.000	555.188	80.000	19.997	102.941	19.786	2.190	0.533
959.500	555.432	80.000	19.996	102.942	19.783	2.402	0.532
960.000	555.756	79.999	19.995	102.942	19.786	2.217	0.544
960.500	555.931	80.000	19.995	102.942	19.787	2.103	0.534
961.000	556.202	80.000	19.995	102.940	19.786	2.156	0.473
961.500	556.458	80.000	19.995	102.939	19.785	2.224	0.487
962.000	556.743	80.000	19.996	102.938	19.788	2.076	0.534
962.500	556.980	80.000	19.995	102.940	19.789	1.970	0.531
963.000	557.285	80.001	19.995	102.944	19.784	2.303	0.532
963.500	557.509	80.000	19.996	102.950	19.788	2.078	0.536
964.000	557.770	80.000	19.995	102.955	19.784	2.319	0.508
964.500	558.001	79.999	19.994	102.959	19.786	2.214	0.489
965.000	558.294	80.001	19.995	102.964	19.786	2.161	0.508
965.500	558.533	79.999	19.996	102.964	19.787	2.147	0.528
966.000	558.790	80.000	19.995	102.961	19.789	2.009	0.514
966.500	559.029	80.000	19.995	102.957	19.788	2.071	0.496
967.000	559.278	80.001	19.994	102.956	19.788	2.074	0.492
967.500	559.556	80.001	19.996	102.952	19.786	2.196	0.507
968.000	559.810	80.000	19.996	102.948	19.791	1.882	0.529
968.500	560.057	80.000	19.995	102.945	19.789	2.007	0.517
969.000	560.312	80.001	19.995	102.945	19.786	2.190	0.501
969.500	560.572	79.999	19.996	102.944	19.786	2.152	0.508
970.000	560.840	80.000	19.995	102.943	19.789	1.983	0.522
970.500	561.083	80.000	19.995	102.944	19.788	2.019	0.520
971.000	561.320	80.001	19.995	102.944	19.788	2.054	0.495
971.500	561.610	80.001	19.995	102.945	19.786	2.184	0.503
972.000	561.902	80.003	19.995	102.946	19.789	1.978	0.555
972.500	562.130	80.001	19.995	102.947	19.787	2.147	0.551
973.000	562.384	80.003	19.994	102.946	19.785	2.261	0.501
973.500	562.615	80.001	19.995	102.947	19.792	1.762	0.484
974.000	562.897	80.002	19.995	102.950	19.787	2.136	0.499
974.500	563.170	80.001	19.995	102.948	19.792	1.804	0.534
975.000	563.427	80.001	19.994	102.949	19.787	2.110	0.542
975.500	563.674	80.002	19.993	102.954	19.790	1.916	0.517
976.000	563.941	80.002	19.995	102.959	19.787	2.087	0.509
976.500	564.173	80.000	19.995	102.959	19.787	2.112	0.507
977.000	564.438	80.001	19.994	102.961	19.787	2.088	0.499
977.500	564.676	80.002	19.995	102.965	19.789	1.996	0.500
978.000	564.933	80.002	19.995	102.965	19.790	1.907	0.499
978.500	565.156	80.001	19.995	102.963	19.789	2.008	0.487
979.000	565.423	80.000	19.994	102.962	19.790	1.932	0.484
979.500	565.716	80.002	19.995	102.959	19.788	2.019	0.525
980.000	566.000	80.001	19.995	102.954	19.787	2.096	0.569
980.500	566.265	80.000	19.995	102.948	19.790	1.936	0.563
981.000	566.507	80.000	19.995	102.943	19.789	2.016	0.528
981.500	566.730	79.999	19.994	102.940	19.789	2.016	0.486
982.000	567.001	79.999	19.995	102.939	19.789	1.987	0.480
982.500	567.259	79.999	19.994	102.941	19.790	1.912	0.512
983.000	567.525	79.999	19.994	102.947	19.791	1.849	0.526
983.500	567.785	79.999	19.995	102.953	19.792	1.809	0.524
984.000	568.059	79.998	19.994	102.957	19.791	1.865	0.530
984.500	568.302	79.998	19.995	102.959	19.789	1.961	0.526
985.000	568.540	79.998	19.996	102.956	19.791	1.847	0.499
985.500	568.830	79.999	19.995	102.951	19.787	2.139	0.504
986.000	569.037	79.999	19.994	102.954	19.790	1.902	0.512
986.500	569.340	79.999	19.995	102.950	19.788	2.072	0.503
987.000	569.623	79.998	19.995	102.946	19.788	2.069	0.548
987.500	569.839	80.000	19.996	102.944	19.791	1.871	0.543
988.000	570.135	79.999	19.995	102.943	19.792	1.816	0.506
988.500	570.383	79.998	19.995	102.934	19.793	1.731	0.528
989.000	570.641	79.998	19.995	102.932	19.790	1.900	0.525
989.500	570.884	79.998	19.996	102.937	19.792	1.782	0.503
990.000	571.144	80.000	19.995	102.943	19.793	1.696	0.502
990.500	571.357	79.998	19.995	102.943	19.790	1.903	0.488
991.000	571.634	79.999	19.995	102.945	19.792	1.756	0.481
991.500	571.929	79.999	19.995	102.946	19.790	1.896	0.531
992.000	572.184	79.999	19.995	102.943	19.792	1.773	0.562
992.500	572.416	79.998	19.995	102.941	19.788	2.030	0.519
993.000	572.686	80.000	19.995	102.948	19.789	1.965	0.494
993.500	572.944	79.999	19.995	102.952	19.789	2.017	0.515
994.000	573.182	80.000	19.994	102.955	19.792	1.802	0.512
994.500	573.476	79.998	19.994	102.954	19.789	1.972	0.514
995.000	573.703	79.998	19.995	102.951	19.791	1.829	0.527
995.500	573.990	80.000	19.994	102.946	19.791	1.851	0.518
996.000	574.294	80.001	19.995	102.944	19.793	1.687	0.553
996.500	574.524	79.999	19.995	102.947	19.789	1.952	0.562
997.000	574.821	79.999	19.995	102.953	19.790	1.947	0.530
997.500	575.063	79.998	19.996	102.957	19.792	1.765	0.533
998.000	575.331	79.999	19.994	102.957	19.792	1.773	0.524
998.500	575.605	79.998	19.996	102.955	19.791	1.885	0.525
999.000	575.856	79.999	19.995	102.951	19.791	1.869	0.533
999.500	576.075	79.999	19.994	102.947	19.793	1.731	0.498
1000.000	576.361	80.000	19.994	102.945	19.789	1.970	0.488
1000.500	576.580	80.000	19.994	102.944	19.792	1.758	0.505
1001.000	576.864	80.000	19.996	102.943	19.790	1.936	0.504
1001.500	577.139	80.000	19.995	102.941	19.791	1.841	0.531
1002.000	577.379	80.000	19.995	102.938	19.790	1.950	0.537
1002.500	577.637	79.998	19.994	102.937	19.787	2.103	0.507
1003.000	577.913	79.999	19.994	102.937	19.792	1.792	0.516
1003.500	578.165	79.999	19.995	102.938	19.788	2.045	0.531
1004.000	578.417	80.001	19.995	102.937	19.792	1.760	0.516
1004.500	578.676	80.000	19.994	102.939	19.789	1.988	0.507
1005.000	578.934	80.001	19.994	102.939	19.788	2.019	0.514
1005.500	579.194	79.999	19.996	102.940	19.791	1.825	0.518
1006.000	579.442	80.001	19.995	102.942	19.788	2.034	0.513
1006.500	579.665	79.998	19.995	102.942	19.791	1.820	0.489
1007.000	579.924	79.999	19.996	102.939	19.791	1.874	0.477
1007.500	580.219	80.000	19.995	102.940	19.792	1.773	0.518
1008.000	580.478	80.001	19.995	102.945	19.794	1.651	0.554
1008.500	580.713	79.999	19.995	102.945	19.794	1.669	0.524
1009.000	580.970	79.999	19.996	102.945	19.796	1.515	0.493
1009.500	581.245	79.999	19.996	102.951	19.794	1.669	0.512
1010.000	581.500	79.999	19.995	102.953	19.791	1.838	0.531
1010.500	581.783	79.999	19.995	102.947	19.791	1.830	0.534
1011.000	581.998	79.999	19.995	102.946	19.789	2.003	0.518
1011.500	582.297	79.999	19.996	102.946	19.792	1.789	0.506
1012.000	582.536	79.997	19.995	102.941	19.791	1.872	0.526
1012.500	582.776	79.999	19.996	102.938	19.792	1.764	0.509
1013.000	583.054	80.000	19.996	102.936	19.787	2.108	0.499
1013.500	583.305	79.999	19.997	102.935	19.790	1.911	0.524
1014.000	583.563	80.000	19.995	102.935	19.793	1.735	0.519
1014.500	583.819	79.998	19.996	102.934	19.794	1.627	0.511
1015.000	584.076	79.998	19.996	102.935	19.792	1.802	0.514
1015.500	584.313	79.998	19.996	102.938	19.792	1.764	0.503
1016.000	584.546	79.999	19.996	102.942	19.792	1.762	0.482
1016.500	584.803	79.998	19.997	102.942	19.793	1.745	0.480
1017.000	585.106	79.997	19.996	102.942	19.794	1.653	0.525
1017.500	585.311	79.999	19.996	102.946	19.795	1.615	0.534
1018.000	585.580	79.999	19.996	102.945	19.794	1.656	0.491
1018.500	585.843	79.997	19.996	102.942	19.794	1.657	0.502
1019.000	586.088	79.999	19.996	102.942	19.793	1.700	0.519
1019.500	586.355	79.998	19.996	102.942	19.795	1.580	0.510
1020.000	586.637	79.999	19.996	102.937	19.793	1.744	0.531
1020.500	586.884	79.998	19.996	102.935	19.792	1.816	0.539
1021.000	587.139	79.998	19.996	102.933	19.795	1.584	0.515
1021.500	587.379	80.000	19.996	102.933	19.793	1.716	0.499
1022.000	587.626	79.998	19.996	102.937	19.791	1.867	0.491
1022.500	587.922	79.999	19.995	102.940	19.793	1.696	0.515
1023.000	588.148	79.998	19.997	102.944	19.789	1.959	0.532
1023.500	588.417	79.999	19.995	102.945	19.791	1.860	0.509
1024.000	588.667	79.999	19.996	102.946	19.795	1.582	0.508
1024.500	588.897	80.000	19.995	102.943	19.792	1.809	0.500
1025.000	589.175	80.001	19.995	102.944	19.792	1.758	0.494
1025.500	589.399	80.000	19.996	102.942	19.794	1.651	0.505
1026.000	589.662	80.000	19.996	102.942	19.794	1.664	0.494
1026.500	589.906	80.000	19.996	102.947	19.795	1.607	0.497
1027.000	590.153	80.001	19.995	102.945	19.791	1.852	0.499
1027.500	590.398	80.001	19.996	102.941	19.794	1.622	0.491
1028.000	590.652	80.003	19.996	102.940	19.796	1.551	0.496
1028.500	590.932	80.001	19.996	102.941	19.792	1.778	0.517
1029.000	591.217	80.000	19.996	102.942	19.792	1.776	0.550
1029.500	591.439	80.001	19.996	102.943	19.792	1.811	0.536
1030.000	591.705	80.001	19.995	102.944	19.793	1.715	0.497
1030.500	591.957	80.001	19.995	102.948	19.794	1.655	0.502
1031.000	592.237	80.001	19.996	102.946	19.794	1.627	0.525
1031.500	592.496	80.002	19.995	102.940	19.797	1.448	0.536
1032.000	592.735	80.001	19.994	102.938	19.795	1.558	0.519
1032.500	592.966	80.000	19.994	102.938	19.793	1.720	0.485
1033.000	593.258	80.001	19.996	102.933	19.795	1.604	0.496
1033.500	593.465	80.002	19.995	102.933	19.795	1.587	0.510
1034.000	593.736	80.003	19.996	102.937	19.797	1.470	0.489
1034.500	594.001	80.000	19.995	102.944	19.795	1.586	0.507
1035.001	594.254	80.001	19.995	102.944	19.796	1.517	0.527
1035.501	594.586	80.001	19.995	102.945	19.794	1.680	0.552
1036.000	594.801	80.003	19.996	102.944	19.792	1.780	0.566
1036.500	595.001	80.001	19.996	102.941	19.796	1.497	0.480
1037.000	595.281	80.000	19.996	102.935	19.794	1.664	0.448
1037.500	595.538	80.000	19.996	102.934	19.794	1.653	0.509
1038.000	595.825	80.002	19.996	102.933	19.797	1.466	0.541
1038.500	596.061	80.001	19.997	102.933	19.793	1.711	0.534
1039.000	596.312	80.000	19.996	102.935	19.796	1.538	0.505
1039.500	596.553	80.001	19.995	102.938	19.793	1.707	0.489
1040.000	596.836	79.999	19.996	102.939	19.796	1.549	0.509
1040.501	597.070	79.999	19.995	102.940	19.792	1.816	0.521
1041.001	597.325	80.000	19.996	102.941	19.789	1.963	0.503
1041.500	597.562	79.998	19.996	102.942	19.796	1.506	0.491
1042.000	597.847	79.999	19.997	102.940	19.791	1.827	0.507
1042.500	598.108	79.999	19.997	102.941	19.795	1.611	0.534
1043.000	598.358	79.999	19.996	102.940	19.794	1.633	0.528
1043.500	598.626	79.999	19.997	102.940	19.793	1.703	0.515
1044.000	598.840	80.000	19.997	102.936	19.793	1.700	0.500
1044.500	599.140	79.999	19.996	102.937	19.794	1.674	0.498
1045.000	599.392	79.999	19.996	102.940	19.795	1.576	0.533
1045.500	599.653	79.998	19.997	102.942	19.793	1.727	0.533
1046.000	599.869	79.999	19.996	102.946	19.792	1.762	0.495
1046.500	600.157	80.000	19.996	102.947	19.793	1.734	0.490
1047.000	600.377	80.000	19.996	102.946	19.787	2.126	0.506
1047.500	600.655	79.999	19.996	102.943	19.791	1.843	0.503
1048.000	600.912	79.997	19.995	102.941	19.792	1.783	0.516
1048.500	601.160	80.000	19.996	102.937	19.791	1.879	0.520
1049.000	601.394	79.999	19.996	102.936	19.791	1.885	0.494
1049.500	601.594	80.000	19.996	102.936	19.790	1.898	0.458
1050.000	601.872	80.000	19.996	102.934	19.792	1.774	0.456
1050.500	602.168	80.001	19.997	102.934	19.794	1.686	0.526
1051.000	602.408	79.999	19.996	102.934	19.796	1.551	0.555
1051.500	602.664	80.001	19.996	102.933	19.794	1.676	0.516
1052.000	602.924	80.000	19.996	102.933	19.790	1.941	0.506
1052.500	603.182	79.999	19.995	102.934	19.790	1.936	0.517
1053.000	603.406	80.001	19.995	102.933	19.791	1.832	0.500
1053.500	603.696	80.000	19.995	102.933	19.791	1.822	0.498
1054.000	603.954	80.002	19.995	102.932	19.792	1.818	0.531
1054.500	604.168	80.000	19.995	102.932	19.790	1.905	0.510
1055.000	604.426	80.003	19.996	102.931	19.791	1.845	0.472
1055.500	604.709	80.001	19.996	102.932	19.790	1.948	0.506
1056.000	604.955	80.001	19.995	102.932	19.791	1.831	0.535
1056.500	605.196	80.001	19.995	102.932	19.793	1.751	0.508
1057.000	605.441	80.000	19.994	102.932	19.792	1.756	0.486
1057.500	605.652	80.001	19.995	102.932	19.791	1.870	0.471
1058.000	605.940	80.000	19.994	102.932	19.791	1.831	0.478
1058.500	606.204	80.001	19.995	102.932	19.787	2.090	0.525
1059.000	606.439	80.000	19.994	102.933	19.787	2.146	0.526
1059.500	606.713	80.001	19.994	102.934	19.788	2.026	0.504
1060.000	606.933	80.001	19.994	102.938	19.787	2.137	0.501
1060.500	607.199	80.001	19.994	102.943	19.789	1.990	0.490
1061.000	607.424	80.001	19.994	102.944	19.789	1.994	0.489
1061.500	607.695	80.001	19.994	102.944	19.790	1.919	0.494
1062.000	607.941	79.999	19.994	102.945	19.787	2.094	0.506
1062.501	608.197	80.000	19.995	102.942	19.788	2.061	0.509
1063.001	608.428	80.001	19.994	102.939	19.788	2.054	0.494
1063.500	608.722	80.001	19.995	102.937	19.787	2.135	0.505
1064.000	608.967	80.001	19.995	102.938	19.789	1.992	0.532
1064.500	609.252	79.999	19.995	102.937	19.794	1.676	0.535
1065.000	609.490	80.000	19.995	102.936	19.789	1.954	0.526
1065.500	609.763	79.999	19.994	102.937	19.793	1.729	0.517
1066.000	609.968	79.999	19.994	102.937	19.791	1.838	0.495
1066.500	610.248	79.998	19.995	102.936	19.790	1.914	0.482
1067.000	610.499	79.998	19.995	102.936	19.789	1.972	0.508
1067.500	610.756	79.995	19.995	102.936	19.793	1.689	0.519
1068.000	610.986	79.997	19.995	102.935	19.791	1.850	0.497
1068.500	611.262	79.998	19.995	102.935	19.790	1.934	0.497
1069.000	611.496	79.998	19.996	102.934	19.789	1.956	0.508
1069.500	611.775	79.997	19.995	102.934	19.788	2.059	0.511
1070.000	612.030	79.998	19.996	102.934	19.791	1.838	0.523
1070.500	612.282	79.999	19.996	102.934	19.790	1.892	0.521
1071.000	612.571	79.999	19.995	102.934	19.790	1.890	0.524
1071.500	612.784	79.998	19.996	102.933	19.791	1.885	0.521
1072.000	613.085	79.997	19.996	102.933	19.789	1.997	0.508
1072.500	613.280	79.997	19.995	102.932	19.791	1.869	0.505
1073.000	613.570	79.998	19.995	102.932	19.791	1.823	0.490
1073.500	613.801	79.998	19.995	102.932	19.794	1.671	0.503
1074.000	614.067	79.999	19.996	102.932	19.795	1.611	0.509
1074.500	614.303	79.998	19.996	102.933	19.792	1.767	0.499
1075.000	614.534	79.998	19.996	102.933	19.791	1.861	0.485
1075.500	614.812	79.998	19.995	102.932	19.793	1.716	0.488
1076.000	615.069	79.999	19.995	102.932	19.795	1.611	0.522
1076.500	615.325	79.998	19.996	102.932	19.789	1.979	0.525
1077.000	615.574	79.999	19.995	102.932	19.792	1.783	0.509
1077.500	615.814	79.997	19.996	102.932	19.791	1.840	0.497
1078.000	616.101	79.997	19.995	102.933	19.795	1.615	0.508
1078.500	616.351	79.997	19.996	102.932	19.789	1.976	0.532
1079.000	616.648	79.999	19.996	102.932	19.791	1.829	0.542
1079.500	616.910	79.998	19.995	102.933	19.792	1.818	0.553
1080.000	617.109	79.998	19.995	102.933	19.789	1.976	0.510
1080.500	617.389	79.999	19.995	102.934	19.788	2.077	0.470
1081.000	617.658	79.996	19.995	102.934	19.788	2.025	0.514
1081.500	617.908	79.998	19.995	102.933	19.791	1.841	0.533
1082.000	618.192	79.999	19.995	102.933	19.789	1.983	0.527
1082.500	618.425	79.999	19.995	102.932	19.790	1.941	0.526
1083.000	618.646	79.998	19.995	102.932	19.786	2.172	0.485
1083.500	618.932	80.000	19.995	102.932	19.789	2.006	0.481
1084.000	619.168	79.998	19.995	102.932	19.789	1.972	0.515
1084.500	619.434	79.999	19.994	102.932	19.789	1.976	0.512
1085.000	619.693	80.000	19.996	102.932	19.791	1.832	0.513
1085.500	619.957	79.998	19.995	102.932	19.791	1.838	0.524
1086.000	620.213	79.997	19.994	102.932	19.789	1.954	0.522
1086.500	620.482	80.000	19.995	102.932	19.790	1.950	0.522
1087.000	620.725	80.000	19.996	102.931	19.787	2.099	0.519
1087.500	620.972	79.998	19.995	102.932	19.789	2.005	0.501
1088.000	621.256	79.998	19.995	102.932	19.789	1.963	0.510
1088.500	621.512	79.997	19.994	102.932	19.794	1.674	0.535
1089.000	621.777	80.000	19.996	102.932	19.789	1.968	0.531
1089.500	622.016	80.000	19.995	102.932	19.792	1.792	0.513
1090.000	622.283	79.999	19.995	102.932	19.790	1.894	0.505
1090.500	622.548	79.998	19.995	102.931	19.790	1.908	0.519
1091.000	622.770	79.998	19.996	102.932	19.792	1.787	0.509
1091.500	623.027	79.998	19.995	102.934	19.793	1.691	0.483
1092.000	623.290	79.998	19.995	102.934	19.794	1.676	0.500
1092.500	623.543	80.000	19.996	102.934	19.791	1.872	0.518
1093.001	623.798	79.999	19.995	102.933	19.790	1.900	0.512
1093.501	624.042	79.997	19.995	102.934	19.791	1.847	0.503
1094.001	624.311	79.998	19.994	102.933	19.795	1.609	0.506
1094.501	624.590	79.999	19.995	102.933	19.792	1.811	0.531
1095.000	624.788	79.999	19.995	102.934	19.794	1.653	0.513
1095.500	625.073	79.999	19.995	102.934	19.789	1.967	0.480
1096.000	625.284	79.998	19.994	102.933	19.790	1.907	0.490
1096.500	625.553	79.997	19.995	102.933	19.792	1.756	0.488
1097.000	625.840	79.998	19.996	102.934	19.791	1.836	0.518
1097.500	626.060	79.998	19.996	102.934	19.794	1.631	0.531
1098.000	626.325	79.997	19.995	102.934	19.792	1.772	0.496
1098.500	626.583	79.998	19.995	102.934	19.789	2.001	0.504
1099.000	626.844	79.998	19.996	102.934	19.793	1.713	0.521
1099.500	627.109	79.998	19.995	102.933	19.792	1.758	0.523
1100.000	627.368	79.999	19.995	102.933	19.793	1.707	0.525
1100.500	627.626	80.000	19.994	102.933	19.792	1.792	0.521
1101.000	627.861	79.997	19.995	102.933	19.795	1.604	0.505
1101.501	628.130	79.999	19.995	102.932	19.792	1.773	0.498
1102.001	628.392	79.998	19.995	102.933	19.794	1.636	0.517
1102.500	628.660	79.997	19.996	102.933	19.792	1.754	0.531
1103.000	628.893	79.998	19.996	102.934	19.794	1.640	0.516
1103.500	629.156	79.997	19.996	102.936	19.792	1.782	0.499
1104.000	629.394	79.997	19.995	102.937	19.795	1.615	0.498
1104.500	629.677	79.999	19.996	102.938	19.794	1.667	0.511
1105.000	629.946	79.998	19.995	102.937	19.794	1.646	0.537
1105.500	630.200	79.998	19.996	102.936	19.793	1.704	0.537
1106.000	630.459	79.999	19.996	102.934	19.790	1.892	0.518
1106.500	630.739	79.998	19.996	102.934	19.792	1.816	0.526
1107.000	630.971	79.999	19.995	102.934	19.790	1.932	0.525
1107.500	631.186	79.998	19.996	102.934	19.790	1.932	0.480
1108.000	631.488	79.999	19.996	102.934	19.793	1.749	0.482
1108.500	631.739	79.998	19.996	102.934	19.791	1.832	0.535
1109.000	631.983	79.999	19.996	102.933	19.791	1.863	0.524
1109.500	632.240	79.999	19.996	102.934	19.790	1.927	0.498
1110.000	632.480	79.999	19.996	102.935	19.792	1.774	0.499
1110.500	632.764	79.999	19.996	102.935	19.790	1.912	0.511
1111.000	632.988	80.000	19.996	102.935	19.791	1.847	0.516
1111.500	633.254	79.999	19.995	102.935	19.793	1.713	0.499
1112.000	633.508	79.998	19.995	102.936	19.792	1.818	0.505
1112.500	633.752	80.000	19.995	102.936	19.794	1.676	0.509
1113.000	634.047	80.000	19.996	102.937	19.794	1.665	0.518
1113.500	634.331	79.999	19.995	102.938	19.793	1.734	0.559
1114.000	634.532	79.999	19.996	102.938	19.798	1.397	0.532
1114.500	634.787	79.999	19.995	102.939	19.797	1.430	0.470
1115.000	635.103	80.000	19.996	102.940	19.794	1.647	0.513
1115.500	635.350	80.002	19.997	102.940	19.794	1.666	0.568
1116.000	635.595	79.999	19.995	102.941	19.796	1.497	0.528
1116.500	635.875	80.000	19.996	102.941	19.794	1.637	0.508
1117.000	636.104	80.000	19.995	102.939	19.796	1.544	0.517
1117.500	636.385	79.999	19.996	102.939	19.798	1.357	0.510
1118.000	636.595	80.001	19.995	102.937	19.798	1.410	0.500
1118.500	636.881	80.000	19.995	102.936	19.796	1.522	0.493
1119.000	637.119	80.001	19.996	102.935	19.796	1.506	0.510
1119.500	637.388	80.000	19.995	102.934	19.796	1.490	0.515
1120.000	637.597	79.999	19.995	102.932	19.791	1.849	0.493
1120.501	637.836	79.999	19.996	102.933	19.792	1.774	0.463
1121.001	638.123	79.999	19.995	102.933	19.794	1.669	0.487
1121.500	638.381	79.999	19.996	102.933	19.792	1.807	0.536
1122.000	638.653	79.999	19.995	102.933	19.794	1.644	0.538
1122.500	638.891	79.999	19.994	102.934	19.795	1.613	0.520
1123.000	639.134	79.998	19.995	102.934	19.795	1.587	0.495
1123.500	639.379	80.000	19.995	102.934	19.794	1.633	0.484
1124.000	639.656	79.999	19.994	102.934	19.795	1.584	0.505
1124.500	639.871	79.999	19.995	102.937	19.795	1.578	0.508
1125.000	640.125	80.001	19.995	102.939	19.794	1.635	0.481
1125.500	640.399	80.000	19.996	102.945	19.796	1.513	0.498
1126.000	640.638	79.999	19.996	102.946	19.794	1.685	0.520
1126.500	640.909	79.999	19.994	102.946	19.792	1.783	0.511
1127.000	641.173	79.999	19.995	102.945	19.793	1.700	0.522
1127.500	641.467	79.998	19.996	102.944	19.794	1.678	0.546
1128.000	641.721	79.999	19.996	102.939	19.793	1.745	0.553
1128.500	641.968	79.999	19.996	102.942	19.795	1.589	0.525
1129.000	642.188	79.999	19.996	102.944	19.796	1.551	0.484
1129.500	642.440	79.999	19.995	102.943	19.791	1.834	0.470
1130.000	642.723	80.000	19.996	102.943	19.795	1.593	0.504
1130.500	642.961	79.999	19.996	102.943	19.793	1.716	0.528
1131.000	643.224	79.999	19.995	102.942	19.796	1.542	0.511
1131.501	643.485	79.997	19.996	102.940	19.797	1.462	0.513
1132.001	643.728	79.999	19.996	102.940	19.794	1.622	0.514
1132.500	643.952	79.999	19.996	102.940	19.797	1.466	0.485
1133.000	644.236	79.998	19.997	102.938	19.795	1.591	0.487
1133.500	644.474	80.000	19.996	102.935	19.796	1.524	0.515
1134.001	644.723	80.001	19.996	102.934	19.796	1.522	0.505
1134.501	644.972	80.001	19.995	102.933	19.796	1.498	0.493
1135.000	645.230	79.999	19.997	102.931	19.796	1.502	0.503
1135.500	645.450	80.001	19.996	102.931	19.795	1.584	0.492
1136.000	645.747	80.000	19.997	102.931	19.798	1.357	0.498
1136.500	645.988	80.000	19.996	102.933	19.796	1.500	0.527
1137.000	646.240	80.003	19.996	102.933	19.792	1.776	0.515
1137.500	646.502	80.001	19.996	102.935	19.793	1.720	0.503
1138.000	646.750	80.002	19.996	102.935	19.795	1.576	0.512
1138.500	647.034	80.000	19.996	102.935	19.795	1.616	0.521
1139.000	647.239	80.000	19.995	102.932	19.795	1.555	0.510
1139.500	647.523	80.001	19.997	102.931	19.797	1.437	0.489
1140.000	647.776	80.000	19.996	102.931	19.796	1.551	0.513
1140.500	648.013	80.001	19.997	102.931	19.793	1.733	0.514
1141.000	648.307	80.001	19.997	102.931	19.796	1.531	0.511
1141.500	648.503	80.001	19.996	102.930	19.796	1.540	0.510
1142.000	648.798	80.001	19.996	102.930	19.797	1.448	0.490
1142.500	649.050	80.000	19.996	102.930	19.795	1.615	0.519
1143.000	649.288	80.002	19.995	102.931	19.794	1.642	0.519
1143.500	649.557	80.000	19.996	102.930	19.798	1.355	0.498
1144.000	649.812	80.003	19.996	102.930	19.797	1.439	0.516
1144.500	650.057	80.001	19.996	102.931	19.797	1.460	0.512
1145.001	650.346	79.999	19.996	102.931	19.795	1.589	0.517
1145.501	650.615	80.000	19.996	102.932	19.794	1.644	0.546
1146.000	650.869	80.000	19.996	102.931	19.797	1.457	0.541
1146.500	651.090	79.998	19.996	102.932	19.797	1.435	0.499
1147.000	651.392	79.999	19.996	102.932	19.795	1.600	0.499
1147.500	651.645	79.998	19.996	102.932	19.797	1.477	0.539
1148.000	651.855	79.999	19.996	102.931	19.799	1.306	0.509
1148.500	652.145	79.999	19.996	102.930	19.797	1.428	0.481
1149.000	652.434	79.999	19.995	102.930	19.794	1.684	0.540
1149.500	652.654	80.001	19.995	102.931	19.799	1.332	0.544
1150.000	652.904	79.999	19.996	102.931	19.796	1.518	0.489
1150.500	653.187	79.999	19.995	102.931	19.795	1.553	0.501
1151.000	653.408	79.999	19.996	102.931	19.798	1.372	0.518
1151.500	653.634	79.999	19.995	102.931	19.797	1.433	0.476
1152.000	653.916	79.999	19.996	102.931	19.796	1.524	0.478
1152.500	654.174	79.999	19.996	102.931	19.794	1.669	0.524
1153.000	654.425	79.999	19.995	102.931	19.795	1.571	0.525
1153.500	654.657	79.999	19.995	102.932	19.795	1.571	0.496
1154.000	654.940	79.998	19.995	102.932	19.795	1.558	0.499
1154.500	655.156	80.000	19.995	102.932	19.796	1.549	0.507
1155.000	655.505	79.997	19.996	102.932	19.796	1.524	0.532
1155.500	655.675	79.999	19.996	102.933	19.795	1.580	0.542
1156.000	655.949	79.999	19.995	102.932	19.794	1.624	0.482
1156.500	656.197	80.000	19.995	102.932	19.798	1.419	0.483
1157.000	656.445	80.001	19.996	102.932	19.795	1.615	0.509
1157.500	656.707	79.997	19.995	102.932	19.794	1.658	0.502
1158.000	657.011	80.000	19.995	102.933	19.796	1.546	0.538
1158.500	657.215	79.998	19.996	102.934	19.796	1.546	0.537
1159.000	657.475	79.998	19.996	102.934	19.798	1.406	0.486
1159.500	657.724	80.000	19.995	102.934	19.793	1.725	0.486
1160.000	657.970	79.999	19.996	102.935	19.792	1.754	0.502
1160.500	658.244	79.998	19.997	102.934	19.794	1.638	0.507
1161.000	658.475	79.998	19.995	102.933	19.794	1.680	0.512
1161.500	658.747	80.000	19.996	102.933	19.797	1.441	0.504
1162.001	659.020	80.000	19.995	102.932	19.794	1.666	0.525
1162.501	659.297	79.999	19.996	102.932	19.795	1.577	0.548
1163.000	659.516	79.998	19.996	102.931	19.792	1.791	0.523
1163.500	659.756	79.999	19.996	102.931	19.796	1.511	0.477
1164.000	659.986	79.998	19.996	102.932	19.795	1.595	0.464
1164.500	660.285	80.000	19.997	102.931	19.793	1.743	0.500
1165.000	660.538	80.000	19.996	102.931	19.795	1.604	0.540
1165.500	660.813	80.000	19.995	102.931	19.795	1.580	0.540
1166.000	661.030	79.998	19.996	102.932	19.795	1.564	0.510
1166.500	661.302	80.000	19.995	102.931	19.795	1.566	0.490
1167.001	661.528	80.000	19.995	102.932	19.794	1.649	0.494
1167.501	661.795	79.999	19.995	102.933	19.797	1.486	0.495
1168.000	662.063	79.998	19.996	102.937	19.794	1.629	0.514
1168.500	662.302	80.001	19.995	102.939	19.795	1.558	0.521
1169.000	662.543	79.999	19.995	102.943	19.795	1.578	0.494
1169.500	662.787	80.000	19.995	102.944	19.796	1.546	0.483
1170.000	663.053	79.998	19.996	102.944	19.793	1.709	0.498
1170.500	663.319	80.000	19.995	102.940	19.795	1.597	0.521
1171.000	663.556	80.001	19.995	102.939	19.794	1.655	0.518
1171.500	663.828	79.999	19.994	102.938	19.793	1.733	0.506
1172.000	664.089	80.001	19.995	102.938	19.795	1.571	0.521
1172.500	664.336	80.000	19.994	102.938	19.795	1.578	0.520
1173.000	664.575	80.000	19.995	102.939	19.795	1.575	0.496
1173.500	664.816	80.000	19.994	102.938	19.794	1.682	0.483
1174.000	665.092	79.998	19.995	102.937	19.796	1.537	0.499
1174.500	665.354	79.998	19.995	102.934	19.797	1.459	0.528
1175.000	665.587	79.999	19.994	102.933	19.797	1.457	0.516
1175.500	665.857	79.999	19.994	102.933	19.794	1.656	0.499
1176.001	666.097	79.998	19.995	102.933	19.793	1.743	0.506
1176.501	666.370	79.999	19.995	102.934	19.794	1.627	0.512
1177.000	666.606	80.000	19.995	102.934	19.795	1.606	0.511
1177.500	666.882	79.998	19.995	102.935	19.794	1.631	0.511
1178.000	667.121	80.000	19.996	102.936	19.795	1.555	0.514
1178.500	667.348	79.997	19.996	102.938	19.797	1.468	0.490
1179.000	667.615	79.998	19.995	102.938	19.797	1.446	0.480
1179.500	667.883	79.998	19.996	102.939	19.794	1.685	0.514
1180.000	668.085	79.999	19.994	102.939	19.798	1.404	0.503
1180.500	668.362	79.997	19.995	102.939	19.796	1.546	0.475
1181.000	668.624	79.999	19.995	102.940	19.794	1.662	0.509
1181.500	668.877	79.998	19.995	102.940	19.795	1.573	0.527
1182.000	669.141	79.998	19.995	102.939	19.793	1.740	0.516
1182.500	669.388	79.997	19.996	102.938	19.794	1.667	0.514
1183.000	669.628	79.999	19.995	102.936	19.797	1.433	0.499
1183.500	669.884	79.997	19.995	102.932	19.793	1.707	0.492
1184.000	670.156	79.998	19.995	102.928	19.794	1.633	0.512
1184.500	670.394	79.999	19.995	102.927	19.793	1.722	0.519
1185.000	670.665	79.999	19.994	102.928	19.793	1.711	0.509
1185.500	670.894	79.995	19.995	102.928	19.793	1.720	0.504
1186.000	671.156	79.999	19.995	102.930	19.791	1.841	0.495
1186.500	671.381	79.998	19.995	102.934	19.789	1.983	0.489
1187.000	671.676	79.999	19.994	102.935	19.794	1.673	0.504
1187.500	671.901	79.999	19.995	102.934	19.792	1.792	0.520
1188.000	672.177	79.998	19.995	102.935	19.793	1.742	0.511
1188.500	672.450	79.999	19.995	102.934	19.793	1.731	0.524
1189.000	672.668	80.000	19.995	102.934	19.791	1.858	0.519
1189.500	672.900	80.000	19.995	102.935	19.793	1.747	0.470
1190.000	673.175	79.999	19.995	102.935	19.792	1.796	0.478
1190.500	673.418	79.999	19.994	102.935	19.791	1.849	0.512
1191.000	673.690	79.998	19.995	102.935	19.792	1.774	0.517
1191.500	673.964	80.001	19.994	102.935	19.794	1.680	0.531
1192.000	674.226	80.000	19.995	102.936	19.794	1.631	0.541
1192.500	674.484	80.000	19.994	102.936	19.793	1.711	0.528
1193.000	674.730	79.999	19.995	102.937	19.792	1.801	0.512
1193.500	675.004	80.001	19.995	102.937	19.791	1.856	0.512
1194.000	675.286	80.000	19.995	102.937	19.792	1.801	0.538
1194.500	675.516	80.000	19.995	102.936	19.792	1.794	0.534
1195.000	675.790	80.001	19.995	102.936	19.792	1.785	0.508
1195.500	676.036	80.000	19.995	102.934	19.791	1.858	0.512
1196.000	676.290	80.000	19.995	102.933	19.792	1.776	0.510
1196.500	676.527	80.000	19.996	102.933	19.792	1.765	0.495
1197.001	676.785	80.001	19.995	102.933	19.791	1.847	0.493
1197.501	677.048	79.999	19.996	102.934	19.792	1.772	0.508
1198.000	677.246	80.000	19.995	102.935	19.792	1.809	0.491
1198.500	677.534	80.000	19.996	102.936	19.794	1.662	0.473
1199.000	677.792	80.001	19.996	102.935	19.791	1.847	0.516
1199.500	678.079	80.000	19.995	102.936	19.794	1.662	0.545
1200.000	678.312	80.000	19.996	102.935	19.792	1.771	0.533
1200.500	678.543	80.001	19.995	102.939	19.793	1.731	0.493
1201.000	678.813	79.999	19.996	102.940	19.792	1.807	0.483
1201.500	679.033	80.000	19.996	102.940	19.792	1.814	0.495
1202.000	679.292	79.998	19.996	102.940	19.795	1.566	0.484
1202.500	679.535	80.001	19.995	102.939	19.791	1.823	0.490
1203.000	679.778	79.999	19.995	102.935	19.792	1.796	0.494
1203.500	680.047	79.999	19.996	102.934	19.793	1.742	0.499
1204.000	680.328	80.000	19.996	102.933	19.791	1.820	0.531
1204.500	680.562	79.999	19.995	102.932	19.794	1.656	0.533
1205.000	680.836	79.998	19.997	102.931	19.797	1.473	0.512
1205.500	681.074	80.001	19.997	102.931	19.796	1.547	0.510
1206.000	681.323	79.999	19.997	102.931	19.789	1.961	0.499
1206.500	681.568	80.000	19.996	102.932	19.794	1.676	0.490
1207.001	681.858	80.000	19.995	102.931	19.792	1.780	0.515
1207.501	682.084	80.000	19.995	102.931	19.791	1.847	0.526
1208.000	682.360	80.000	19.996	102.931	19.791	1.870	0.508
1208.500	682.608	80.000	19.995	102.934	19.791	1.861	0.513
1209.000	682.830	80.001	19.996	102.934	19.794	1.656	0.497
1209.500	683.098	80.001	19.995	102.934	19.790	1.896	0.480
1210.000	683.338	80.001	19.996	102.934	19.794	1.638	0.499
1210.500	683.647	80.002	19.996	102.934	19.791	1.850	0.528
1211.000	683.876	80.001	19.995	102.934	19.792	1.781	0.543
1211.500	684.133	80.001	19.996	102.934	19.794	1.654	0.513
1212.000	684.378	79.999	19.996	102.934	19.793	1.698	0.494
1212.500	684.626	80.002	19.996	102.934	19.795	1.566	0.498
1213.000	684.843	80.000	19.995	102.933	19.795	1.571	0.479
1213.500	685.181	80.003	19.996	102.931	19.793	1.705	0.510
1214.001	685.441	80.000	19.996	102.931	19.791	1.845	0.576
1214.501	685.671	80.000	19.996	102.931	19.797	1.478	0.544
1215.001	685.937	80.002	19.995	102.931	19.793	1.698	0.493
1215.500	686.134	80.002	19.995	102.931	19.794	1.647	0.479
1216.000	686.425	80.001	19.996	102.931	19.794	1.643	0.475
1216.500	686.684	80.002	19.996	102.930	19.796	1.495	0.519
1217.000	686.909	80.002	19.994	102.929	19.792	1.791	0.517
1217.500	687.190	80.002	19.996	102.929	19.793	1.695	0.495
1218.000	687.460	80.001	19.995	102.930	19.790	1.943	0.528
1218.500	687.708	80.002	19.994	102.930	19.791	1.878	0.534
1219.000	687.970	80.002	19.995	102.930	19.789	1.990	0.514
1219.500	688.235	80.001	19.995	102.931	19.794	1.678	0.519
1220.000	688.462	80.003	19.995	102.930	19.793	1.707	0.510
1220.500	688.725	80.001	19.994	102.930	19.791	1.863	0.491
1221.000	688.937	80.002	19.996	102.930	19.792	1.769	0.483
1221.500	689.246	80.001	19.995	102.930	19.791	1.849	0.498
1222.000	689.469	80.001	19.995	102.930	19.792	1.772	0.526
1222.500	689.725	80.001	19.996	102.930	19.792	1.772	0.505
1223.000	690.010	80.002	19.995	102.929	19.790	1.909	0.510
1223.500	690.268	80.003	19.996	102.931	19.793	1.740	0.542
1224.000	690.503	80.000	19.996	102.938	19.792	1.776	0.518
1224.500	690.760	79.999	19.996	102.934	19.791	1.836	0.492
1225.000	690.993	80.000	19.995	102.927	19.787	2.117	0.491
1225.500	691.291	80.002	19.996	102.922	19.791	1.831	0.510
1226.000	691.533	80.001	19.995	102.919	19.789	1.994	0.535
1226.500	691.781	80.000	19.996	102.913	19.789	1.985	0.515
1227.000	692.076	80.000	19.995	102.921	19.790	1.920	0.517
1227.500	692.308	79.999	19.997	102.937	19.792	1.792	0.535
1228.000	692.571	79.999	19.996	102.948	19.790	1.939	0.511
1228.500	692.853	79.998	19.997	102.950	19.789	1.978	0.520
1229.000	693.059	79.999	19.996	102.951	19.790	1.938	0.517
1229.500	693.333	79.999	19.997	102.947	19.791	1.883	0.484
1230.000	693.582	79.998	19.997	102.938	19.792	1.801	0.501
1230.500	693.885	80.000	19.996	102.933	19.793	1.716	0.537
1231.000	694.109	79.998	19.996	102.932	19.791	1.829	0.540
1231.501	694.332	79.999	19.996	102.931	19.791	1.820	0.487
1232.001	694.606	79.999	19.996	102.931	19.793	1.751	0.472
1232.500	694.850	80.000	19.996	102.932	19.790	1.894	0.508
1233.000	695.115	79.999	19.997	102.932	19.790	1.914	0.513
1233.501	695.374	80.000	19.997	102.934	19.791	1.843	0.516
1234.001	695.637	79.997	19.997	102.935	19.789	1.952	0.523
1234.500	695.874	79.999	19.996	102.934	19.790	1.930	0.511
1235.000	696.151	79.999	19.996	102.936	19.790	1.912	0.507
1235.500	696.439	79.999	19.996	102.937	19.793	1.742	0.540
1236.000	696.677	79.999	19.996	102.938	19.788	2.055	0.545
1236.500	696.965	79.999	19.995	102.939	19.793	1.702	0.526
1237.000	697.203	79.999	19.995	102.940	19.790	1.947	0.526
1237.500	697.448	80.000	19.996	102.940	19.792	1.763	0.505
1238.000	697.684	80.001	19.996	102.939	19.791	1.854	0.482
1238.500	697.962	79.998	19.995	102.938	19.789	1.992	0.497
1239.000	698.164	79.998	19.995	102.936	19.792	1.803	0.497
1239.500	698.440	79.999	19.996	102.936	19.790	1.892	0.479
1240.000	698.693	79.999	19.995	102.935	19.789	1.976	0.504
1240.500	698.945	79.999	19.996	102.934	19.790	1.887	0.517
1241.000	699.216	79.999	19.995	102.934	19.787	2.103	0.514
1241.500	699.490	79.998	19.994	102.934	19.788	2.059	0.534
1242.000	699.757	80.000	19.995	102.934	19.788	2.023	0.543
1242.500	699.970	79.998	19.995	102.935	19.791	1.867	0.511
1243.000	700.241	80.000	19.995	102.935	19.790	1.887	0.482
1243.500	700.494	80.000	19.995	102.934	19.788	2.059	0.504
1244.000	700.774	79.999	19.994	102.933	19.789	2.005	0.528
1244.500	701.054	79.999	19.995	102.934	19.791	1.850	0.546
1245.000	701.274	79.998	19.995	102.934	19.787	2.134	0.530
1245.500	701.534	79.998	19.995	102.934	19.785	2.275	0.490
1246.000	701.780	80.000	19.995	102.934	19.788	2.081	0.493
1246.500	702.038	79.997	19.995	102.935	19.788	2.054	0.505
1247.000	702.291	80.000	19.995	102.934	19.788	2.057	0.507
1247.500	702.551	79.998	19.996	102.936	19.789	1.987	0.512
1248.000	702.812	79.999	19.995	102.938	19.789	1.970	0.517
1248.500	703.057	80.000	19.994	102.938	19.789	1.967	0.513
1249.000	703.332	80.000	19.994	102.938	19.789	2.001	0.513
1249.500	703.589	79.999	19.995	102.938	19.790	1.948	0.526
1250.000	703.828	79.999	19.995	102.936	19.792	1.814	0.514
1250.500	704.092	79.998	19.995	102.935	19.788	2.032	0.500
1251.000	704.348	79.998	19.995	102.934	19.790	1.901	0.512
1251.500	704.616	79.998	19.995	102.934	19.790	1.947	0.522
1252.000	704.854	79.998	19.995	102.933	19.790	1.947	0.515
1252.500	705.118	80.001	19.996	102.933	19.792	1.793	0.504
1253.000	705.377	79.998	19.996	102.934	19.791	1.874	0.513
1253.500	705.659	79.999	19.995	102.934	19.794	1.642	0.532
1254.000	705.907	79.997	19.995	102.934	19.790	1.912	0.535
1254.500	706.143	79.997	19.994	102.935	19.794	1.671	0.506
1255.000	706.401	79.996	19.995	102.935	19.793	1.722	0.489
1255.500	706.620	79.997	19.994	102.934	19.792	1.772	0.486
1256.000	706.944	79.999	19.995	102.934	19.793	1.689	0.510
1256.500	707.178	79.997	19.995	102.935	19.790	1.905	0.551
1257.001	707.434	79.998	19.996	102.934	19.791	1.867	0.524
1257.501	707.684	79.997	19.996	102.935	19.792	1.794	0.498
1258.000	707.967	79.998	19.995	102.935	19.789	1.999	0.519
1258.500	708.222	79.998	19.995	102.935	19.790	1.887	0.536
1259.000	708.466	79.999	19.996	102.935	19.790	1.921	0.519
1259.500	708.715	79.998	19.995	102.935	19.791	1.830	0.496
1260.000	708.965	80.000	19.995	102.935	19.792	1.778	0.496
1260.500	709.203	79.996	19.995	102.935	19.793	1.736	0.494
1261.000	709.471	79.998	19.995	102.935	19.791	1.825	0.497
1261.500	709.720	79.998	19.995	102.935	19.792	1.780	0.511
1262.000	709.981	79.999	19.996	102.936	19.793	1.694	0.514
1262.500	710.253	80.000	19.996	102.937	19.792	1.794	0.521
1263.000	710.487	79.999	19.995	102.938	19.793	1.705	0.520
1263.500	710.755	79.998	19.995	102.938	19.793	1.700	0.504
1264.000	711.017	79.998	19.995	102.939	19.792	1.814	0.516
1264.500	711.251	79.999	19.995	102.938	19.793	1.745	0.513
1265.000	711.574	79.999	19.996	102.936	19.790	1.894	0.527
1265.500	711.778	80.000	19.996	102.934	19.794	1.662	0.542
1266.000	712.052	79.999	19.995	102.934	19.792	1.763	0.503
1266.500	712.292	80.000	19.995	102.933	19.792	1.816	0.496
1267.000	712.584	79.998	19.997	102.933	19.794	1.624	0.523
1267.500	712.839	79.999	19.995	102.934	19.792	1.792	0.540
1268.000	713.076	79.999	19.996	102.935	19.792	1.818	0.520
1268.501	713.372	80.000	19.995	102.936	19.794	1.622	0.512
1269.001	713.647	79.999	19.995	102.935	19.794	1.620	0.552
1269.500	713.882	80.000	19.995	102.935	19.790	1.892	0.540
1270.000	714.147	79.999	19.996	102.934	19.793	1.742	0.505
1270.500	714.364	80.000	19.995	102.932	19.794	1.624	0.491
1271.000	714.638	80.000	19.996	102.931	19.792	1.752	0.487
1271.500	714.921	80.001	19.996	102.931	19.791	1.830	0.524
1272.001	715.125	80.000	19.995	102.931	19.792	1.809	0.522
1272.501	715.430	80.001	19.996	102.932	19.791	1.849	0.498
1273.000	715.684	80.000	19.995	102.932	19.794	1.654	0.534
1273.500	715.945	80.003	19.995	102.931	19.790	1.919	0.537
1274.000	716.218	80.000	19.995	102.932	19.791	1.823	0.525
1274.500	716.449	80.000	19.995	102.932	19.792	1.774	0.519
1275.000	716.712	79.999	19.996	102.932	19.788	2.034	0.499
1275.500	716.970	80.001	19.995	102.931	19.792	1.783	0.507
1276.000	717.235	80.000	19.995	102.931	19.790	1.945	0.522
1276.500	717.511	80.001	19.995	102.930	19.789	1.985	0.532
1277.000	717.727	80.000	19.995	102.930	19.790	1.938	0.517
1277.500	717.966	80.002	19.995	102.930	19.791	1.876	0.473
1278.000	718.218	80.002	19.994	102.930	19.791	1.834	0.473
1278.500	718.509	80.002	19.995	102.930	19.789	2.012	0.517
1279.000	718.759	79.999	19.995	102.930	19.788	2.066	0.542
1279.500	719.030	80.000	19.996	102.929	19.788	2.035	0.531
1280.000	719.265	80.000	19.995	102.930	19.790	1.925	0.514
1280.500	719.505	80.000	19.995	102.930	19.791	1.821	0.491
1281.000	719.750	80.000	19.994	102.930	19.791	1.883	0.480
1281.500	720.002	80.002	19.995	102.930	19.791	1.865	0.491
1282.000	720.260	80.002	19.995	102.930	19.790	1.921	0.503
1282.500	720.532	80.002	19.995	102.929	19.791	1.849	0.520
1283.000	720.774	80.001	19.996	102.929	19.790	1.918	0.522
1283.500	720.988	80.002	19.995	102.929	19.790	1.936	0.485
1284.000	721.277	80.000	19.996	102.928	19.789	1.963	0.480
1284.500	721.505	80.002	19.994	102.929	19.793	1.703	0.510
1285.000	721.790	80.001	19.996	102.930	19.790	1.919	0.515
1285.500	722.023	80.000	19.996	102.930	19.791	1.879	0.515
1286.000	722.288	80.000	19.996	102.930	19.792	1.812	0.508
1286.500	722.535	80.002	19.996	102.930	19.789	1.956	0.505
1287.000	722.789	79.999	19.995	102.932	19.792	1.787	0.506
1287.500	723.023	80.001	19.996	102.932	19.791	1.865	0.495
1288.000	723.267	80.001	19.995	102.932	19.793	1.689	0.484
1288.500	723.548	80.002	19.997	102.930	19.790	1.919	0.501
1289.001	723.792	80.001	19.996	102.930	19.790	1.898	0.524
1289.501	724.030	79.999	19.996	102.930	19.789	1.954	0.503
1290.000	724.274	80.000	19.996	102.929	19.786	2.152	0.482
1290.501	724.556	80.001	19.996	102.929	19.787	2.139	0.504
1291.001	724.791	79.999	19.996	102.931	19.789	1.970	0.522
1291.501	725.057	80.001	19.995	102.932	19.793	1.722	0.509
1292.001	725.293	80.001	19.996	102.931	19.787	2.090	0.501
1292.500	725.555	80.002	19.996	102.931	19.791	1.876	0.500
1293.000	725.788	80.001	19.996	102.931	19.791	1.865	0.497
1293.500	726.016	80.001	19.996	102.930	19.789	1.967	0.478
1294.000	726.258	80.004	19.995	102.929	19.791	1.865	0.465
1294.500	726.583	80.000	19.998	102.929	19.790	1.907	0.519
1295.000	726.826	80.000	19.996	102.929	19.790	1.909	0.568
1295.500	727.066	80.000	19.996	102.928	19.789	1.987	0.526
1296.000	727.307	80.001	19.995	102.928	19.790	1.892	0.482
1296.500	727.579	80.000	19.995	102.929	19.787	2.150	0.497
1297.000	727.815	80.000	19.996	102.929	19.790	1.928	0.511
1297.500	728.045	79.999	19.995	102.930	19.788	2.021	0.487
1298.000	728.275	80.001	19.996	102.930	19.791	1.856	0.463
1298.500	728.595	80.003	19.996	102.930	19.790	1.930	0.505
1299.000	728.853	80.004	19.996	102.930	19.793	1.716	0.564
1299.500	729.076	80.002	19.995	102.930	19.791	1.836	0.530
1300.000	729.345	80.002	19.995	102.930	19.791	1.843	0.486
1300.500	729.617	80.002	19.995	102.930	19.791	1.865	0.516
1301.000	729.878	80.002	19.995	102.931	19.792	1.810	0.536
1301.500	730.129	80.001	19.996	102.931	19.790	1.938	0.522
1302.000	730.378	80.003	19.995	102.931	19.790	1.889	0.506
1302.500	730.616	80.002	19.996	102.931	19.787	2.143	0.494
1303.000	730.862	80.004	19.995	102.932	19.790	1.896	0.486
1303.500	731.112	80.001	19.995	102.934	19.794	1.658	0.490
1304.000	731.359	80.000	19.995	102.934	19.790	1.930	0.496
1304.500	731.645	80.001	19.995	102.933	19.793	1.725	0.515
1305.000	731.924	80.000	19.995	102.934	19.791	1.829	0.549
1305.500	732.131	80.004	19.995	102.934	19.791	1.849	0.525
1306.000	732.392	80.002	19.995	102.933	19.790	1.919	0.477
1306.500	732.632	80.003	19.995	102.933	19.793	1.745	0.485
1307.000	732.892	80.002	19.995	102.933	19.791	1.829	0.501
1307.500	733.186	80.004	19.995	102.933	19.793	1.716	0.527
1308.000	733.414	80.000	19.995	102.934	19.789	1.985	0.538
1308.500	733.683	80.001	19.995	102.934	19.790	1.905	0.509
1309.001	733.928	79.999	19.995	102.933	19.794	1.664	0.505
1309.501	734.154	79.999	19.995	102.933	19.793	1.727	0.492
1310.000	734.424	79.998	19.995	102.933	19.790	1.889	0.483
1310.500	734.656	80.000	19.995	102.931	19.794	1.685	0.499
1311.000	734.900	79.999	19.995	102.930	19.792	1.760	0.489
1311.500	735.198	79.998	19.995	102.931	19.794	1.669	0.508
1312.000	735.411	80.003	19.995	102.930	19.791	1.863	0.526
1312.500	735.672	79.998	19.995	102.931	19.793	1.744	0.493
1313.000	735.916	80.001	19.995	102.932	19.793	1.716	0.490
1313.500	736.188	79.998	19.995	102.932	19.790	1.950	0.511
1314.001	736.436	80.000	19.995	102.933	19.791	1.885	0.518
1314.501	736.723	79.999	19.996	102.934	19.790	1.909	0.527
1315.000	736.918	79.997	19.996	102.933	19.792	1.814	0.509
1315.500	737.178	79.999	19.996	102.933	19.792	1.783	0.469
1316.000	737.426	79.999	19.996	102.934	19.788	2.075	0.482
1316.500	737.695	79.997	19.996	102.934	19.790	1.899	0.512
1317.000	737.943	79.997	19.995	102.934	19.789	2.010	0.516
1317.500	738.200	79.998	19.996	102.933	19.789	1.967	0.511
1318.000	738.462	80.000	19.996	102.934	19.789	1.959	0.513
1318.500	738.743	79.997	19.996	102.933	19.786	2.161	0.531
1319.000	738.985	79.998	19.997	102.931	19.788	2.025	0.532
1319.500	739.210	79.999	19.996	102.931	19.790	1.943	0.495
1320.000	739.437	79.998	19.997	102.931	19.792	1.792	0.460
1320.500	739.739	79.998	19.996	102.930	19.788	2.030	0.490
1321.000	739.957	79.999	19.996	102.930	19.791	1.878	0.524
1321.500	740.237	80.001	19.997	102.931	19.792	1.772	0.509
1322.001	740.493	79.999	19.997	102.932	19.789	1.972	0.517
1322.501	740.763	80.000	19.998	102.934	19.789	2.003	0.531
1323.000	741.026	79.997	19.998	102.936	19.794	1.671	0.530
1323.500	741.285	79.999	19.996	102.938	19.792	1.780	0.527
1324.000	741.507	79.999	19.996	102.938	19.791	1.852	0.501
1324.500	741.764	80.000	19.996	102.939	19.791	1.870	0.480
1325.000	742.004	80.000	19.996	102.937	19.792	1.783	0.488
1325.500	742.344	79.999	19.997	102.936	19.792	1.791	0.539
1326.000	742.536	79.997	19.997	102.935	19.789	1.977	0.557
1326.500	742.787	79.997	19.997	102.935	19.791	1.867	0.488
1327.000	743.009	79.999	19.996	102.933	19.793	1.700	0.457
1327.500	743.283	80.001	19.997	102.933	19.792	1.805	0.484
1328.000	743.525	80.001	19.996	102.933	19.791	1.874	0.506
