Sample ID:	C:\MCC\MCC Cal\Test\Concrete_Block_MCC_30K_min_220224_R3.txt
Sample Weight (mg):	4.86
Heating Rate (C/s):	0.5
Combustor Temp (C):	900
N2 Flow Rate (cc/min):	80
O2 Flow Rate (cc/min):	20
Calibration File:	C:\MCC\MCC Cal\Coeff1 JN10440_30_210304.txt.txt
T Correction Coefficients:	0	1.024463	0
Time Shift (s):	14
*
Time (s)	Temperature (C)	N2 flow rate (cc/min)	O2 flow rate (cc/min)	Flow Rate (cc/min)	Oxygen (%)	HRR (W/g)	Heating rate (C/s)
-0.001	112.959	80.003	19.994	103.746	20.101	0.160	0.018
0.499	112.958	80.003	19.994	103.746	20.102	0.029	-0.002
1.000	112.959	80.003	19.993	103.744	20.095	0.548	-0.008
1.500	112.944	80.003	19.993	103.741	20.100	0.166	-0.007
2.000	112.963	80.002	19.994	103.735	20.100	0.197	-0.005
2.500	112.983	80.004	19.994	103.732	20.100	0.195	0.022
3.000	112.986	80.002	19.993	103.733	20.103	-0.029	0.031
3.500	112.960	80.002	19.993	103.736	20.101	0.107	0.000
4.000	112.954	80.003	19.993	103.737	20.103	0.027	-0.028
4.500	112.944	80.003	19.993	103.743	20.102	0.035	-0.024
5.000	112.954	80.003	19.993	103.745	20.107	-0.258	-0.008
5.500	112.909	80.003	19.994	103.747	20.104	-0.098	-0.017
6.000	112.940	80.000	19.992	103.748	20.102	0.038	-0.024
6.500	112.932	80.004	19.994	103.749	20.106	-0.204	0.004
7.000	112.889	80.004	19.994	103.750	20.106	-0.228	-0.014
7.500	112.927	80.002	19.995	103.752	20.101	0.144	-0.028
8.000	112.917	80.004	19.994	103.751	20.104	-0.087	0.012
8.500	112.951	80.004	19.994	103.753	20.101	0.107	0.026
9.000	112.932	80.003	19.994	103.753	20.100	0.218	0.019
9.500	112.933	80.002	19.994	103.747	20.105	-0.147	-0.002
10.000	112.925	80.002	19.993	103.745	20.101	0.118	-0.012
10.500	112.914	80.003	19.994	103.746	20.102	0.076	-0.012
11.000	112.936	80.005	19.994	103.746	20.100	0.226	-0.004
11.500	112.903	80.004	19.995	103.748	20.099	0.233	-0.000
12.001	112.905	80.005	19.994	103.754	20.102	0.089	-0.021
12.500	112.889	80.003	19.994	103.754	20.096	0.445	-0.022
13.000	112.949	80.003	19.992	103.754	20.096	0.441	0.015
13.500	112.917	80.004	19.992	103.754	20.099	0.253	0.036
14.000	112.918	80.002	19.993	103.754	20.097	0.388	-0.002
14.500	112.928	80.004	19.993	103.752	20.101	0.120	-0.011
15.000	112.922	80.003	19.992	103.752	20.096	0.476	0.007
15.500	112.910	80.004	19.994	103.753	20.095	0.503	-0.007
16.000	112.915	80.003	19.993	103.754	20.094	0.563	-0.013
16.500	112.940	80.004	19.993	103.759	20.094	0.572	0.012
17.000	112.879	80.004	19.993	103.767	20.093	0.693	-0.003
17.500	112.934	80.002	19.993	103.773	20.094	0.572	-0.021
18.000	112.942	80.003	19.995	103.776	20.093	0.673	0.029
18.500	112.970	80.003	19.994	103.783	20.091	0.813	0.049
19.000	112.956	80.004	19.994	103.785	20.090	0.881	0.025
19.500	112.958	80.002	19.994	103.793	20.091	0.804	0.001
20.000	112.948	80.003	19.994	103.803	20.086	1.098	-0.010
20.500	112.987	80.003	19.993	103.817	20.085	1.171	0.011
21.000	112.969	80.003	19.993	103.825	20.085	1.200	0.025
21.500	112.939	80.002	19.993	103.839	20.084	1.253	-0.013
22.000	112.951	80.002	19.994	103.848	20.082	1.404	-0.033
22.500	112.987	80.004	19.994	103.856	20.085	1.209	0.015
23.000	112.990	80.003	19.993	103.868	20.080	1.530	0.043
23.500	113.029	80.002	19.994	103.882	20.076	1.780	0.040
24.000	113.026	80.001	19.994	103.891	20.076	1.823	0.039
24.500	113.044	80.002	19.993	103.899	20.076	1.776	0.026
25.000	113.076	80.001	19.993	103.907	20.077	1.727	0.032
25.500	113.116	80.003	19.994	103.911	20.075	1.833	0.061
26.000	113.140	80.002	19.994	103.912	20.070	2.174	0.068
26.500	113.149	80.001	19.994	103.913	20.071	2.103	0.048
27.000	113.176	80.002	19.994	103.919	20.069	2.287	0.034
27.500	113.225	80.000	19.994	103.923	20.068	2.345	0.056
28.000	113.247	80.003	19.994	103.923	20.070	2.194	0.074
28.500	113.298	80.002	19.994	103.929	20.064	2.603	0.072
29.000	113.319	80.002	19.995	103.936	20.065	2.515	0.072
29.500	113.372	80.002	19.993	103.939	20.062	2.704	0.073
30.000	113.407	80.003	19.994	103.943	20.064	2.617	0.081
30.500	113.474	80.004	19.994	103.949	20.064	2.584	0.095
31.000	113.512	80.004	19.994	103.951	20.064	2.593	0.103
31.500	113.552	80.002	19.995	103.955	20.060	2.838	0.092
32.000	113.610	80.004	19.995	103.954	20.059	2.936	0.088
32.499	113.702	80.002	19.995	103.953	20.062	2.725	0.124
32.999	113.780	80.002	19.994	103.952	20.062	2.712	0.160
33.499	113.789	80.004	19.995	103.954	20.060	2.876	0.129
33.999	113.850	80.001	19.994	103.953	20.060	2.874	0.079
34.499	113.950	80.002	19.994	103.959	20.056	3.135	0.116
34.999	113.982	80.003	19.994	103.965	20.060	2.868	0.147
35.499	114.077	80.002	19.994	103.972	20.058	2.967	0.130
35.999	114.159	80.005	19.994	103.978	20.059	2.952	0.152
36.499	114.243	80.004	19.995	103.981	20.058	2.985	0.171
36.999	114.318	80.004	19.994	103.981	20.057	3.073	0.162
37.499	114.344	80.004	19.993	103.983	20.054	3.285	0.130
37.999	114.473	80.005	19.994	103.983	20.055	3.224	0.128
38.499	114.558	80.005	19.994	103.982	20.054	3.288	0.185
38.999	114.635	80.004	19.994	103.983	20.056	3.159	0.189
39.500	114.699	80.006	19.995	103.983	20.056	3.164	0.152
40.001	114.825	80.003	19.993	103.981	20.056	3.149	0.165
40.500	114.907	80.004	19.994	103.975	20.054	3.270	0.199
40.999	114.981	80.004	19.992	103.974	20.057	3.042	0.182
41.499	115.113	80.004	19.995	103.975	20.056	3.163	0.181
41.999	115.188	80.006	19.994	103.976	20.055	3.170	0.206
42.499	115.271	80.005	19.994	103.977	20.054	3.265	0.182
43.000	115.371	80.005	19.993	103.983	20.057	3.095	0.170
43.501	115.468	80.005	19.993	103.983	20.055	3.177	0.190
44.000	115.590	80.005	19.994	103.982	20.054	3.234	0.208
44.499	115.683	80.005	19.993	103.979	20.057	3.082	0.217
44.999	115.819	80.005	19.993	103.974	20.054	3.279	0.222
45.499	115.869	80.006	19.993	103.968	20.057	3.088	0.208
45.999	116.031	80.005	19.992	103.962	20.054	3.236	0.199
46.499	116.110	80.005	19.993	103.960	20.056	3.144	0.227
46.999	116.253	80.006	19.993	103.959	20.055	3.210	0.232
47.499	116.356	80.006	19.993	103.965	20.054	3.245	0.234
48.000	116.458	80.005	19.992	103.971	20.054	3.257	0.225
48.500	116.603	80.005	19.992	103.979	20.055	3.177	0.226
48.999	116.718	80.005	19.993	103.980	20.055	3.228	0.254
49.499	116.852	80.003	19.993	103.980	20.051	3.447	0.255
49.999	116.961	80.005	19.993	103.977	20.053	3.330	0.246
50.499	117.057	80.005	19.993	103.977	20.052	3.425	0.223
51.000	117.193	80.005	19.992	103.977	20.057	3.091	0.218
51.501	117.330	80.004	19.993	103.978	20.051	3.460	0.253
52.000	117.470	80.005	19.993	103.982	20.048	3.642	0.275
52.500	117.623	80.003	19.992	103.985	20.050	3.566	0.285
53.001	117.695	80.005	19.993	103.986	20.052	3.385	0.259
53.500	117.864	80.005	19.993	103.986	20.052	3.404	0.233
53.999	117.984	80.004	19.992	103.987	20.054	3.263	0.265
54.499	118.154	80.006	19.993	103.987	20.053	3.360	0.290
54.999	118.293	80.005	19.994	103.987	20.053	3.327	0.300
55.499	118.410	80.004	19.994	103.988	20.052	3.371	0.283
55.999	118.539	80.005	19.993	103.988	20.052	3.418	0.250
56.499	118.664	80.005	19.993	103.988	20.052	3.416	0.250
56.999	118.787	80.005	19.993	103.988	20.053	3.347	0.251
57.499	118.982	80.004	19.992	103.988	20.050	3.515	0.283
57.999	119.094	80.006	19.993	103.988	20.051	3.444	0.313
58.499	119.227	80.005	19.993	103.988	20.054	3.280	0.276
58.999	119.393	80.006	19.994	103.987	20.053	3.353	0.272
59.499	119.545	80.006	19.993	103.987	20.056	3.136	0.309
59.999	119.692	80.006	19.992	103.987	20.050	3.554	0.309
60.499	119.802	80.005	19.993	103.988	20.049	3.577	0.278
60.999	120.007	80.006	19.992	103.987	20.050	3.530	0.286
61.499	120.131	80.008	19.993	103.988	20.047	3.703	0.322
61.999	120.276	80.006	19.993	103.988	20.047	3.710	0.299
62.499	120.432	80.007	19.993	103.988	20.054	3.285	0.284
62.999	120.605	80.008	19.993	103.992	20.051	3.484	0.315
63.499	120.758	80.007	19.992	103.993	20.048	3.692	0.328
63.999	120.914	80.008	19.993	103.994	20.049	3.601	0.317
64.499	121.064	80.006	19.993	103.995	20.049	3.579	0.307
64.999	121.255	80.007	19.992	103.994	20.049	3.577	0.324
65.499	121.389	80.007	19.992	103.990	20.052	3.424	0.333
65.999	121.558	80.006	19.993	103.989	20.049	3.594	0.314
66.499	121.717	80.006	19.993	103.989	20.048	3.660	0.316
66.999	121.878	80.008	19.992	103.989	20.051	3.497	0.324
67.499	122.042	80.007	19.993	103.993	20.047	3.756	0.322
67.999	122.187	80.005	19.993	103.996	20.049	3.614	0.317
68.499	122.391	80.006	19.993	103.999	20.045	3.844	0.329
68.999	122.588	80.006	19.992	104.002	20.050	3.552	0.375
69.499	122.756	80.006	19.994	104.008	20.047	3.731	0.383
69.999	122.917	80.007	19.992	104.013	20.046	3.796	0.347
70.499	123.075	80.005	19.992	104.016	20.046	3.783	0.324
70.999	123.280	80.006	19.992	104.014	20.045	3.897	0.341
71.499	123.446	80.004	19.993	104.010	20.046	3.789	0.367
71.999	123.625	80.005	19.992	104.004	20.045	3.895	0.358
72.500	123.790	80.006	19.993	104.000	20.048	3.656	0.344
73.000	123.969	80.004	19.992	103.994	20.045	3.857	0.344
73.499	124.141	80.005	19.993	103.998	20.045	3.879	0.348
73.999	124.305	80.006	19.993	103.999	20.048	3.689	0.344
74.499	124.490	80.004	19.993	104.002	20.047	3.704	0.342
74.999	124.670	80.002	19.993	104.006	20.047	3.742	0.357
75.499	124.827	80.004	19.993	104.011	20.048	3.678	0.351
76.000	125.033	80.003	19.993	104.012	20.047	3.756	0.350
76.501	125.238	80.004	19.995	104.016	20.046	3.784	0.387
77.001	125.424	80.004	19.993	104.015	20.047	3.731	0.401
77.501	125.597	80.004	19.992	104.014	20.045	3.862	0.375
78.000	125.782	80.003	19.994	104.011	20.044	3.955	0.358
78.499	125.964	80.004	19.993	104.008	20.048	3.684	0.362
78.999	126.161	80.003	19.993	104.009	20.046	3.821	0.373
79.499	126.358	80.003	19.993	104.014	20.048	3.664	0.387
79.999	126.561	80.002	19.993	104.010	20.046	3.799	0.397
80.499	126.754	80.003	19.992	104.011	20.047	3.744	0.398
80.999	126.920	80.003	19.994	104.010	20.046	3.793	0.378
81.499	127.112	80.002	19.992	104.008	20.047	3.757	0.359
81.999	127.317	80.003	19.993	104.008	20.045	3.883	0.378
82.499	127.455	80.003	19.992	104.014	20.044	3.954	0.370
82.999	127.672	80.003	19.994	104.016	20.045	3.892	0.349
83.499	127.855	80.004	19.993	104.021	20.044	3.921	0.378
83.999	128.037	80.003	19.992	104.024	20.044	3.913	0.382
84.499	128.269	80.005	19.994	104.024	20.045	3.857	0.389
85.000	128.440	80.004	19.993	104.023	20.041	4.103	0.409
85.500	128.683	80.003	19.993	104.022	20.045	3.851	0.409
85.999	128.877	80.004	19.994	104.021	20.044	3.957	0.426
86.499	129.103	80.005	19.992	104.017	20.043	4.001	0.428
86.999	129.285	80.004	19.993	104.013	20.046	3.787	0.414
87.500	129.469	80.004	19.993	104.014	20.044	3.933	0.387
88.000	129.697	80.004	19.992	104.012	20.043	4.012	0.389
88.499	129.858	80.004	19.993	104.015	20.042	4.067	0.401
88.999	130.090	80.003	19.993	104.020	20.046	3.795	0.391
89.499	130.280	80.004	19.994	104.026	20.040	4.174	0.407
89.999	130.512	80.003	19.994	104.027	20.042	4.096	0.421
90.499	130.724	80.003	19.992	104.030	20.044	3.966	0.433
90.999	130.949	80.004	19.993	104.030	20.044	3.910	0.441
91.499	131.170	80.004	19.993	104.030	20.040	4.198	0.442
92.000	131.368	80.003	19.992	104.028	20.041	4.114	0.432
92.500	131.574	80.004	19.994	104.028	20.043	4.012	0.411
92.999	131.807	80.003	19.993	104.029	20.043	4.007	0.421
93.499	131.988	80.003	19.994	104.028	20.043	4.028	0.427
93.999	132.200	80.004	19.993	104.024	20.041	4.116	0.403
94.499	132.415	80.005	19.993	104.023	20.039	4.296	0.410
94.999	132.665	80.003	19.994	104.018	20.043	4.003	0.446
95.499	132.874	80.004	19.994	104.014	20.045	3.842	0.463
95.999	133.060	80.004	19.995	104.010	20.045	3.884	0.427
96.499	133.298	80.003	19.994	104.009	20.042	4.046	0.409
96.999	133.517	80.004	19.994	104.009	20.042	4.037	0.440
97.500	133.743	80.002	19.994	104.008	20.043	4.006	0.451
98.000	133.973	80.002	19.994	104.008	20.047	3.735	0.451
98.499	134.184	80.003	19.993	104.012	20.042	4.045	0.449
99.000	134.419	80.004	19.993	104.016	20.044	3.926	0.443
99.500	134.632	80.004	19.993	104.017	20.046	3.797	0.446
99.999	134.874	80.003	19.994	104.018	20.041	4.121	0.451
100.499	135.112	80.005	19.992	104.020	20.049	3.609	0.468
100.999	135.301	80.002	19.993	104.019	20.046	3.833	0.453
101.499	135.523	80.004	19.995	104.017	20.047	3.724	0.419
101.999	135.740	80.003	19.994	104.018	20.046	3.782	0.425
102.499	135.979	80.003	19.993	104.022	20.044	3.917	0.448
102.999	136.218	80.003	19.993	104.023	20.043	3.975	0.467
103.499	136.382	80.005	19.995	104.024	20.043	4.012	0.440
103.999	136.663	80.002	19.994	104.025	20.046	3.789	0.424
104.499	136.874	80.003	19.994	104.022	20.044	3.957	0.468
104.999	137.104	80.004	19.995	104.018	20.042	4.101	0.467
105.499	137.316	80.003	19.993	104.017	20.046	3.783	0.442
105.999	137.548	80.003	19.993	104.016	20.041	4.125	0.443
106.499	137.799	80.002	19.993	104.014	20.042	4.096	0.463
106.999	138.000	80.005	19.994	104.014	20.046	3.798	0.468
107.500	138.227	80.003	19.995	104.017	20.046	3.777	0.440
108.000	138.515	80.004	19.993	104.016	20.045	3.871	0.471
108.499	138.741	80.004	19.993	104.016	20.046	3.787	0.514
108.999	138.941	80.002	19.993	104.018	20.045	3.873	0.470
109.500	139.196	80.003	19.993	104.021	20.045	3.891	0.440
110.000	139.467	80.002	19.994	104.022	20.044	3.909	0.490
110.499	139.695	80.003	19.994	104.022	20.050	3.526	0.513
110.999	139.922	80.003	19.993	104.022	20.046	3.780	0.478
111.499	140.153	80.003	19.994	104.021	20.047	3.729	0.457
111.999	140.382	80.002	19.993	104.020	20.042	4.043	0.459
112.499	140.616	80.003	19.994	104.018	20.046	3.802	0.461
112.999	140.880	80.003	19.993	104.020	20.045	3.886	0.481
113.499	141.085	80.002	19.994	104.021	20.039	4.278	0.484
113.999	141.337	80.003	19.994	104.020	20.046	3.785	0.463
114.499	141.590	80.004	19.993	104.017	20.044	3.906	0.481
115.000	141.821	80.003	19.994	104.017	20.042	4.097	0.495
115.500	142.049	80.003	19.993	104.010	20.045	3.858	0.471
115.999	142.258	80.003	19.994	104.006	20.043	3.995	0.448
116.499	142.539	80.003	19.994	104.008	20.044	3.926	0.463
116.999	142.755	80.004	19.993	104.010	20.049	3.627	0.493
117.499	143.016	80.003	19.993	104.013	20.045	3.880	0.487
117.999	143.271	80.005	19.993	104.021	20.048	3.647	0.496
118.499	143.488	80.004	19.993	104.025	20.045	3.855	0.494
118.999	143.704	80.004	19.995	104.020	20.046	3.786	0.452
119.499	143.954	80.006	19.995	104.017	20.044	3.917	0.449
119.999	144.201	80.004	19.993	104.013	20.046	3.814	0.482
120.499	144.451	80.004	19.994	104.011	20.046	3.776	0.497
120.999	144.698	80.003	19.994	104.009	20.049	3.625	0.497
121.499	144.959	80.004	19.994	104.014	20.045	3.884	0.503
121.999	145.214	80.004	19.994	104.019	20.050	3.550	0.512
122.500	145.455	80.005	19.994	104.020	20.049	3.572	0.506
123.001	145.715	80.005	19.993	104.019	20.048	3.647	0.498
123.500	145.934	80.006	19.995	104.020	20.047	3.713	0.490
123.999	146.183	80.005	19.993	104.019	20.046	3.769	0.474
124.499	146.430	80.005	19.993	104.015	20.044	3.922	0.482
124.999	146.665	80.005	19.994	104.013	20.044	3.917	0.489
125.499	146.907	80.004	19.994	104.011	20.042	4.050	0.479
125.999	147.109	80.005	19.995	104.004	20.046	3.829	0.460
126.499	147.387	80.004	19.994	104.001	20.046	3.813	0.462
127.000	147.620	80.005	19.995	104.002	20.045	3.847	0.496
127.500	147.855	80.002	19.994	104.007	20.047	3.732	0.490
127.999	148.147	80.006	19.994	104.009	20.048	3.637	0.497
128.500	148.375	80.004	19.995	104.018	20.050	3.531	0.523
129.000	148.602	80.004	19.993	104.019	20.050	3.528	0.488
129.500	148.881	80.004	19.994	104.020	20.046	3.810	0.481
130.000	149.125	80.003	19.994	104.016	20.043	4.024	0.514
130.500	149.373	80.005	19.994	104.011	20.049	3.630	0.507
131.000	149.634	80.004	19.994	104.004	20.047	3.734	0.501
131.500	149.890	80.006	19.994	104.004	20.045	3.836	0.513
132.000	150.088	80.003	19.995	104.006	20.048	3.654	0.485
132.500	150.397	80.006	19.994	104.009	20.045	3.883	0.480
133.000	150.630	80.004	19.994	104.014	20.048	3.637	0.525
133.500	150.859	80.004	19.993	104.019	20.045	3.880	0.503
134.000	151.143	80.005	19.994	104.020	20.046	3.794	0.487
134.500	151.396	80.003	19.994	104.017	20.046	3.812	0.525
135.000	151.649	80.003	19.995	104.013	20.047	3.714	0.521
135.500	151.856	80.004	19.995	104.011	20.045	3.851	0.483
136.000	152.126	80.005	19.995	104.009	20.047	3.714	0.468
136.500	152.384	80.004	19.994	104.010	20.047	3.761	0.503
137.000	152.610	80.005	19.992	104.010	20.046	3.792	0.507
137.500	152.898	80.005	19.992	104.007	20.045	3.889	0.499
138.000	153.115	80.004	19.993	104.004	20.046	3.812	0.509
138.500	153.345	80.003	19.992	104.001	20.045	3.865	0.475
139.000	153.597	80.005	19.993	103.995	20.043	3.989	0.464
139.500	153.871	80.004	19.994	103.991	20.044	3.914	0.504
140.000	154.096	80.005	19.993	103.993	20.044	3.942	0.513
140.500	154.349	80.005	19.993	103.993	20.044	3.944	0.488
141.000	154.598	80.005	19.993	103.996	20.046	3.780	0.490
141.500	154.853	80.003	19.994	104.000	20.044	3.955	0.504
142.000	155.117	80.004	19.992	104.001	20.043	3.971	0.512
142.500	155.347	80.007	19.993	103.999	20.044	3.933	0.506
143.000	155.592	80.006	19.994	104.000	20.044	3.947	0.484
143.500	155.844	80.005	19.993	103.997	20.044	3.964	0.486
144.000	156.099	80.006	19.992	103.996	20.045	3.849	0.502
144.500	156.341	80.006	19.993	103.996	20.043	3.980	0.502
145.000	156.598	80.006	19.993	103.996	20.045	3.849	0.498
145.500	156.873	80.006	19.993	103.998	20.047	3.754	0.515
146.000	157.061	80.006	19.994	104.001	20.048	3.698	0.497
146.500	157.337	80.007	19.994	104.001	20.045	3.882	0.464
147.000	157.596	80.006	19.992	104.003	20.044	3.913	0.500
147.500	157.871	80.006	19.993	104.003	20.045	3.849	0.535
148.000	158.123	80.007	19.992	104.001	20.049	3.606	0.530
148.500	158.312	80.006	19.992	103.997	20.048	3.657	0.484
149.000	158.587	80.006	19.992	103.994	20.046	3.787	0.452
149.500	158.877	80.005	19.994	103.991	20.046	3.768	0.514
150.000	159.100	80.006	19.992	103.993	20.046	3.831	0.539
150.500	159.338	80.007	19.993	103.995	20.048	3.699	0.487
151.000	159.595	80.006	19.994	103.999	20.042	4.049	0.478
151.500	159.832	80.006	19.992	104.001	20.046	3.781	0.494
152.000	160.078	80.007	19.992	104.001	20.046	3.785	0.488
152.500	160.358	80.006	19.992	104.000	20.043	3.978	0.505
153.000	160.628	80.006	19.992	103.998	20.044	3.929	0.539
153.500	160.847	80.006	19.993	103.995	20.047	3.719	0.520
154.000	161.127	80.005	19.993	103.994	20.049	3.626	0.494
154.500	161.366	80.005	19.993	103.994	20.046	3.788	0.509
155.000	161.594	80.006	19.993	103.997	20.047	3.723	0.493
155.500	161.871	80.005	19.993	104.002	20.046	3.779	0.486
156.000	162.128	80.005	19.994	104.005	20.050	3.564	0.520
156.500	162.367	80.005	19.992	104.005	20.047	3.710	0.515
157.000	162.599	80.005	19.993	104.006	20.048	3.648	0.483
157.500	162.872	80.004	19.992	104.001	20.047	3.717	0.488
158.000	163.088	80.005	19.994	103.996	20.041	4.146	0.497
158.500	163.356	80.004	19.993	103.994	20.048	3.653	0.487
159.000	163.614	80.005	19.992	103.992	20.047	3.748	0.505
159.500	163.882	80.004	19.992	103.997	20.044	3.934	0.526
160.000	164.134	80.004	19.993	103.997	20.047	3.728	0.523
160.500	164.407	80.005	19.992	103.997	20.048	3.651	0.523
161.000	164.621	80.003	19.992	103.999	20.050	3.562	0.506
161.500	164.920	80.004	19.995	103.998	20.048	3.650	0.500
162.000	165.162	80.003	19.993	103.993	20.049	3.620	0.527
162.500	165.414	80.005	19.994	103.993	20.045	3.861	0.518
163.000	165.676	80.005	19.993	103.993	20.048	3.662	0.504
163.500	165.928	80.005	19.993	103.989	20.045	3.899	0.514
164.000	166.222	80.005	19.994	103.989	20.051	3.485	0.530
164.500	166.431	80.005	19.993	103.989	20.048	3.666	0.524
165.000	166.678	80.005	19.992	103.989	20.046	3.772	0.480
165.500	166.963	80.003	19.994	103.988	20.047	3.735	0.494
166.000	167.192	80.006	19.993	103.990	20.051	3.440	0.523
166.500	167.461	80.004	19.992	103.990	20.049	3.626	0.505
167.000	167.712	80.005	19.993	103.990	20.049	3.611	0.509
167.500	167.975	80.002	19.992	103.992	20.051	3.453	0.517
168.000	168.206	80.004	19.993	103.995	20.049	3.571	0.504
168.500	168.475	80.004	19.992	103.994	20.050	3.564	0.497
169.000	168.739	80.005	19.993	103.994	20.049	3.569	0.517
169.500	168.984	80.003	19.993	103.994	20.047	3.715	0.521
170.000	169.249	80.004	19.991	103.991	20.048	3.695	0.509
170.500	169.487	80.003	19.993	103.989	20.047	3.708	0.506
171.000	169.763	80.005	19.993	103.990	20.049	3.591	0.508
171.500	170.005	80.004	19.992	103.989	20.047	3.708	0.516
172.000	170.208	80.004	19.994	103.989	20.048	3.657	0.482
172.500	170.470	80.004	19.993	103.989	20.046	3.795	0.455
173.000	170.768	80.004	19.992	103.988	20.044	3.918	0.512
173.500	171.023	80.004	19.994	103.988	20.049	3.578	0.556
174.000	171.248	80.006	19.994	103.988	20.046	3.774	0.517
174.500	171.514	80.006	19.994	103.987	20.046	3.777	0.486
175.000	171.768	80.005	19.992	103.988	20.048	3.646	0.505
175.500	171.992	80.006	19.993	103.988	20.052	3.380	0.498
176.000	172.258	80.005	19.992	103.987	20.048	3.691	0.484
176.500	172.533	80.007	19.993	103.986	20.050	3.558	0.516
177.000	172.753	80.005	19.994	103.986	20.046	3.777	0.518
177.500	173.044	80.004	19.992	103.986	20.048	3.646	0.503
178.000	173.299	80.004	19.993	103.986	20.046	3.768	0.528
178.500	173.567	80.007	19.993	103.987	20.046	3.785	0.534
179.000	173.771	80.005	19.993	103.988	20.047	3.721	0.498
179.500	174.029	80.004	19.993	103.987	20.050	3.513	0.467
180.000	174.294	80.005	19.994	103.985	20.047	3.711	0.492
180.500	174.572	80.006	19.993	103.984	20.051	3.458	0.533
181.000	174.829	80.005	19.992	103.983	20.047	3.708	0.539
181.500	175.088	80.006	19.993	103.983	20.049	3.602	0.525
182.000	175.316	80.005	19.994	103.984	20.049	3.627	0.501
182.500	175.566	80.004	19.994	103.987	20.049	3.631	0.483
183.000	175.794	80.004	19.993	103.988	20.049	3.569	0.478
183.500	176.047	80.003	19.994	103.988	20.047	3.764	0.479
184.000	176.339	80.003	19.994	103.988	20.050	3.555	0.513
184.500	176.570	80.004	19.994	103.988	20.046	3.783	0.534
185.000	176.802	80.004	19.993	103.987	20.050	3.527	0.493
185.500	177.076	80.004	19.993	103.986	20.045	3.855	0.485
186.000	177.292	80.002	19.994	103.986	20.051	3.498	0.498
186.500	177.573	80.004	19.993	103.986	20.052	3.423	0.493
187.000	177.795	80.003	19.993	103.985	20.049	3.627	0.500
187.500	178.035	80.005	19.994	103.987	20.050	3.563	0.483
188.000	178.323	80.003	19.993	103.988	20.051	3.441	0.495
188.500	178.574	80.004	19.993	103.988	20.049	3.571	0.533
189.000	178.837	80.004	19.994	103.989	20.050	3.512	0.526
189.500	179.070	80.004	19.993	103.988	20.046	3.773	0.505
190.000	179.323	80.003	19.995	103.988	20.048	3.667	0.491
190.500	179.596	80.005	19.994	103.986	20.049	3.578	0.506
191.000	179.868	80.004	19.994	103.982	20.052	3.421	0.536
191.500	180.079	80.002	19.994	103.980	20.050	3.519	0.515
192.000	180.327	80.004	19.993	103.977	20.051	3.441	0.471
192.500	180.574	80.006	19.994	103.976	20.051	3.494	0.477
193.000	180.848	80.006	19.994	103.977	20.049	3.631	0.508
193.500	181.056	80.004	19.995	103.981	20.049	3.625	0.501
194.000	181.337	80.004	19.994	103.983	20.047	3.760	0.485
194.500	181.580	80.002	19.994	103.986	20.048	3.686	0.507
195.000	181.821	80.006	19.994	103.986	20.050	3.534	0.505
195.500	182.102	80.005	19.994	103.986	20.049	3.587	0.503
196.000	182.373	80.002	19.992	103.984	20.049	3.600	0.537
196.500	182.584	80.002	19.993	103.982	20.047	3.718	0.517
197.000	182.847	80.001	19.994	103.981	20.053	3.352	0.478
197.500	183.093	80.003	19.994	103.982	20.051	3.465	0.491
198.000	183.350	80.006	19.993	103.978	20.049	3.623	0.506
198.500	183.568	80.005	19.994	103.976	20.049	3.599	0.489
199.000	183.838	80.008	19.994	103.976	20.049	3.583	0.482
199.500	184.095	80.006	19.993	103.975	20.049	3.621	0.507
200.000	184.337	80.004	19.993	103.974	20.054	3.260	0.513
200.500	184.600	80.008	19.993	103.974	20.053	3.326	0.502
201.000	184.852	80.005	19.993	103.975	20.051	3.455	0.510
201.500	185.098	80.004	19.995	103.970	20.048	3.645	0.507
202.000	185.347	80.006	19.994	103.966	20.048	3.636	0.497
202.500	185.634	80.007	19.992	103.960	20.050	3.543	0.516
203.000	185.880	80.005	19.993	103.961	20.047	3.733	0.535
203.500	186.108	80.006	19.993	103.966	20.049	3.601	0.503
204.000	186.356	80.006	19.993	103.968	20.048	3.654	0.475
204.500	186.628	80.006	19.992	103.973	20.050	3.527	0.499
205.000	186.858	80.006	19.994	103.974	20.048	3.674	0.511
205.500	187.134	80.004	19.993	103.973	20.051	3.446	0.504
206.000	187.377	80.006	19.994	103.967	20.053	3.333	0.513
206.500	187.632	80.005	19.994	103.967	20.047	3.760	0.509
207.000	187.889	80.004	19.993	103.967	20.051	3.445	0.505
207.500	188.124	80.006	19.993	103.970	20.052	3.386	0.501
208.000	188.378	80.004	19.993	103.969	20.050	3.561	0.490
208.500	188.599	80.006	19.993	103.973	20.051	3.433	0.483
209.000	188.838	80.005	19.993	103.970	20.054	3.236	0.468
209.500	189.124	80.005	19.992	103.964	20.052	3.377	0.492
210.000	189.343	80.007	19.992	103.960	20.053	3.357	0.515
210.500	189.601	80.004	19.993	103.957	20.052	3.406	0.491
211.000	189.838	80.007	19.993	103.954	20.053	3.304	0.486
211.500	190.134	80.004	19.994	103.958	20.053	3.331	0.514
212.000	190.354	80.005	19.993	103.957	20.055	3.191	0.525
212.500	190.596	80.004	19.994	103.960	20.048	3.665	0.489
213.000	190.834	80.005	19.993	103.960	20.052	3.377	0.471
213.500	191.092	80.005	19.994	103.962	20.055	3.216	0.488
214.000	191.360	80.003	19.994	103.962	20.053	3.358	0.511
214.500	191.610	80.005	19.994	103.966	20.052	3.397	0.522
215.000	191.836	80.003	19.993	103.963	20.052	3.393	0.497
215.500	192.094	80.004	19.993	103.964	20.054	3.258	0.480
216.000	192.350	80.002	19.992	103.965	20.050	3.533	0.499
216.500	192.559	80.004	19.994	103.964	20.051	3.486	0.490
217.000	192.819	80.003	19.993	103.964	20.052	3.398	0.467
217.500	193.083	80.000	19.994	103.965	20.050	3.517	0.496
218.000	193.301	80.003	19.994	103.965	20.050	3.557	0.503
218.500	193.570	80.004	19.994	103.963	20.048	3.641	0.484
219.000	193.785	80.003	19.993	103.960	20.052	3.415	0.486
219.500	194.053	80.004	19.994	103.956	20.054	3.262	0.484
220.000	194.276	80.006	19.994	103.956	20.053	3.364	0.486
220.500	194.568	80.005	19.992	103.955	20.051	3.484	0.503
221.000	194.801	80.002	19.993	103.956	20.052	3.398	0.520
221.500	195.030	80.002	19.995	103.956	20.055	3.229	0.494
222.000	195.294	80.002	19.995	103.959	20.050	3.524	0.478
222.500	195.536	80.005	19.994	103.958	20.054	3.260	0.500
223.000	195.795	80.002	19.994	103.958	20.053	3.364	0.503
223.500	196.005	80.004	19.994	103.958	20.052	3.406	0.485
224.000	196.305	80.004	19.994	103.957	20.053	3.364	0.490
224.500	196.522	80.006	19.994	103.954	20.049	3.607	0.513
225.000	196.743	80.004	19.995	103.953	20.051	3.435	0.478
225.500	197.010	80.006	19.995	103.954	20.049	3.601	0.463
226.000	197.267	80.004	19.995	103.953	20.054	3.273	0.505
226.500	197.488	79.999	19.995	103.952	20.052	3.408	0.501
227.000	197.744	80.007	19.993	103.951	20.049	3.630	0.478
227.500	197.983	79.996	19.994	103.950	20.050	3.502	0.486
228.000	198.229	80.008	19.993	103.948	20.048	3.672	0.490
228.500	198.478	80.008	19.995	103.949	20.048	3.690	0.490
229.000	198.717	80.006	19.993	103.947	20.048	3.652	0.491
229.500	198.989	80.005	19.993	103.947	20.051	3.450	0.500
230.000	199.195	80.007	19.993	103.947	20.047	3.719	0.495
230.500	199.453	80.006	19.994	103.948	20.048	3.645	0.470
231.000	199.710	80.003	19.993	103.946	20.048	3.668	0.490
231.500	199.955	80.006	19.993	103.947	20.052	3.371	0.509
232.000	200.165	80.004	19.993	103.947	20.052	3.406	0.478
232.500	200.407	80.006	19.993	103.948	20.050	3.561	0.453
233.000	200.689	80.005	19.993	103.949	20.048	3.667	0.488
233.500	200.923	80.005	19.993	103.953	20.050	3.550	0.521
234.000	201.139	80.009	19.993	103.956	20.050	3.541	0.483
234.500	201.411	80.007	19.993	103.958	20.051	3.440	0.469
235.000	201.611	80.007	19.992	103.958	20.052	3.382	0.480
235.500	201.915	80.008	19.992	103.956	20.053	3.326	0.488
236.000	202.129	80.007	19.992	103.953	20.054	3.262	0.511
236.500	202.372	80.007	19.992	103.951	20.049	3.614	0.487
237.000	202.593	80.005	19.992	103.949	20.051	3.495	0.460
237.500	202.858	80.005	19.992	103.948	20.052	3.417	0.475
238.000	203.107	80.006	19.992	103.948	20.048	3.687	0.500
238.500	203.373	80.009	19.992	103.948	20.053	3.351	0.515
239.000	203.580	80.002	19.993	103.949	20.052	3.393	0.495
239.500	203.837	80.007	19.992	103.948	20.051	3.471	0.469
240.000	204.080	80.004	19.993	103.951	20.050	3.504	0.482
240.500	204.337	80.003	19.993	103.952	20.052	3.428	0.500
241.000	204.550	80.005	19.994	103.951	20.049	3.594	0.485
241.500	204.786	80.003	19.995	103.950	20.051	3.455	0.460
242.000	205.045	80.005	19.993	103.951	20.051	3.442	0.472
242.500	205.269	80.005	19.993	103.949	20.052	3.393	0.489
243.000	205.515	80.005	19.994	103.948	20.052	3.389	0.476
243.500	205.777	80.002	19.993	103.949	20.052	3.417	0.489
244.000	206.037	80.004	19.993	103.952	20.051	3.459	0.515
244.500	206.271	80.002	19.993	103.952	20.047	3.701	0.508
245.000	206.528	80.003	19.993	103.951	20.048	3.694	0.493
245.500	206.753	80.004	19.993	103.952	20.048	3.690	0.487
246.000	207.014	80.005	19.994	103.954	20.054	3.278	0.484
246.500	207.225	80.002	19.994	103.952	20.051	3.493	0.479
247.000	207.532	80.004	19.994	103.952	20.051	3.455	0.495
247.500	207.773	80.004	19.992	103.953	20.050	3.528	0.532
248.000	208.015	80.003	19.993	103.954	20.048	3.632	0.515
248.500	208.241	80.002	19.994	103.953	20.048	3.650	0.476
249.000	208.513	80.004	19.994	103.952	20.049	3.626	0.483
249.500	208.748	80.003	19.994	103.952	20.048	3.694	0.502
250.000	209.005	80.004	19.994	103.952	20.049	3.577	0.500
250.500	209.273	80.003	19.994	103.950	20.047	3.752	0.509
251.000	209.525	80.004	19.993	103.950	20.052	3.371	0.522
251.500	209.736	80.002	19.993	103.950	20.048	3.647	0.492
252.000	210.001	80.004	19.993	103.949	20.051	3.442	0.470
252.500	210.239	80.006	19.993	103.949	20.051	3.452	0.489
253.000	210.514	80.006	19.994	103.949	20.049	3.627	0.507
253.500	210.749	80.004	19.994	103.949	20.047	3.738	0.511
254.000	210.986	80.004	19.993	103.949	20.049	3.605	0.491
254.500	211.229	80.002	19.993	103.950	20.051	3.468	0.476
255.000	211.430	80.003	19.993	103.951	20.046	3.803	0.462
255.500	211.685	80.002	19.994	103.955	20.048	3.676	0.450
256.000	211.992	80.004	19.993	103.955	20.052	3.371	0.509
256.500	212.205	80.005	19.994	103.955	20.050	3.537	0.541
257.000	212.448	80.005	19.994	103.955	20.051	3.470	0.488
257.500	212.699	80.004	19.992	103.954	20.049	3.585	0.475
258.000	212.942	80.003	19.994	103.952	20.049	3.596	0.494
258.500	213.181	80.006	19.993	103.952	20.052	3.417	0.488
259.000	213.463	79.996	19.994	103.953	20.053	3.329	0.502
259.500	213.694	80.004	19.993	103.952	20.048	3.652	0.517
260.000	213.950	80.005	19.994	103.952	20.051	3.484	0.500
260.500	214.199	80.002	19.993	103.950	20.054	3.293	0.496
261.000	214.437	80.005	19.993	103.950	20.053	3.333	0.496
261.500	214.661	80.004	19.994	103.949	20.049	3.596	0.475
262.000	214.924	80.002	19.993	103.952	20.044	3.916	0.475
262.500	215.143	80.004	19.992	103.955	20.051	3.475	0.484
263.000	215.385	80.003	19.993	103.956	20.053	3.364	0.471
263.500	215.643	80.006	19.993	103.956	20.053	3.307	0.480
264.000	215.859	80.006	19.993	103.957	20.049	3.626	0.487
264.500	216.148	80.007	19.992	103.956	20.052	3.375	0.490
265.000	216.352	80.002	19.993	103.953	20.050	3.523	0.499
265.500	216.613	80.001	19.993	103.952	20.049	3.583	0.479
266.000	216.875	80.003	19.995	103.952	20.048	3.698	0.494
266.500	217.131	80.007	19.993	103.949	20.054	3.282	0.520
267.000	217.376	80.001	19.993	103.950	20.052	3.373	0.510
267.500	217.623	80.006	19.992	103.949	20.051	3.442	0.497
268.000	217.890	80.005	19.992	103.951	20.050	3.530	0.503
268.500	218.083	79.998	19.994	103.952	20.052	3.370	0.487
269.000	218.382	79.999	19.992	103.955	20.048	3.647	0.476
269.500	218.604	80.007	19.992	103.954	20.050	3.543	0.507
270.000	218.822	80.014	19.992	103.955	20.048	3.694	0.481
270.500	219.153	80.016	19.991	103.954	20.050	3.554	0.495
271.000	219.364	79.999	19.994	103.955	20.051	3.493	0.545
271.500	219.628	80.001	19.994	103.955	20.050	3.532	0.508
272.000	219.870	80.001	19.992	103.954	20.047	3.725	0.490
272.500	220.067	80.003	19.993	103.955	20.051	3.466	0.472
273.000	220.311	80.000	19.994	103.955	20.050	3.537	0.440
273.500	220.605	80.005	19.993	103.952	20.047	3.736	0.489
274.000	220.822	80.007	19.993	103.954	20.048	3.637	0.524
274.500	221.091	80.010	19.993	103.954	20.049	3.595	0.498
275.000	221.344	80.007	19.992	103.953	20.043	3.989	0.504
275.500	221.573	79.998	19.995	103.954	20.052	3.406	0.503
276.000	221.841	80.001	19.994	103.953	20.051	3.468	0.490
276.500	222.080	80.002	19.993	103.951	20.049	3.614	0.502
277.000	222.329	80.007	19.993	103.955	20.053	3.357	0.497
277.500	222.579	80.005	19.994	103.958	20.048	3.676	0.493
278.000	222.846	80.005	19.993	103.958	20.049	3.575	0.508
278.500	223.053	80.000	19.994	103.958	20.046	3.816	0.496
279.000	223.288	80.005	19.992	103.960	20.044	3.944	0.458
279.500	223.551	80.005	19.993	103.958	20.049	3.573	0.470
280.000	223.782	80.000	19.993	103.953	20.049	3.595	0.496
280.500	224.033	80.003	19.993	103.953	20.051	3.442	0.488
281.000	224.266	80.007	19.991	103.955	20.051	3.497	0.483
281.500	224.551	80.005	19.994	103.956	20.051	3.480	0.501
282.000	224.802	80.004	19.994	103.954	20.047	3.734	0.527
282.500	225.042	80.004	19.994	103.954	20.049	3.586	0.514
283.000	225.295	80.005	19.994	103.953	20.050	3.508	0.492
283.500	225.522	80.005	19.995	103.953	20.050	3.510	0.487
284.000	225.776	80.004	19.995	103.953	20.052	3.369	0.481
284.500	226.040	80.005	19.994	103.952	20.047	3.716	0.499
285.000	226.292	80.008	19.994	103.952	20.045	3.834	0.517
285.500	226.545	80.002	19.995	103.953	20.049	3.586	0.510
286.000	226.789	80.007	19.993	103.953	20.052	3.402	0.501
286.500	227.042	80.003	19.995	103.953	20.052	3.431	0.497
287.000	227.287	80.004	19.994	103.952	20.048	3.672	0.498
287.500	227.543	80.012	19.993	103.952	20.051	3.462	0.500
288.000	227.790	80.004	19.993	103.953	20.050	3.548	0.502
288.500	228.028	80.002	19.994	103.953	20.047	3.717	0.494
289.000	228.297	79.997	19.993	103.952	20.051	3.495	0.496
289.500	228.574	80.004	19.993	103.953	20.052	3.386	0.527
290.000	228.773	80.005	19.994	103.953	20.047	3.748	0.511
290.500	229.057	80.012	19.993	103.947	20.052	3.396	0.479
291.000	229.296	80.004	19.994	103.945	20.045	3.865	0.503
291.500	229.554	80.007	19.994	103.942	20.044	3.920	0.510
292.000	229.787	80.004	19.993	103.941	20.049	3.595	0.494
292.500	230.051	80.004	19.995	103.940	20.044	3.956	0.494
293.000	230.301	80.004	19.993	103.944	20.047	3.721	0.506
293.500	230.564	80.008	19.993	103.945	20.046	3.778	0.514
294.000	230.810	80.005	19.994	103.948	20.047	3.723	0.511
294.500	231.078	80.004	19.994	103.948	20.053	3.349	0.512
295.000	231.325	80.005	19.993	103.950	20.046	3.772	0.514
295.500	231.535	80.006	19.994	103.951	20.053	3.364	0.486
296.000	231.845	80.002	19.993	103.950	20.048	3.681	0.488
296.500	232.076	80.000	19.994	103.950	20.047	3.752	0.531
297.000	232.305	80.008	19.994	103.949	20.048	3.652	0.501
297.500	232.551	80.007	19.992	103.949	20.048	3.681	0.467
298.000	232.800	80.006	19.994	103.949	20.050	3.552	0.485
298.500	233.050	80.003	19.993	103.949	20.051	3.486	0.497
299.000	233.312	80.000	19.995	103.947	20.046	3.785	0.505
299.500	233.583	80.018	19.991	103.946	20.044	3.901	0.523
300.000	233.787	80.000	19.994	103.949	20.051	3.438	0.504
300.500	234.059	79.986	19.995	103.947	20.050	3.520	0.475
301.000	234.313	79.997	19.995	103.946	20.051	3.436	0.500
301.500	234.557	80.009	19.994	103.944	20.048	3.692	0.512
302.000	234.809	79.991	19.994	103.945	20.051	3.449	0.498
302.500	235.100	80.007	19.994	103.942	20.052	3.396	0.520
303.000	235.370	80.006	19.992	103.944	20.050	3.553	0.552
303.500	235.566	80.008	19.992	103.945	20.051	3.485	0.513
304.000	235.810	80.006	19.994	103.949	20.053	3.342	0.453
304.500	236.066	80.002	19.993	103.950	20.051	3.458	0.470
305.000	236.300	80.004	19.992	103.950	20.053	3.342	0.495
305.500	236.545	80.007	19.994	103.950	20.053	3.304	0.485
306.000	236.815	80.008	19.993	103.949	20.052	3.377	0.497
306.500	237.064	80.012	19.992	103.947	20.050	3.511	0.518
307.000	237.329	80.008	19.994	103.950	20.054	3.260	0.517
307.500	237.556	80.004	19.993	103.950	20.051	3.482	0.503
308.000	237.802	80.006	19.994	103.950	20.048	3.652	0.482
308.500	238.067	80.005	19.994	103.948	20.048	3.639	0.492
309.000	238.343	80.009	19.994	103.948	20.049	3.599	0.526
309.500	238.609	80.015	19.993	103.942	20.051	3.473	0.542
310.000	238.829	80.007	19.993	103.941	20.050	3.515	0.514
310.500	239.085	80.005	19.993	103.939	20.051	3.480	0.481
311.000	239.337	80.005	19.992	103.941	20.051	3.448	0.492
311.500	239.549	80.010	19.993	103.943	20.053	3.342	0.486
312.000	239.779	80.005	19.994	103.941	20.050	3.522	0.453
312.500	240.040	80.004	19.993	103.939	20.052	3.411	0.466
313.000	240.276	80.005	19.996	103.937	20.050	3.546	0.494
313.500	240.570	79.996	19.996	103.933	20.053	3.327	0.514
314.000	240.837	80.007	19.993	103.929	20.050	3.508	0.546
314.500	241.054	80.011	19.993	103.935	20.049	3.630	0.522
315.000	241.284	80.007	19.994	103.937	20.051	3.479	0.465
315.500	241.578	80.008	19.992	103.939	20.050	3.522	0.485
316.000	241.890	80.016	19.993	103.943	20.053	3.325	0.565
316.500	242.135	80.007	19.992	103.947	20.053	3.336	0.582
317.000	242.369	79.999	19.995	103.949	20.050	3.535	0.518
317.500	242.610	80.007	19.995	103.950	20.049	3.588	0.477
318.000	242.868	80.009	19.994	103.948	20.048	3.677	0.487
318.500	243.101	80.005	19.995	103.948	20.048	3.654	0.495
319.000	243.387	80.007	19.994	103.946	20.050	3.519	0.505
319.500	243.613	80.007	19.993	103.944	20.052	3.374	0.515
320.000	243.878	80.006	19.994	103.944	20.050	3.517	0.501
320.500	244.107	80.004	19.995	103.948	20.051	3.469	0.492
321.000	244.362	80.006	19.994	103.949	20.050	3.544	0.489
321.500	244.610	80.006	19.993	103.949	20.049	3.621	0.494
322.000	244.877	80.004	19.994	103.945	20.048	3.681	0.509
322.500	245.108	80.004	19.994	103.941	20.047	3.752	0.507
323.000	245.362	80.004	19.994	103.939	20.049	3.615	0.491
323.500	245.637	80.007	19.994	103.939	20.049	3.586	0.507
324.000	245.868	80.005	19.993	103.939	20.053	3.342	0.518
324.500	246.133	80.001	19.994	103.942	20.052	3.420	0.501
325.000	246.365	80.002	19.994	103.944	20.051	3.493	0.496
325.500	246.615	80.002	19.994	103.946	20.050	3.520	0.489
326.000	246.879	80.002	19.994	103.947	20.053	3.358	0.498
326.500	247.154	80.007	19.992	103.946	20.055	3.227	0.527
327.000	247.380	80.003	19.993	103.947	20.054	3.245	0.520
327.500	247.626	80.017	19.992	103.948	20.049	3.595	0.486
328.000	247.904	80.005	19.993	103.950	20.053	3.355	0.498
328.500	248.109	80.004	19.993	103.949	20.052	3.373	0.503
329.000	248.394	80.008	19.994	103.948	20.051	3.482	0.486
329.500	248.652	80.006	19.994	103.947	20.050	3.559	0.517
330.000	248.893	80.003	19.993	103.943	20.050	3.523	0.521
330.500	249.133	80.001	19.994	103.936	20.048	3.687	0.490
331.000	249.414	80.002	19.992	103.938	20.051	3.435	0.501
331.500	249.625	80.008	19.992	103.941	20.054	3.254	0.506
332.000	249.929	80.003	19.991	103.943	20.051	3.433	0.504
332.500	250.174	80.005	19.993	103.947	20.052	3.391	0.532
333.000	250.414	79.990	19.994	103.952	20.053	3.304	0.517
333.500	250.667	80.008	19.992	103.950	20.052	3.414	0.489
334.000	250.917	80.004	19.992	103.949	20.056	3.163	0.498
334.500	251.183	80.009	19.992	103.948	20.053	3.347	0.510
335.000	251.417	80.004	19.993	103.945	20.053	3.356	0.508
335.500	251.639	80.007	19.992	103.942	20.049	3.615	0.477
336.000	251.880	80.003	19.993	103.937	20.051	3.442	0.460
336.500	252.143	80.006	19.994	103.934	20.050	3.529	0.484
337.000	252.371	79.996	19.994	103.934	20.049	3.595	0.498
337.500	252.644	80.002	19.993	103.936	20.051	3.433	0.496
338.000	252.927	80.006	19.992	103.938	20.053	3.325	0.529
338.500	253.173	80.006	19.992	103.943	20.053	3.338	0.543
339.000	253.489	80.010	19.990	103.945	20.049	3.613	0.546
339.500	253.670	80.009	19.992	103.949	20.051	3.478	0.530
340.000	253.906	80.007	19.993	103.952	20.050	3.507	0.457
340.500	254.157	80.000	19.993	103.955	20.049	3.609	0.452
341.000	254.351	80.018	19.990	103.957	20.048	3.640	0.465
341.500	254.642	80.011	19.995	103.958	20.053	3.345	0.465
342.000	254.909	79.999	19.998	103.954	20.049	3.629	0.521
342.500	255.173	80.011	19.996	103.950	20.052	3.425	0.544
343.000	255.410	80.000	19.995	103.948	20.050	3.527	0.516
343.500	255.650	80.010	19.993	103.947	20.048	3.655	0.489
344.000	255.861	80.003	19.995	103.946	20.047	3.730	0.464
344.500	256.158	79.996	19.995	103.939	20.048	3.648	0.480
345.000	256.411	80.005	19.993	103.938	20.049	3.587	0.529
345.500	256.675	79.998	19.995	103.934	20.050	3.516	0.534
346.000	256.900	80.001	19.992	103.932	20.054	3.254	0.503
346.500	257.134	80.011	19.993	103.929	20.052	3.365	0.474
347.000	257.413	80.010	19.992	103.936	20.053	3.358	0.486
347.500	257.634	80.002	19.994	103.938	20.052	3.391	0.506
348.000	257.895	80.004	19.994	103.935	20.053	3.347	0.491
348.500	258.166	80.010	19.992	103.933	20.052	3.398	0.507
349.000	258.389	80.003	19.992	103.934	20.051	3.482	0.514
349.500	258.647	80.001	19.992	103.933	20.048	3.651	0.488
350.000	258.888	80.000	19.992	103.930	20.051	3.462	0.489
350.500	259.147	80.020	19.992	103.935	20.051	3.465	0.499
351.000	259.436	80.001	19.992	103.935	20.052	3.378	0.524
351.500	259.632	80.002	19.994	103.932	20.049	3.604	0.517
352.000	259.880	80.004	19.993	103.930	20.054	3.254	0.465
352.500	260.150	80.005	19.993	103.933	20.051	3.489	0.481
353.000	260.387	80.004	19.992	103.932	20.056	3.103	0.512
353.500	260.633	80.002	19.993	103.934	20.053	3.327	0.495
354.000	260.847	80.005	19.993	103.937	20.056	3.103	0.471
354.500	261.110	79.999	19.995	103.938	20.052	3.367	0.468
355.000	261.379	80.006	19.992	103.936	20.054	3.237	0.505
355.500	261.614	80.007	19.992	103.933	20.051	3.487	0.519
356.000	261.852	80.004	19.993	103.933	20.055	3.197	0.488
356.500	262.092	80.010	19.991	103.933	20.053	3.341	0.475
357.000	262.339	80.007	19.993	103.934	20.049	3.594	0.482
357.500	262.606	79.990	19.993	103.934	20.057	3.031	0.500
358.000	262.874	79.997	19.994	103.942	20.053	3.352	0.525
358.500	263.088	80.009	19.993	103.943	20.052	3.371	0.509
359.000	263.333	79.993	19.996	103.947	20.054	3.248	0.471
359.500	263.642	80.011	19.993	103.940	20.047	3.743	0.507
360.000	263.864	80.008	19.993	103.939	20.053	3.341	0.543
360.500	264.083	80.004	19.993	103.934	20.053	3.316	0.486
361.000	264.349	80.007	19.993	103.930	20.051	3.447	0.463
361.500	264.582	80.006	19.993	103.925	20.055	3.193	0.492
362.000	264.813	80.002	19.993	103.928	20.052	3.383	0.481
362.500	265.112	80.003	19.995	103.931	20.054	3.233	0.497
363.000	265.333	80.006	19.994	103.930	20.049	3.585	0.525
363.500	265.582	80.005	19.994	103.932	20.049	3.580	0.495
364.000	265.823	80.013	19.991	103.932	20.056	3.104	0.480
364.500	266.074	80.002	19.993	103.934	20.053	3.361	0.491
365.000	266.377	80.009	19.992	103.931	20.051	3.469	0.523
365.500	266.589	79.989	19.994	103.932	20.056	3.137	0.535
366.000	266.802	80.009	19.992	103.928	20.052	3.390	0.470
366.500	267.076	80.013	19.993	103.927	20.053	3.314	0.456
367.000	267.324	80.018	19.991	103.925	20.052	3.367	0.505
367.500	267.599	80.004	19.994	103.924	20.053	3.339	0.522
368.000	267.830	80.014	19.992	103.922	20.052	3.378	0.514
368.500	268.044	79.998	19.994	103.926	20.050	3.507	0.476
369.000	268.298	80.002	19.992	103.930	20.053	3.350	0.456
369.500	268.556	80.018	19.993	103.934	20.048	3.640	0.490
370.000	268.804	80.007	19.993	103.934	20.049	3.596	0.509
370.500	269.042	79.999	19.994	103.938	20.058	3.028	0.496
371.000	269.291	80.011	19.992	103.932	20.053	3.299	0.486
371.500	269.520	80.005	19.994	103.933	20.052	3.368	0.483
372.000	269.751	80.010	19.992	103.925	20.055	3.186	0.469
372.500	270.023	80.026	19.990	103.921	20.057	3.035	0.482
373.000	270.277	80.014	19.993	103.919	20.055	3.208	0.515
373.500	270.542	79.983	19.994	103.919	20.051	3.452	0.523
374.000	270.750	80.011	19.994	103.915	20.055	3.213	0.496
374.500	271.033	80.005	19.992	103.920	20.055	3.175	0.482
375.000	271.296	80.010	19.994	103.927	20.054	3.289	0.518
375.500	271.551	80.009	19.993	103.925	20.049	3.587	0.532
376.000	271.762	80.002	19.994	103.925	20.051	3.450	0.492
376.500	272.037	80.009	19.992	103.924	20.052	3.368	0.476
377.000	272.252	79.999	19.994	103.923	20.052	3.412	0.488
377.500	272.534	79.997	19.994	103.918	20.052	3.372	0.494
378.000	272.770	80.041	19.990	103.921	20.053	3.319	0.508
378.500	273.028	80.007	19.993	103.926	20.053	3.341	0.506
379.000	273.301	79.999	19.993	103.929	20.055	3.210	0.512
379.500	273.502	80.004	19.995	103.932	20.057	3.071	0.502
380.000	273.809	80.015	19.992	103.930	20.055	3.171	0.491
380.500	274.040	80.004	19.993	103.930	20.056	3.157	0.523
381.000	274.241	80.009	19.993	103.926	20.052	3.377	0.485
381.500	274.534	80.005	19.993	103.922	20.054	3.266	0.463
382.000	274.760	80.003	19.995	103.920	20.058	2.973	0.506
382.500	275.043	80.010	19.993	103.925	20.053	3.334	0.514
383.000	275.277	80.000	19.993	103.925	20.050	3.521	0.513
383.500	275.518	79.997	19.995	103.924	20.051	3.465	0.496
384.000	275.790	80.006	19.994	103.923	20.052	3.379	0.494
384.500	275.995	79.992	19.997	103.919	20.052	3.421	0.495
385.000	276.265	79.994	19.994	103.912	20.053	3.303	0.476
385.500	276.506	79.998	19.995	103.906	20.051	3.465	0.493
386.000	276.790	80.003	19.993	103.905	20.051	3.444	0.518
386.500	277.005	80.007	19.994	103.914	20.053	3.350	0.511
387.000	277.246	80.009	19.994	103.917	20.052	3.372	0.477
387.500	277.495	79.982	19.995	103.918	20.052	3.377	0.473
388.000	277.773	80.009	19.993	103.919	20.050	3.497	0.509
388.500	278.010	80.008	19.993	103.920	20.050	3.519	0.521
389.000	278.290	80.016	19.991	103.913	20.053	3.350	0.516
389.500	278.506	80.007	19.993	103.913	20.052	3.426	0.507
390.000	278.740	79.993	19.994	103.913	20.054	3.273	0.473
390.500	279.009	80.005	19.994	103.914	20.054	3.283	0.476
391.000	279.303	80.010	19.993	103.913	20.054	3.285	0.533
391.500	279.496	80.005	19.993	103.917	20.056	3.106	0.525
392.000	279.756	80.022	19.991	103.915	20.055	3.181	0.470
392.500	280.026	80.004	19.993	103.920	20.055	3.217	0.492
393.000	280.223	80.013	19.994	103.924	20.058	3.009	0.498
393.500	280.489	80.012	19.992	103.923	20.051	3.443	0.465
394.000	280.745	80.013	19.992	103.922	20.054	3.266	0.493
394.500	281.001	80.015	19.992	103.925	20.055	3.186	0.517
395.000	281.259	80.002	19.994	103.927	20.053	3.363	0.513
395.500	281.475	80.006	19.993	103.928	20.055	3.203	0.494
396.000	281.736	80.013	19.992	103.933	20.056	3.131	0.475
396.500	281.976	80.011	19.992	103.936	20.055	3.186	0.489
397.000	282.195	80.006	19.993	103.934	20.056	3.148	0.480
397.500	282.459	79.998	19.994	103.927	20.051	3.459	0.471
398.000	282.761	80.011	19.993	103.920	20.052	3.388	0.524
398.500	282.980	80.012	19.994	103.916	20.053	3.339	0.543
399.000	283.202	80.001	19.994	103.910	20.051	3.477	0.481
399.500	283.501	80.010	19.993	103.907	20.056	3.147	0.481
400.000	283.725	80.018	19.991	103.908	20.054	3.275	0.523
400.500	283.956	80.005	19.993	103.914	20.057	3.091	0.489
401.000	284.216	80.007	19.992	103.916	20.055	3.230	0.473
401.500	284.465	80.010	19.995	103.919	20.056	3.159	0.500
402.000	284.747	80.008	19.994	103.925	20.056	3.135	0.520
402.500	284.961	79.992	19.997	103.931	20.055	3.212	0.514
403.000	285.188	79.995	19.995	103.926	20.054	3.255	0.469
403.500	285.463	80.013	19.994	103.922	20.054	3.290	0.472
404.000	285.706	80.002	19.993	103.922	20.054	3.281	0.509
404.500	285.957	80.009	19.993	103.923	20.053	3.326	0.506
405.000	286.185	79.995	19.995	103.923	20.052	3.364	0.487
405.500	286.482	80.018	19.993	103.929	20.054	3.233	0.502
406.000	286.711	80.009	19.996	103.934	20.050	3.525	0.526
406.500	286.965	80.003	19.994	103.930	20.051	3.432	0.505
407.000	287.215	80.005	19.995	103.924	20.053	3.333	0.493
407.500	287.468	80.004	19.995	103.918	20.050	3.499	0.504
408.000	287.727	80.003	19.996	103.916	20.052	3.381	0.508
408.500	287.948	80.007	19.993	103.912	20.055	3.171	0.496
409.000	288.178	80.004	19.995	103.915	20.052	3.381	0.465
409.500	288.443	80.001	19.994	103.912	20.056	3.133	0.473
410.000	288.726	80.010	19.995	103.911	20.051	3.452	0.521
410.500	288.964	80.010	19.993	103.909	20.050	3.503	0.535
411.000	289.175	80.001	19.995	103.911	20.056	3.118	0.485
411.500	289.443	79.985	19.997	103.915	20.052	3.412	0.464
412.000	289.683	79.997	19.996	103.921	20.052	3.424	0.494
412.500	289.963	80.007	19.993	103.920	20.049	3.605	0.514
413.000	290.178	80.010	19.994	103.922	20.049	3.596	0.507
413.500	290.458	79.998	19.994	103.920	20.052	3.375	0.495
414.000	290.711	80.003	19.994	103.914	20.050	3.514	0.514
414.500	290.986	80.012	19.993	103.912	20.053	3.330	0.530
415.000	291.198	80.001	19.995	103.915	20.052	3.377	0.508
415.500	291.470	80.002	19.994	103.912	20.054	3.242	0.486
416.000	291.754	80.003	19.994	103.914	20.052	3.419	0.519
416.500	292.001	80.001	19.994	103.915	20.052	3.381	0.543
417.000	292.210	80.006	19.993	103.914	20.056	3.157	0.493
417.500	292.502	80.002	19.994	103.912	20.051	3.465	0.479
418.000	292.723	80.012	19.992	103.913	20.055	3.202	0.507
418.500	292.995	80.001	19.992	103.914	20.054	3.263	0.503
419.000	293.211	80.000	19.993	103.915	20.050	3.530	0.490
419.500	293.421	79.997	19.994	103.916	20.052	3.392	0.457
420.000	293.699	80.006	19.993	103.915	20.051	3.443	0.457
420.500	293.954	79.993	19.992	103.916	20.054	3.251	0.511
421.000	294.219	80.004	19.993	103.918	20.051	3.486	0.527
421.500	294.446	79.994	19.995	103.917	20.052	3.421	0.506
422.000	294.733	79.989	19.995	103.914	20.054	3.262	0.503
422.500	294.955	80.006	19.992	103.912	20.052	3.417	0.511
423.000	295.175	80.001	19.993	103.910	20.052	3.430	0.475
423.500	295.429	80.008	19.993	103.906	20.052	3.386	0.458
424.000	295.660	80.009	19.993	103.907	20.051	3.459	0.479
424.500	295.902	79.990	19.995	103.911	20.050	3.523	0.479
425.000	296.206	79.999	19.994	103.911	20.053	3.357	0.509
425.500	296.425	79.995	19.995	103.910	20.052	3.416	0.535
426.000	296.695	80.012	19.992	103.908	20.052	3.388	0.507
426.500	296.917	80.002	19.993	103.908	20.052	3.377	0.490
427.000	297.186	80.004	19.993	103.906	20.052	3.426	0.491
427.500	297.436	80.006	19.992	103.911	20.052	3.397	0.505
428.000	297.689	80.006	19.993	103.917	20.054	3.262	0.511
428.500	297.961	80.002	19.992	103.921	20.053	3.321	0.514
429.000	298.159	80.005	19.992	103.920	20.052	3.399	0.498
429.500	298.457	80.009	19.993	103.922	20.050	3.538	0.483
430.000	298.688	80.007	19.992	103.919	20.055	3.188	0.512
430.500	298.979	80.002	19.993	103.913	20.053	3.301	0.525
431.000	299.200	80.010	19.994	103.912	20.054	3.290	0.517
431.500	299.461	80.010	19.992	103.910	20.055	3.191	0.497
432.000	299.716	80.008	19.992	103.910	20.054	3.239	0.499
432.500	299.911	80.007	19.992	103.914	20.053	3.352	0.483
433.000	300.205	80.005	19.993	103.915	20.053	3.311	0.469
433.500	300.434	79.999	19.995	103.914	20.053	3.357	0.506
434.000	300.688	80.004	19.994	103.912	20.051	3.468	0.503
434.500	300.938	80.001	19.994	103.911	20.049	3.601	0.493
435.000	301.162	79.996	19.993	103.906	20.054	3.237	0.489
435.500	301.465	80.020	19.991	103.906	20.053	3.346	0.501
436.000	301.663	80.021	19.991	103.911	20.055	3.200	0.514
436.500	301.945	80.003	19.992	103.915	20.054	3.280	0.490
437.000	302.198	80.002	19.995	103.911	20.053	3.335	0.507
437.500	302.419	80.006	19.994	103.909	20.054	3.259	0.505
438.000	302.734	80.005	19.993	103.909	20.053	3.355	0.505
438.500	302.935	80.000	19.992	103.905	20.053	3.359	0.526
439.000	303.214	80.003	19.993	103.905	20.052	3.370	0.498
439.500	303.458	80.014	19.992	103.909	20.054	3.242	0.501
440.000	303.724	80.009	19.992	103.916	20.051	3.455	0.516
440.500	303.969	80.002	19.992	103.919	20.051	3.441	0.510
441.000	304.222	80.001	19.992	103.918	20.053	3.310	0.504
441.500	304.454	80.002	19.995	103.920	20.058	3.020	0.492
442.000	304.723	80.005	19.993	103.918	20.049	3.578	0.493
442.500	304.937	80.008	19.993	103.914	20.055	3.215	0.492
443.000	305.228	80.002	19.993	103.911	20.051	3.463	0.494
443.500	305.431	80.002	19.994	103.909	20.051	3.448	0.500
444.000	305.725	80.020	19.989	103.906	20.052	3.381	0.496
444.500	306.019	80.025	19.990	103.912	20.054	3.286	0.543
445.000	306.244	80.000	19.993	103.914	20.057	3.067	0.553
445.500	306.481	80.004	19.994	103.915	20.048	3.636	0.490
446.000	306.712	80.003	19.994	103.917	20.050	3.545	0.465
446.500	306.973	80.005	19.993	103.916	20.053	3.328	0.480
447.000	307.218	80.003	19.993	103.912	20.057	3.095	0.499
447.500	307.434	80.012	19.993	103.908	20.052	3.421	0.484
448.000	307.700	80.007	19.993	103.909	20.053	3.313	0.471
448.500	307.977	80.006	19.994	103.907	20.055	3.168	0.512
449.000	308.181	80.005	19.993	103.906	20.051	3.465	0.512
449.500	308.494	80.007	19.993	103.903	20.052	3.417	0.499
450.000	308.740	80.002	19.993	103.904	20.055	3.228	0.539
450.500	309.000	80.014	19.993	103.902	20.056	3.100	0.533
451.000	309.233	80.010	19.995	103.905	20.055	3.173	0.500
451.500	309.524	80.002	19.993	103.905	20.055	3.195	0.509
452.000	309.771	80.001	19.993	103.907	20.055	3.188	0.531
452.500	309.967	80.008	19.994	103.910	20.053	3.312	0.490
453.000	310.241	80.012	19.993	103.910	20.054	3.241	0.456
453.500	310.469	80.008	19.994	103.911	20.052	3.401	0.486
454.000	310.704	80.007	19.993	103.914	20.052	3.408	0.482
454.500	310.969	80.016	19.992	103.914	20.049	3.566	0.482
455.000	311.256	80.000	19.992	103.913	20.055	3.191	0.526
455.500	311.479	80.006	19.993	103.914	20.051	3.433	0.531
456.000	311.717	80.010	19.993	103.914	20.053	3.328	0.486
456.500	311.971	80.014	19.992	103.912	20.056	3.102	0.476
457.000	312.219	80.013	19.990	103.912	20.051	3.485	0.497
457.500	312.461	80.002	19.992	103.913	20.054	3.235	0.496
458.000	312.733	80.003	19.993	103.914	20.055	3.195	0.502
458.500	313.001	79.997	19.993	103.914	20.057	3.072	0.528
459.000	313.279	80.020	19.991	103.914	20.053	3.329	0.543
459.500	313.495	79.991	19.995	103.916	20.054	3.231	0.520
460.000	313.711	79.995	19.994	103.911	20.050	3.497	0.463
460.500	314.021	80.003	19.993	103.909	20.054	3.292	0.479
461.000	314.266	80.013	19.991	103.908	20.052	3.399	0.540
461.500	314.478	79.999	19.994	103.912	20.051	3.468	0.505
462.000	314.744	80.009	19.994	103.909	20.054	3.246	0.467
462.500	315.020	80.017	19.992	103.911	20.051	3.437	0.510
463.000	315.304	80.008	19.993	103.915	20.052	3.423	0.551
463.500	315.527	80.011	19.993	103.916	20.051	3.452	0.534
464.000	315.733	79.981	19.995	103.914	20.050	3.508	0.468
464.500	316.026	80.000	19.994	103.911	20.051	3.445	0.464
465.000	316.285	80.009	19.992	103.907	20.054	3.277	0.525
465.500	316.513	80.015	19.993	103.904	20.055	3.195	0.519
466.000	316.822	80.000	19.992	103.903	20.051	3.485	0.512
466.500	317.024	80.008	19.993	103.906	20.050	3.514	0.524
467.000	317.260	80.009	19.992	103.909	20.053	3.331	0.475
467.500	317.517	79.983	19.996	103.913	20.053	3.315	0.466
468.000	317.762	80.007	19.993	103.909	20.051	3.466	0.498
468.500	317.974	79.987	19.995	103.906	20.050	3.525	0.480
469.000	318.265	80.006	19.994	103.901	20.055	3.219	0.480
469.500	318.517	80.002	19.993	103.900	20.050	3.548	0.523
470.000	318.796	80.003	19.994	103.902	20.051	3.457	0.537
470.500	319.038	80.017	19.992	103.907	20.054	3.268	0.526
471.000	319.296	80.004	19.993	103.910	20.051	3.432	0.511
471.500	319.538	80.005	19.993	103.913	20.052	3.386	0.500
472.000	319.829	80.019	19.991	103.914	20.050	3.506	0.516
472.500	320.045	80.011	19.992	103.914	20.055	3.213	0.519
473.000	320.309	80.008	19.994	103.913	20.051	3.460	0.493
473.500	320.572	80.019	19.992	103.912	20.052	3.418	0.504
474.000	320.798	80.007	19.994	103.914	20.052	3.398	0.508
474.500	321.014	79.989	19.995	103.913	20.051	3.482	0.466
475.000	321.304	80.002	19.992	103.910	20.056	3.112	0.474
475.500	321.555	80.010	19.994	103.914	20.056	3.145	0.524
476.000	321.794	79.997	19.996	103.914	20.050	3.539	0.516
476.500	322.072	80.015	19.993	103.908	20.050	3.504	0.504
477.000	322.334	80.004	19.993	103.907	20.049	3.574	0.529
477.500	322.561	80.002	19.994	103.907	20.050	3.521	0.515
478.000	322.783	80.012	19.994	103.901	20.052	3.386	0.469
478.500	323.025	80.010	19.992	103.901	20.050	3.546	0.457
479.000	323.275	80.008	19.993	103.908	20.055	3.206	0.478
479.500	323.553	80.002	19.993	103.909	20.058	3.022	0.510
480.000	323.807	80.006	19.995	103.911	20.052	3.406	0.530
480.500	324.055	80.005	19.993	103.912	20.049	3.594	0.517
481.000	324.319	80.013	19.994	103.913	20.052	3.383	0.507
481.500	324.552	80.025	19.992	103.909	20.052	3.388	0.505
482.000	324.825	80.014	19.993	103.911	20.052	3.397	0.501
482.500	325.038	79.985	19.996	103.906	20.053	3.324	0.496
483.000	325.302	80.015	19.994	103.898	20.053	3.342	0.482
483.500	325.524	80.002	19.995	103.898	20.055	3.196	0.482
484.000	325.840	80.005	19.994	103.895	20.053	3.351	0.512
484.500	326.044	80.013	19.992	103.891	20.054	3.284	0.529
485.000	326.317	80.007	19.993	103.893	20.052	3.393	0.499
485.500	326.589	79.992	19.994	103.899	20.055	3.189	0.511
486.000	326.806	80.001	19.993	103.897	20.052	3.384	0.517
486.500	327.059	80.017	19.992	103.900	20.048	3.643	0.479
487.000	327.342	80.000	19.995	103.903	20.050	3.499	0.503
487.500	327.557	79.987	19.995	103.904	20.051	3.481	0.517
488.000	327.792	79.994	19.995	103.903	20.053	3.317	0.474
488.500	328.050	80.006	19.994	103.901	20.051	3.470	0.472
489.000	328.328	80.006	19.994	103.902	20.055	3.198	0.515
489.500	328.572	80.020	19.993	103.901	20.051	3.479	0.529
490.000	328.794	79.994	19.995	103.904	20.050	3.510	0.494
490.500	329.071	80.007	19.992	103.905	20.052	3.413	0.482
491.000	329.298	79.990	19.995	103.910	20.051	3.435	0.501
491.500	329.576	80.006	19.993	103.909	20.051	3.439	0.505
492.000	329.783	79.993	19.995	103.910	20.049	3.617	0.496
492.500	330.054	80.004	19.994	103.901	20.053	3.335	0.482
493.000	330.313	80.014	19.993	103.896	20.053	3.322	0.503
493.500	330.549	80.003	19.995	103.891	20.053	3.360	0.512
494.000	330.802	79.993	19.998	103.888	20.054	3.257	0.493
494.500	331.046	79.998	19.996	103.883	20.053	3.344	0.493
495.000	331.352	80.002	19.992	103.885	20.054	3.249	0.524
495.500	331.585	80.011	19.991	103.893	20.053	3.360	0.544
496.000	331.820	79.998	19.994	103.897	20.050	3.519	0.503
496.500	332.048	79.992	19.995	103.899	20.051	3.437	0.465
497.000	332.326	79.999	19.995	103.904	20.053	3.338	0.484
497.500	332.603	80.004	19.994	103.907	20.053	3.311	0.531
498.000	332.846	80.008	19.994	103.904	20.054	3.238	0.538
498.500	333.073	80.007	19.994	103.901	20.052	3.406	0.495
499.000	333.313	79.990	19.997	103.905	20.052	3.370	0.468
499.500	333.591	80.006	19.994	103.901	20.054	3.257	0.493
500.000	333.841	80.011	19.993	103.902	20.052	3.410	0.523
500.500	334.112	80.009	19.994	103.901	20.051	3.446	0.525
501.000	334.344	79.995	19.995	103.902	20.053	3.300	0.512
501.500	334.626	80.003	19.994	103.895	20.054	3.255	0.508
502.000	334.850	80.000	19.995	103.898	20.056	3.102	0.510
502.500	335.103	80.000	19.994	103.894	20.052	3.388	0.491
503.000	335.404	80.002	19.993	103.896	20.053	3.297	0.515
503.500	335.593	79.991	19.996	103.899	20.055	3.195	0.522
504.000	335.890	79.997	19.996	103.901	20.057	3.094	0.488
504.500	336.100	80.003	19.995	103.901	20.055	3.173	0.497
505.000	336.352	80.022	19.993	103.906	20.053	3.329	0.485
505.500	336.575	79.981	19.996	103.908	20.056	3.154	0.469
506.000	336.862	80.008	19.996	103.902	20.053	3.349	0.492
506.500	337.088	80.015	19.993	103.897	20.055	3.194	0.511
507.000	337.346	80.010	19.993	103.900	20.057	3.083	0.498
507.500	337.621	80.014	19.994	103.901	20.057	3.082	0.509
508.000	337.842	79.995	19.996	103.900	20.056	3.122	0.515
508.500	338.083	79.996	19.996	103.900	20.052	3.412	0.479
509.000	338.394	80.012	19.994	103.907	20.051	3.475	0.507
509.500	338.635	80.016	19.993	103.904	20.052	3.371	0.552
510.000	338.882	79.987	19.995	103.905	20.054	3.253	0.520
510.500	339.123	80.005	19.995	103.901	20.055	3.211	0.488
511.000	339.398	80.009	19.995	103.900	20.052	3.426	0.502
511.500	339.628	80.003	19.995	103.898	20.056	3.116	0.510
512.000	339.863	79.999	19.994	103.900	20.054	3.284	0.485
512.500	340.098	80.004	19.994	103.897	20.055	3.217	0.467
513.000	340.367	80.012	19.995	103.899	20.054	3.286	0.487
513.500	340.639	80.003	19.995	103.902	20.054	3.273	0.523
514.000	340.879	80.000	19.995	103.904	20.050	3.532	0.527
514.500	341.122	79.997	19.994	103.904	20.052	3.410	0.497
515.000	341.375	80.006	19.996	103.903	20.052	3.401	0.489
515.500	341.643	80.018	19.993	103.901	20.052	3.395	0.508
516.000	341.899	80.000	19.995	103.899	20.053	3.333	0.523
516.500	342.141	80.001	19.994	103.897	20.053	3.322	0.511
517.000	342.385	79.997	19.994	103.892	20.054	3.278	0.492
517.500	342.637	80.001	19.995	103.893	20.053	3.326	0.491
518.000	342.909	80.006	19.993	103.896	20.051	3.446	0.510
518.500	343.176	80.003	19.993	103.899	20.051	3.450	0.531
519.000	343.401	80.010	19.992	103.903	20.049	3.583	0.515
519.500	343.627	79.998	19.994	103.911	20.057	3.091	0.471
520.000	343.873	80.005	19.993	103.906	20.054	3.271	0.462
520.500	344.147	80.004	19.992	103.905	20.056	3.138	0.496
521.000	344.408	80.006	19.992	103.901	20.051	3.437	0.527
521.500	344.670	80.012	19.993	103.900	20.054	3.291	0.529
522.000	344.877	80.001	19.993	103.901	20.054	3.244	0.496
522.500	345.178	80.007	19.993	103.908	20.053	3.339	0.488
523.000	345.357	80.002	19.995	103.910	20.054	3.264	0.494
523.500	345.619	79.999	19.993	103.911	20.054	3.262	0.461
524.000	345.873	80.006	19.993	103.914	20.055	3.224	0.478
524.500	346.157	80.012	19.992	103.910	20.050	3.501	0.527
525.000	346.402	80.005	19.994	103.908	20.055	3.226	0.534
525.500	346.637	79.999	19.994	103.906	20.051	3.453	0.505
526.000	346.898	80.004	19.994	103.906	20.053	3.353	0.488
526.500	347.122	80.002	19.994	103.904	20.057	3.096	0.490
527.000	347.412	80.007	19.993	103.903	20.050	3.548	0.500
527.500	347.638	79.989	19.994	103.906	20.055	3.202	0.515
528.000	347.890	79.994	19.995	103.904	20.054	3.240	0.497
528.500	348.140	80.002	19.994	103.903	20.052	3.422	0.490
529.000	348.398	79.996	19.995	103.902	20.052	3.369	0.505
529.500	348.653	80.005	19.994	103.902	20.053	3.309	0.511
530.000	348.875	80.008	19.993	103.900	20.052	3.399	0.495
530.500	349.166	80.005	19.993	103.901	20.054	3.282	0.495
531.000	349.436	80.010	19.994	103.900	20.051	3.434	0.537
531.500	349.635	80.006	19.994	103.896	20.052	3.385	0.515
532.000	349.931	80.007	19.993	103.896	20.057	3.065	0.482
532.500	350.161	80.006	19.992	103.896	20.054	3.262	0.511
533.000	350.381	80.007	19.992	103.900	20.053	3.307	0.488
533.500	350.695	80.010	19.995	103.902	20.052	3.373	0.492
534.000	350.888	79.997	19.993	103.906	20.054	3.242	0.520
534.500	351.171	80.004	19.994	103.908	20.053	3.317	0.491
535.000	351.411	79.998	19.994	103.906	20.053	3.331	0.499
535.500	351.696	80.011	19.993	103.905	20.055	3.213	0.524
536.000	351.957	80.009	19.993	103.902	20.053	3.333	0.536
536.500	352.189	80.006	19.993	103.905	20.057	3.067	0.520
537.000	352.433	80.003	19.994	103.906	20.056	3.126	0.485
537.500	352.693	79.998	19.994	103.908	20.054	3.286	0.490
538.000	352.942	80.003	19.993	103.909	20.057	3.047	0.506
538.500	353.166	79.996	19.994	103.911	20.056	3.127	0.491
539.000	353.454	80.003	19.994	103.906	20.055	3.200	0.493
539.500	353.659	79.997	19.994	103.902	20.052	3.366	0.502
540.000	353.949	80.009	19.993	103.898	20.053	3.307	0.494
540.500	354.194	80.003	19.993	103.899	20.057	3.056	0.515
541.000	354.470	80.011	19.992	103.898	20.050	3.521	0.528
541.500	354.721	80.009	19.993	103.907	20.054	3.257	0.523
542.000	354.935	80.018	19.992	103.911	20.051	3.437	0.496
542.500	355.185	79.997	19.996	103.919	20.055	3.166	0.465
543.000	355.436	80.009	19.992	103.911	20.053	3.302	0.483
543.500	355.715	80.004	19.993	103.907	20.051	3.484	0.516
544.000	355.938	80.004	19.994	103.898	20.052	3.430	0.516
544.500	356.230	80.003	19.993	103.894	20.055	3.204	0.509
545.000	356.452	80.003	19.993	103.892	20.053	3.313	0.514
545.500	356.684	80.000	19.993	103.899	20.055	3.196	0.484
546.000	356.929	80.007	19.994	103.901	20.057	3.041	0.465
546.500	357.199	80.009	19.991	103.905	20.058	2.980	0.496
547.000	357.457	80.003	19.993	103.908	20.059	2.941	0.522
547.500	357.706	80.000	19.992	103.909	20.056	3.125	0.518
548.000	357.973	80.011	19.991	103.911	20.053	3.335	0.512
548.500	358.203	80.003	19.992	103.911	20.059	2.918	0.506
549.000	358.467	80.014	19.992	103.906	20.055	3.198	0.495
549.500	358.723	79.998	19.992	103.900	20.054	3.288	0.507
550.000	359.005	80.007	19.993	103.897	20.057	3.078	0.529
550.500	359.221	80.001	19.994	103.895	20.056	3.127	0.518
551.000	359.465	79.996	19.992	103.896	20.055	3.171	0.479
551.500	359.753	80.003	19.993	103.905	20.055	3.202	0.496
552.000	359.968	80.021	19.993	103.910	20.053	3.353	0.518
552.500	360.243	80.010	19.994	103.911	20.052	3.369	0.496
553.000	360.473	80.022	19.991	103.909	20.057	3.045	0.498
553.500	360.746	80.006	19.992	103.909	20.054	3.238	0.504
554.000	360.967	79.987	19.996	103.904	20.056	3.102	0.499
554.500	361.247	80.017	19.993	103.900	20.053	3.352	0.498
555.000	361.465	79.997	19.993	103.899	20.051	3.457	0.499
555.500	361.755	80.009	19.992	103.899	20.055	3.193	0.503
556.000	361.950	80.005	19.993	103.899	20.055	3.184	0.497
556.500	362.233	80.010	19.993	103.898	20.056	3.158	0.481
557.000	362.508	80.015	19.992	103.900	20.058	2.987	0.518
557.500	362.709	79.996	19.994	103.900	20.060	2.889	0.518
558.000	362.983	80.015	19.991	103.897	20.057	3.082	0.476
558.500	363.225	80.005	19.993	103.898	20.058	2.976	0.495
559.000	363.516	80.007	19.992	103.901	20.053	3.335	0.525
559.500	363.736	80.001	19.994	103.903	20.057	3.038	0.522
560.000	364.037	80.014	19.991	103.901	20.056	3.155	0.516
560.500	364.261	80.007	19.993	103.907	20.053	3.359	0.523
561.000	364.510	79.995	19.996	103.906	20.051	3.477	0.500
561.500	364.792	80.019	19.992	103.905	20.056	3.133	0.502
562.000	365.068	80.010	19.995	103.903	20.054	3.293	0.544
562.500	365.245	80.021	19.992	103.900	20.056	3.113	0.505
563.000	365.525	80.010	19.993	103.892	20.054	3.284	0.455
563.500	365.800	80.006	19.991	103.891	20.055	3.202	0.506
564.000	366.084	80.010	19.993	103.895	20.055	3.195	0.558
564.500	366.340	80.014	19.991	103.897	20.056	3.098	0.550
565.000	366.574	80.006	19.993	103.906	20.058	3.011	0.515
565.500	366.829	80.008	19.994	103.910	20.057	3.032	0.489
566.000	367.052	80.010	19.992	103.910	20.055	3.218	0.484
566.500	367.295	80.009	19.994	103.910	20.053	3.315	0.472
567.000	367.601	80.004	19.993	103.908	20.055	3.195	0.507
567.500	367.825	80.013	19.995	103.907	20.057	3.047	0.540
568.000	368.075	79.998	19.994	103.908	20.054	3.293	0.502
568.500	368.342	79.993	19.993	103.909	20.056	3.136	0.496
569.000	368.549	79.984	19.996	103.903	20.057	3.056	0.495
569.500	368.889	80.013	19.992	103.899	20.055	3.169	0.510
570.000	369.139	80.020	19.991	103.899	20.056	3.098	0.569
570.500	369.405	80.005	19.994	103.902	20.053	3.349	0.553
571.000	369.618	80.004	19.994	103.904	20.055	3.224	0.497
571.500	369.883	80.008	19.993	103.908	20.052	3.389	0.479
572.000	370.168	80.011	19.994	103.913	20.057	3.036	0.514
572.500	370.397	80.017	19.993	103.908	20.057	3.091	0.532
573.000	370.655	80.002	19.993	103.905	20.056	3.109	0.501
573.500	370.878	80.033	19.990	103.904	20.056	3.138	0.484
574.000	371.138	80.007	19.993	103.907	20.056	3.098	0.482
574.500	371.360	80.007	19.994	103.907	20.056	3.129	0.482
575.000	371.653	80.001	19.996	103.909	20.061	2.821	0.498
575.500	371.921	79.996	19.994	103.905	20.057	3.063	0.538
576.000	372.159	80.010	19.992	103.902	20.055	3.202	0.534
576.500	372.440	79.998	19.996	103.898	20.056	3.155	0.512
577.000	372.675	80.005	19.994	103.896	20.058	3.002	0.517
577.500	372.971	80.001	19.994	103.896	20.056	3.140	0.523
578.000	373.183	80.001	19.994	103.900	20.053	3.318	0.519
578.500	373.455	79.997	19.994	103.898	20.058	3.029	0.496
579.000	373.716	80.002	19.993	103.893	20.052	3.371	0.509
579.500	373.998	80.001	19.994	103.889	20.055	3.185	0.538
580.000	374.264	80.004	19.995	103.885	20.059	2.928	0.546
580.500	374.504	80.006	19.993	103.884	20.057	3.087	0.528
581.000	374.734	79.995	19.994	103.887	20.058	2.985	0.488
581.500	375.012	80.004	19.994	103.891	20.055	3.194	0.489
582.000	375.235	80.009	19.994	103.895	20.056	3.151	0.505
582.500	375.533	80.003	19.993	103.896	20.058	2.987	0.511
583.000	375.799	80.002	19.994	103.897	20.057	3.049	0.542
583.500	376.024	80.005	19.993	103.894	20.057	3.078	0.527
584.000	376.273	80.005	19.993	103.897	20.055	3.169	0.483
584.500	376.526	80.004	19.994	103.896	20.056	3.145	0.488
585.000	376.776	80.004	19.994	103.900	20.056	3.144	0.502
585.500	377.042	80.003	19.994	103.901	20.057	3.032	0.510
586.000	377.293	80.005	19.993	103.902	20.059	2.958	0.517
586.500	377.556	80.003	19.994	103.903	20.056	3.100	0.515
587.000	377.816	80.006	19.993	103.906	20.058	3.007	0.518
587.500	378.059	80.002	19.994	103.906	20.060	2.885	0.513
588.000	378.359	80.006	19.993	103.907	20.058	2.983	0.523
588.500	378.598	80.007	19.994	103.904	20.059	2.914	0.541
589.000	378.861	80.002	19.993	103.898	20.061	2.814	0.521
589.500	379.086	80.006	19.994	103.899	20.059	2.930	0.495
590.000	379.350	80.004	19.994	103.899	20.058	3.014	0.489
590.500	379.626	80.004	19.994	103.899	20.057	3.074	0.514
591.000	379.853	80.004	19.993	103.900	20.059	2.916	0.521
591.500	380.099	79.998	19.996	103.902	20.061	2.812	0.488
592.000	380.379	79.993	19.994	103.899	20.057	3.045	0.500
592.500	380.613	80.003	19.996	103.894	20.058	2.978	0.520
593.000	380.890	79.987	19.996	103.894	20.058	2.970	0.513
593.500	381.128	80.010	19.993	103.894	20.055	3.167	0.513
594.000	381.386	80.007	19.994	103.899	20.058	3.023	0.506
594.500	381.642	80.010	19.996	103.902	20.055	3.214	0.505
595.000	381.922	80.004	19.993	103.906	20.058	2.992	0.525
595.500	382.168	80.003	19.994	103.905	20.060	2.879	0.531
596.000	382.396	79.998	19.996	103.903	20.054	3.238	0.500
596.500	382.689	80.005	19.994	103.897	20.054	3.289	0.498
597.000	382.928	80.013	19.993	103.895	20.055	3.218	0.527
597.500	383.143	80.006	19.995	103.897	20.057	3.072	0.493
598.000	383.419	80.006	19.995	103.900	20.058	3.010	0.473
598.500	383.702	80.007	19.994	103.904	20.052	3.411	0.525
599.000	383.992	79.999	19.995	103.908	20.058	2.985	0.566
599.500	384.158	79.993	19.995	103.907	20.057	3.083	0.515
600.000	384.457	80.002	19.994	103.905	20.058	2.977	0.461
600.500	384.787	80.003	19.997	103.905	20.053	3.352	0.547
601.000	384.996	79.996	19.994	103.905	20.056	3.103	0.584
601.500	385.221	79.999	19.995	103.905	20.054	3.280	0.486
602.000	385.464	80.005	19.995	103.906	20.057	3.092	0.451
602.500	385.747	80.005	19.995	103.906	20.057	3.049	0.497
603.000	385.980	80.003	19.994	103.900	20.058	2.992	0.521
603.500	386.245	80.008	19.995	103.901	20.057	3.080	0.507
604.000	386.486	79.992	19.995	103.899	20.054	3.238	0.502
604.500	386.729	79.989	19.995	103.895	20.057	3.080	0.495
605.000	387.002	80.009	19.992	103.892	20.057	3.032	0.500
605.500	387.243	79.995	19.997	103.897	20.057	3.047	0.515
606.000	387.509	80.005	19.993	103.895	20.058	3.016	0.511
606.500	387.748	80.005	19.994	103.894	20.057	3.093	0.506
607.000	388.014	79.997	19.994	103.897	20.058	2.996	0.505
607.500	388.231	80.002	19.995	103.900	20.055	3.187	0.494
608.000	388.521	80.003	19.993	103.897	20.058	3.021	0.495
608.500	388.758	80.009	19.993	103.899	20.059	2.937	0.518
609.000	389.002	80.000	19.995	103.898	20.056	3.107	0.504
609.500	389.259	80.003	19.993	103.892	20.058	2.995	0.491
610.000	389.565	80.004	19.994	103.888	20.054	3.263	0.532
610.500	389.796	80.002	19.993	103.887	20.056	3.100	0.550
611.000	390.053	80.003	19.993	103.882	20.055	3.220	0.512
611.500	390.280	80.002	19.994	103.879	20.056	3.122	0.486
612.000	390.519	80.005	19.993	103.884	20.055	3.204	0.476
612.500	390.779	80.004	19.992	103.892	20.055	3.182	0.483
613.000	391.032	80.003	19.992	103.897	20.058	2.981	0.506
613.500	391.299	80.006	19.993	103.899	20.060	2.848	0.516
614.000	391.530	80.005	19.994	103.901	20.058	2.972	0.509
614.500	391.783	80.006	19.993	103.898	20.059	2.906	0.491
615.000	392.052	80.005	19.994	103.895	20.058	2.999	0.503
615.500	392.305	80.005	19.995	103.896	20.061	2.806	0.522
616.000	392.586	80.008	19.993	103.898	20.058	2.976	0.527
616.500	392.819	80.007	19.993	103.901	20.058	2.992	0.524
617.000	393.136	80.005	19.994	103.906	20.052	3.429	0.533
617.500	393.379	80.005	19.992	103.903	20.056	3.132	0.555
618.000	393.580	80.007	19.995	103.898	20.055	3.203	0.502
618.500	393.879	80.005	19.992	103.894	20.057	3.083	0.472
619.000	394.099	80.005	19.994	103.891	20.056	3.149	0.509
619.500	394.413	80.006	19.994	103.884	20.054	3.254	0.527
620.000	394.634	80.006	19.993	103.883	20.055	3.203	0.534
620.500	394.913	80.006	19.993	103.885	20.057	3.045	0.517
621.000	395.170	80.008	19.994	103.890	20.057	3.038	0.518
621.500	395.413	80.006	19.993	103.892	20.057	3.078	0.518
622.000	395.707	80.004	19.992	103.899	20.057	3.076	0.518
622.500	395.927	80.008	19.993	103.903	20.053	3.340	0.525
623.000	396.178	80.008	19.992	103.902	20.055	3.167	0.493
623.500	396.465	80.004	19.994	103.898	20.054	3.245	0.505
624.000	396.677	80.005	19.993	103.894	20.056	3.131	0.519
624.500	396.913	80.003	19.993	103.891	20.052	3.387	0.474
625.000	397.175	79.999	19.994	103.891	20.055	3.214	0.473
625.500	397.483	80.006	19.993	103.892	20.054	3.269	0.534
626.000	397.695	80.004	19.993	103.894	20.056	3.159	0.545
626.500	397.973	80.007	19.992	103.896	20.056	3.121	0.505
627.000	398.245	80.010	19.993	103.898	20.058	2.983	0.520
627.500	398.494	80.006	19.993	103.894	20.057	3.046	0.535
628.000	398.738	80.000	19.993	103.894	20.057	3.085	0.507
628.500	399.011	79.995	19.996	103.895	20.057	3.090	0.505
629.000	399.265	80.000	19.993	103.890	20.056	3.112	0.522
629.500	399.554	80.007	19.994	103.886	20.058	3.019	0.535
630.000	399.784	80.006	19.992	103.886	20.059	2.957	0.531
630.500	400.031	80.005	19.994	103.887	20.057	3.059	0.498
631.000	400.294	80.008	19.992	103.885	20.058	3.012	0.494
631.500	400.539	80.006	19.994	103.892	20.056	3.153	0.509
632.000	400.783	79.997	19.994	103.894	20.060	2.848	0.498
632.500	401.026	79.994	19.995	103.897	20.058	3.021	0.488
633.000	401.305	79.997	19.996	103.892	20.059	2.950	0.504
633.500	401.599	80.007	19.993	103.889	20.058	2.981	0.547
634.000	401.835	80.006	19.993	103.888	20.056	3.102	0.552
634.500	402.093	80.007	19.992	103.890	20.059	2.947	0.512
635.000	402.332	80.000	19.995	103.892	20.057	3.085	0.495
635.500	402.601	80.006	19.994	103.893	20.059	2.912	0.503
636.000	402.874	80.007	19.995	103.893	20.057	3.061	0.526
636.500	403.109	80.003	19.993	103.888	20.058	2.985	0.525
637.000	403.332	80.003	19.994	103.881	20.059	2.919	0.483
637.500	403.605	80.001	19.991	103.876	20.057	3.065	0.477
638.000	403.862	80.021	19.994	103.880	20.060	2.830	0.513
638.500	404.103	80.008	19.993	103.882	20.058	3.021	0.514
639.000	404.397	80.009	19.993	103.884	20.059	2.955	0.516
639.500	404.580	80.006	19.993	103.883	20.058	2.983	0.506
640.000	404.865	80.012	19.992	103.883	20.059	2.946	0.473
640.500	405.124	80.017	19.992	103.881	20.060	2.837	0.506
641.000	405.425	80.006	19.992	103.882	20.060	2.867	0.552
641.500	405.664	80.011	19.994	103.886	20.061	2.820	0.550
642.000	405.911	80.005	19.994	103.895	20.060	2.849	0.513
642.500	406.166	79.996	19.994	103.898	20.059	2.959	0.494
643.000	406.426	80.009	19.993	103.900	20.056	3.101	0.509
643.500	406.693	80.007	19.993	103.901	20.059	2.959	0.521
644.000	406.945	80.013	19.992	103.902	20.060	2.872	0.523
644.500	407.238	80.008	19.993	103.898	20.059	2.913	0.532
645.000	407.476	80.005	19.992	103.900	20.056	3.139	0.539
645.500	407.692	80.005	19.994	103.896	20.057	3.084	0.493
646.000	408.000	80.008	19.993	103.894	20.059	2.935	0.489
646.500	408.208	80.006	19.994	103.888	20.060	2.864	0.520
647.000	408.483	80.010	19.991	103.887	20.057	3.046	0.499
647.500	408.734	80.012	19.992	103.887	20.056	3.147	0.504
648.000	408.991	80.007	19.992	103.888	20.059	2.930	0.517
648.500	409.240	80.003	19.992	103.890	20.059	2.904	0.507
649.000	409.480	79.999	19.994	103.892	20.057	3.048	0.498
649.500	409.725	80.005	19.992	103.888	20.056	3.138	0.487
650.000	409.986	80.007	19.992	103.882	20.060	2.886	0.495
650.500	410.226	80.005	19.995	103.879	20.059	2.921	0.504
651.000	410.471	80.001	19.995	103.874	20.057	3.094	0.493
651.500	410.744	79.993	19.995	103.869	20.056	3.114	0.501
652.000	411.025	80.005	19.992	103.868	20.059	2.950	0.536
652.500	411.275	80.012	19.991	103.868	20.060	2.870	0.543
653.000	411.519	80.007	19.993	103.873	20.056	3.154	0.512
653.500	411.734	80.005	19.992	103.879	20.055	3.181	0.476
654.000	412.014	79.999	19.992	103.883	20.054	3.268	0.477
654.500	412.245	80.004	19.992	103.886	20.056	3.112	0.503
655.000	412.507	80.006	19.993	103.884	20.053	3.309	0.502
655.500	412.768	80.005	19.994	103.880	20.055	3.192	0.508
656.000	413.025	80.005	19.993	103.877	20.055	3.201	0.520
656.500	413.248	80.003	19.993	103.876	20.056	3.161	0.499
657.000	413.497	80.002	19.994	103.876	20.053	3.329	0.476
657.500	413.733	80.007	19.993	103.876	20.054	3.266	0.479
658.000	413.984	80.005	19.994	103.877	20.057	3.091	0.486
658.500	414.196	79.999	19.995	103.882	20.058	2.981	0.475
659.000	414.473	80.007	19.994	103.882	20.054	3.272	0.476
659.500	414.727	80.010	19.991	103.883	20.055	3.220	0.510
660.000	414.968	80.006	19.994	103.889	20.055	3.208	0.513
660.500	415.198	80.001	19.993	103.886	20.054	3.256	0.483
661.000	415.449	80.002	19.995	103.881	20.051	3.462	0.476
661.500	415.673	80.003	19.994	103.880	20.054	3.263	0.478
662.000	415.951	80.003	19.994	103.879	20.052	3.389	0.488
662.500	416.176	80.008	19.993	103.876	20.052	3.391	0.503
663.000	416.436	80.000	19.994	103.877	20.053	3.325	0.494
663.500	416.660	80.002	19.995	103.877	20.054	3.265	0.484
664.000	416.934	80.000	19.994	103.877	20.052	3.418	0.491
664.500	417.158	80.001	19.994	103.878	20.055	3.163	0.498
665.000	417.431	80.003	19.994	103.875	20.052	3.424	0.497
665.500	417.683	80.007	19.993	103.874	20.053	3.336	0.511
666.000	417.931	80.008	19.994	103.875	20.052	3.393	0.513
666.500	418.147	80.010	19.994	103.877	20.053	3.347	0.482
667.000	418.425	80.012	19.993	103.881	20.054	3.254	0.479
667.500	418.639	80.003	19.994	103.888	20.054	3.237	0.493
668.000	418.927	80.002	19.995	103.893	20.051	3.456	0.497
668.500	419.160	80.003	19.993	103.897	20.054	3.283	0.512
669.000	419.346	80.004	19.994	103.896	20.054	3.250	0.470
669.500	419.609	80.003	19.994	103.892	20.054	3.265	0.434
670.000	419.896	80.005	19.993	103.886	20.055	3.185	0.500
670.500	420.132	80.003	19.994	103.882	20.050	3.525	0.537
671.000	420.406	80.003	19.994	103.878	20.053	3.334	0.516
671.500	420.635	80.006	19.993	103.878	20.055	3.187	0.506
672.000	420.887	80.003	19.994	103.881	20.052	3.400	0.492
672.500	421.131	80.007	19.992	103.881	20.054	3.269	0.488
673.000	421.394	80.001	19.993	103.881	20.056	3.119	0.501
673.500	421.619	80.004	19.993	103.882	20.052	3.413	0.497
674.000	421.874	80.006	19.993	103.882	20.056	3.161	0.484
674.500	422.110	80.005	19.993	103.885	20.052	3.391	0.486
675.000	422.332	80.004	19.994	103.889	20.056	3.143	0.474
675.500	422.587	80.005	19.993	103.889	20.053	3.296	0.467
676.000	422.839	80.002	19.993	103.888	20.052	3.376	0.492
676.500	423.076	80.005	19.993	103.885	20.052	3.392	0.498
677.000	423.297	80.004	19.994	103.881	20.056	3.123	0.474
677.500	423.569	80.004	19.994	103.876	20.055	3.217	0.476
678.000	423.801	80.004	19.993	103.875	20.054	3.268	0.498
678.500	424.053	80.005	19.993	103.874	20.052	3.376	0.494
679.000	424.307	80.005	19.993	103.875	20.056	3.127	0.495
679.500	424.559	80.002	19.993	103.877	20.054	3.245	0.506
680.000	424.807	80.003	19.994	103.877	20.054	3.280	0.503
680.500	425.048	80.006	19.993	103.878	20.055	3.222	0.495
681.000	425.349	80.002	19.994	103.877	20.052	3.416	0.516
681.500	425.571	80.005	19.993	103.878	20.053	3.300	0.532
682.000	425.806	80.004	19.994	103.878	20.054	3.271	0.490
682.500	426.069	80.002	19.993	103.877	20.053	3.340	0.478
683.000	426.347	80.007	19.994	103.877	20.050	3.536	0.520
683.500	426.556	80.002	19.994	103.879	20.054	3.276	0.514
684.000	426.814	80.002	19.994	103.879	20.052	3.365	0.477
684.500	427.043	80.006	19.994	103.882	20.050	3.538	0.477
685.000	427.332	80.003	19.994	103.884	20.048	3.651	0.502
685.500	427.553	80.004	19.994	103.887	20.049	3.608	0.514
686.000	427.795	80.004	19.995	103.888	20.051	3.455	0.486
686.500	428.072	80.003	19.993	103.886	20.051	3.455	0.491
687.000	428.331	80.004	19.994	103.882	20.049	3.568	0.528
687.500	428.587	80.002	19.994	103.879	20.048	3.675	0.526
688.000	428.858	80.003	19.995	103.877	20.051	3.487	0.521
688.500	429.067	80.003	19.995	103.875	20.050	3.547	0.503
689.000	429.356	80.002	19.994	103.875	20.052	3.418	0.489
689.500	429.557	80.004	19.994	103.879	20.050	3.551	0.493
690.000	429.849	80.002	19.994	103.884	20.048	3.666	0.491
690.500	430.111	80.003	19.993	103.885	20.050	3.545	0.524
691.000	430.369	80.004	19.994	103.884	20.049	3.622	0.537
691.500	430.614	80.006	19.995	103.888	20.052	3.372	0.511
692.000	430.876	80.002	19.994	103.887	20.050	3.547	0.505
692.500	431.104	80.003	19.995	103.883	20.049	3.580	0.498
693.000	431.361	80.006	19.994	103.884	20.047	3.742	0.487
693.500	431.580	80.005	19.995	103.885	20.049	3.575	0.480
694.000	431.854	80.006	19.994	103.879	20.052	3.415	0.485
694.500	432.100	80.005	19.994	103.877	20.049	3.584	0.507
695.000	432.364	80.005	19.995	103.878	20.048	3.677	0.515
695.500	432.603	80.006	19.994	103.877	20.049	3.601	0.507
696.000	432.893	80.005	19.995	103.882	20.050	3.522	0.516
696.500	433.129	80.007	19.993	103.888	20.050	3.500	0.527
697.000	433.366	80.001	19.996	103.892	20.050	3.544	0.500
697.500	433.643	80.007	19.995	103.890	20.050	3.518	0.494
698.000	433.909	80.007	19.993	103.888	20.050	3.538	0.528
698.500	434.144	80.006	19.994	103.883	20.052	3.396	0.521
699.000	434.382	80.004	19.994	103.878	20.054	3.265	0.487
699.500	434.657	80.004	19.993	103.875	20.052	3.398	0.493
700.000	434.895	80.004	19.995	103.876	20.050	3.514	0.513
700.500	435.187	80.004	19.995	103.880	20.051	3.469	0.522
701.000	435.430	80.005	19.994	103.879	20.050	3.505	0.533
701.500	435.682	80.004	19.995	103.877	20.051	3.436	0.515
702.000	435.950	80.004	19.995	103.878	20.050	3.517	0.508
702.500	436.186	80.004	19.995	103.880	20.052	3.427	0.512
703.000	436.418	80.007	19.994	103.878	20.051	3.435	0.486
703.500	436.697	80.007	19.994	103.879	20.053	3.358	0.489
704.000	436.942	80.006	19.993	103.880	20.049	3.580	0.517
704.500	437.205	80.007	19.993	103.880	20.046	3.815	0.516
705.000	437.469	80.006	19.993	103.884	20.048	3.637	0.518
705.500	437.722	80.009	19.993	103.887	20.050	3.540	0.522
706.000	437.989	80.006	19.993	103.889	20.050	3.516	0.519
706.500	438.254	80.005	19.994	103.889	20.047	3.699	0.526
707.000	438.478	80.004	19.995	103.888	20.050	3.542	0.511
707.500	438.687	80.006	19.993	103.886	20.051	3.486	0.461
708.000	438.985	80.006	19.994	103.882	20.052	3.404	0.470
708.500	439.257	80.006	19.993	103.880	20.049	3.569	0.538
709.000	439.488	80.005	19.993	103.881	20.054	3.274	0.536
709.500	439.706	80.003	19.994	103.880	20.049	3.595	0.476
710.000	440.058	80.004	19.993	103.876	20.048	3.637	0.510
710.500	440.246	80.006	19.993	103.875	20.050	3.547	0.555
711.000	440.548	80.005	19.993	103.875	20.050	3.513	0.515
711.500	440.780	80.007	19.993	103.873	20.049	3.580	0.512
712.000	441.093	80.004	19.994	103.876	20.050	3.553	0.540
712.500	441.316	80.006	19.994	103.880	20.053	3.341	0.540
713.000	441.569	80.007	19.994	103.885	20.051	3.476	0.506
713.500	441.824	80.005	19.993	103.886	20.054	3.287	0.492
714.000	442.068	80.005	19.993	103.890	20.050	3.515	0.504
714.500	442.316	80.004	19.994	103.888	20.047	3.699	0.495
715.000	442.594	80.007	19.995	103.884	20.050	3.516	0.509
715.500	442.838	80.004	19.994	103.879	20.052	3.418	0.524
716.000	443.112	80.005	19.995	103.878	20.049	3.593	0.520
716.500	443.359	80.006	19.993	103.874	20.053	3.316	0.520
717.000	443.625	80.005	19.994	103.878	20.050	3.555	0.517
717.500	443.861	80.004	19.993	103.878	20.049	3.600	0.507
718.000	444.131	80.006	19.993	103.880	20.047	3.743	0.504
718.500	444.346	80.006	19.993	103.886	20.046	3.805	0.496
719.000	444.604	80.005	19.993	103.889	20.050	3.557	0.479
719.500	444.880	80.005	19.993	103.884	20.048	3.664	0.503
720.000	445.148	80.005	19.992	103.884	20.050	3.531	0.539
720.500	445.404	80.006	19.993	103.881	20.051	3.467	0.534
721.000	445.675	80.005	19.993	103.876	20.051	3.432	0.526
721.500	445.872	80.008	19.992	103.873	20.053	3.299	0.498
722.000	446.150	80.006	19.993	103.872	20.049	3.573	0.471
722.500	446.406	80.005	19.993	103.874	20.048	3.660	0.504
723.000	446.668	80.004	19.993	103.875	20.050	3.546	0.526
723.500	446.929	80.007	19.992	103.876	20.049	3.608	0.521
724.000	447.174	80.005	19.992	103.876	20.050	3.506	0.514
724.500	447.429	80.007	19.993	103.878	20.052	3.402	0.503
725.000	447.680	80.008	19.993	103.880	20.049	3.587	0.503
725.500	447.935	80.008	19.993	103.881	20.051	3.493	0.505
726.000	448.180	80.007	19.993	103.882	20.049	3.604	0.503
726.500	448.437	80.006	19.993	103.881	20.052	3.413	0.501
727.000	448.755	80.006	19.994	103.880	20.052	3.425	0.538
727.500	449.003	80.005	19.992	103.881	20.052	3.405	0.571
728.000	449.246	80.006	19.993	103.883	20.053	3.342	0.529
728.500	449.503	80.004	19.994	103.885	20.048	3.673	0.496
729.000	449.724	80.006	19.993	103.890	20.048	3.688	0.489
729.500	449.993	80.006	19.994	103.888	20.048	3.633	0.484
730.000	450.257	80.004	19.994	103.884	20.052	3.398	0.511
730.500	450.528	80.005	19.993	103.882	20.050	3.538	0.534
731.000	450.749	80.003	19.994	103.877	20.051	3.458	0.514
731.500	451.021	80.002	19.993	103.874	20.051	3.489	0.492
732.000	451.256	80.002	19.992	103.875	20.052	3.423	0.500
732.500	451.513	80.004	19.994	103.876	20.049	3.571	0.500
733.000	451.824	80.003	19.994	103.875	20.049	3.627	0.530
733.500	452.046	80.005	19.993	103.880	20.050	3.533	0.551
734.000	452.332	80.004	19.993	103.885	20.053	3.338	0.520
734.500	452.558	80.004	19.993	103.887	20.051	3.491	0.510
735.000	452.796	80.003	19.993	103.886	20.049	3.587	0.488
735.500	453.056	80.003	19.993	103.885	20.051	3.478	0.481
736.000	453.338	80.006	19.994	103.881	20.048	3.635	0.520
736.500	453.584	80.005	19.993	103.878	20.050	3.524	0.535
737.000	453.806	80.003	19.993	103.881	20.047	3.729	0.498
737.500	454.101	80.002	19.992	103.882	20.050	3.549	0.492
738.000	454.342	80.006	19.993	103.882	20.054	3.234	0.526
738.500	454.604	80.005	19.993	103.883	20.050	3.500	0.519
739.000	454.885	80.005	19.993	103.881	20.046	3.791	0.523
739.500	455.156	80.004	19.993	103.876	20.051	3.454	0.548
740.000	455.376	80.004	19.993	103.877	20.053	3.361	0.522
740.500	455.649	80.005	19.992	103.878	20.048	3.688	0.492
741.000	455.940	80.003	19.993	103.880	20.050	3.520	0.529
741.500	456.171	80.006	19.994	103.880	20.048	3.690	0.543
742.000	456.418	80.005	19.993	103.880	20.047	3.704	0.500
742.500	456.706	80.003	19.992	103.878	20.050	3.526	0.506
743.000	456.943	80.003	19.995	103.876	20.047	3.713	0.530
743.500	457.171	80.006	19.993	103.876	20.048	3.646	0.495
744.000	457.480	80.005	19.992	103.878	20.049	3.580	0.501
744.500	457.728	80.005	19.994	103.877	20.048	3.681	0.547
745.000	457.964	80.006	19.993	103.877	20.049	3.580	0.521
745.500	458.246	80.003	19.993	103.878	20.048	3.644	0.501
746.000	458.501	80.005	19.994	103.877	20.048	3.673	0.527
746.500	458.740	80.007	19.993	103.875	20.052	3.411	0.516
747.000	459.001	80.001	19.992	103.876	20.051	3.482	0.497
747.500	459.229	80.000	19.993	103.875	20.051	3.449	0.494
748.000	459.509	80.004	19.992	103.874	20.048	3.679	0.498
748.500	459.808	80.005	19.993	103.872	20.050	3.524	0.544
749.000	460.028	80.002	19.993	103.871	20.048	3.682	0.549
749.500	460.282	80.005	19.993	103.870	20.047	3.697	0.497
750.000	460.537	80.004	19.993	103.871	20.050	3.504	0.492
750.500	460.778	80.006	19.993	103.873	20.048	3.658	0.502
751.000	461.056	80.002	19.994	103.878	20.052	3.427	0.507
751.500	461.278	80.005	19.994	103.881	20.049	3.569	0.509
752.000	461.542	80.006	19.993	103.883	20.048	3.691	0.493
752.500	461.817	80.005	19.994	103.884	20.049	3.565	0.512
753.000	462.068	80.006	19.993	103.888	20.049	3.576	0.532
753.500	462.314	80.008	19.994	103.887	20.051	3.463	0.512
754.000	462.574	80.006	19.993	103.884	20.044	3.953	0.502
754.500	462.802	80.008	19.993	103.883	20.050	3.554	0.497
755.000	463.093	80.005	19.993	103.886	20.047	3.700	0.504
755.500	463.351	80.003	19.995	103.887	20.051	3.469	0.534
756.000	463.603	80.005	19.994	103.884	20.049	3.600	0.530
756.500	463.821	80.005	19.994	103.884	20.051	3.451	0.490
757.000	464.088	80.005	19.995	103.883	20.050	3.498	0.477
757.500	464.327	80.007	19.995	103.878	20.050	3.511	0.495
758.000	464.583	80.003	19.995	103.872	20.051	3.494	0.500
758.500	464.820	80.008	19.993	103.875	20.051	3.460	0.494
759.000	465.096	80.007	19.993	103.879	20.052	3.416	0.503
759.500	465.322	80.003	19.994	103.880	20.050	3.525	0.508
760.000	465.607	80.007	19.994	103.880	20.051	3.494	0.506
760.500	465.864	80.006	19.993	103.880	20.050	3.522	0.526
761.000	466.107	80.002	19.993	103.878	20.050	3.543	0.521
761.500	466.372	80.005	19.995	103.874	20.051	3.492	0.504
762.000	466.634	80.003	19.994	103.875	20.052	3.376	0.517
762.500	466.910	80.003	19.995	103.874	20.049	3.613	0.532
763.000	467.112	80.005	19.997	103.874	20.055	3.197	0.508
763.500	467.412	80.003	19.995	103.872	20.050	3.540	0.491
764.000	467.649	80.005	19.994	103.871	20.052	3.371	0.520
764.500	467.880	80.007	19.995	103.869	20.050	3.562	0.502
765.000	468.145	80.005	19.994	103.872	20.050	3.547	0.482
765.500	468.398	80.003	19.996	103.871	20.046	3.777	0.507
766.000	468.645	80.003	19.994	103.872	20.050	3.498	0.509
766.500	468.905	80.005	19.994	103.872	20.050	3.514	0.503
767.000	469.153	80.003	19.995	103.873	20.049	3.563	0.508
767.500	469.383	80.002	19.994	103.870	20.052	3.374	0.493
768.000	469.649	80.003	19.995	103.871	20.049	3.624	0.487
768.500	469.896	80.006	19.993	103.871	20.049	3.578	0.505
769.000	470.151	80.004	19.994	103.871	20.049	3.587	0.507
769.500	470.399	80.004	19.994	103.872	20.051	3.451	0.503
770.000	470.669	80.003	19.994	103.872	20.051	3.449	0.511
770.500	470.928	80.005	19.994	103.872	20.050	3.498	0.523
771.000	471.212	80.003	19.995	103.872	20.051	3.458	0.536
771.500	471.454	80.006	19.994	103.873	20.048	3.642	0.534
772.000	471.714	80.004	19.994	103.872	20.048	3.677	0.514
772.500	471.964	80.002	19.995	103.871	20.051	3.471	0.506
773.000	472.198	80.004	19.994	103.873	20.049	3.616	0.497
773.500	472.449	80.003	19.994	103.874	20.049	3.600	0.484
774.000	472.696	80.004	19.993	103.874	20.051	3.450	0.491
774.500	472.913	80.009	19.994	103.875	20.049	3.578	0.481
775.000	473.169	80.006	19.994	103.875	20.046	3.777	0.469
775.500	473.422	80.006	19.993	103.873	20.046	3.791	0.490
776.000	473.714	80.004	19.996	103.873	20.047	3.735	0.527
776.500	473.965	80.006	19.994	103.873	20.046	3.815	0.544
777.000	474.225	80.006	19.994	103.871	20.046	3.802	0.527
777.500	474.479	80.003	19.994	103.872	20.048	3.638	0.513
778.000	474.771	80.006	19.994	103.871	20.047	3.722	0.530
778.500	474.992	80.003	19.994	103.872	20.050	3.518	0.529
779.000	475.273	80.004	19.993	103.871	20.054	3.261	0.508
779.500	475.488	80.005	19.994	103.872	20.049	3.593	0.499
780.000	475.732	80.004	19.994	103.874	20.048	3.665	0.477
780.500	475.983	80.006	19.994	103.874	20.046	3.764	0.476
781.000	476.239	80.006	19.995	103.874	20.050	3.545	0.501
781.500	476.486	80.005	19.993	103.876	20.049	3.569	0.505
782.000	476.751	80.005	19.993	103.875	20.046	3.777	0.507
782.500	476.994	80.005	19.994	103.874	20.047	3.757	0.510
783.000	477.245	80.004	19.994	103.874	20.048	3.671	0.501
783.500	477.506	80.005	19.995	103.874	20.050	3.527	0.503
784.000	477.756	80.004	19.995	103.872	20.050	3.525	0.512
784.500	478.005	80.005	19.995	103.871	20.053	3.327	0.505
785.000	478.253	80.004	19.995	103.870	20.049	3.593	0.498
785.500	478.487	80.002	19.995	103.870	20.049	3.613	0.489
786.000	478.744	80.004	19.996	103.870	20.048	3.695	0.487
786.500	478.971	80.006	19.995	103.871	20.047	3.726	0.488
787.000	479.255	80.002	19.996	103.873	20.049	3.576	0.497
787.500	479.502	80.005	19.994	103.873	20.049	3.596	0.521
788.000	479.755	80.005	19.995	103.874	20.044	3.932	0.515
788.500	480.058	80.006	19.993	103.874	20.048	3.682	0.528
789.000	480.272	80.000	19.994	103.873	20.047	3.733	0.537
789.500	480.508	80.005	19.994	103.871	20.049	3.595	0.484
790.000	480.780	80.004	19.996	103.870	20.050	3.522	0.479
790.500	481.012	80.003	19.995	103.870	20.049	3.611	0.506
791.000	481.246	80.005	19.996	103.870	20.046	3.806	0.485
791.500	481.549	80.006	19.994	103.870	20.050	3.533	0.502
792.000	481.807	80.004	19.994	103.872	20.048	3.646	0.549
792.500	482.032	80.007	19.994	103.871	20.050	3.553	0.522
793.000	482.291	80.002	19.995	103.871	20.051	3.495	0.484
793.500	482.537	80.005	19.995	103.871	20.048	3.669	0.495
794.000	482.764	80.005	19.994	103.872	20.049	3.574	0.489
794.500	483.021	80.005	19.994	103.873	20.047	3.717	0.478
795.000	483.311	80.005	19.994	103.874	20.048	3.662	0.515
795.500	483.559	80.005	19.994	103.874	20.048	3.640	0.543
796.000	483.790	80.004	19.994	103.874	20.049	3.576	0.509
796.500	484.075	80.006	19.994	103.875	20.053	3.345	0.498
797.000	484.327	80.007	19.992	103.877	20.052	3.383	0.526
797.500	484.526	80.006	19.993	103.877	20.048	3.691	0.494
798.000	484.832	80.005	19.993	103.877	20.048	3.660	0.478
798.500	485.073	80.004	19.994	103.877	20.048	3.667	0.526
799.000	485.347	80.006	19.993	103.877	20.050	3.513	0.531
799.500	485.570	80.005	19.992	103.874	20.051	3.482	0.506
800.000	485.825	80.007	19.993	103.874	20.050	3.511	0.488
800.500	486.090	80.005	19.993	103.874	20.049	3.593	0.499
801.000	486.345	80.005	19.993	103.873	20.048	3.693	0.520
801.500	486.588	80.005	19.993	103.873	20.047	3.757	0.509
802.000	486.850	80.005	19.994	103.874	20.047	3.733	0.501
802.500	487.091	80.006	19.993	103.877	20.051	3.489	0.504
803.000	487.346	80.008	19.992	103.878	20.048	3.685	0.500
803.500	487.552	80.006	19.992	103.879	20.045	3.835	0.478
804.000	487.843	80.007	19.992	103.878	20.048	3.669	0.479
804.500	488.126	80.007	19.992	103.878	20.049	3.578	0.535
805.000	488.348	80.007	19.993	103.874	20.050	3.554	0.539
805.500	488.609	80.006	19.993	103.872	20.047	3.746	0.494
806.000	488.854	80.007	19.993	103.872	20.050	3.545	0.495
806.500	489.131	80.008	19.992	103.871	20.045	3.853	0.514
807.000	489.382	80.006	19.993	103.871	20.047	3.715	0.525
807.500	489.661	80.007	19.994	103.871	20.049	3.583	0.529
808.000	489.893	80.009	19.992	103.872	20.044	3.919	0.520
808.500	490.118	80.006	19.993	103.873	20.047	3.720	0.484
809.000	490.425	80.006	19.992	103.872	20.048	3.689	0.494
809.500	490.695	80.005	19.992	103.875	20.048	3.676	0.554
810.000	490.919	80.007	19.992	103.876	20.048	3.654	0.536
810.500	491.196	80.006	19.992	103.876	20.048	3.642	0.497
811.000	491.429	80.006	19.993	103.876	20.050	3.531	0.505
811.500	491.678	80.005	19.993	103.877	20.049	3.602	0.496
812.000	491.960	80.004	19.994	103.875	20.050	3.556	0.507
812.500	492.190	80.005	19.994	103.873	20.049	3.618	0.522
813.000	492.469	80.006	19.993	103.872	20.053	3.305	0.511
813.500	492.746	80.005	19.993	103.871	20.049	3.574	0.533
814.000	492.999	80.005	19.992	103.870	20.048	3.695	0.543
814.500	493.249	80.005	19.993	103.868	20.049	3.627	0.516
815.000	493.480	80.004	19.994	103.869	20.050	3.547	0.492
815.500	493.763	80.005	19.994	103.870	20.044	3.897	0.497
816.000	494.012	80.005	19.993	103.871	20.049	3.593	0.523
816.500	494.264	80.004	19.993	103.872	20.045	3.853	0.517
817.000	494.524	80.005	19.992	103.872	20.046	3.778	0.507
817.500	494.796	80.005	19.994	103.872	20.048	3.664	0.522
818.000	495.089	80.004	19.994	103.870	20.044	3.908	0.549
818.500	495.337	80.005	19.994	103.870	20.046	3.764	0.553
819.000	495.563	80.003	19.993	103.870	20.045	3.837	0.507
819.500	495.823	80.004	19.994	103.869	20.048	3.635	0.480
820.000	496.100	80.004	19.993	103.869	20.047	3.738	0.512
820.500	496.340	80.004	19.994	103.869	20.048	3.658	0.526
821.000	496.568	80.001	19.992	103.869	20.045	3.855	0.492
821.500	496.841	80.005	19.994	103.869	20.049	3.618	0.485
822.000	497.139	80.003	19.994	103.870	20.047	3.711	0.536
822.500	497.374	80.004	19.995	103.870	20.048	3.655	0.552
823.000	497.605	80.005	19.993	103.871	20.049	3.580	0.500
823.500	497.869	80.003	19.993	103.871	20.049	3.607	0.481
824.000	498.132	80.001	19.994	103.872	20.046	3.769	0.511
824.500	498.394	80.005	19.994	103.872	20.047	3.733	0.526
825.000	498.681	80.002	19.994	103.873	20.045	3.844	0.537
825.500	498.891	80.006	19.994	103.872	20.045	3.840	0.523
826.000	499.195	80.004	19.994	103.872	20.048	3.675	0.506
826.500	499.415	80.005	19.994	103.871	20.047	3.716	0.519
827.000	499.711	80.006	19.993	103.871	20.046	3.776	0.519
827.500	499.935	80.004	19.994	103.869	20.047	3.714	0.518
828.000	500.205	80.005	19.993	103.869	20.051	3.461	0.507
828.500	500.464	80.004	19.994	103.870	20.049	3.600	0.512
829.000	500.702	80.004	19.993	103.869	20.050	3.511	0.513
829.500	500.939	80.004	19.993	103.870	20.047	3.718	0.486
830.000	501.195	80.006	19.994	103.870	20.048	3.644	0.484
830.500	501.438	80.004	19.993	103.871	20.050	3.538	0.496
831.000	501.714	80.005	19.993	103.871	20.045	3.871	0.509
831.500	501.986	80.004	19.994	103.871	20.047	3.724	0.533
832.000	502.222	80.005	19.992	103.871	20.045	3.880	0.528
832.500	502.467	80.005	19.994	103.871	20.047	3.751	0.494
833.000	502.721	80.004	19.993	103.871	20.043	4.010	0.490
833.500	502.985	80.005	19.993	103.871	20.046	3.775	0.509
834.000	503.206	80.004	19.993	103.870	20.046	3.768	0.502
834.500	503.467	80.006	19.992	103.870	20.044	3.928	0.483
835.000	503.745	80.006	19.992	103.870	20.046	3.800	0.510
835.500	503.999	80.005	19.993	103.873	20.046	3.804	0.536
836.000	504.256	80.006	19.992	103.874	20.042	4.046	0.522
836.500	504.526	80.004	19.993	103.874	20.046	3.780	0.519
837.000	504.773	80.004	19.994	103.873	20.046	3.786	0.522
837.500	505.049	80.005	19.993	103.868	20.045	3.890	0.520
838.000	505.275	80.005	19.992	103.865	20.045	3.837	0.513
838.500	505.510	80.004	19.993	103.864	20.047	3.735	0.481
839.000	505.787	80.005	19.993	103.864	20.046	3.828	0.486
839.500	506.019	80.004	19.993	103.866	20.047	3.740	0.511
840.000	506.267	80.005	19.994	103.871	20.045	3.848	0.495
840.500	506.503	80.005	19.993	103.871	20.047	3.724	0.481
841.000	506.805	80.004	19.994	103.869	20.048	3.671	0.511
841.500	507.025	80.005	19.993	103.867	20.047	3.722	0.530
842.000	507.261	80.004	19.994	103.868	20.045	3.835	0.489
842.500	507.537	80.006	19.993	103.869	20.047	3.744	0.484
843.000	507.810	80.004	19.993	103.870	20.045	3.850	0.530
843.500	508.079	80.004	19.993	103.871	20.047	3.716	0.545
844.000	508.328	80.003	19.993	103.874	20.046	3.809	0.530
844.500	508.567	80.004	19.993	103.874	20.044	3.897	0.503
845.000	508.801	80.004	19.993	103.874	20.047	3.760	0.481
845.500	509.053	80.003	19.992	103.873	20.046	3.804	0.480
846.000	509.363	80.003	19.994	103.873	20.045	3.851	0.524
846.500	509.598	80.004	19.992	103.871	20.046	3.795	0.553
847.000	509.835	80.001	19.994	103.872	20.049	3.596	0.508
847.500	510.053	80.003	19.995	103.872	20.046	3.795	0.463
848.000	510.335	80.003	19.993	103.876	20.044	3.910	0.478
848.500	510.598	80.004	19.994	103.876	20.046	3.769	0.523
849.000	510.870	80.002	19.994	103.878	20.045	3.864	0.540
849.500	511.118	80.003	19.993	103.877	20.047	3.757	0.528
850.000	511.359	80.003	19.993	103.876	20.048	3.671	0.505
850.500	511.597	80.003	19.995	103.872	20.049	3.563	0.484
851.000	511.832	80.003	19.994	103.873	20.051	3.487	0.476
851.500	512.100	80.003	19.993	103.872	20.049	3.587	0.488
852.000	512.387	80.004	19.994	103.873	20.049	3.620	0.529
852.500	512.627	80.003	19.994	103.872	20.048	3.644	0.541
853.000	512.887	80.003	19.994	103.873	20.049	3.567	0.514
853.500	513.151	80.003	19.993	103.872	20.049	3.584	0.512
854.000	513.388	80.003	19.995	103.872	20.047	3.751	0.512
854.500	513.660	80.004	19.995	103.870	20.051	3.471	0.505
855.000	513.940	80.005	19.995	103.868	20.048	3.660	0.531
855.500	514.181	80.004	19.994	103.865	20.048	3.655	0.537
856.000	514.456	80.004	19.993	103.865	20.050	3.498	0.518
856.500	514.749	80.005	19.994	103.865	20.051	3.452	0.542
857.000	514.961	80.003	19.993	103.867	20.049	3.616	0.537
857.500	515.233	80.004	19.993	103.869	20.048	3.664	0.495
858.000	515.509	80.005	19.994	103.871	20.052	3.421	0.516
858.500	515.734	80.005	19.993	103.872	20.052	3.398	0.525
859.000	516.003	80.005	19.993	103.870	20.055	3.221	0.498
859.500	516.254	80.007	19.994	103.869	20.052	3.378	0.507
860.000	516.514	80.005	19.994	103.869	20.050	3.509	0.515
860.500	516.768	80.005	19.994	103.869	20.047	3.713	0.513
861.000	517.056	80.005	19.993	103.869	20.048	3.642	0.528
861.500	517.299	80.005	19.993	103.870	20.051	3.438	0.537
862.000	517.569	80.005	19.993	103.872	20.052	3.400	0.522
862.500	517.807	80.004	19.995	103.876	20.050	3.536	0.510
863.000	518.058	80.006	19.993	103.878	20.051	3.462	0.498
863.500	518.325	80.004	19.993	103.878	20.053	3.349	0.503
864.000	518.581	80.003	19.993	103.878	20.051	3.436	0.520
864.500	518.890	80.006	19.992	103.879	20.046	3.775	0.544
865.000	519.133	80.004	19.992	103.881	20.052	3.407	0.559
865.500	519.393	80.005	19.992	103.880	20.047	3.696	0.528
866.000	519.656	80.005	19.993	103.881	20.050	3.545	0.513
866.500	519.911	80.006	19.992	103.881	20.046	3.766	0.520
867.000	520.145	80.006	19.993	103.879	20.048	3.693	0.504
867.500	520.439	80.004	19.993	103.874	20.044	3.928	0.509
868.000	520.645	80.006	19.993	103.873	20.047	3.746	0.514
868.500	520.912	80.005	19.994	103.873	20.047	3.716	0.486
869.000	521.194	80.005	19.994	103.873	20.045	3.837	0.511
869.500	521.458	80.004	19.993	103.873	20.047	3.762	0.548
870.000	521.705	80.006	19.993	103.873	20.048	3.678	0.529
870.500	521.990	80.005	19.992	103.873	20.050	3.543	0.522
871.000	522.221	80.005	19.994	103.873	20.048	3.654	0.524
871.500	522.464	80.004	19.994	103.873	20.049	3.605	0.495
872.000	522.774	80.004	19.994	103.873	20.046	3.782	0.514
872.500	522.995	80.005	19.994	103.874	20.047	3.758	0.542
873.000	523.268	80.005	19.994	103.873	20.048	3.662	0.512
873.500	523.532	80.006	19.993	103.872	20.045	3.853	0.516
874.000	523.795	80.005	19.994	103.873	20.046	3.784	0.532
874.500	524.046	80.006	19.993	103.874	20.043	3.970	0.521
875.000	524.326	80.005	19.994	103.873	20.044	3.933	0.522
875.500	524.595	80.005	19.994	103.873	20.046	3.828	0.539
876.000	524.852	80.006	19.994	103.873	20.046	3.786	0.538
876.500	525.089	80.004	19.995	103.872	20.045	3.860	0.510
877.000	525.374	80.004	19.994	103.870	20.045	3.866	0.508
877.500	525.594	80.003	19.993	103.870	20.044	3.910	0.513
878.000	525.845	80.005	19.994	103.869	20.044	3.941	0.488
878.500	526.086	80.004	19.994	103.869	20.043	3.970	0.482
879.000	526.356	80.004	19.994	103.869	20.044	3.897	0.501
879.500	526.613	80.005	19.994	103.869	20.047	3.722	0.519
880.000	526.878	80.004	19.997	103.869	20.046	3.815	0.525
880.500	527.112	80.003	19.994	103.868	20.046	3.822	0.511
881.000	527.388	80.005	19.993	103.868	20.047	3.696	0.504
881.500	527.621	80.005	19.996	103.868	20.047	3.740	0.509
882.000	527.873	80.004	19.995	103.868	20.047	3.722	0.497
882.500	528.126	80.006	19.994	103.867	20.044	3.909	0.495
883.000	528.382	80.005	19.994	103.868	20.046	3.776	0.507
883.500	528.670	80.005	19.995	103.869	20.047	3.698	0.527
884.000	528.947	80.007	19.994	103.868	20.050	3.552	0.555
884.500	529.200	80.005	19.994	103.868	20.048	3.652	0.548
885.000	529.463	80.006	19.994	103.869	20.048	3.673	0.523
885.500	529.674	80.004	19.995	103.869	20.045	3.866	0.495
886.000	529.944	80.007	19.994	103.867	20.047	3.725	0.477
886.500	530.192	80.007	19.993	103.868	20.044	3.917	0.500
887.000	530.450	80.006	19.994	103.872	20.042	4.031	0.512
887.500	530.706	80.007	19.994	103.872	20.045	3.855	0.510
888.000	530.976	80.006	19.994	103.872	20.044	3.959	0.521
888.500	531.215	80.006	19.995	103.874	20.044	3.906	0.518
889.000	531.472	80.005	19.993	103.874	20.045	3.857	0.502
889.500	531.755	80.007	19.994	103.869	20.044	3.928	0.518
890.000	531.979	80.007	19.994	103.869	20.044	3.926	0.523
890.500	532.259	80.006	19.993	103.869	20.043	4.021	0.506
891.000	532.464	80.007	19.994	103.867	20.048	3.695	0.495
891.500	532.743	80.006	19.993	103.868	20.046	3.791	0.484
892.000	532.993	80.005	19.993	103.868	20.045	3.837	0.506
892.500	533.254	80.005	19.993	103.869	20.047	3.749	0.520
893.000	533.510	80.006	19.994	103.867	20.046	3.824	0.514
893.500	533.733	80.006	19.993	103.862	20.046	3.817	0.498
894.000	534.054	80.005	19.993	103.860	20.047	3.726	0.512
894.500	534.312	80.005	19.993	103.859	20.046	3.828	0.561
895.000	534.607	80.004	19.992	103.857	20.048	3.631	0.566
895.500	534.796	80.005	19.993	103.859	20.045	3.886	0.519
896.000	535.091	80.004	19.993	103.864	20.045	3.879	0.484
896.500	535.340	80.004	19.994	103.867	20.045	3.844	0.514
897.000	535.583	80.004	19.994	103.865	20.044	3.926	0.518
897.500	535.881	80.005	19.994	103.865	20.044	3.953	0.516
898.000	536.097	80.004	19.993	103.865	20.046	3.824	0.527
898.500	536.382	80.004	19.993	103.865	20.043	3.990	0.508
899.000	536.645	80.003	19.994	103.864	20.045	3.844	0.524
899.500	536.869	80.004	19.993	103.865	20.045	3.842	0.517
900.000	537.126	80.005	19.993	103.868	20.046	3.784	0.484
900.500	537.385	80.006	19.993	103.868	20.044	3.930	0.498
901.000	537.638	80.005	19.993	103.869	20.044	3.941	0.514
901.500	537.903	80.006	19.993	103.870	20.045	3.853	0.515
902.000	538.138	80.004	19.994	103.872	20.045	3.868	0.509
902.500	538.398	80.004	19.994	103.873	20.048	3.658	0.497
903.000	538.654	80.005	19.993	103.874	20.045	3.875	0.506
903.500	538.900	80.003	19.993	103.874	20.045	3.848	0.510
904.000	539.165	80.004	19.993	103.873	20.045	3.851	0.506
904.500	539.422	80.005	19.994	103.873	20.046	3.799	0.516
905.000	539.666	80.004	19.991	103.872	20.047	3.742	0.511
905.500	539.933	80.005	19.993	103.872	20.049	3.591	0.506
906.000	540.173	80.003	19.993	103.873	20.048	3.646	0.509
906.500	540.421	80.005	19.993	103.874	20.046	3.819	0.498
907.000	540.707	80.004	19.992	103.874	20.046	3.769	0.511
907.500	540.962	80.004	19.993	103.874	20.049	3.580	0.538
908.000	541.204	80.005	19.993	103.874	20.046	3.769	0.519
908.500	541.484	80.005	19.993	103.874	20.044	3.937	0.509
909.000	541.727	80.005	19.993	103.873	20.046	3.764	0.522
909.500	541.989	80.005	19.994	103.874	20.043	3.971	0.514
910.000	542.222	80.004	19.992	103.873	20.047	3.740	0.500
910.500	542.514	80.004	19.993	103.873	20.045	3.859	0.510
911.000	542.719	80.004	19.994	103.872	20.048	3.678	0.511
911.500	543.002	80.004	19.993	103.871	20.047	3.738	0.493
912.000	543.258	80.006	19.994	103.870	20.047	3.735	0.514
912.500	543.542	80.004	19.993	103.871	20.048	3.667	0.539
913.000	543.761	80.004	19.993	103.872	20.044	3.899	0.521
913.500	544.023	80.004	19.995	103.872	20.046	3.811	0.492
914.000	544.270	80.006	19.992	103.873	20.043	3.963	0.495
914.500	544.532	80.005	19.992	103.873	20.043	3.968	0.509
915.000	544.800	80.005	19.992	103.873	20.044	3.924	0.519
915.500	545.021	80.005	19.994	103.872	20.046	3.802	0.509
916.000	545.282	80.005	19.995	103.872	20.048	3.666	0.485
916.500	545.538	80.005	19.994	103.872	20.047	3.740	0.500
917.000	545.782	80.005	19.993	103.872	20.047	3.762	0.508
917.500	546.074	80.003	19.996	103.872	20.050	3.527	0.518
918.000	546.292	80.004	19.993	103.872	20.045	3.848	0.523
918.500	546.563	80.004	19.994	103.873	20.046	3.824	0.499
919.000	546.802	80.002	19.994	103.873	20.046	3.764	0.500
919.500	547.101	80.005	19.992	103.873	20.043	3.990	0.524
920.000	547.382	80.004	19.993	103.869	20.045	3.879	0.559
920.500	547.615	80.004	19.993	103.869	20.043	4.015	0.547
921.000	547.871	80.005	19.992	103.869	20.045	3.833	0.502
921.500	548.121	80.005	19.994	103.869	20.045	3.835	0.498
922.000	548.365	80.005	19.994	103.869	20.045	3.841	0.500
922.500	548.623	80.004	19.993	103.874	20.046	3.768	0.498
923.000	548.912	80.005	19.993	103.875	20.046	3.812	0.524
923.500	549.138	80.005	19.993	103.876	20.045	3.842	0.531
924.000	549.435	80.004	19.993	103.876	20.046	3.802	0.519
924.500	549.705	80.004	19.992	103.876	20.046	3.826	0.545
925.000	549.912	80.004	19.994	103.875	20.047	3.700	0.522
925.500	550.178	80.004	19.993	103.876	20.048	3.644	0.475
926.000	550.452	80.003	19.993	103.878	20.046	3.773	0.506
926.500	550.698	80.003	19.993	103.878	20.048	3.695	0.530
927.000	550.999	80.003	19.994	103.879	20.047	3.729	0.533
927.500	551.222	80.004	19.993	103.879	20.046	3.780	0.535
928.000	551.483	80.004	19.993	103.878	20.048	3.638	0.504
928.500	551.761	80.003	19.992	103.875	20.046	3.786	0.512
929.000	552.009	80.004	19.993	103.875	20.048	3.662	0.532
929.500	552.248	80.003	19.993	103.875	20.046	3.773	0.507
930.000	552.509	80.003	19.993	103.875	20.047	3.757	0.494
930.500	552.756	80.003	19.993	103.876	20.045	3.875	0.504
931.000	553.034	80.004	19.991	103.876	20.044	3.908	0.517
931.500	553.306	80.004	19.993	103.876	20.048	3.640	0.537
932.000	553.524	80.003	19.992	103.876	20.048	3.680	0.519
932.500	553.828	80.003	19.992	103.878	20.048	3.675	0.506
933.000	554.063	80.004	19.993	103.878	20.046	3.800	0.531
933.500	554.355	80.003	19.993	103.879	20.048	3.695	0.533
934.000	554.584	80.004	19.993	103.879	20.046	3.798	0.524
934.500	554.842	80.004	19.993	103.878	20.046	3.786	0.504
935.000	555.122	80.003	19.993	103.878	20.041	4.110	0.512
935.500	555.404	80.005	19.992	103.880	20.051	3.476	0.550
936.000	555.623	80.006	19.993	103.880	20.048	3.640	0.532
936.500	555.871	80.005	19.993	103.880	20.044	3.915	0.484
937.000	556.141	80.005	19.992	103.880	20.047	3.747	0.492
937.500	556.364	80.005	19.994	103.878	20.051	3.485	0.505
938.000	556.627	80.005	19.994	103.876	20.049	3.618	0.489
938.500	556.900	80.004	19.993	103.875	20.049	3.613	0.511
939.000	557.206	80.005	19.994	103.875	20.049	3.598	0.558
939.500	557.412	80.005	19.994	103.875	20.047	3.737	0.546
940.000	557.737	80.005	19.994	103.875	20.047	3.728	0.521
940.500	557.959	80.004	19.993	103.873	20.050	3.531	0.539
941.000	558.275	80.004	19.994	103.873	20.046	3.828	0.542
941.500	558.498	80.004	19.994	103.872	20.046	3.797	0.539
942.000	558.804	80.005	19.993	103.872	20.050	3.545	0.534
942.500	559.002	80.004	19.993	103.872	20.049	3.569	0.516
943.000	559.260	80.007	19.994	103.872	20.048	3.693	0.480
943.500	559.508	80.004	19.994	103.871	20.048	3.645	0.481
944.000	559.778	80.005	19.994	103.870	20.046	3.791	0.512
944.500	560.027	80.005	19.993	103.870	20.046	3.800	0.519
945.000	560.312	80.005	19.994	103.870	20.047	3.751	0.527
945.500	560.546	80.005	19.994	103.871	20.047	3.711	0.526
946.000	560.857	80.006	19.993	103.870	20.047	3.713	0.532
946.500	561.091	80.004	19.995	103.871	20.048	3.694	0.545
947.000	561.347	80.005	19.994	103.870	20.049	3.613	0.518
947.500	561.593	80.007	19.994	103.870	20.047	3.760	0.496
948.000	561.828	80.005	19.993	103.870	20.046	3.800	0.491
948.500	562.146	80.004	19.995	103.870	20.042	4.041	0.517
949.000	562.356	80.006	19.993	103.871	20.044	3.911	0.541
949.500	562.651	80.005	19.993	103.873	20.047	3.709	0.516
950.000	562.889	80.006	19.993	103.873	20.047	3.756	0.519
950.500	563.140	80.004	19.994	103.873	20.045	3.866	0.511
951.000	563.401	80.005	19.992	103.873	20.044	3.920	0.500
951.500	563.676	80.006	19.993	103.871	20.045	3.853	0.524
952.000	563.920	80.005	19.995	103.870	20.044	3.910	0.528
952.500	564.176	80.005	19.995	103.870	20.045	3.838	0.510
953.000	564.442	80.005	19.993	103.869	20.047	3.751	0.511
953.500	564.725	80.005	19.993	103.869	20.050	3.523	0.535
954.000	564.961	80.004	19.995	103.869	20.046	3.808	0.534
954.500	565.239	80.007	19.994	103.869	20.045	3.891	0.516
955.000	565.505	80.004	19.995	103.869	20.046	3.789	0.529
955.500	565.720	80.005	19.993	103.867	20.047	3.700	0.513
956.000	565.978	80.005	19.995	103.866	20.047	3.698	0.477
956.500	566.233	79.999	19.999	103.866	20.045	3.857	0.493
957.000	566.498	80.008	19.991	103.865	20.048	3.685	0.517
957.500	566.738	80.002	19.994	103.866	20.044	3.908	0.512
958.000	567.010	80.008	19.993	103.868	20.048	3.669	0.508
958.500	567.296	80.006	19.995	103.869	20.045	3.873	0.535
959.000	567.502	80.003	19.995	103.867	20.047	3.760	0.525
959.500	567.759	80.006	19.994	103.865	20.046	3.811	0.478
960.000	568.078	80.003	19.994	103.864	20.044	3.959	0.519
960.500	568.247	80.005	19.994	103.865	20.046	3.777	0.532
961.000	568.536	80.007	19.993	103.865	20.045	3.835	0.473
961.500	568.817	80.004	19.994	103.866	20.044	3.924	0.514
962.000	569.081	80.005	19.994	103.868	20.047	3.724	0.557
962.500	569.263	80.005	19.994	103.868	20.043	3.995	0.496
963.000	569.552	80.006	19.994	103.868	20.043	4.019	0.459
963.500	569.760	80.006	19.995	103.867	20.044	3.922	0.484
964.000	570.093	80.008	19.993	103.868	20.046	3.813	0.519
964.500	570.345	80.007	19.995	103.871	20.045	3.895	0.563
965.000	570.555	80.005	19.993	103.871	20.045	3.829	0.523
965.500	570.814	80.008	19.993	103.871	20.043	3.984	0.466
966.000	571.106	80.007	19.994	103.872	20.046	3.782	0.510
966.500	571.327	80.006	19.994	103.871	20.045	3.866	0.532
967.000	571.582	80.007	19.993	103.867	20.047	3.747	0.495
967.500	571.857	80.005	19.994	103.867	20.044	3.906	0.503
968.000	572.066	80.006	19.994	103.867	20.048	3.635	0.507
968.500	572.365	80.005	19.993	103.867	20.046	3.766	0.496
969.000	572.569	80.007	19.992	103.866	20.045	3.884	0.506
969.500	572.855	80.006	19.993	103.868	20.048	3.669	0.497
970.000	573.130	80.007	19.993	103.869	20.043	3.970	0.526
970.500	573.363	80.006	19.994	103.870	20.044	3.926	0.534
971.000	573.601	80.006	19.994	103.869	20.045	3.868	0.489
971.500	573.854	80.006	19.995	103.870	20.043	3.974	0.481
972.000	574.120	80.006	19.995	103.869	20.046	3.768	0.505
972.500	574.391	80.007	19.994	103.869	20.042	4.094	0.528
973.000	574.635	80.005	19.994	103.869	20.043	3.974	0.527
973.500	574.914	80.006	19.994	103.870	20.042	4.075	0.519
974.000	575.150	80.005	19.998	103.870	20.043	4.001	0.519
974.500	575.418	80.004	19.993	103.870	20.040	4.165	0.509
975.000	575.688	80.006	19.996	103.870	20.043	3.984	0.521
975.500	575.912	80.004	19.995	103.870	20.042	4.066	0.516
976.000	576.183	80.006	19.994	103.870	20.044	3.933	0.495
976.500	576.415	80.005	19.994	103.870	20.042	4.034	0.499
977.000	576.664	80.003	19.995	103.871	20.042	4.085	0.492
977.500	576.913	80.002	19.995	103.871	20.042	4.032	0.490
978.000	577.181	80.003	19.994	103.871	20.045	3.835	0.508
978.500	577.423	80.004	19.994	103.871	20.044	3.913	0.513
979.000	577.650	80.005	19.993	103.870	20.044	3.902	0.489
979.500	577.935	80.004	19.993	103.870	20.043	3.970	0.490
980.000	578.203	80.003	19.995	103.871	20.043	4.006	0.533
980.500	578.423	80.004	19.994	103.871	20.044	3.948	0.521
981.000	578.666	80.005	19.992	103.871	20.043	3.972	0.475
981.500	578.946	80.003	19.995	103.873	20.044	3.901	0.493
982.000	579.185	80.004	19.994	103.872	20.047	3.750	0.521
982.500	579.479	80.003	19.995	103.874	20.042	4.083	0.526
983.000	579.683	80.002	19.995	103.874	20.046	3.773	0.516
983.500	579.930	80.005	19.994	103.875	20.045	3.863	0.474
984.000	580.187	80.005	19.994	103.874	20.044	3.930	0.477
984.500	580.445	80.004	19.994	103.873	20.041	4.105	0.510
985.000	580.660	80.004	19.994	103.871	20.043	4.001	0.494
985.500	580.946	80.004	19.993	103.871	20.044	3.946	0.487
986.000	581.190	80.004	19.994	103.872	20.044	3.953	0.515
986.500	581.452	80.003	19.993	103.872	20.040	4.196	0.518
987.000	581.670	80.004	19.993	103.874	20.043	4.021	0.493
987.500	581.931	80.005	19.992	103.874	20.043	4.027	0.480
988.000	582.167	80.006	19.993	103.873	20.043	3.979	0.488
988.500	582.452	80.004	19.993	103.873	20.043	3.976	0.509
989.000	582.635	80.004	19.993	103.872	20.043	4.029	0.495
989.500	582.929	80.003	19.993	103.871	20.044	3.898	0.473
990.000	583.177	80.003	19.994	103.871	20.043	4.009	0.510
990.500	583.407	80.005	19.994	103.872	20.046	3.821	0.510
991.000	583.698	80.005	19.992	103.875	20.043	4.009	0.499
991.500	583.921	80.006	19.993	103.877	20.041	4.147	0.517
992.000	584.167	80.005	19.993	103.879	20.042	4.040	0.491
992.500	584.412	80.005	19.992	103.882	20.041	4.118	0.480
993.000	584.692	80.005	19.991	103.882	20.042	4.087	0.508
993.500	584.921	80.006	19.993	103.880	20.043	3.963	0.517
994.000	585.156	80.004	19.991	103.879	20.040	4.203	0.486
994.500	585.432	80.005	19.993	103.879	20.042	4.083	0.487
995.000	585.663	80.005	19.993	103.875	20.041	4.105	0.509
995.500	585.944	80.003	19.993	103.876	20.036	4.464	0.510
996.000	586.206	80.005	19.993	103.876	20.042	4.090	0.528
996.500	586.403	80.004	19.992	103.875	20.040	4.168	0.501
997.000	586.663	80.006	19.994	103.874	20.043	4.019	0.457
997.500	586.938	80.004	19.993	103.876	20.041	4.112	0.496
998.000	587.154	80.003	19.993	103.877	20.038	4.343	0.513
998.500	587.448	80.004	19.993	103.881	20.043	3.964	0.500
999.000	587.672	80.005	19.992	103.886	20.043	4.012	0.514
999.500	587.928	80.005	19.992	103.890	20.042	4.068	0.499
1000.000	588.142	80.005	19.993	103.894	20.042	4.050	0.475
1000.500	588.419	80.004	19.992	103.895	20.040	4.176	0.481
1001.000	588.694	80.003	19.991	103.895	20.038	4.303	0.521
1001.500	588.940	80.004	19.994	103.895	20.038	4.343	0.536
1002.000	589.168	80.004	19.995	103.893	20.041	4.112	0.498
1002.500	589.457	80.005	19.994	103.887	20.039	4.250	0.496
1003.000	589.696	80.005	19.995	103.887	20.039	4.280	0.523
1003.500	589.998	80.006	19.994	103.881	20.042	4.088	0.534
1004.000	590.203	80.006	19.995	103.879	20.042	4.054	0.524
1004.500	590.460	80.005	19.994	103.879	20.041	4.097	0.485
1005.000	590.699	80.005	19.993	103.881	20.040	4.219	0.479
1005.500	590.935	80.004	19.994	103.879	20.044	3.928	0.485
1006.000	591.209	80.003	19.994	103.879	20.042	4.081	0.492
1006.500	591.481	80.003	19.993	103.877	20.041	4.159	0.528
1007.000	591.651	80.004	19.993	103.873	20.040	4.189	0.494
1007.500	591.965	80.003	19.993	103.871	20.042	4.041	0.463
1008.000	592.183	80.003	19.994	103.871	20.043	4.015	0.508
1008.500	592.464	80.003	19.994	103.871	20.043	3.970	0.515
1009.000	592.660	80.001	19.993	103.871	20.041	4.130	0.488
1009.500	592.985	80.002	19.993	103.871	20.041	4.152	0.500
1010.000	593.268	80.003	19.994	103.874	20.042	4.065	0.565
1010.500	593.492	80.003	19.993	103.873	20.040	4.176	0.557
1011.000	593.723	80.000	19.993	103.874	20.042	4.057	0.481
1011.500	593.983	80.002	19.994	103.874	20.041	4.145	0.473
1012.000	594.253	80.003	19.994	103.874	20.039	4.258	0.510
1012.500	594.519	80.004	19.994	103.872	20.043	4.026	0.533
1013.000	594.755	80.004	19.993	103.873	20.039	4.263	0.519
1013.500	595.031	80.004	19.994	103.873	20.043	4.006	0.508
1014.000	595.290	80.003	19.990	103.873	20.041	4.159	0.524
1014.500	595.539	80.004	19.993	103.874	20.040	4.194	0.521
1015.000	595.769	80.004	19.993	103.874	20.042	4.039	0.493
1015.500	596.084	80.004	19.992	103.873	20.042	4.039	0.512
1016.000	596.266	80.005	19.994	103.874	20.040	4.203	0.521
1016.500	596.505	80.003	19.994	103.875	20.043	3.990	0.459
1017.000	596.793	80.002	19.993	103.874	20.040	4.221	0.475
1017.500	597.063	80.005	19.994	103.874	20.042	4.035	0.543
1018.000	597.262	80.005	19.992	103.874	20.038	4.307	0.513
1018.500	597.590	80.005	19.993	103.874	20.039	4.259	0.498
1019.000	597.837	80.004	19.993	103.874	20.041	4.159	0.551
1019.500	598.049	80.005	19.994	103.876	20.037	4.392	0.517
1020.000	598.325	80.005	19.994	103.878	20.041	4.134	0.473
1020.500	598.554	80.006	19.992	103.879	20.044	3.959	0.497
1021.000	598.830	80.007	19.993	103.879	20.039	4.265	0.505
1021.500	599.106	80.004	19.993	103.879	20.043	4.021	0.528
1022.000	599.356	80.005	19.994	103.878	20.042	4.064	0.539
1022.500	599.564	80.006	19.992	103.875	20.042	4.054	0.492
1023.000	599.861	80.005	19.992	103.874	20.043	3.986	0.482
1023.500	600.131	80.007	19.994	103.872	20.039	4.296	0.536
1024.000	600.356	80.004	19.994	103.872	20.041	4.099	0.531
1024.499	600.588	80.006	19.992	103.872	20.037	4.383	0.476
1024.999	600.916	80.005	19.993	103.875	20.041	4.148	0.508
1025.499	601.089	80.007	19.994	103.874	20.043	4.004	0.531
1025.999	601.327	80.006	19.993	103.873	20.041	4.139	0.456
1026.499	601.672	80.005	19.993	103.872	20.041	4.132	0.497
1026.999	601.905	80.007	19.992	103.867	20.041	4.119	0.581
1027.499	602.135	80.008	19.992	103.864	20.033	4.637	0.521
1027.999	602.389	80.004	19.992	103.864	20.044	3.937	0.473
1028.499	602.689	80.007	19.993	103.865	20.027	5.052	0.519
1028.999	602.892	80.009	19.993	103.866	20.026	5.098	0.528
1029.500	603.143	80.007	19.995	103.871	20.026	5.141	0.478
1030.001	603.423	80.007	19.991	103.870	20.044	3.904	0.492
1030.500	603.671	80.005	19.994	103.870	20.036	4.454	0.530
1030.999	603.949	80.005	19.992	103.870	20.045	3.844	0.527
1031.499	604.133	80.006	19.994	103.870	20.038	4.321	0.494
1031.999	604.387	80.006	19.994	103.869	20.042	4.079	0.450
1032.499	604.708	80.006	19.992	103.870	20.032	4.706	0.507
1032.999	604.991	80.007	19.992	103.870	20.040	4.216	0.589
1033.499	605.181	80.006	19.994	103.873	20.040	4.190	0.538
1033.999	605.426	80.000	19.995	103.873	20.036	4.469	0.454
1034.499	605.757	80.008	19.992	103.873	20.038	4.340	0.506
1034.999	605.917	80.004	19.993	103.874	20.039	4.289	0.534
1035.499	606.203	80.008	19.992	103.874	20.040	4.199	0.469
1035.999	606.443	80.006	19.995	103.872	20.036	4.431	0.486
1036.499	606.757	80.009	19.993	103.872	20.037	4.411	0.540
1036.999	607.094	80.007	19.992	103.873	20.040	4.187	0.603
1037.499	607.174	80.005	19.994	103.873	20.038	4.329	0.534
1037.999	607.609	80.003	19.990	103.872	20.040	4.167	0.466
1038.499	607.591	80.004	19.991	103.873	20.040	4.185	0.466
1038.999	608.167	80.005	19.995	103.872	20.040	4.176	0.488
1039.499	608.322	80.009	19.992	103.872	20.037	4.407	0.645
1039.999	608.484	80.006	19.990	103.873	20.038	4.360	0.523
1040.499	608.885	80.004	19.991	103.873	20.042	4.083	0.440
1040.999	609.092	80.003	19.996	103.873	20.039	4.249	0.586
1041.499	609.121	80.003	19.999	103.873	20.040	4.169	0.422
1041.999	609.361	80.003	19.997	103.873	20.039	4.278	0.252
1042.499	609.519	80.005	19.994	103.871	20.043	4.010	0.334
1042.999	609.848	80.007	19.994	103.871	20.040	4.192	0.443
1043.499	609.609	80.007	19.991	103.871	20.038	4.327	0.289
1043.999	610.356	80.004	19.995	103.871	20.041	4.150	0.299
1044.499	611.101	80.005	19.994	103.872	20.039	4.294	1.000
1045.000	610.898	80.006	19.994	103.872	20.035	4.515	1.017
1045.500	611.715	80.005	19.995	103.872	20.037	4.400	0.578
1045.999	611.313	80.003	19.995	103.871	20.038	4.307	0.514
1046.499	611.851	80.008	19.996	103.871	20.040	4.229	0.276
1046.999	612.023	80.008	19.993	103.870	20.036	4.493	0.423
1047.499	612.377	80.008	19.991	103.872	20.038	4.307	0.618
1047.999	612.603	80.004	19.995	103.872	20.037	4.374	0.552
1048.499	612.881	80.009	19.991	103.871	20.039	4.270	0.542
1048.999	613.057	80.004	19.995	103.872	20.038	4.320	0.479
1049.499	613.340	80.007	19.993	103.872	20.041	4.147	0.457
1049.999	613.580	80.006	19.993	103.871	20.040	4.216	0.491
1050.499	613.931	80.008	19.994	103.870	20.039	4.293	0.557
1050.999	614.167	80.006	19.994	103.871	20.039	4.254	0.589
1051.499	614.454	80.006	19.993	103.871	20.037	4.389	0.555
1051.999	614.518	80.006	19.993	103.875	20.038	4.322	0.437
1052.499	614.977	80.008	19.994	103.876	20.036	4.471	0.437
1052.999	615.207	80.005	19.995	103.876	20.039	4.251	0.607
1053.500	615.332	80.006	19.993	103.880	20.033	4.677	0.522
1054.000	615.762	80.008	19.992	103.881	20.036	4.469	0.455
1054.499	615.927	80.007	19.993	103.878	20.036	4.484	0.575
1054.999	616.136	80.004	19.992	103.877	20.040	4.199	0.484
1055.499	616.410	80.006	19.995	103.877	20.037	4.400	0.429
1055.999	616.695	80.005	19.992	103.873	20.038	4.332	0.521
1056.499	617.020	80.006	19.994	103.872	20.039	4.247	0.584
1056.999	617.235	80.006	19.992	103.872	20.036	4.436	0.575
1057.500	617.482	80.006	19.992	103.873	20.040	4.167	0.501
1058.000	617.704	80.004	19.994	103.873	20.033	4.691	0.466
1058.500	617.914	80.003	19.993	103.873	20.035	4.502	0.451
1059.000	618.189	80.003	19.993	103.873	20.040	4.225	0.459
1059.500	618.379	80.004	19.992	103.873	20.038	4.307	0.475
1060.000	618.716	80.004	19.993	103.873	20.037	4.416	0.497
1060.500	619.016	80.004	19.993	103.873	20.038	4.340	0.582
1061.000	619.184	80.003	19.993	103.877	20.039	4.241	0.552
1061.499	619.420	80.002	19.994	103.881	20.038	4.327	0.436
1061.999	619.738	80.005	19.994	103.884	20.037	4.412	0.480
1062.499	619.952	80.004	19.995	103.884	20.040	4.207	0.543
1062.999	620.165	80.004	19.994	103.885	20.041	4.152	0.479
1063.499	620.479	80.004	19.994	103.883	20.039	4.283	0.477
1064.000	620.727	80.004	19.994	103.878	20.039	4.269	0.545
1064.500	620.975	80.003	19.995	103.875	20.038	4.343	0.529
1064.999	621.203	80.002	19.993	103.874	20.037	4.371	0.486
1065.499	621.463	80.003	19.996	103.874	20.039	4.279	0.482
1066.000	621.742	80.004	19.994	103.873	20.040	4.227	0.513
1066.500	621.932	80.003	19.994	103.872	20.036	4.438	0.504
1066.999	622.220	80.004	19.995	103.872	20.040	4.201	0.474
1067.499	622.477	80.004	19.995	103.872	20.043	4.024	0.512
1067.999	622.715	80.004	19.994	103.871	20.039	4.265	0.520
1068.499	622.937	80.003	19.994	103.872	20.041	4.137	0.477
1068.999	623.240	80.004	19.994	103.872	20.041	4.154	0.492
1069.499	623.469	80.003	19.997	103.872	20.040	4.174	0.529
1069.999	623.694	80.004	19.995	103.871	20.038	4.342	0.493
1070.499	624.000	80.003	19.995	103.876	20.040	4.216	0.492
1070.999	624.170	80.004	19.993	103.875	20.039	4.276	0.503
1071.499	624.489	80.003	19.995	103.875	20.035	4.496	0.482
1071.999	624.707	80.003	19.995	103.874	20.039	4.254	0.513
1072.499	624.951	80.001	19.995	103.874	20.037	4.400	0.500
1072.999	625.233	80.003	19.994	103.870	20.036	4.435	0.494
1073.500	625.426	80.005	19.994	103.869	20.035	4.522	0.501
1074.000	625.695	80.004	19.995	103.869	20.037	4.422	0.469
1074.499	625.981	80.005	19.993	103.871	20.038	4.316	0.508
1074.999	626.242	80.004	19.994	103.871	20.036	4.451	0.551
1075.499	626.438	80.005	19.994	103.871	20.038	4.323	0.502
1075.999	626.743	80.004	19.995	103.871	20.038	4.329	0.479
1076.499	626.945	80.003	19.994	103.870	20.038	4.314	0.504
1076.999	627.278	80.004	19.995	103.871	20.037	4.403	0.521
1077.499	627.506	80.005	19.994	103.871	20.038	4.336	0.548
1077.999	627.745	80.005	19.994	103.870	20.037	4.363	0.514
1078.499	628.000	80.005	19.993	103.871	20.037	4.374	0.480
1078.999	628.251	80.005	19.995	103.871	20.038	4.332	0.500
1079.499	628.489	80.004	19.993	103.870	20.037	4.367	0.497
1079.999	628.785	80.006	19.993	103.872	20.038	4.320	0.511
1080.499	628.989	80.005	19.993	103.873	20.037	4.387	0.517
1080.999	629.282	80.006	19.994	103.874	20.039	4.283	0.499
1081.499	629.527	80.005	19.992	103.876	20.036	4.456	0.518
1081.999	629.799	80.006	19.994	103.876	20.038	4.301	0.527
1082.499	630.026	80.005	19.994	103.876	20.039	4.290	0.508
1082.999	630.326	80.007	19.994	103.877	20.037	4.409	0.513
1083.499	630.525	80.007	19.992	103.879	20.036	4.458	0.512
1083.999	630.774	80.004	19.994	103.878	20.039	4.253	0.473
1084.499	631.047	80.005	19.993	103.878	20.037	4.373	0.486
1084.999	631.305	80.005	19.994	103.877	20.039	4.275	0.526
1085.499	631.527	80.005	19.992	103.875	20.039	4.242	0.505
1086.000	631.804	80.005	19.995	103.875	20.037	4.395	0.489
1086.501	632.011	80.005	19.995	103.873	20.035	4.531	0.492
1087.000	632.279	80.004	19.993	103.874	20.039	4.247	0.480
1087.499	632.517	80.004	19.994	103.873	20.039	4.238	0.491
1087.999	632.764	80.005	19.994	103.873	20.037	4.429	0.496
1088.499	633.039	80.004	19.993	103.871	20.035	4.533	0.503
1088.999	633.273	80.005	19.994	103.873	20.033	4.635	0.516
1089.499	633.511	80.004	19.993	103.873	20.037	4.393	0.491
1089.999	633.791	80.006	19.993	103.874	20.037	4.428	0.495
1090.499	634.018	80.005	19.994	103.874	20.035	4.524	0.513
1090.999	634.341	80.004	19.993	103.874	20.034	4.601	0.528
1091.499	634.553	80.005	19.993	103.872	20.037	4.377	0.542
1091.999	634.813	80.004	19.994	103.872	20.036	4.442	0.503
1092.499	635.049	80.007	19.992	103.870	20.036	4.479	0.484
1092.999	635.308	80.005	19.993	103.871	20.038	4.361	0.496
1093.500	635.591	80.005	19.993	103.873	20.035	4.561	0.519
1094.000	635.820	80.005	19.994	103.874	20.033	4.645	0.527
1094.499	636.070	80.003	19.993	103.877	20.034	4.583	0.495
1094.999	636.315	80.005	19.994	103.883	20.033	4.649	0.486
1095.499	636.555	80.003	19.994	103.888	20.036	4.457	0.490
1095.999	636.846	80.003	19.994	103.890	20.037	4.428	0.509
1096.499	637.053	80.005	19.993	103.890	20.035	4.499	0.515
1096.999	637.361	80.004	19.992	103.887	20.034	4.602	0.506
1097.499	637.586	80.003	19.994	103.883	20.035	4.542	0.524
1097.999	637.828	80.005	19.994	103.878	20.035	4.553	0.500
1098.499	638.051	80.006	19.995	103.877	20.033	4.641	0.466
1098.999	638.306	80.002	19.997	103.880	20.035	4.525	0.472
1099.499	638.578	80.005	19.993	103.883	20.035	4.520	0.503
1099.999	638.817	80.004	19.993	103.888	20.036	4.483	0.519
1100.499	639.089	80.003	19.994	103.891	20.037	4.387	0.511
1100.999	639.348	80.004	19.993	103.890	20.033	4.658	0.521
1101.499	639.571	80.003	19.994	103.892	20.035	4.514	0.506
1101.999	639.824	80.005	19.994	103.889	20.031	4.816	0.479
1102.499	640.081	80.004	19.994	103.888	20.034	4.621	0.493
1102.999	640.345	80.004	19.994	103.891	20.034	4.588	0.516
1103.499	640.557	80.005	19.993	103.894	20.032	4.718	0.499
1103.999	640.794	80.002	19.996	103.897	20.036	4.463	0.462
1104.499	641.073	80.006	19.991	103.901	20.035	4.534	0.482
1105.000	641.276	80.004	19.994	103.900	20.033	4.656	0.499
1105.500	641.562	80.006	19.993	103.899	20.033	4.682	0.486
1105.999	641.796	80.004	19.993	103.895	20.035	4.527	0.505
1106.500	642.100	80.007	19.993	103.891	20.035	4.564	0.529
1107.000	642.319	80.005	19.995	103.885	20.034	4.569	0.531
1107.499	642.507	80.005	19.995	103.882	20.036	4.462	0.465
1107.999	642.773	80.006	19.994	103.878	20.037	4.421	0.430
1108.499	643.039	80.007	19.993	103.882	20.038	4.343	0.493
1108.999	643.265	80.006	19.995	103.886	20.035	4.511	0.512
1109.499	643.555	80.008	19.991	103.893	20.035	4.543	0.504
1109.999	643.794	80.006	19.992	103.901	20.033	4.634	0.523
1110.500	644.026	80.005	19.992	103.908	20.035	4.538	0.500
1111.000	644.322	80.004	19.994	103.910	20.033	4.647	0.500
1111.500	644.537	80.006	19.995	103.910	20.036	4.476	0.520
1112.000	644.793	80.004	19.994	103.907	20.037	4.394	0.491
1112.499	644.997	80.005	19.994	103.904	20.035	4.543	0.465
1113.000	645.274	80.005	19.993	103.899	20.034	4.604	0.470
1113.501	645.506	80.005	19.993	103.895	20.035	4.540	0.495
1114.000	645.764	80.005	19.992	103.895	20.038	4.343	0.500
1114.499	646.017	80.002	19.997	103.897	20.037	4.423	0.500
1114.999	646.250	80.005	19.995	103.900	20.037	4.400	0.498
1115.500	646.497	80.005	19.993	103.903	20.036	4.445	0.483
1116.001	646.741	80.005	19.992	103.906	20.036	4.485	0.486
1116.500	646.988	80.005	19.992	103.907	20.034	4.567	0.491
1116.999	647.197	80.005	19.992	103.908	20.034	4.606	0.473
1117.499	647.474	80.006	19.992	103.911	20.035	4.564	0.471
1117.999	647.695	80.004	19.993	103.910	20.032	4.706	0.492
1118.499	647.960	80.005	19.994	103.911	20.031	4.770	0.492
1118.999	648.220	80.004	19.992	103.908	20.041	4.146	0.505
1119.499	648.466	80.004	19.994	103.907	20.042	4.090	0.516
1119.999	648.730	80.005	19.993	103.907	20.029	4.914	0.508
1120.499	648.964	80.005	19.993	103.905	20.031	4.775	0.504
1120.999	649.227	80.003	19.992	103.905	20.035	4.555	0.498
1121.500	649.469	80.004	19.995	103.907	20.031	4.781	0.501
1122.000	649.743	80.005	19.994	103.907	20.035	4.531	0.510
1122.499	649.998	80.005	19.995	103.907	20.031	4.782	0.522
1122.999	650.212	80.007	19.994	103.909	20.036	4.454	0.499
1123.499	650.436	80.003	19.994	103.907	20.034	4.622	0.454
1123.999	650.705	80.005	19.994	103.907	20.035	4.553	0.465
1124.499	651.015	80.004	19.993	103.906	20.032	4.757	0.536
1125.000	651.196	80.005	19.993	103.907	20.032	4.724	0.535
1125.500	651.480	80.005	19.993	103.909	20.029	4.961	0.478
1125.999	651.670	80.006	19.993	103.912	20.032	4.751	0.470
1126.499	651.961	80.007	19.995	103.913	20.032	4.733	0.477
1126.999	652.166	80.004	19.992	103.913	20.033	4.638	0.488
1127.499	652.474	80.006	19.993	103.914	20.030	4.846	0.505
1127.999	652.714	80.006	19.993	103.914	20.032	4.748	0.531
1128.499	653.007	80.006	19.994	103.915	20.030	4.831	0.541
1128.999	653.143	80.011	19.990	103.914	20.034	4.604	0.480
1129.499	653.457	80.012	19.987	103.915	20.033	4.651	0.439
1129.999	653.714	80.009	19.992	103.916	20.034	4.627	0.511
1130.500	653.945	80.004	19.993	103.916	20.034	4.604	0.530
1131.000	654.261	80.006	19.993	103.915	20.032	4.702	0.517
1131.499	654.481	80.007	19.993	103.916	20.028	5.025	0.542
1131.999	654.539	80.006	19.992	103.914	20.034	4.627	0.407
1132.499	654.777	80.006	19.995	103.912	20.031	4.811	0.287
1132.999	655.916	80.007	19.993	103.911	20.031	4.822	0.837
1133.499	656.099	80.006	19.994	103.910	20.033	4.673	1.350
1133.999	655.484	80.008	19.995	103.909	20.035	4.529	0.445
1134.499	655.983	80.005	19.996	103.909	20.033	4.649	-0.274
1134.999	656.171	80.008	19.992	103.908	20.032	4.731	0.285
1135.499	656.408	80.007	19.993	103.907	20.030	4.868	0.556
1135.999	656.746	80.006	19.995	103.905	20.037	4.420	0.500
1136.499	656.902	80.009	19.991	103.905	20.035	4.529	0.535
1136.999	657.197	80.005	19.994	103.906	20.031	4.813	0.473
1137.499	657.390	80.008	19.993	103.906	20.030	4.872	0.469
1137.999	657.655	80.006	19.993	103.907	20.032	4.762	0.473
1138.499	657.881	80.006	19.994	103.908	20.032	4.719	0.475
1138.999	658.174	80.005	19.994	103.908	20.031	4.828	0.505
1139.499	658.462	80.005	19.995	103.910	20.032	4.699	0.550
1140.000	658.649	80.006	19.995	103.910	20.035	4.522	0.528
1140.500	658.941	80.005	19.995	103.910	20.030	4.854	0.477
1141.000	659.168	80.005	19.993	103.910	20.031	4.796	0.499
1141.500	659.424	80.003	19.994	103.910	20.032	4.759	0.501
1141.999	659.673	80.004	19.993	103.908	20.031	4.823	0.494
1142.499	659.947	80.003	19.992	103.909	20.030	4.854	0.514
1142.999	660.139	80.006	19.993	103.910	20.027	5.098	0.494
1143.499	660.465	80.006	19.994	103.911	20.032	4.701	0.492
1144.000	660.699	80.004	19.994	103.912	20.028	5.024	0.539
1144.501	660.940	80.004	19.996	103.913	20.030	4.838	0.518
1145.000	661.201	80.003	19.996	103.913	20.029	4.954	0.489
1145.499	661.427	80.002	19.992	103.915	20.030	4.832	0.494
1145.999	661.719	80.004	19.994	103.914	20.029	4.940	0.503
1146.499	661.965	80.000	19.998	103.914	20.031	4.796	0.529
1146.999	662.207	80.006	19.991	103.911	20.030	4.871	0.513
1147.499	662.443	80.007	19.993	103.913	20.033	4.641	0.483
1147.999	662.759	80.009	19.992	103.911	20.031	4.786	0.515
1148.499	662.987	80.006	19.992	103.916	20.031	4.800	0.548
1148.999	663.255	80.006	19.991	103.916	20.030	4.857	0.520
1149.499	663.506	80.004	19.994	103.918	20.030	4.877	0.508
1149.999	663.751	80.007	19.994	103.916	20.031	4.815	0.507
1150.499	663.999	80.003	19.996	103.918	20.028	5.010	0.494
1150.999	664.239	80.007	19.997	103.916	20.029	4.959	0.491
1151.499	664.499	80.006	19.990	103.922	20.028	4.984	0.494
1151.999	664.741	80.008	19.990	103.925	20.029	4.900	0.501
1152.500	664.992	80.003	19.994	103.926	20.035	4.557	0.497
1153.000	665.259	80.011	19.992	103.924	20.029	4.938	0.506
1153.499	665.515	80.003	19.993	103.922	20.028	5.008	0.520
1153.999	665.781	80.005	20.000	103.922	20.029	4.951	0.522
1154.499	666.010	80.002	19.998	103.921	20.029	4.906	0.509
1154.999	666.288	80.005	19.993	103.926	20.029	4.937	0.501
1155.499	666.542	80.005	19.991	103.927	20.027	5.048	0.520
1155.999	666.804	80.006	19.993	103.926	20.027	5.083	0.524
1156.499	667.058	80.004	19.991	103.920	20.028	4.983	0.516
1156.999	667.352	80.003	19.994	103.924	20.026	5.103	0.532
1157.499	667.611	80.004	19.993	103.925	20.029	4.902	0.551
1157.999	667.817	80.006	19.993	103.932	20.028	4.977	0.509
1158.499	668.101	80.003	19.995	103.940	20.028	4.968	0.478
1158.999	668.377	80.006	19.994	103.946	20.030	4.886	0.525
1159.499	668.637	80.006	19.994	103.946	20.027	5.061	0.548
1159.999	668.895	80.004	19.991	103.946	20.028	5.021	0.527
1160.499	669.136	80.005	19.993	103.946	20.027	5.065	0.509
1160.999	669.396	80.005	19.993	103.947	20.027	5.048	0.500
1161.499	669.656	80.007	19.995	103.946	20.030	4.879	0.510
1161.999	669.870	80.002	19.998	103.946	20.027	5.092	0.497
1162.499	670.173	80.009	19.993	103.944	20.028	4.992	0.496
1162.999	670.382	80.001	19.989	103.938	20.028	5.029	0.514
1163.499	670.680	79.999	19.994	103.936	20.028	4.990	0.509
1164.000	670.950	80.004	19.996	103.936	20.027	5.072	0.537
1164.500	671.159	80.002	19.995	103.938	20.025	5.185	0.524
1164.999	671.468	80.003	19.995	103.940	20.026	5.160	0.499
1165.499	671.653	80.002	19.997	103.945	20.028	4.994	0.506
1165.999	671.967	80.008	19.991	103.946	20.025	5.229	0.497
1166.499	672.219	80.007	19.994	103.946	20.025	5.191	0.533
1166.999	672.467	80.004	19.994	103.945	20.020	5.545	0.533
1167.499	672.729	80.008	19.991	103.945	20.027	5.043	0.505
1167.999	672.939	80.006	19.995	103.946	20.027	5.076	0.491
1168.499	673.216	80.001	19.999	103.948	20.026	5.149	0.479
1168.999	673.499	80.004	19.999	103.948	20.024	5.271	0.523
1169.499	673.751	80.003	19.995	103.948	20.021	5.477	0.548
1169.999	673.993	80.001	19.997	103.948	20.027	5.076	0.514
1170.499	674.279	79.999	19.996	103.947	20.023	5.324	0.511
1170.999	674.510	80.003	19.994	103.947	20.023	5.348	0.522
1171.499	674.790	79.999	19.997	103.948	20.021	5.498	0.514
1171.999	675.055	80.003	19.995	103.949	20.019	5.591	0.528
1172.499	675.304	80.001	20.003	103.951	20.023	5.332	0.530
1172.999	675.602	80.006	19.993	103.951	20.022	5.416	0.530
1173.500	675.829	80.006	19.993	103.954	20.021	5.447	0.536
1174.001	676.053	80.005	19.995	103.955	20.023	5.355	0.488
1174.501	676.346	80.005	19.992	103.955	20.021	5.472	0.484
1175.001	676.568	80.004	19.993	103.953	20.024	5.274	0.516
1175.501	676.841	80.004	19.994	103.955	20.022	5.418	0.505
1176.000	677.078	80.004	19.993	103.952	20.021	5.438	0.503
1176.499	677.369	80.005	19.993	103.952	20.022	5.408	0.519
1176.999	677.581	80.002	19.995	103.953	20.022	5.378	0.515
1177.499	677.922	80.003	19.997	103.955	20.022	5.385	0.528
1177.999	678.087	80.003	19.995	103.957	20.021	5.436	0.530
1178.499	678.380	80.007	19.994	103.958	20.020	5.513	0.482
1178.999	678.588	80.003	19.993	103.957	20.022	5.391	0.480
1179.499	678.875	80.006	19.995	103.956	20.019	5.570	0.498
1180.000	679.133	80.003	19.992	103.953	20.020	5.537	0.520
1180.500	679.389	80.003	19.990	103.951	20.021	5.491	0.530
1180.999	679.597	80.007	19.986	103.954	20.021	5.451	0.489
1181.499	679.879	80.007	19.993	103.957	20.021	5.493	0.477
1181.999	680.206	80.003	19.992	103.963	20.021	5.440	0.550
1182.499	680.393	80.004	19.998	103.966	20.018	5.654	0.562
1182.999	680.671	80.011	19.989	103.966	20.020	5.561	0.490
1183.499	680.926	80.007	19.984	103.965	20.020	5.553	0.499
1183.999	681.207	80.004	19.997	103.967	20.020	5.546	0.534
1184.499	681.482	80.003	19.995	103.962	20.020	5.543	0.546
1184.999	682.035	80.006	19.990	103.963	20.022	5.386	0.693
1185.499	681.402	80.006	19.995	103.967	20.022	5.426	0.374
1185.999	681.859	80.004	19.992	103.967	20.021	5.450	-0.129
1186.499	682.410	80.007	19.994	103.965	20.019	5.603	0.416
1186.999	682.701	80.002	19.996	103.966	20.021	5.468	0.925
1187.499	682.913	80.005	19.993	103.966	20.022	5.399	0.673
1188.000	683.245	79.998	19.994	103.969	20.019	5.579	0.524
1188.500	683.495	80.002	19.990	103.970	20.019	5.570	0.563
1188.999	683.777	80.003	19.991	103.976	20.020	5.530	0.557
1189.499	683.970	80.007	19.991	103.979	20.020	5.556	0.503
1190.000	684.261	80.006	19.995	103.983	20.019	5.596	0.480
1190.500	684.547	80.008	19.993	103.981	20.021	5.495	0.530
1191.000	684.807	80.004	19.993	103.983	20.021	5.461	0.561
1191.500	685.056	80.006	19.995	103.982	20.020	5.566	0.527
1192.000	685.274	80.003	19.998	103.983	20.019	5.577	0.489
1192.500	685.503	80.003	19.997	103.983	20.021	5.446	0.457
1192.999	685.789	80.002	19.995	103.985	20.018	5.645	0.481
1193.499	686.034	80.005	19.992	103.985	20.020	5.528	0.523
1193.999	686.310	80.004	19.999	103.983	20.020	5.546	0.526
1194.499	686.565	80.004	19.988	103.983	20.021	5.455	0.526
1194.999	686.851	80.004	19.997	103.984	20.021	5.437	0.536
1195.499	687.077	80.002	20.000	103.985	20.021	5.481	0.527
1195.999	687.325	80.006	19.994	103.984	20.019	5.636	0.493
1196.499	687.576	80.003	19.994	103.987	20.020	5.565	0.487
1196.999	687.841	80.002	19.997	103.987	20.016	5.787	0.508
1197.499	688.078	80.009	19.986	103.985	20.018	5.694	0.509
1197.999	688.353	80.005	19.992	103.987	20.017	5.738	0.507
1198.499	688.596	80.008	19.991	103.989	20.020	5.561	0.516
1198.999	688.884	80.009	19.994	103.989	20.015	5.867	0.525
1199.499	689.121	80.005	19.993	103.989	20.017	5.738	0.528
1199.999	689.373	80.006	19.992	103.990	20.016	5.804	0.507
1200.499	689.640	80.004	19.994	103.988	20.020	5.512	0.504
1200.999	689.865	80.007	19.992	103.986	20.017	5.712	0.506
1201.499	690.134	80.006	19.993	103.987	20.016	5.824	0.493
1201.999	690.376	80.007	19.992	103.987	20.018	5.647	0.502
1202.499	690.602	80.005	19.993	103.988	20.015	5.890	0.489
1203.000	690.861	80.003	19.995	103.988	20.019	5.634	0.476
1203.500	691.141	80.006	19.999	103.989	20.018	5.686	0.512
1203.999	691.430	80.001	20.000	103.988	20.015	5.854	0.554
1204.500	691.662	80.002	20.000	103.987	20.016	5.808	0.546
1205.000	691.883	80.007	19.995	103.985	20.017	5.766	0.487
1205.499	692.158	80.004	19.995	103.985	20.018	5.666	0.474
1205.999	692.387	80.006	19.996	103.986	20.019	5.628	0.500
1206.499	692.631	80.004	19.992	103.988	20.018	5.684	0.489
1207.000	692.842	80.008	19.996	103.989	20.020	5.535	0.464
1207.501	693.128	80.000	19.998	103.992	20.017	5.754	0.476
1208.000	693.371	79.999	19.997	103.990	20.017	5.754	0.513
1208.499	693.625	80.005	19.996	103.987	20.017	5.768	0.513
1208.999	693.893	80.006	19.994	103.986	20.019	5.577	0.510
1209.500	694.144	80.006	19.991	103.987	20.015	5.889	0.521
1210.000	694.355	80.004	19.994	103.986	20.017	5.716	0.490
1210.499	694.606	80.006	19.999	103.987	20.018	5.670	0.462
1211.000	694.851	80.006	19.995	103.988	20.016	5.802	0.479
1211.500	695.123	80.004	19.994	103.988	20.016	5.804	0.506
1211.999	695.388	80.006	19.993	103.988	20.015	5.842	0.527
1212.499	695.638	80.010	19.991	103.988	20.017	5.743	0.526
1213.000	695.894	80.007	19.989	103.990	20.014	5.926	0.511
1213.500	696.138	80.006	19.992	103.992	20.017	5.756	0.503
1213.999	696.395	80.006	19.994	103.994	20.013	5.979	0.500
1214.499	696.622	80.012	19.994	103.998	20.015	5.844	0.492
1214.999	696.879	80.005	19.996	104.005	20.015	5.861	0.484
1215.499	697.119	80.007	19.993	104.002	20.013	5.997	0.490
1215.999	697.358	80.008	19.991	104.004	20.013	5.988	0.488
1216.499	697.625	80.006	19.996	104.010	20.013	5.988	0.493
1216.999	697.901	80.006	19.997	104.009	20.015	5.853	0.525
1217.499	698.130	80.005	19.989	104.003	20.012	6.072	0.524
1218.000	698.397	80.003	19.996	104.009	20.011	6.118	0.501
1218.500	698.630	80.000	19.996	104.011	20.008	6.326	0.498
1218.999	698.856	80.010	19.993	104.008	20.012	6.076	0.480
1219.499	699.123	80.010	19.994	104.011	20.011	6.135	0.476
1219.999	699.372	80.005	19.997	104.017	20.013	6.011	0.504
1220.499	699.637	80.007	19.995	104.019	20.010	6.200	0.514
1220.999	699.904	80.006	19.992	104.020	20.009	6.266	0.523
1221.499	700.150	80.005	19.998	104.023	20.011	6.153	0.523
1222.000	700.404	80.000	19.999	104.020	20.012	6.068	0.507
1222.500	700.611	79.998	20.001	104.020	20.010	6.209	0.481
1222.999	700.887	80.003	19.993	104.018	20.010	6.224	0.472
1223.499	701.149	80.005	19.990	104.020	20.010	6.187	0.510
1223.999	701.407	80.009	19.992	104.022	20.009	6.287	0.529
1224.499	701.652	80.005	19.995	104.027	20.009	6.263	0.512
1224.999	701.908	80.004	19.995	104.027	20.010	6.179	0.502
1225.500	702.132	80.005	19.998	104.029	20.008	6.360	0.490
1226.000	702.407	80.003	19.996	104.028	20.010	6.226	0.489
1226.499	702.648	80.005	19.992	104.027	20.010	6.207	0.508
1226.999	702.863	80.005	19.992	104.026	20.009	6.251	0.486
1227.499	703.135	80.004	19.995	104.026	20.010	6.240	0.471
1227.999	703.398	80.007	19.994	104.027	20.007	6.425	0.511
1228.499	703.648	80.005	19.994	104.028	20.011	6.114	0.524
1228.999	703.910	80.006	19.995	104.030	20.013	5.996	0.513
1229.499	704.148	80.006	19.995	104.032	20.010	6.209	0.506
1229.999	704.414	80.006	19.994	104.035	20.008	6.336	0.502
1230.500	704.651	80.004	19.994	104.034	20.008	6.336	0.503
1231.000	704.895	80.005	19.994	104.034	20.012	6.100	0.492
1231.499	705.164	80.005	19.993	104.032	20.008	6.317	0.497
1231.999	705.369	80.006	19.994	104.037	20.009	6.255	0.494
1232.499	705.624	80.004	19.994	104.042	20.010	6.198	0.467
1232.999	705.896	80.007	19.992	104.048	20.010	6.182	0.493
1233.500	706.179	80.008	19.993	104.053	20.011	6.115	0.541
1234.001	706.384	80.005	19.994	104.057	20.009	6.268	0.522
1234.500	706.647	80.005	19.992	104.051	20.007	6.425	0.478
1234.999	706.879	80.004	19.995	104.049	20.012	6.104	0.481
1235.499	707.161	80.004	19.998	104.050	20.009	6.259	0.505
1235.999	707.393	80.003	19.994	104.051	20.011	6.144	0.514
1236.499	707.654	80.003	19.997	104.055	20.009	6.301	0.503
1236.999	707.889	80.003	19.997	104.061	20.009	6.303	0.494
1237.499	708.157	80.005	19.993	104.063	20.009	6.286	0.500
1238.000	708.378	80.003	19.993	104.061	20.008	6.363	0.496
1238.500	708.654	80.005	19.995	104.061	20.008	6.325	0.493
1238.999	708.943	80.002	19.997	104.062	20.008	6.318	0.531
1239.500	709.152	80.005	19.992	104.063	20.006	6.445	0.531
1240.000	709.392	80.003	19.995	104.065	20.009	6.276	0.474
1240.499	709.636	80.010	19.990	104.066	20.009	6.270	0.467
1240.999	709.881	80.004	19.992	104.068	20.004	6.610	0.487
1241.499	710.100	80.002	19.998	104.068	20.009	6.305	0.476
1241.999	710.401	80.004	19.996	104.068	20.006	6.486	0.492
1242.499	710.649	80.006	19.994	104.066	20.006	6.456	0.535
1242.999	710.893	80.005	19.995	104.066	20.003	6.680	0.521
1243.499	711.167	80.004	19.990	104.065	20.008	6.353	0.505
1243.999	711.393	80.004	19.994	104.066	20.003	6.646	0.509
1244.499	711.620	80.004	19.991	104.068	20.003	6.649	0.476
1244.999	711.869	80.004	19.998	104.069	20.003	6.693	0.464
1245.499	712.145	80.006	19.991	104.068	20.006	6.468	0.501
1245.999	712.391	80.003	19.996	104.069	20.005	6.542	0.524
1246.499	712.638	80.004	19.995	104.069	20.005	6.563	0.508
1246.999	712.899	80.006	19.996	104.068	20.006	6.445	0.501
1247.499	713.144	80.005	19.995	104.067	20.004	6.592	0.507
1247.999	713.400	80.004	19.995	104.071	20.005	6.567	0.504
1248.499	713.652	80.005	19.995	104.070	20.005	6.554	0.505
1249.000	713.898	80.006	19.995	104.071	20.004	6.629	0.503
1249.500	714.135	80.007	19.996	104.072	20.005	6.540	0.490
1249.999	714.404	80.004	19.994	104.074	20.004	6.610	0.494
1250.499	714.649	80.006	19.996	104.073	20.002	6.716	0.510
1250.999	714.910	80.005	19.996	104.075	20.004	6.590	0.510
1251.499	715.147	80.003	19.996	104.077	20.002	6.723	0.502
1251.999	715.386	80.004	19.995	104.080	20.001	6.832	0.487
1252.500	715.646	80.004	19.995	104.083	20.002	6.723	0.487
1253.001	715.877	80.004	19.995	104.088	20.003	6.686	0.495
1253.500	716.149	80.004	19.994	104.089	20.002	6.721	0.497
1253.999	716.422	80.004	19.995	104.093	20.001	6.807	0.524
1254.500	716.625	80.003	19.993	104.093	20.001	6.783	0.511
1255.000	716.908	80.004	19.994	104.094	20.002	6.725	0.481
1255.500	717.130	80.004	19.994	104.092	20.004	6.621	0.495
1256.000	717.352	80.003	19.994	104.091	20.000	6.875	0.474
1256.499	717.616	80.003	19.999	104.091	20.003	6.676	0.465
1256.999	717.868	80.002	19.994	104.093	20.001	6.789	0.501
1257.499	718.160	80.004	19.996	104.094	19.999	6.924	0.530
1257.999	718.389	80.003	19.993	104.089	19.998	7.005	0.532
1258.499	718.599	79.997	20.001	104.087	20.001	6.795	0.480
1258.999	718.858	80.002	19.998	104.088	20.002	6.721	0.454
1259.499	719.123	80.002	19.998	104.088	19.996	7.163	0.497
1259.999	719.343	80.005	19.997	104.090	19.999	6.951	0.505
1260.499	719.633	80.002	19.996	104.097	20.001	6.814	0.498
1261.000	719.848	80.010	19.992	104.102	19.994	7.286	0.507
1261.500	720.108	80.004	19.994	104.104	19.997	7.059	0.489
1262.000	720.344	80.005	19.992	104.104	19.997	7.049	0.485
1262.501	720.585	80.003	19.994	104.103	19.996	7.180	0.487
1263.001	720.851	80.005	19.995	104.103	19.997	7.105	0.493
1263.500	721.115	80.003	19.996	104.103	19.994	7.253	0.519
1263.999	721.351	80.008	19.996	104.102	19.996	7.116	0.515
1264.499	721.598	80.008	19.988	104.103	19.994	7.295	0.491
1264.999	721.827	80.006	19.991	104.105	19.997	7.074	0.479
1265.499	722.046	80.006	19.991	104.106	19.996	7.156	0.462
1265.999	722.312	80.004	19.993	104.107	19.997	7.091	0.466
1266.499	722.552	80.003	19.995	104.108	19.998	6.999	0.495
1266.999	722.829	80.008	19.994	104.108	19.992	7.430	0.511
1267.499	723.115	80.005	19.987	104.108	19.996	7.143	0.541
1268.000	723.338	80.004	19.993	104.113	19.997	7.063	0.536
1268.500	723.545	80.008	19.987	104.114	19.995	7.197	0.469
1268.999	723.828	80.005	19.993	104.120	19.994	7.264	0.460
1269.499	724.079	80.004	19.999	104.123	19.994	7.286	0.512
1269.999	724.311	80.010	19.994	104.127	19.996	7.158	0.508
1270.499	724.575	80.007	19.994	104.126	19.992	7.385	0.490
1270.999	724.804	80.006	19.992	104.130	19.994	7.279	0.495
1271.499	725.053	80.009	19.998	104.131	19.993	7.327	0.485
1271.999	725.309	80.007	19.993	104.134	19.993	7.358	0.492
1272.499	725.527	80.007	19.992	104.136	19.991	7.502	0.489
1273.000	725.804	80.005	19.998	104.139	19.991	7.460	0.484
1273.500	726.065	80.005	19.992	104.141	19.992	7.407	0.517
1273.999	726.323	80.007	19.993	104.141	19.988	7.665	0.528
1274.499	726.570	80.009	19.997	104.142	19.993	7.367	0.512
1274.999	726.830	80.007	19.987	104.141	19.992	7.393	0.506
1275.499	727.044	80.002	19.998	104.142	19.991	7.482	0.491
1275.999	727.301	80.006	19.997	104.143	19.990	7.582	0.473
1276.499	727.557	80.004	19.998	104.140	19.991	7.476	0.492
1276.999	727.826	80.009	19.991	104.139	19.988	7.697	0.519
1277.500	728.041	80.006	19.999	104.141	19.990	7.524	0.505
1278.000	728.314	80.009	19.997	104.138	19.989	7.599	0.486
1278.499	728.575	80.005	19.998	104.138	19.990	7.529	0.511
1278.999	728.830	80.004	20.001	104.140	19.991	7.473	0.525
1279.500	729.054	80.001	19.994	104.140	19.988	7.699	0.497
1280.000	729.319	80.003	19.995	104.139	19.992	7.425	0.484
1280.499	729.595	80.008	19.993	104.140	19.993	7.370	0.515
1280.999	729.843	80.005	19.992	104.141	19.991	7.489	0.533
1281.499	730.095	80.005	19.994	104.142	19.992	7.427	0.512
1281.999	730.377	80.005	19.994	104.144	19.989	7.599	0.517
1282.499	730.607	80.007	19.996	104.144	19.987	7.748	0.523
1282.999	730.830	80.007	19.995	104.146	19.986	7.797	0.482
1283.500	731.111	80.007	19.993	104.148	19.988	7.676	0.478
1284.001	731.381	80.005	19.997	104.147	19.991	7.515	0.527
1284.500	731.610	80.004	19.994	104.147	19.991	7.492	0.525
1284.999	731.852	80.008	19.994	104.146	19.992	7.435	0.485
1285.499	732.120	80.006	19.994	104.148	19.989	7.611	0.490
1285.999	732.358	80.007	19.996	104.152	19.993	7.384	0.508
1286.499	732.618	80.008	19.994	104.153	19.987	7.784	0.503
1286.999	732.908	80.007	19.995	104.159	19.986	7.834	0.524
1287.499	733.138	80.006	19.994	104.164	19.985	7.863	0.535
1287.999	733.420	80.007	19.993	104.168	19.986	7.843	0.516
1288.499	733.646	80.006	19.998	104.165	19.985	7.876	0.510
1288.999	733.882	80.003	19.993	104.168	19.984	7.939	0.485
1289.499	734.126	80.005	19.994	104.168	19.986	7.837	0.471
1289.999	734.430	80.007	19.993	104.169	19.982	8.062	0.514
1290.499	734.668	80.007	19.992	104.167	19.980	8.203	0.545
1290.999	734.959	80.007	19.994	104.169	19.982	8.084	0.535
1291.499	735.204	80.011	19.993	104.171	19.981	8.181	0.533
1291.999	735.450	80.009	19.993	104.174	19.983	7.997	0.514
1292.499	735.712	79.999	20.000	104.176	19.981	8.158	0.500
1292.999	735.999	80.010	19.992	104.178	19.984	7.961	0.528
1293.500	736.199	80.006	19.998	104.181	19.987	7.769	0.518
1294.000	736.512	80.003	19.997	104.180	19.982	8.072	0.500
1294.499	736.747	80.008	19.992	104.180	19.977	8.454	0.530
1294.999	737.002	80.004	19.998	104.180	19.985	7.919	0.519
1295.499	737.293	80.011	19.996	104.180	19.983	8.040	0.518
1295.999	737.516	80.003	19.996	104.180	19.985	7.879	0.530
1296.499	737.803	80.010	19.994	104.181	19.984	7.952	0.512
1296.999	738.038	80.008	19.993	104.182	19.986	7.807	0.516
1297.499	738.337	80.007	19.989	104.181	19.978	8.327	0.528
1297.999	738.571	80.006	19.996	104.184	19.981	8.166	0.534
1298.499	738.804	80.005	19.995	104.183	19.981	8.148	0.500
1298.999	739.107	80.007	19.992	104.185	19.979	8.285	0.502
1299.499	739.391	80.006	19.992	104.192	19.980	8.254	0.562
1299.999	739.613	80.011	19.992	104.198	19.981	8.184	0.546
1300.500	739.874	80.008	19.990	104.202	19.979	8.270	0.494
1301.000	740.086	80.004	19.994	104.208	19.977	8.445	0.478
1301.500	740.344	80.007	19.995	104.206	19.980	8.202	0.472
1302.000	740.619	80.008	19.995	104.207	19.979	8.272	0.502
1302.500	740.867	80.006	19.995	104.210	19.978	8.331	0.527
1303.001	741.140	80.005	19.993	104.213	19.978	8.339	0.521
1303.500	741.384	80.006	19.992	104.215	19.981	8.149	0.519
1303.999	741.631	80.006	19.993	104.222	19.978	8.345	0.504
1304.499	741.911	80.004	19.994	104.222	19.976	8.523	0.509
1304.999	742.119	80.006	19.993	104.222	19.977	8.411	0.508
1305.499	742.415	80.004	19.995	104.223	19.976	8.466	0.496
1305.999	742.659	80.005	19.990	104.224	19.978	8.385	0.522
1306.500	742.925	80.002	19.996	104.224	19.979	8.261	0.525
1307.000	743.194	80.006	19.995	104.223	19.973	8.685	0.523
1307.500	743.489	80.004	19.996	104.224	19.975	8.539	0.549
