Sample ID:	C:\MCC\MCC Cal\Test\PUF_Mattress_Pad_MCC_30K_min_220110_R3.txt
Sample Weight (mg):	4.96
Heating Rate (C/s):	0.5
Combustor Temp (C):	900
N2 Flow Rate (cc/min):	80
O2 Flow Rate (cc/min):	20
Calibration File:	C:\MCC\MCC Cal\Coeff1 JN10440_30_210304.txt.txt
T Correction Coefficients:	0	1.024463	0
Time Shift (s):	14
*
Time (s)	Temperature (C)	N2 flow rate (cc/min)	O2 flow rate (cc/min)	Flow Rate (cc/min)	Oxygen (%)	HRR (W/g)	Heating rate (C/s)
0.000	110.552	80.004	19.994	104.064	20.137	-0.097	-0.021
0.500	110.528	80.002	19.993	104.064	20.138	-0.169	-0.015
1.000	110.525	80.003	19.996	104.064	20.136	-0.090	-0.018
1.500	110.520	80.005	19.995	104.064	20.137	-0.091	-0.017
2.000	110.537	80.003	19.997	104.063	20.134	0.077	0.002
2.500	110.546	80.004	19.994	104.064	20.133	0.108	0.019
3.000	110.531	80.003	19.996	104.065	20.139	-0.278	0.010
3.500	110.523	80.004	19.995	104.066	20.136	-0.077	-0.014
4.000	110.538	80.006	19.995	104.066	20.135	0.016	-0.008
4.500	110.534	80.003	19.995	104.066	20.135	0.029	0.009
5.000	110.565	80.005	19.994	104.065	20.137	-0.145	0.019
5.500	110.568	80.003	19.996	104.064	20.138	-0.221	0.030
6.000	110.541	80.006	19.991	104.063	20.137	-0.095	0.005
6.500	110.537	80.003	19.998	104.064	20.136	-0.074	-0.028
7.000	110.525	80.006	19.994	104.063	20.132	0.174	-0.023
7.500	110.555	80.005	19.996	104.063	20.135	0.032	0.001
8.000	110.567	80.003	19.994	104.063	20.134	0.045	0.030
8.500	110.538	80.005	19.996	104.063	20.136	-0.070	0.012
9.000	110.547	80.005	19.993	104.058	20.134	0.083	-0.019
9.500	110.538	80.004	19.994	104.059	20.133	0.126	-0.010
10.000	110.546	80.005	19.994	104.059	20.135	0.023	-0.000
10.500	110.547	80.007	19.992	104.059	20.132	0.197	0.004
11.000	110.547	80.004	19.994	104.060	20.132	0.205	0.005
11.500	110.571	80.004	19.995	104.064	20.135	-0.007	0.012
12.000	110.552	80.007	19.993	104.064	20.136	-0.027	0.014
12.500	110.572	80.005	19.993	104.064	20.136	-0.066	0.003
13.000	110.576	80.003	19.993	104.065	20.137	-0.115	0.013
13.499	110.552	80.004	19.995	104.065	20.134	0.054	0.002
13.999	110.561	80.001	19.994	104.065	20.132	0.212	-0.018
14.499	110.551	80.005	19.993	104.064	20.133	0.142	-0.009
14.999	110.554	80.004	19.993	104.065	20.131	0.295	-0.004
15.500	110.565	80.001	19.993	104.065	20.131	0.298	0.004
15.999	110.540	80.001	19.995	104.064	20.130	0.340	0.000
16.499	110.552	80.001	19.995	104.064	20.130	0.352	-0.013
17.000	110.542	80.002	19.996	104.069	20.130	0.345	-0.006
17.499	110.561	80.004	19.994	104.070	20.130	0.329	0.006
17.999	110.541	80.002	19.995	104.074	20.129	0.368	0.004
18.499	110.568	80.003	19.997	104.080	20.127	0.543	0.003
19.000	110.575	80.003	19.997	104.087	20.128	0.478	0.020
19.500	110.565	80.002	19.996	104.089	20.129	0.413	0.015
19.999	110.582	80.002	19.993	104.095	20.128	0.453	0.002
20.499	110.553	80.004	19.999	104.105	20.127	0.552	-0.002
20.999	110.548	80.005	19.994	104.112	20.125	0.650	-0.023
21.500	110.585	80.004	19.995	104.122	20.124	0.728	-0.001
22.000	110.595	80.004	19.993	104.131	20.119	1.046	0.039
22.500	110.574	80.001	19.998	104.140	20.121	0.900	0.018
23.000	110.602	80.003	19.997	104.147	20.120	0.961	-0.002
23.500	110.627	80.004	19.994	104.157	20.119	1.082	0.030
23.999	110.610	80.000	19.997	104.169	20.120	1.010	0.030
24.499	110.619	80.004	19.995	104.184	20.117	1.182	-0.000
24.999	110.649	80.003	19.995	104.200	20.114	1.392	0.016
25.499	110.665	80.005	19.994	104.212	20.114	1.362	0.043
26.000	110.697	80.007	19.994	104.220	20.114	1.398	0.048
26.500	110.696	80.000	20.004	104.225	20.113	1.457	0.039
27.000	110.782	80.005	19.993	104.225	20.109	1.721	0.057
27.500	110.746	80.004	19.996	104.230	20.110	1.617	0.067
28.000	110.803	80.005	19.994	104.236	20.111	1.588	0.036
28.499	110.802	80.007	19.995	104.243	20.107	1.853	0.039
28.999	110.844	80.002	19.995	104.250	20.104	2.020	0.049
29.500	110.903	80.001	19.994	104.256	20.103	2.106	0.071
30.000	110.943	80.003	19.997	104.256	20.104	2.043	0.100
30.499	110.964	80.006	19.996	104.252	20.107	1.836	0.080
30.999	110.988	80.008	19.996	104.247	20.103	2.108	0.052
31.499	111.057	80.008	19.995	104.240	20.105	1.993	0.069
31.999	111.125	80.007	19.995	104.234	20.101	2.235	0.115
32.499	111.146	80.006	19.994	104.230	20.104	2.050	0.113
32.999	111.218	80.004	19.996	104.227	20.108	1.783	0.091
33.499	111.298	80.007	19.994	104.224	20.105	1.953	0.123
33.999	111.346	80.008	19.990	104.224	20.104	2.070	0.140
34.499	111.355	80.005	19.993	104.224	20.101	2.232	0.093
34.999	111.405	80.004	19.997	104.223	20.101	2.237	0.058
35.499	111.484	80.004	19.995	104.223	20.103	2.131	0.094
35.999	111.557	80.005	19.995	104.223	20.100	2.299	0.140
36.499	111.630	80.005	19.994	104.222	20.105	1.973	0.149
36.999	111.676	80.005	19.993	104.222	20.102	2.185	0.133
37.499	111.712	80.001	19.995	104.222	20.106	1.928	0.101
37.999	111.805	80.004	19.993	104.222	20.106	1.909	0.105
38.500	111.870	80.005	19.994	104.224	20.103	2.119	0.143
39.000	111.965	80.006	19.995	104.228	20.106	1.907	0.159
39.500	112.013	80.005	19.994	104.228	20.103	2.126	0.152
40.000	112.069	80.004	19.995	104.227	20.103	2.135	0.123
40.499	112.152	80.007	19.994	104.228	20.104	2.044	0.121
40.999	112.204	80.003	19.995	104.225	20.105	1.954	0.137
41.499	112.301	80.006	19.992	104.222	20.102	2.146	0.142
41.999	112.346	80.006	19.995	104.224	20.103	2.114	0.146
42.499	112.433	80.004	19.992	104.224	20.104	2.072	0.137
42.999	112.497	80.003	19.996	104.229	20.103	2.137	0.142
43.499	112.571	80.003	19.997	104.232	20.103	2.112	0.144
43.999	112.652	79.998	19.998	104.232	20.107	1.871	0.146
44.499	112.737	80.007	19.989	104.229	20.104	2.054	0.160
44.999	112.810	80.005	19.994	104.235	20.103	2.103	0.162
45.499	112.900	80.004	19.994	104.236	20.102	2.202	0.161
45.999	113.010	80.003	19.994	104.239	20.102	2.175	0.182
46.499	113.050	80.002	19.996	104.243	20.102	2.141	0.175
46.999	113.176	80.005	19.995	104.245	20.104	2.029	0.158
47.499	113.238	80.004	19.994	104.243	20.106	1.893	0.177
47.999	113.354	80.004	19.994	104.244	20.103	2.110	0.183
48.499	113.418	80.004	19.994	104.245	20.102	2.195	0.179
49.000	113.525	80.002	19.994	104.249	20.103	2.117	0.175
49.500	113.621	80.003	19.995	104.254	20.102	2.193	0.187
49.999	113.720	80.004	19.994	104.258	20.103	2.078	0.199
50.499	113.811	80.005	19.994	104.257	20.100	2.324	0.193
50.999	113.871	80.004	19.994	104.257	20.102	2.166	0.170
51.499	114.031	80.004	19.994	104.258	20.099	2.396	0.185
52.000	114.108	80.005	19.995	104.258	20.101	2.213	0.229
52.500	114.176	80.005	19.995	104.258	20.100	2.331	0.191
52.999	114.269	80.005	19.994	104.260	20.100	2.324	0.153
53.499	114.360	80.006	19.994	104.260	20.099	2.347	0.172
53.999	114.468	80.006	19.993	104.260	20.097	2.518	0.191
54.499	114.592	80.005	19.995	104.259	20.099	2.387	0.216
55.000	114.703	80.005	19.994	104.260	20.097	2.489	0.234
55.500	114.788	80.005	19.994	104.260	20.098	2.419	0.215
56.000	114.882	80.005	19.995	104.260	20.096	2.590	0.188
56.499	115.022	80.005	19.995	104.261	20.097	2.477	0.207
56.999	115.122	80.004	19.996	104.263	20.097	2.491	0.237
57.500	115.233	80.007	19.994	104.262	20.097	2.488	0.225
58.000	115.373	80.007	19.994	104.262	20.097	2.507	0.231
58.500	115.467	80.006	19.994	104.262	20.097	2.487	0.242
58.999	115.556	80.006	19.994	104.261	20.097	2.518	0.208
59.499	115.683	80.006	19.994	104.258	20.097	2.511	0.200
59.999	115.788	80.007	19.994	104.257	20.097	2.489	0.224
60.499	115.930	80.007	19.992	104.257	20.096	2.549	0.239
60.999	116.055	80.006	19.994	104.257	20.094	2.727	0.257
61.499	116.199	80.007	19.995	104.257	20.094	2.675	0.268
61.999	116.271	80.005	19.994	104.256	20.096	2.567	0.242
62.499	116.391	80.006	19.995	104.256	20.097	2.531	0.204
62.999	116.468	80.007	19.995	104.256	20.095	2.603	0.195
63.500	116.628	80.006	19.994	104.255	20.098	2.412	0.217
64.000	116.737	80.005	19.993	104.255	20.096	2.541	0.254
64.500	116.891	80.006	19.994	104.255	20.095	2.637	0.266
64.999	116.997	80.006	19.993	104.253	20.096	2.534	0.261
65.499	117.094	80.006	19.994	104.252	20.096	2.554	0.231
65.999	117.214	80.006	19.993	104.250	20.098	2.464	0.210
66.500	117.338	80.006	19.993	104.250	20.095	2.640	0.231
66.999	117.508	80.004	19.995	104.251	20.100	2.329	0.269
67.499	117.583	80.006	19.994	104.253	20.102	2.184	0.269
67.999	117.729	80.005	19.992	104.255	20.101	2.243	0.233
68.499	117.853	80.005	19.993	104.256	20.099	2.373	0.246
69.000	117.989	80.005	19.994	104.254	20.095	2.608	0.265
69.500	118.112	80.004	19.994	104.254	20.096	2.536	0.260
70.000	118.222	80.004	19.994	104.255	20.098	2.422	0.246
70.499	118.368	80.005	19.993	104.256	20.099	2.400	0.244
70.999	118.491	80.005	19.995	104.258	20.100	2.328	0.262
71.500	118.639	80.004	19.994	104.261	20.095	2.646	0.270
71.999	118.771	80.006	19.993	104.263	20.098	2.461	0.275
72.499	118.888	80.004	19.993	104.263	20.099	2.350	0.265
73.000	118.990	80.004	19.994	104.263	20.098	2.458	0.234
73.500	119.132	80.005	19.994	104.263	20.098	2.411	0.232
73.999	119.302	80.004	19.994	104.261	20.094	2.676	0.279
74.499	119.406	80.005	19.994	104.259	20.097	2.476	0.293
75.000	119.530	80.004	19.995	104.258	20.098	2.440	0.250
75.499	119.673	80.004	19.995	104.258	20.097	2.519	0.248
75.999	119.822	80.004	19.994	104.261	20.096	2.555	0.280
76.500	119.955	80.005	19.994	104.262	20.097	2.483	0.287
77.000	120.104	80.005	19.994	104.262	20.095	2.620	0.282
77.500	120.232	80.004	19.994	104.262	20.098	2.463	0.279
78.000	120.367	80.003	19.994	104.262	20.098	2.463	0.270
78.500	120.485	80.003	19.994	104.261	20.096	2.551	0.258
78.999	120.671	80.004	19.995	104.262	20.098	2.406	0.279
79.499	120.823	80.005	19.994	104.263	20.097	2.499	0.321
79.999	120.980	80.004	19.995	104.267	20.097	2.517	0.323
80.499	121.128	80.002	19.994	104.274	20.093	2.771	0.307
80.999	121.282	80.004	19.995	104.278	20.094	2.667	0.303
81.499	121.455	80.004	19.994	104.280	20.092	2.810	0.315
81.999	121.586	80.003	19.996	104.280	20.096	2.595	0.315
82.499	121.718	80.003	19.995	104.284	20.097	2.469	0.284
82.999	121.857	80.002	19.998	104.284	20.094	2.721	0.267
83.499	122.021	80.004	19.998	104.286	20.092	2.814	0.287
83.999	122.166	80.005	19.996	104.291	20.092	2.803	0.306
84.499	122.319	80.004	19.996	104.299	20.092	2.816	0.303
84.999	122.489	80.004	19.995	104.299	20.093	2.744	0.311
85.499	122.634	80.004	19.996	104.299	20.093	2.785	0.320
86.000	122.763	80.004	19.994	104.296	20.090	2.978	0.295
86.499	122.935	80.004	19.996	104.290	20.093	2.749	0.287
86.999	123.113	80.003	19.996	104.289	20.093	2.765	0.325
87.499	123.276	80.004	19.994	104.289	20.093	2.755	0.345
87.999	123.402	80.005	19.996	104.289	20.095	2.647	0.315
88.499	123.520	80.003	19.996	104.293	20.093	2.765	0.267
89.000	123.725	80.003	19.995	104.298	20.091	2.870	0.284
89.499	123.919	80.004	19.994	104.299	20.094	2.699	0.360
89.999	124.043	80.004	19.994	104.299	20.093	2.742	0.358
90.499	124.215	80.005	19.994	104.300	20.093	2.740	0.307
90.999	124.390	80.003	19.995	104.300	20.096	2.535	0.322
91.499	124.554	80.004	19.994	104.300	20.093	2.751	0.343
91.999	124.730	80.003	19.994	104.300	20.093	2.775	0.340
92.499	124.904	80.004	19.994	104.300	20.092	2.843	0.346
92.999	125.037	80.003	19.995	104.301	20.092	2.855	0.328
93.499	125.225	80.003	19.994	104.303	20.095	2.632	0.313
94.000	125.367	80.004	19.995	104.304	20.092	2.854	0.325
94.500	125.556	80.005	19.994	104.303	20.093	2.758	0.331
95.000	125.724	80.003	19.994	104.303	20.093	2.794	0.344
95.500	125.892	80.004	19.993	104.302	20.093	2.751	0.346
96.000	126.079	80.005	19.994	104.299	20.091	2.902	0.346
96.500	126.251	80.003	19.994	104.299	20.090	2.990	0.358
97.000	126.419	80.004	19.994	104.300	20.092	2.821	0.349
97.500	126.618	80.005	19.992	104.300	20.093	2.782	0.353
97.999	126.730	80.004	19.995	104.301	20.091	2.886	0.339
98.499	126.889	80.002	19.993	104.301	20.091	2.926	0.291
98.999	127.114	80.004	19.993	104.301	20.094	2.696	0.327
99.499	127.278	80.004	19.995	104.301	20.093	2.766	0.387
99.999	127.464	80.003	19.993	104.300	20.089	3.021	0.370
100.499	127.624	80.003	19.996	104.300	20.091	2.902	0.348
100.999	127.783	80.003	19.993	104.301	20.091	2.917	0.332
101.499	128.021	80.004	19.994	104.301	20.093	2.788	0.358
101.999	128.171	80.003	19.995	104.302	20.091	2.926	0.392
102.500	128.367	80.003	19.994	104.302	20.091	2.921	0.367
103.000	128.528	80.003	19.995	104.302	20.092	2.818	0.352
103.500	128.710	80.004	19.993	104.302	20.088	3.085	0.350
104.000	128.945	80.002	19.995	104.301	20.090	2.986	0.380
104.500	129.111	80.003	19.996	104.302	20.094	2.700	0.409
105.000	129.265	80.001	19.996	104.303	20.090	2.935	0.360
105.499	129.455	80.004	19.993	104.304	20.091	2.906	0.332
105.999	129.663	80.003	19.994	104.304	20.088	3.113	0.371
106.499	129.844	80.004	19.995	104.306	20.091	2.917	0.394
106.999	130.035	80.004	19.995	104.306	20.091	2.887	0.381
107.499	130.216	80.003	19.996	104.306	20.092	2.827	0.372
107.999	130.399	80.003	19.995	104.307	20.089	3.039	0.368
108.499	130.628	80.003	19.995	104.311	20.091	2.912	0.388
108.999	130.828	80.003	19.995	104.313	20.092	2.852	0.420
109.499	130.971	80.003	19.995	104.312	20.092	2.854	0.386
110.000	131.212	80.004	19.994	104.311	20.087	3.154	0.364
110.500	131.334	80.002	19.993	104.310	20.090	2.953	0.373
110.999	131.564	80.003	19.996	104.309	20.087	3.180	0.357
111.499	131.763	80.005	19.998	104.311	20.088	3.077	0.391
112.000	131.972	80.003	19.996	104.317	20.089	3.054	0.418
112.499	132.179	79.999	19.999	104.325	20.088	3.070	0.412
112.999	132.360	80.003	19.995	104.327	20.087	3.146	0.402
113.500	132.562	80.003	19.996	104.332	20.088	3.108	0.386
114.000	132.763	80.005	19.995	104.331	20.090	2.953	0.393
114.499	132.924	80.005	19.996	104.329	20.091	2.876	0.382
114.999	133.140	80.006	19.995	104.324	20.087	3.164	0.370
115.500	133.339	80.004	19.994	104.325	20.089	3.013	0.396
115.999	133.503	80.004	19.995	104.319	20.089	2.998	0.389
116.499	133.738	80.006	19.995	104.317	20.090	2.961	0.382
116.999	133.923	80.004	19.995	104.319	20.087	3.157	0.409
117.500	134.134	80.005	19.994	104.323	20.087	3.185	0.407
118.000	134.363	80.005	19.994	104.323	20.090	2.930	0.418
118.500	134.540	80.004	19.995	104.325	20.088	3.070	0.423
119.000	134.766	80.006	19.995	104.324	20.090	2.989	0.404
119.499	134.972	80.004	19.996	104.320	20.088	3.068	0.417
119.999	135.155	80.005	19.995	104.316	20.089	3.011	0.410
120.499	135.388	80.005	19.994	104.315	20.089	3.011	0.402
120.999	135.579	80.006	19.995	104.317	20.089	2.998	0.420
121.499	135.821	80.005	19.995	104.320	20.090	2.977	0.429
121.999	136.010	80.004	19.996	104.325	20.092	2.847	0.432
122.499	136.226	80.006	19.994	104.329	20.090	2.984	0.418
122.999	136.404	80.006	19.995	104.333	20.088	3.070	0.399
123.499	136.638	80.004	19.994	104.332	20.088	3.122	0.403
123.999	136.844	80.004	19.994	104.330	20.088	3.113	0.426
124.499	137.029	80.005	19.994	104.329	20.087	3.146	0.416
124.999	137.262	80.004	19.994	104.330	20.087	3.155	0.404
125.499	137.487	80.004	19.994	104.330	20.089	3.016	0.438
125.999	137.668	80.006	19.994	104.331	20.087	3.169	0.433
126.499	137.896	80.005	19.994	104.334	20.090	2.928	0.407
126.999	138.110	80.004	19.995	104.335	20.090	2.930	0.425
127.499	138.322	80.004	19.994	104.334	20.090	2.982	0.434
127.999	138.568	80.005	19.994	104.333	20.092	2.856	0.442
128.500	138.757	80.005	19.994	104.332	20.089	3.020	0.447
129.000	139.003	80.005	19.994	104.330	20.088	3.120	0.435
129.500	139.196	80.005	19.994	104.330	20.089	3.007	0.436
130.000	139.422	80.005	19.994	104.331	20.087	3.178	0.429
130.500	139.631	80.005	19.994	104.332	20.088	3.090	0.428
131.000	139.848	80.005	19.994	104.331	20.091	2.880	0.431
131.500	140.095	80.006	19.994	104.333	20.086	3.230	0.445
132.000	140.328	80.003	19.994	104.333	20.088	3.106	0.472
132.500	140.536	80.004	19.993	104.333	20.086	3.218	0.460
133.000	140.758	80.004	19.995	104.331	20.084	3.344	0.435
133.500	140.994	80.005	19.994	104.333	20.088	3.115	0.445
134.000	141.213	80.005	19.995	104.332	20.089	3.052	0.457
134.500	141.471	80.005	19.992	104.332	20.087	3.140	0.466
135.000	141.663	80.005	19.994	104.331	20.088	3.121	0.464
135.500	141.914	80.006	19.995	104.332	20.089	3.056	0.446
136.000	142.130	80.006	19.995	104.331	20.089	3.022	0.454
136.500	142.354	80.004	19.994	104.331	20.088	3.068	0.454
136.999	142.571	80.006	19.994	104.330	20.087	3.140	0.441
137.500	142.837	80.006	19.993	104.326	20.087	3.133	0.462
138.000	143.040	80.006	19.992	104.323	20.085	3.286	0.476
138.499	143.263	80.005	19.993	104.320	20.088	3.075	0.448
139.000	143.517	80.006	19.993	104.317	20.085	3.263	0.452
139.500	143.755	80.007	19.994	104.319	20.089	3.020	0.484
139.999	143.956	80.007	19.994	104.323	20.085	3.271	0.465
140.499	144.193	80.006	19.994	104.328	20.088	3.102	0.439
140.999	144.437	80.007	19.993	104.331	20.088	3.102	0.459
141.499	144.678	80.005	19.993	104.335	20.086	3.203	0.483
142.000	144.915	80.005	19.993	104.330	20.087	3.129	0.482
142.500	145.137	80.005	19.994	104.328	20.085	3.268	0.469
143.000	145.364	80.006	19.995	104.328	20.088	3.084	0.454
143.500	145.625	80.004	19.993	104.329	20.088	3.122	0.468
144.000	145.824	80.004	19.997	104.329	20.089	3.048	0.474
144.500	146.117	80.005	19.995	104.333	20.088	3.084	0.476
145.000	146.310	80.005	19.995	104.334	20.086	3.230	0.489
145.500	146.548	80.006	19.995	104.334	20.088	3.111	0.459
146.000	146.769	80.005	19.994	104.333	20.088	3.084	0.445
146.500	147.019	80.005	19.996	104.332	20.088	3.061	0.465
146.999	147.241	80.006	19.994	104.330	20.087	3.135	0.472
147.500	147.480	80.004	19.994	104.330	20.089	3.007	0.467
148.000	147.681	80.005	19.994	104.330	20.088	3.108	0.451
148.499	147.950	80.005	19.994	104.328	20.089	3.011	0.455
149.000	148.183	80.004	19.993	104.327	20.089	2.996	0.486
149.500	148.468	80.003	19.994	104.325	20.092	2.840	0.510
150.000	148.657	80.003	19.994	104.326	20.088	3.079	0.496
150.500	148.913	80.004	19.994	104.324	20.087	3.178	0.459
151.000	149.150	80.003	19.994	104.320	20.087	3.158	0.469
151.500	149.386	80.003	19.994	104.323	20.085	3.280	0.483
152.000	149.621	80.004	19.994	104.325	20.085	3.259	0.472
152.499	149.889	80.004	19.993	104.324	20.088	3.117	0.487
152.999	150.112	80.004	19.994	104.323	20.089	3.054	0.497
153.499	150.342	80.004	19.994	104.325	20.089	3.038	0.472
154.000	150.571	80.004	19.994	104.323	20.089	3.014	0.455
154.500	150.796	80.004	19.994	104.320	20.089	3.020	0.456
155.000	151.040	80.004	19.993	104.317	20.088	3.086	0.462
155.500	151.267	80.004	19.994	104.316	20.089	3.009	0.471
156.000	151.539	80.004	19.993	104.318	20.087	3.144	0.485
156.500	151.766	80.003	19.993	104.319	20.088	3.090	0.499
157.000	152.005	80.002	19.993	104.323	20.090	2.978	0.483
157.500	152.261	80.004	19.993	104.326	20.087	3.182	0.480
158.000	152.512	80.003	19.994	104.327	20.087	3.180	0.501
158.500	152.768	80.005	19.994	104.323	20.088	3.077	0.507
159.000	153.007	80.005	19.994	104.324	20.084	3.331	0.501
159.500	153.260	80.003	19.994	104.325	20.084	3.366	0.494
159.999	153.460	80.005	19.994	104.326	20.086	3.237	0.473
160.499	153.765	80.005	19.993	104.326	20.086	3.215	0.479
161.000	153.946	80.006	19.992	104.326	20.085	3.285	0.495
161.500	154.204	80.004	19.993	104.322	20.086	3.201	0.462
162.000	154.450	80.004	19.992	104.320	20.087	3.140	0.472
162.500	154.689	80.004	19.994	104.321	20.090	2.971	0.495
163.000	154.921	80.004	19.993	104.321	20.088	3.111	0.478
163.500	155.188	80.005	19.994	104.325	20.088	3.111	0.485
164.000	155.433	80.005	19.994	104.329	20.087	3.174	0.505
164.500	155.637	80.004	19.994	104.330	20.086	3.222	0.481
165.000	155.898	80.004	19.995	104.330	20.088	3.084	0.457
165.499	156.128	80.005	19.994	104.331	20.088	3.080	0.479
165.999	156.385	80.005	19.993	104.326	20.088	3.080	0.489
166.500	156.645	80.005	19.993	104.324	20.088	3.097	0.501
167.000	156.905	80.003	19.994	104.323	20.087	3.170	0.518
167.500	157.149	80.004	19.993	104.324	20.090	2.982	0.512
168.000	157.379	80.004	19.993	104.325	20.089	2.998	0.489
168.500	157.609	80.004	19.994	104.326	20.086	3.213	0.467
169.000	157.861	80.005	19.994	104.326	20.089	3.042	0.471
169.500	158.133	80.006	19.994	104.324	20.089	3.035	0.503
170.000	158.372	80.004	19.993	104.317	20.088	3.068	0.518
170.500	158.639	80.003	19.993	104.312	20.085	3.275	0.509
170.999	158.866	80.003	19.992	104.312	20.087	3.142	0.500
171.500	159.090	80.004	19.993	104.308	20.085	3.264	0.472
172.000	159.350	80.002	19.993	104.306	20.089	3.025	0.468
172.500	159.592	80.004	19.993	104.306	20.088	3.118	0.493
173.000	159.796	80.003	19.994	104.305	20.089	2.998	0.474
173.499	160.127	80.003	19.995	104.302	20.086	3.253	0.491
173.999	160.306	80.004	19.993	104.302	20.087	3.154	0.523
174.499	160.567	80.005	19.994	104.303	20.087	3.150	0.475
175.000	160.809	80.004	19.993	104.302	20.085	3.260	0.471
175.500	161.085	80.002	19.994	104.303	20.087	3.136	0.510
176.000	161.334	80.002	19.993	104.303	20.087	3.134	0.522
176.500	161.596	80.003	19.995	104.309	20.087	3.183	0.518
177.000	161.796	80.003	19.994	104.308	20.085	3.280	0.486
177.499	162.066	80.003	19.993	104.309	20.085	3.298	0.466
178.000	162.304	80.005	19.994	104.310	20.084	3.327	0.489
178.500	162.558	80.002	19.995	104.310	20.087	3.141	0.500
179.000	162.802	80.003	19.995	104.304	20.085	3.300	0.495
179.500	163.089	80.003	19.995	104.304	20.087	3.168	0.514
180.000	163.319	80.004	19.994	104.303	20.087	3.157	0.524
180.500	163.575	80.005	19.993	104.305	20.087	3.183	0.501
181.000	163.839	80.004	19.995	104.305	20.088	3.114	0.503
181.500	164.103	80.003	19.994	104.306	20.086	3.228	0.524
182.000	164.327	80.003	19.994	104.308	20.086	3.249	0.508
182.500	164.591	80.003	19.995	104.307	20.086	3.247	0.489
183.000	164.857	80.003	19.994	104.310	20.083	3.398	0.509
183.500	165.103	80.005	19.994	104.311	20.086	3.215	0.521
184.000	165.329	80.003	19.996	104.310	20.085	3.274	0.492
184.500	165.582	80.003	19.995	104.308	20.087	3.168	0.475
185.000	165.876	80.003	19.994	104.308	20.087	3.145	0.513
185.500	166.127	80.003	19.994	104.302	20.086	3.201	0.546
186.000	166.348	80.003	19.995	104.300	20.085	3.314	0.509
186.500	166.607	80.004	19.994	104.300	20.086	3.244	0.476
187.000	166.840	80.003	19.995	104.300	20.088	3.096	0.486
187.500	167.091	80.004	19.995	104.302	20.086	3.220	0.488
188.000	167.340	80.006	19.994	104.303	20.089	3.019	0.492
188.500	167.568	80.003	19.995	104.303	20.090	2.976	0.488
189.000	167.809	80.005	19.995	104.302	20.087	3.136	0.473
189.500	168.067	80.005	19.994	104.302	20.091	2.893	0.484
190.000	168.328	80.004	19.994	104.300	20.087	3.132	0.509
190.499	168.585	80.005	19.996	104.299	20.091	2.906	0.518
190.999	168.871	80.005	19.995	104.299	20.092	2.852	0.530
191.500	169.097	80.004	19.993	104.298	20.090	2.968	0.528
192.000	169.325	80.005	19.994	104.299	20.088	3.093	0.483
192.499	169.586	80.004	19.994	104.300	20.091	2.875	0.472
192.999	169.819	80.004	19.995	104.299	20.090	2.963	0.492
193.499	170.064	80.005	19.993	104.299	20.090	2.958	0.486
193.999	170.353	80.007	19.993	104.298	20.091	2.920	0.506
194.499	170.595	80.005	19.995	104.299	20.094	2.683	0.533
194.999	170.881	80.007	19.993	104.298	20.094	2.676	0.530
195.499	171.092	80.005	19.995	104.299	20.091	2.886	0.512
195.999	171.324	80.005	19.994	104.300	20.091	2.902	0.470
196.499	171.568	80.005	19.993	104.300	20.093	2.742	0.460
196.999	171.835	80.005	19.994	104.298	20.091	2.920	0.494
197.500	172.097	80.005	19.994	104.297	20.091	2.884	0.520
198.000	172.330	80.005	19.994	104.296	20.090	2.936	0.511
198.499	172.590	80.005	19.994	104.295	20.091	2.897	0.494
198.999	172.803	80.005	19.995	104.295	20.092	2.855	0.484
199.499	173.063	80.006	19.995	104.294	20.093	2.792	0.473
199.999	173.333	80.006	19.994	104.295	20.090	2.979	0.501
200.499	173.599	80.005	19.994	104.295	20.088	3.078	0.532
201.000	173.875	80.006	19.994	104.295	20.087	3.130	0.539
201.500	174.088	80.005	19.995	104.295	20.088	3.074	0.515
202.000	174.363	80.003	19.993	104.295	20.087	3.137	0.488
202.500	174.632	80.004	19.995	104.294	20.087	3.141	0.516
203.000	174.889	80.005	19.996	104.294	20.089	3.044	0.535
203.500	175.150	80.004	19.995	104.294	20.088	3.073	0.522
204.000	175.376	80.005	19.997	104.294	20.092	2.857	0.502
204.500	175.635	80.002	19.997	104.294	20.090	2.979	0.486
205.000	175.910	80.005	19.995	104.296	20.087	3.157	0.510
205.500	176.146	80.005	19.995	104.297	20.088	3.112	0.522
206.000	176.388	80.004	19.995	104.298	20.090	2.983	0.495
206.499	176.655	80.004	19.996	104.298	20.089	3.053	0.494
207.000	176.914	80.004	19.996	104.297	20.090	2.938	0.517
207.500	177.117	80.006	19.995	104.296	20.087	3.125	0.494
207.999	177.440	80.005	19.997	104.295	20.091	2.918	0.494
208.499	177.688	80.005	19.996	104.295	20.089	3.053	0.548
208.999	177.934	80.004	19.996	104.295	20.090	2.970	0.532
209.499	178.189	80.004	19.995	104.296	20.091	2.872	0.498
209.999	178.470	80.005	19.995	104.295	20.088	3.114	0.518
210.499	178.688	80.004	19.995	104.295	20.086	3.211	0.517
210.999	178.933	80.004	19.994	104.294	20.088	3.112	0.481
211.499	179.167	80.004	19.995	104.294	20.090	2.961	0.471
212.000	179.424	80.005	19.995	104.290	20.085	3.258	0.485
212.500	179.691	80.004	19.993	104.287	20.087	3.168	0.508
212.999	179.952	80.004	19.995	104.285	20.086	3.231	0.526
213.500	180.165	80.005	19.994	104.285	20.090	2.931	0.501
214.000	180.430	80.006	19.996	104.286	20.088	3.076	0.475
214.499	180.675	80.004	19.994	104.289	20.087	3.188	0.494
214.999	180.911	80.005	19.995	104.292	20.085	3.308	0.496
215.499	181.142	80.006	19.994	104.294	20.087	3.161	0.474
215.999	181.382	80.005	19.995	104.295	20.086	3.238	0.469
216.499	181.645	80.006	19.994	104.294	20.085	3.274	0.487
216.999	181.940	80.007	19.995	104.295	20.088	3.061	0.531
217.499	182.154	80.006	19.993	104.296	20.088	3.114	0.534
218.000	182.404	80.007	19.994	104.296	20.086	3.206	0.487
218.500	182.642	80.008	19.994	104.296	20.086	3.251	0.476
219.000	182.918	80.007	19.993	104.297	20.087	3.132	0.501
219.500	183.165	80.006	19.994	104.297	20.085	3.265	0.518
220.000	183.430	80.006	19.994	104.298	20.084	3.359	0.518
220.500	183.639	80.007	19.994	104.298	20.083	3.391	0.493
221.000	183.935	80.006	19.993	104.299	20.085	3.270	0.489
221.500	184.175	80.006	19.992	104.299	20.085	3.314	0.520
222.000	184.412	80.006	19.993	104.299	20.081	3.518	0.507
222.500	184.677	80.006	19.994	104.299	20.084	3.378	0.490
223.000	184.948	80.006	19.994	104.298	20.085	3.277	0.519
223.500	185.154	80.008	19.993	104.298	20.081	3.540	0.507
224.000	185.450	80.005	19.993	104.296	20.081	3.519	0.489
224.499	185.674	80.008	19.993	104.296	20.082	3.468	0.511
224.999	185.933	80.006	19.993	104.294	20.080	3.587	0.501
225.500	186.168	80.006	19.994	104.292	20.081	3.536	0.488
226.000	186.473	80.007	19.993	104.290	20.079	3.660	0.517
226.500	186.666	80.006	19.995	104.283	20.082	3.500	0.520
227.000	186.946	80.005	19.994	104.276	20.078	3.736	0.486
227.500	187.213	80.005	19.992	104.274	20.079	3.688	0.510
228.000	187.430	80.006	19.994	104.276	20.079	3.675	0.515
228.500	187.710	80.006	19.993	104.277	20.079	3.677	0.490
229.000	187.925	80.006	19.994	104.285	20.081	3.546	0.496
229.500	188.165	80.006	19.993	104.292	20.079	3.650	0.475
230.000	188.428	80.004	19.992	104.295	20.077	3.844	0.479
230.500	188.643	80.006	19.993	104.294	20.077	3.839	0.490
231.000	188.907	80.004	19.994	104.293	20.077	3.810	0.478
231.500	189.173	80.005	19.995	104.292	20.078	3.774	0.504
231.999	189.424	80.004	19.994	104.290	20.076	3.894	0.524
232.500	189.686	80.004	19.994	104.288	20.077	3.810	0.515
233.000	189.863	80.004	19.994	104.285	20.076	3.896	0.476
233.500	190.137	80.004	19.994	104.286	20.076	3.884	0.446
234.000	190.428	80.004	19.993	104.286	20.074	4.029	0.508
234.499	190.629	80.005	19.994	104.289	20.074	4.018	0.529
234.999	190.903	80.003	19.993	104.290	20.074	4.011	0.483
235.499	191.163	80.004	19.993	104.287	20.075	3.963	0.504
235.999	191.412	80.004	19.994	104.288	20.075	3.968	0.522
236.499	191.633	80.004	19.993	104.285	20.074	4.000	0.490
237.000	191.890	80.003	19.993	104.283	20.073	4.067	0.474
237.500	192.141	80.005	19.994	104.285	20.073	4.063	0.493
238.000	192.374	80.003	19.994	104.290	20.075	3.933	0.496
238.500	192.647	80.002	19.994	104.292	20.072	4.151	0.495
239.000	192.837	80.004	19.994	104.295	20.075	3.971	0.485
239.500	193.115	80.002	19.994	104.297	20.074	4.023	0.466
240.000	193.369	80.003	19.994	104.298	20.072	4.130	0.500
240.500	193.606	80.004	19.992	104.298	20.071	4.207	0.511
241.000	193.873	80.004	19.994	104.294	20.074	4.018	0.498
241.500	194.111	80.005	19.994	104.290	20.072	4.142	0.504
241.999	194.342	80.003	19.993	104.289	20.071	4.228	0.487
242.500	194.581	80.003	19.993	104.289	20.073	4.106	0.470
243.000	194.830	80.004	19.994	104.289	20.070	4.297	0.479
243.500	195.088	80.004	19.994	104.290	20.071	4.237	0.497
244.000	195.346	80.004	19.994	104.293	20.069	4.352	0.512
244.500	195.568	80.005	19.994	104.295	20.067	4.449	0.498
245.000	195.817	80.004	19.994	104.294	20.069	4.322	0.476
245.499	196.089	80.005	19.993	104.293	20.071	4.212	0.496
246.000	196.323	80.004	19.993	104.293	20.068	4.379	0.514
246.500	196.552	80.005	19.993	104.292	20.068	4.404	0.485
246.999	196.808	80.004	19.994	104.287	20.070	4.250	0.474
247.500	197.011	80.005	19.993	104.284	20.070	4.263	0.472
248.000	197.265	80.004	19.994	104.280	20.068	4.403	0.458
248.499	197.501	80.005	19.993	104.277	20.068	4.430	0.473
248.999	197.775	80.003	19.993	104.271	20.066	4.563	0.500
249.500	197.983	80.004	19.994	104.273	20.068	4.381	0.496
250.000	198.272	80.005	19.993	104.276	20.068	4.415	0.489
250.500	198.496	80.005	19.993	104.280	20.067	4.442	0.505
251.000	198.767	80.005	19.994	104.283	20.063	4.746	0.504
251.500	199.007	80.006	19.994	104.284	20.066	4.501	0.503
252.000	199.263	80.006	19.994	104.285	20.063	4.713	0.504
252.500	199.522	80.004	19.994	104.284	20.068	4.428	0.506
253.000	199.779	80.006	19.994	104.279	20.065	4.597	0.516
253.500	199.981	80.005	19.994	104.280	20.064	4.680	0.487
254.000	200.222	80.005	19.993	104.283	20.063	4.763	0.451
254.500	200.520	80.004	19.993	104.281	20.064	4.694	0.491
255.000	200.748	80.004	19.994	104.279	20.060	4.912	0.532
255.500	201.002	80.005	19.993	104.280	20.061	4.831	0.504
255.999	201.214	80.004	19.993	104.275	20.060	4.956	0.474
256.499	201.480	80.004	19.993	104.273	20.061	4.870	0.472
257.000	201.678	80.004	19.993	104.276	20.060	4.917	0.471
257.500	201.978	80.005	19.994	104.278	20.058	5.088	0.481
258.000	202.213	80.005	19.993	104.282	20.057	5.101	0.517
258.499	202.478	80.005	19.994	104.289	20.057	5.151	0.517
258.999	202.704	80.006	19.993	104.288	20.055	5.277	0.495
259.499	202.958	80.003	19.993	104.283	20.055	5.284	0.486
259.999	203.223	80.005	19.994	104.281	20.056	5.189	0.500
260.499	203.455	80.005	19.994	104.282	20.054	5.304	0.508
260.999	203.703	80.004	19.994	104.279	20.054	5.341	0.488
261.499	203.950	80.007	19.994	104.279	20.050	5.569	0.487
262.000	204.219	80.003	19.994	104.280	20.051	5.526	0.505
262.500	204.439	80.004	19.995	104.277	20.051	5.530	0.502
262.999	204.690	80.004	19.996	104.271	20.050	5.614	0.480
263.499	204.918	80.004	19.994	104.274	20.049	5.633	0.475
264.000	205.175	80.005	19.994	104.278	20.048	5.689	0.482
264.500	205.449	80.005	19.996	104.284	20.048	5.705	0.508
265.000	205.631	80.004	19.995	104.290	20.048	5.746	0.494
265.500	205.911	80.005	19.995	104.291	20.046	5.870	0.459
266.000	206.171	80.004	19.994	104.284	20.047	5.791	0.501
266.500	206.449	80.004	19.994	104.280	20.044	5.959	0.539
267.000	206.672	80.005	19.994	104.280	20.043	6.052	0.519
267.500	206.893	80.004	19.995	104.279	20.043	6.011	0.473
268.000	207.129	80.004	19.994	104.281	20.043	6.043	0.450
268.500	207.385	80.004	19.994	104.287	20.043	6.036	0.474
269.000	207.661	80.004	19.994	104.291	20.040	6.239	0.512
269.500	207.906	80.004	19.994	104.291	20.040	6.269	0.527
270.000	208.154	80.004	19.995	104.292	20.037	6.438	0.507
270.500	208.382	80.004	19.994	104.294	20.039	6.277	0.484
271.000	208.586	80.006	19.996	104.289	20.036	6.473	0.454
271.500	208.891	80.004	19.995	104.284	20.036	6.471	0.471
272.000	209.121	80.004	19.994	104.279	20.038	6.351	0.522
272.500	209.355	80.005	19.995	104.273	20.035	6.547	0.500
273.000	209.582	80.005	19.993	104.274	20.037	6.440	0.462
273.500	209.835	80.005	19.994	104.279	20.037	6.449	0.471
274.000	210.104	80.006	19.995	104.282	20.032	6.757	0.501
274.500	210.377	80.005	19.994	104.285	20.035	6.554	0.532
275.000	210.610	80.005	19.996	104.290	20.034	6.658	0.524
275.500	210.833	80.006	19.995	104.291	20.031	6.829	0.481
276.000	211.082	80.005	19.996	104.292	20.029	6.985	0.464
276.500	211.321	80.005	19.995	104.294	20.030	6.898	0.480
277.000	211.566	80.005	19.995	104.295	20.027	7.114	0.486
277.500	211.793	80.005	19.994	104.296	20.027	7.080	0.478
278.000	212.041	80.005	19.995	104.296	20.028	7.048	0.474
278.499	212.285	80.006	19.995	104.297	20.027	7.062	0.484
279.000	212.541	80.006	19.994	104.296	20.028	7.024	0.496
279.500	212.802	80.007	19.995	104.294	20.023	7.329	0.509
279.999	213.035	80.006	19.993	104.292	20.024	7.303	0.506
280.500	213.286	80.007	19.995	104.292	20.023	7.341	0.489
281.000	213.533	80.006	19.995	104.291	20.023	7.354	0.491
281.499	213.802	80.007	19.994	104.292	20.021	7.491	0.507
282.000	214.054	80.005	19.995	104.294	20.018	7.685	0.518
282.500	214.295	80.006	19.993	104.296	20.021	7.485	0.507
282.999	214.551	80.005	19.993	104.297	20.019	7.608	0.495
283.500	214.755	80.006	19.994	104.296	20.016	7.785	0.479
284.000	215.002	80.005	19.993	104.295	20.014	7.929	0.456
284.500	215.257	80.006	19.995	104.295	20.016	7.811	0.476
285.000	215.523	80.005	19.994	104.295	20.013	8.028	0.511
285.500	215.758	80.004	19.996	104.295	20.015	7.893	0.511
286.000	215.990	80.004	19.995	104.296	20.014	7.937	0.484
286.500	216.258	80.004	19.993	104.294	20.007	8.402	0.483
287.000	216.518	80.004	19.994	104.291	20.008	8.340	0.514
287.500	216.803	80.004	19.994	104.287	20.004	8.583	0.537
287.999	217.034	80.005	19.994	104.282	20.004	8.587	0.531
288.499	217.243	80.003	19.994	104.282	20.005	8.567	0.478
288.999	217.500	80.004	19.994	104.286	20.005	8.537	0.453
289.500	217.736	80.005	19.995	104.285	20.002	8.762	0.479
290.000	217.967	80.003	19.993	104.287	20.001	8.774	0.480
290.500	218.259	80.005	19.994	104.293	20.000	8.859	0.495
291.000	218.479	80.004	19.995	104.294	20.000	8.891	0.518
291.500	218.742	80.005	19.994	104.293	19.997	9.066	0.498
292.000	218.981	80.004	19.995	104.297	19.994	9.244	0.493
292.500	219.261	80.006	19.994	104.299	19.996	9.109	0.510
293.000	219.495	80.005	19.994	104.297	19.993	9.327	0.516
293.500	219.712	80.004	19.994	104.297	19.995	9.185	0.483
294.000	220.003	80.005	19.994	104.297	19.993	9.337	0.479
294.500	220.243	80.005	19.996	104.295	19.988	9.620	0.519
295.000	220.484	80.005	19.994	104.295	19.988	9.627	0.506
295.500	220.747	80.005	19.994	104.296	19.987	9.740	0.492
296.000	220.983	80.004	19.995	104.296	19.985	9.855	0.502
296.500	221.228	80.005	19.996	104.296	19.981	10.105	0.490
297.000	221.482	80.005	19.994	104.296	19.982	10.067	0.490
297.500	221.766	80.005	19.994	104.291	19.981	10.090	0.518
298.000	221.996	80.006	19.994	104.287	19.981	10.121	0.526
298.500	222.260	80.006	19.994	104.287	19.981	10.132	0.504
299.000	222.479	80.005	19.994	104.288	19.977	10.342	0.489
299.500	222.783	80.005	19.995	104.289	19.976	10.440	0.503
300.000	222.985	80.005	19.995	104.293	19.975	10.493	0.515
300.500	223.248	80.006	19.995	104.297	19.973	10.612	0.485
300.999	223.449	80.006	19.994	104.297	19.973	10.618	0.464
301.499	223.710	80.005	19.996	104.296	19.968	10.939	0.463
301.999	223.968	80.004	19.995	104.296	19.968	10.965	0.491
302.499	224.186	80.006	19.994	104.298	19.967	11.040	0.498
303.000	224.454	80.005	19.995	104.298	19.964	11.199	0.481
303.500	224.694	80.006	19.995	104.298	19.966	11.116	0.497
304.000	224.960	80.006	19.994	104.298	19.963	11.281	0.507
304.500	225.215	80.005	19.994	104.298	19.960	11.476	0.514
305.000	225.454	80.006	19.994	104.299	19.958	11.623	0.507
305.500	225.720	80.005	19.994	104.299	19.957	11.675	0.499
306.000	225.987	80.005	19.994	104.299	19.957	11.681	0.519
306.500	226.197	80.007	19.994	104.298	19.956	11.763	0.505
307.000	226.443	80.006	19.993	104.296	19.954	11.867	0.467
307.500	226.711	80.005	19.994	104.295	19.953	11.979	0.485
308.000	226.929	80.006	19.995	104.294	19.952	12.015	0.500
308.500	227.165	80.006	19.994	104.295	19.947	12.322	0.470
308.999	227.417	80.006	19.994	104.296	19.949	12.207	0.471
309.499	227.655	80.006	19.994	104.298	19.949	12.201	0.489
310.000	227.890	80.005	19.994	104.298	19.946	12.432	0.482
310.500	228.202	80.004	19.994	104.298	19.946	12.385	0.510
311.000	228.406	80.006	19.993	104.298	19.943	12.581	0.531
311.500	228.676	80.005	19.994	104.298	19.942	12.673	0.495
312.000	228.939	80.005	19.994	104.298	19.940	12.808	0.504
312.499	229.216	80.005	19.994	104.298	19.938	12.905	0.537
312.999	229.437	80.004	19.993	104.299	19.936	13.060	0.519
313.500	229.682	80.005	19.994	104.300	19.935	13.119	0.482
314.000	229.947	80.004	19.994	104.300	19.928	13.571	0.488
314.500	230.214	80.003	19.994	104.301	19.927	13.648	0.521
315.000	230.447	80.003	19.994	104.301	19.929	13.499	0.516
315.500	230.697	80.005	19.991	104.302	19.924	13.821	0.492
315.999	230.966	80.004	19.994	104.302	19.922	13.952	0.501
316.500	231.193	80.003	19.994	104.302	19.920	14.110	0.507
317.000	231.448	80.004	19.994	104.301	19.920	14.098	0.489
317.500	231.697	80.004	19.994	104.300	19.920	14.121	0.493
318.000	231.950	80.004	19.994	104.299	19.917	14.310	0.503
318.500	232.196	80.005	19.992	104.297	19.916	14.406	0.500
319.000	232.439	80.004	19.994	104.297	19.914	14.484	0.494
319.500	232.691	80.005	19.993	104.297	19.909	14.843	0.493
320.000	232.955	80.004	19.994	104.297	19.908	14.900	0.506
320.500	233.189	80.003	19.993	104.296	19.907	14.964	0.507
321.000	233.444	80.003	19.994	104.297	19.906	15.014	0.494
321.500	233.713	80.003	19.994	104.298	19.903	15.232	0.507
322.000	233.965	80.004	19.993	104.301	19.901	15.343	0.522
322.500	234.207	80.003	19.993	104.302	19.900	15.405	0.508
322.999	234.456	80.004	19.996	104.303	19.897	15.611	0.493
323.500	234.731	80.004	19.995	104.304	19.895	15.732	0.507
324.000	234.933	80.004	19.995	104.303	19.892	15.963	0.500
324.500	235.231	80.005	19.994	104.304	19.890	16.078	0.488
324.999	235.453	80.005	19.995	104.304	19.888	16.232	0.510
325.499	235.729	80.003	19.996	104.307	19.885	16.388	0.509
325.999	235.987	80.004	19.995	104.309	19.884	16.494	0.516
326.499	236.216	80.004	19.993	104.308	19.882	16.634	0.510
326.999	236.457	80.003	19.995	104.305	19.877	16.933	0.479
327.499	236.702	80.004	19.995	104.305	19.876	17.007	0.478
328.000	236.962	80.003	19.995	104.307	19.873	17.198	0.496
328.500	237.171	80.005	19.993	104.305	19.873	17.175	0.487
329.000	237.448	80.004	19.994	104.309	19.870	17.409	0.478
329.500	237.684	80.006	19.992	104.313	19.866	17.693	0.499
330.000	237.974	80.005	19.993	104.313	19.862	17.918	0.519
330.500	238.196	80.005	19.994	104.313	19.861	17.969	0.519
331.000	238.466	80.005	19.996	104.317	19.857	18.242	0.502
331.500	238.715	80.002	19.996	104.316	19.854	18.418	0.505
332.000	238.944	80.005	19.994	104.312	19.851	18.657	0.499
332.500	239.193	80.004	19.995	104.314	19.852	18.593	0.479
333.000	239.442	80.004	19.993	104.312	19.849	18.794	0.488
333.500	239.674	80.005	19.994	104.308	19.845	19.057	0.489
334.000	239.928	80.004	19.995	104.309	19.842	19.225	0.483
334.500	240.173	80.005	19.994	104.314	19.839	19.462	0.493
335.000	240.405	80.004	19.993	104.311	19.835	19.679	0.489
335.500	240.682	80.004	19.994	104.311	19.837	19.579	0.493
335.999	240.924	80.003	19.993	104.314	19.834	19.759	0.514
336.499	241.150	80.004	19.994	104.313	19.830	20.025	0.493
337.000	241.400	80.005	19.994	104.313	19.827	20.243	0.472
337.500	241.615	80.004	19.993	104.320	19.826	20.312	0.470
338.000	241.901	80.004	19.994	104.323	19.817	20.907	0.483
338.500	242.170	80.005	19.994	104.326	19.816	20.949	0.528
339.000	242.399	80.002	19.994	104.329	19.812	21.191	0.527
339.500	242.681	80.005	19.995	104.329	19.808	21.476	0.504
340.000	242.888	80.005	19.994	104.329	19.804	21.731	0.500
340.500	243.164	80.004	19.994	104.331	19.801	21.954	0.486
341.000	243.418	80.006	19.994	104.331	19.800	22.023	0.506
341.500	243.651	80.004	19.994	104.333	19.797	22.163	0.509
342.000	243.905	80.005	19.995	104.333	19.793	22.462	0.487
342.500	244.155	80.004	19.995	104.330	19.788	22.794	0.495
343.000	244.408	80.004	19.994	104.330	19.785	22.979	0.503
343.500	244.622	80.004	19.993	104.332	19.784	23.061	0.485
344.000	244.917	80.005	19.994	104.331	19.780	23.324	0.488
344.500	245.145	80.003	19.994	104.332	19.777	23.502	0.516
345.000	245.417	80.006	19.992	104.335	19.774	23.711	0.512
345.500	245.625	80.004	19.994	104.334	19.774	23.696	0.490
346.000	245.898	80.004	19.993	104.334	19.769	24.035	0.480
346.499	246.152	80.004	19.993	104.335	19.765	24.303	0.504
346.999	246.403	80.004	19.993	104.336	19.764	24.378	0.516
347.499	246.641	80.003	19.993	104.337	19.758	24.765	0.497
347.999	246.887	80.003	19.994	104.338	19.754	25.031	0.486
348.499	247.155	80.003	19.994	104.339	19.752	25.138	0.499
349.000	247.337	80.005	19.993	104.339	19.746	25.537	0.482
349.500	247.624	80.003	19.993	104.340	19.742	25.808	0.460
350.000	247.899	80.004	19.994	104.340	19.740	25.932	0.515
350.500	248.124	80.005	19.992	104.340	19.737	26.165	0.530
351.000	248.391	80.004	19.994	104.340	19.729	26.626	0.496
351.499	248.610	80.004	19.993	104.341	19.728	26.749	0.489
351.999	248.866	80.004	19.993	104.340	19.723	27.024	0.481
352.499	249.131	80.003	19.994	104.340	19.720	27.241	0.498
352.999	249.404	80.005	19.994	104.340	19.717	27.428	0.529
353.499	249.664	80.004	19.995	104.341	19.713	27.690	0.536
353.999	249.901	80.003	19.994	104.346	19.709	27.979	0.515
354.500	250.153	80.003	19.994	104.350	19.705	28.223	0.493
355.000	250.420	80.005	19.993	104.351	19.700	28.554	0.504
355.500	250.624	80.005	19.993	104.351	19.697	28.764	0.495
356.000	250.906	80.005	19.993	104.352	19.690	29.246	0.479
356.499	251.157	80.005	19.993	104.348	19.685	29.561	0.510
357.000	251.406	80.005	19.993	104.346	19.682	29.734	0.516
357.500	251.669	80.005	19.993	104.347	19.680	29.867	0.506
358.000	251.915	80.005	19.993	104.352	19.673	30.346	0.511
358.500	252.179	80.005	19.992	104.352	19.670	30.521	0.509
359.000	252.424	80.006	19.994	104.353	19.665	30.873	0.509
359.500	252.720	80.005	19.993	104.354	19.662	31.078	0.525
360.000	252.951	80.005	19.994	104.354	19.659	31.237	0.534
360.500	253.184	80.005	19.994	104.349	19.653	31.647	0.496
361.000	253.432	80.006	19.993	104.351	19.650	31.854	0.473
361.500	253.666	80.005	19.993	104.354	19.645	32.199	0.481
362.000	253.958	80.005	19.993	104.356	19.640	32.512	0.504
362.500	254.217	80.005	19.995	104.356	19.635	32.856	0.538
363.000	254.440	80.004	19.995	104.357	19.629	33.237	0.517
363.500	254.675	80.005	19.993	104.362	19.625	33.488	0.470
364.000	254.936	80.005	19.994	104.362	19.624	33.578	0.477
364.500	255.183	80.004	19.994	104.364	19.616	34.107	0.502
365.000	255.422	80.005	19.994	104.369	19.612	34.328	0.497
365.500	255.681	80.006	19.994	104.373	19.607	34.696	0.492
366.000	255.915	80.004	19.994	104.371	19.603	34.921	0.496
366.500	256.208	80.005	19.995	104.372	19.598	35.296	0.510
366.999	256.460	80.003	19.994	104.371	19.589	35.881	0.536
367.500	256.658	80.005	19.995	104.369	19.587	35.996	0.498
368.000	256.937	80.003	19.995	104.370	19.581	36.380	0.464
368.499	257.179	80.004	19.994	104.373	19.578	36.602	0.499
368.999	257.433	80.004	19.994	104.374	19.569	37.166	0.508
369.499	257.689	80.004	19.994	104.375	19.563	37.545	0.503
369.999	257.927	80.005	19.995	104.378	19.559	37.837	0.503
370.499	258.204	80.003	19.994	104.378	19.551	38.327	0.505
371.000	258.398	80.004	19.995	104.378	19.548	38.574	0.492
371.500	258.651	80.004	19.995	104.378	19.542	38.948	0.459
371.999	258.903	80.004	19.994	104.378	19.538	39.244	0.476
372.499	259.175	80.004	19.995	104.378	19.531	39.678	0.515
372.999	259.428	80.004	19.994	104.378	19.524	40.124	0.525
373.499	259.695	80.005	19.994	104.378	19.519	40.468	0.522
373.999	259.940	80.005	19.994	104.378	19.515	40.757	0.516
374.499	260.190	80.004	19.995	104.378	19.510	41.054	0.504
375.000	260.437	80.004	19.995	104.378	19.501	41.639	0.496
375.500	260.659	80.004	19.995	104.378	19.499	41.757	0.482
376.000	260.933	80.005	19.994	104.377	19.490	42.388	0.482
376.500	261.154	80.004	19.995	104.377	19.484	42.770	0.496
376.999	261.417	80.004	19.994	104.377	19.480	43.030	0.490
377.500	261.662	80.005	19.994	104.378	19.475	43.373	0.496
378.000	261.918	80.005	19.993	104.378	19.464	44.084	0.505
378.500	262.155	80.005	19.994	104.378	19.460	44.370	0.497
379.000	262.446	80.005	19.994	104.379	19.454	44.727	0.510
379.500	262.668	80.005	19.994	104.382	19.448	45.099	0.520
380.000	262.926	80.004	19.993	104.384	19.442	45.554	0.496
380.500	263.162	80.006	19.994	104.388	19.436	45.906	0.487
380.999	263.415	80.004	19.993	104.394	19.428	46.424	0.492
381.499	263.674	80.007	19.994	104.401	19.423	46.802	0.501
382.000	263.922	80.003	19.995	104.405	19.415	47.332	0.509
382.500	264.142	80.006	19.996	104.409	19.410	47.652	0.487
383.000	264.441	80.006	19.995	104.412	19.400	48.274	0.493
383.500	264.646	80.006	19.995	104.412	19.398	48.395	0.511
384.000	264.922	80.005	19.995	104.411	19.391	48.903	0.493
384.500	265.175	80.006	19.995	104.411	19.384	49.341	0.505
385.000	265.423	80.006	19.995	104.410	19.378	49.771	0.515
385.500	265.640	80.007	19.994	104.410	19.370	50.277	0.483
386.000	265.895	80.006	19.995	104.409	19.362	50.799	0.469
386.500	266.167	80.005	19.994	104.411	19.356	51.180	0.500
386.999	266.354	80.007	19.994	104.411	19.348	51.717	0.493
387.499	266.657	80.006	19.995	104.411	19.338	52.385	0.474
387.999	266.883	80.005	19.995	104.413	19.333	52.712	0.510
388.499	267.155	80.005	19.996	104.415	19.326	53.173	0.514
389.000	267.414	80.005	19.995	104.415	19.319	53.644	0.514
389.500	267.619	80.005	19.995	104.415	19.309	54.248	0.497
390.000	267.888	80.004	19.994	104.415	19.303	54.641	0.469
390.500	268.150	80.005	19.996	104.414	19.296	55.133	0.503
391.000	268.413	80.004	19.994	104.414	19.292	55.427	0.528
391.500	268.619	80.005	19.995	104.419	19.280	56.177	0.497
392.000	268.924	80.004	19.995	104.424	19.273	56.640	0.490
392.500	269.146	80.003	19.994	104.427	19.265	57.174	0.519
393.000	269.370	80.005	19.995	104.428	19.260	57.531	0.486
393.500	269.629	80.003	19.994	104.432	19.250	58.146	0.465
393.999	269.905	80.003	19.995	104.433	19.240	58.842	0.509
394.499	270.157	80.004	19.995	104.435	19.231	59.409	0.532
394.999	270.388	80.003	19.995	104.435	19.224	59.855	0.505
395.499	270.657	80.003	19.994	104.439	19.216	60.436	0.491
396.000	270.938	80.003	19.996	104.442	19.208	60.960	0.525
396.500	271.189	80.003	19.994	104.443	19.201	61.379	0.541
397.000	271.416	80.003	19.994	104.443	19.188	62.266	0.505
397.500	271.721	80.003	19.996	104.448	19.182	62.650	0.505
398.000	271.980	80.002	19.995	104.449	19.171	63.380	0.548
398.500	272.205	80.005	19.995	104.450	19.162	63.981	0.524
399.000	272.454	80.004	19.996	104.451	19.153	64.578	0.479
399.500	272.695	80.005	19.995	104.452	19.145	65.051	0.482
400.000	272.947	80.004	19.994	104.452	19.133	65.837	0.491
400.500	273.177	80.004	19.996	104.452	19.124	66.448	0.487
401.000	273.417	80.005	19.994	104.452	19.114	67.117	0.476
401.500	273.680	80.004	19.995	104.453	19.104	67.815	0.487
401.999	273.977	80.004	19.994	104.454	19.095	68.410	0.532
402.500	274.197	80.003	19.995	104.458	19.084	69.083	0.539
403.000	274.454	80.004	19.994	104.461	19.076	69.610	0.497
403.500	274.709	80.004	19.994	104.464	19.065	70.351	0.494
404.000	274.928	80.004	19.994	104.471	19.053	71.141	0.493
404.500	275.170	80.004	19.994	104.473	19.044	71.759	0.467
405.000	275.461	80.004	19.994	104.474	19.031	72.577	0.497
405.500	275.711	80.005	19.993	104.477	19.023	73.119	0.537
406.000	275.959	80.004	19.994	104.482	19.013	73.771	0.520
406.500	276.223	80.004	19.995	104.483	19.000	74.633	0.505
407.000	276.462	80.004	19.994	104.486	18.989	75.393	0.508
407.500	276.728	80.003	19.993	104.488	18.976	76.221	0.504
408.000	276.948	80.003	19.994	104.490	18.964	76.995	0.495
408.500	277.191	80.004	19.994	104.490	18.951	77.829	0.474
409.000	277.468	80.005	19.993	104.490	18.941	78.493	0.492
409.500	277.716	80.003	19.994	104.492	18.931	79.176	0.523
410.000	277.977	80.004	19.994	104.493	18.920	79.915	0.516
410.499	278.228	80.005	19.993	104.495	18.908	80.688	0.510
411.000	278.452	80.004	19.994	104.496	18.895	81.523	0.494
411.500	278.722	80.004	19.993	104.497	18.882	82.411	0.485
412.000	278.963	80.005	19.994	104.503	18.869	83.250	0.502
412.500	279.188	80.004	19.994	104.510	18.859	83.904	0.489
413.000	279.481	80.004	19.993	104.516	18.847	84.684	0.492
413.500	279.719	80.004	19.993	104.523	18.837	85.381	0.524
414.000	279.974	80.004	19.993	104.529	18.825	86.139	0.512
414.500	280.218	80.005	19.993	104.531	18.814	86.883	0.496
415.000	280.442	80.005	19.993	104.532	18.801	87.704	0.483
415.500	280.680	80.003	19.993	104.533	18.793	88.264	0.465
415.999	280.935	80.005	19.993	104.533	18.780	89.102	0.478
416.499	281.168	80.005	19.994	104.534	18.769	89.824	0.490
416.999	281.449	80.004	19.992	104.535	18.759	90.469	0.501
417.499	281.701	80.006	19.994	104.535	18.745	91.346	0.523
418.000	281.962	80.004	19.995	104.535	18.740	91.673	0.523
418.500	282.207	80.003	19.993	104.536	18.725	92.688	0.510
419.000	282.449	80.004	19.994	104.535	18.718	93.179	0.496
419.499	282.699	80.004	19.994	104.534	18.708	93.832	0.490
419.999	282.941	80.004	19.994	104.534	18.701	94.244	0.492
420.499	283.219	80.004	19.994	104.534	18.690	94.950	0.506
421.000	283.409	80.005	19.993	104.533	18.688	95.132	0.494
421.500	283.685	80.004	19.994	104.534	18.679	95.673	0.467
422.000	283.941	80.005	19.994	104.534	18.673	96.057	0.500
422.500	284.214	80.005	19.993	104.534	18.670	96.273	0.531
423.000	284.461	80.005	19.993	104.533	18.667	96.483	0.524
423.500	284.654	80.003	19.994	104.532	18.664	96.680	0.480
424.000	284.927	80.004	19.994	104.529	18.664	96.691	0.453
424.500	285.199	80.005	19.994	104.527	18.659	97.016	0.505
425.000	285.426	80.004	19.994	104.522	18.665	96.646	0.522
425.500	285.659	80.003	19.992	104.518	18.668	96.455	0.480
426.000	285.910	80.004	19.995	104.514	18.672	96.173	0.472
426.500	286.159	80.005	19.993	104.511	18.679	95.714	0.492
427.000	286.374	80.004	19.995	104.506	18.687	95.161	0.482
427.500	286.640	80.004	19.994	104.503	18.692	94.843	0.472
427.999	286.907	80.003	19.995	104.501	18.705	93.958	0.507
428.500	287.190	80.005	19.994	104.499	18.713	93.438	0.541
429.000	287.436	80.004	19.993	104.497	18.727	92.503	0.539
429.500	287.670	80.003	19.994	104.497	18.741	91.615	0.504
430.000	287.884	80.003	19.993	104.496	18.753	90.792	0.464
430.499	288.156	80.003	19.993	104.493	18.771	89.650	0.467
430.999	288.392	80.005	19.993	104.489	18.785	88.701	0.497
431.499	288.643	80.003	19.995	104.488	18.803	87.504	0.498
432.000	288.920	80.004	19.994	104.482	18.823	86.220	0.508
432.500	289.156	80.003	19.994	104.476	18.840	85.080	0.520
433.000	289.402	80.003	19.994	104.473	18.858	83.918	0.497
433.500	289.610	80.005	19.993	104.471	18.877	82.694	0.468
434.000	289.888	80.004	19.993	104.468	18.897	81.334	0.470
434.500	290.132	80.004	19.994	104.471	18.916	80.111	0.503
435.000	290.418	80.004	19.993	104.476	18.941	78.467	0.526
435.500	290.639	80.005	19.994	104.482	18.961	77.142	0.519
436.000	290.898	80.006	19.993	104.484	18.980	75.900	0.494
436.500	291.142	80.005	19.994	104.485	19.000	74.544	0.492
437.000	291.385	80.005	19.995	104.483	19.022	73.136	0.495
437.500	291.628	80.006	19.993	104.480	19.043	71.726	0.486
438.000	291.917	80.005	19.993	104.474	19.063	70.430	0.509
438.500	292.140	80.005	19.993	104.475	19.083	69.100	0.523
439.000	292.402	80.005	19.994	104.472	19.104	67.702	0.498
439.500	292.655	80.006	19.993	104.470	19.126	66.269	0.500
440.000	292.907	80.006	19.993	104.469	19.145	65.045	0.510
440.499	293.143	80.006	19.994	104.466	19.161	63.977	0.497
440.999	293.430	80.006	19.994	104.460	19.178	62.836	0.505
441.500	293.634	80.007	19.993	104.458	19.197	61.572	0.507
442.000	293.879	80.006	19.993	104.456	19.213	60.529	0.470
442.499	294.135	80.006	19.993	104.454	19.230	59.431	0.475
442.999	294.401	80.007	19.994	104.454	19.245	58.481	0.512
443.499	294.669	80.008	19.994	104.453	19.259	57.541	0.528
443.999	294.907	80.008	19.993	104.453	19.275	56.492	0.520
444.499	295.180	80.006	19.994	104.451	19.286	55.724	0.509
444.999	295.401	80.007	19.992	104.447	19.301	54.791	0.503
445.499	295.674	80.006	19.994	104.441	19.312	54.009	0.494
445.999	295.896	80.005	19.994	104.434	19.327	53.080	0.495
446.499	296.161	80.007	19.993	104.426	19.336	52.454	0.491
446.999	296.376	80.006	19.994	104.422	19.346	51.822	0.483
447.500	296.658	80.005	19.994	104.419	19.355	51.198	0.488
448.000	296.900	80.005	19.994	104.416	19.364	50.625	0.510
448.500	297.134	80.006	19.995	104.415	19.372	50.075	0.500
449.000	297.400	80.005	19.994	104.415	19.377	49.748	0.488
449.500	297.632	80.005	19.994	104.413	19.384	49.280	0.499
450.000	297.885	80.006	19.994	104.413	19.393	48.704	0.491
450.500	298.165	80.006	19.994	104.411	19.398	48.356	0.509
451.000	298.402	80.005	19.994	104.405	19.405	47.905	0.525
451.500	298.658	80.005	19.994	104.399	19.408	47.690	0.505
451.999	298.934	80.005	19.993	104.392	19.409	47.674	0.513
452.500	299.139	80.005	19.993	104.388	19.412	47.467	0.506
453.000	299.447	80.007	19.994	104.389	19.413	47.418	0.497
453.500	299.679	80.006	19.995	104.392	19.411	47.520	0.527
454.000	299.949	80.006	19.994	104.395	19.414	47.311	0.521
454.500	300.168	80.005	19.995	104.395	19.416	47.175	0.495
455.000	300.432	80.007	19.993	104.392	19.414	47.313	0.486
455.500	300.697	80.004	19.994	104.385	19.418	47.086	0.506
455.999	300.910	80.005	19.996	104.381	19.419	46.974	0.504
456.499	301.185	80.006	19.995	104.376	19.419	47.040	0.482
456.999	301.417	80.005	19.994	104.375	19.421	46.848	0.497
457.500	301.719	80.006	19.995	104.371	19.423	46.727	0.521
458.000	301.973	80.004	19.996	104.367	19.424	46.698	0.545
458.500	302.225	80.006	19.994	104.359	19.426	46.581	0.530
459.000	302.440	80.005	19.994	104.352	19.425	46.622	0.486
459.500	302.723	80.005	19.995	104.345	19.427	46.452	0.483
460.000	303.024	80.006	19.995	104.341	19.429	46.335	0.541
460.500	303.261	80.006	19.994	104.336	19.432	46.128	0.561
461.000	303.525	80.007	19.994	104.337	19.434	46.025	0.520
461.500	303.776	80.005	19.995	104.338	19.438	45.769	0.508
462.000	304.039	80.006	19.994	104.339	19.439	45.710	0.514
462.500	304.306	80.006	19.994	104.341	19.439	45.675	0.522
463.000	304.543	80.007	19.994	104.342	19.444	45.380	0.517
463.500	304.834	80.008	19.995	104.342	19.446	45.218	0.516
464.000	305.075	80.007	19.994	104.340	19.449	45.008	0.530
464.500	305.360	80.007	19.994	104.340	19.454	44.683	0.529
465.000	305.615	80.007	19.993	104.339	19.458	44.437	0.533
465.500	305.871	80.007	19.994	104.343	19.461	44.246	0.525
466.000	306.117	80.008	19.994	104.346	19.464	44.058	0.507
466.500	306.415	80.007	19.994	104.349	19.465	43.943	0.523
467.000	306.681	80.007	19.994	104.350	19.471	43.601	0.554
467.500	306.914	80.008	19.993	104.355	19.477	43.187	0.531
468.000	307.159	80.007	19.993	104.356	19.479	43.067	0.489
468.500	307.405	80.007	19.994	104.357	19.485	42.692	0.485
469.000	307.666	80.007	19.994	104.356	19.490	42.363	0.499
469.500	307.937	80.006	19.995	104.359	19.493	42.116	0.520
469.999	308.248	80.007	19.993	104.359	19.498	41.832	0.557
470.499	308.467	80.006	19.994	104.352	19.501	41.599	0.556
471.000	308.734	80.007	19.993	104.349	19.508	41.156	0.508
471.500	308.987	80.006	19.994	104.347	19.513	40.799	0.503
472.000	309.260	80.006	19.993	104.342	19.519	40.407	0.523
472.500	309.508	80.006	19.993	104.334	19.528	39.858	0.524
473.000	309.803	80.006	19.995	104.331	19.532	39.599	0.532
473.500	310.057	80.006	19.994	104.331	19.539	39.106	0.546
474.000	310.313	80.005	19.994	104.332	19.549	38.444	0.529
474.499	310.541	80.005	19.993	104.332	19.559	37.776	0.497
474.999	310.832	80.004	19.995	104.333	19.567	37.250	0.502
475.499	311.118	80.005	19.993	104.331	19.574	36.843	0.548
475.999	311.374	80.004	19.994	104.326	19.581	36.356	0.560
476.499	311.581	80.004	19.994	104.322	19.589	35.848	0.503
477.000	311.860	80.002	19.993	104.315	19.593	35.577	0.474
477.500	312.134	80.003	19.994	104.311	19.602	34.984	0.519
478.000	312.431	80.004	19.994	104.314	19.612	34.293	0.562
478.500	312.672	80.003	19.994	104.318	19.621	33.744	0.555
479.000	312.927	80.005	19.994	104.319	19.626	33.370	0.517
479.500	313.200	80.004	19.995	104.325	19.636	32.773	0.512
480.000	313.472	80.003	19.994	104.327	19.645	32.164	0.536
480.500	313.729	80.005	19.995	104.328	19.651	31.734	0.537
481.000	313.987	80.004	19.995	104.328	19.658	31.290	0.522
481.500	314.249	80.005	19.993	104.331	19.665	30.860	0.517
482.000	314.534	80.004	19.994	104.331	19.673	30.331	0.533
482.500	314.799	80.003	19.994	104.329	19.679	29.916	0.549
482.999	315.030	80.004	19.994	104.324	19.691	29.167	0.523
483.500	315.267	80.002	19.994	104.321	19.693	29.034	0.482
484.000	315.534	80.003	19.995	104.314	19.701	28.511	0.486
484.500	315.834	80.002	19.995	104.308	19.703	28.341	0.535
485.000	316.060	80.003	19.996	104.307	19.712	27.776	0.546
485.500	316.315	80.002	19.995	104.308	19.716	27.518	0.503
486.000	316.544	80.003	19.995	104.307	19.724	26.953	0.483
486.500	316.825	80.003	19.995	104.310	19.728	26.706	0.497
487.000	317.094	80.003	19.995	104.310	19.733	26.370	0.530
487.500	317.364	80.003	19.994	104.308	19.738	26.015	0.544
488.000	317.583	80.004	19.995	104.306	19.739	25.950	0.514
488.500	317.867	80.003	19.995	104.302	19.749	25.346	0.496
489.000	318.144	80.003	19.994	104.298	19.755	24.949	0.532
489.499	318.390	80.003	19.994	104.298	19.754	24.981	0.542
490.000	318.604	80.004	19.995	104.298	19.759	24.677	0.492
490.500	318.880	80.002	19.996	104.299	19.763	24.433	0.475
490.999	319.162	80.004	19.995	104.299	19.765	24.300	0.524
491.500	319.392	80.004	19.994	104.299	19.769	24.040	0.535
492.000	319.681	80.005	19.994	104.298	19.771	23.865	0.515
492.500	319.919	80.005	19.996	104.296	19.775	23.597	0.523
493.000	320.159	80.006	19.995	104.295	19.780	23.261	0.503
493.499	320.464	80.005	19.995	104.296	19.782	23.181	0.512
494.000	320.679	80.004	19.995	104.295	19.783	23.104	0.532
494.500	320.951	80.003	19.995	104.295	19.786	22.879	0.503
494.999	321.194	80.005	19.996	104.296	19.789	22.730	0.501
495.500	321.467	80.003	19.995	104.296	19.792	22.492	0.515
496.000	321.722	80.005	19.995	104.288	19.794	22.368	0.522
496.499	321.983	80.004	19.995	104.284	19.794	22.376	0.522
496.999	322.260	80.004	19.992	104.279	19.798	22.103	0.527
497.500	322.520	80.005	19.993	104.276	19.802	21.868	0.537
498.000	322.734	80.004	19.993	104.269	19.805	21.658	0.505
498.499	322.996	80.004	19.994	104.270	19.806	21.572	0.476
498.999	323.255	80.004	19.993	104.276	19.808	21.484	0.499
499.500	323.484	80.005	19.993	104.279	19.808	21.479	0.504
500.000	323.748	80.004	19.994	104.281	19.813	21.105	0.491
500.499	324.020	80.002	19.994	104.284	19.813	21.139	0.515
500.999	324.260	80.005	19.993	104.284	19.813	21.103	0.524
501.499	324.515	80.003	19.994	104.277	19.814	21.077	0.503
501.999	324.742	80.004	19.994	104.273	19.819	20.705	0.489
502.499	325.044	80.003	19.994	104.268	19.818	20.770	0.506
502.999	325.334	80.004	19.995	104.264	19.820	20.639	0.561
503.499	325.560	80.004	19.995	104.262	19.824	20.389	0.554
503.999	325.822	80.005	19.995	104.261	19.822	20.508	0.502
504.499	326.060	80.004	19.994	104.260	19.822	20.535	0.493
504.999	326.276	80.003	19.993	104.260	19.826	20.280	0.477
505.500	326.542	80.004	19.993	104.260	19.824	20.403	0.468
506.000	326.794	80.004	19.994	104.260	19.826	20.268	0.500
506.500	327.075	80.004	19.995	104.263	19.827	20.179	0.526
507.000	327.313	80.006	19.994	104.263	19.828	20.159	0.526
507.500	327.555	80.003	19.994	104.263	19.830	19.984	0.499
508.000	327.817	80.005	19.994	104.263	19.826	20.257	0.492
508.500	328.069	80.003	19.993	104.262	19.827	20.192	0.509
508.999	328.294	80.005	19.993	104.258	19.829	20.079	0.496
509.499	328.562	80.004	19.993	104.259	19.830	20.025	0.485
510.000	328.781	80.003	19.994	104.259	19.830	19.998	0.490
510.500	329.066	80.004	19.994	104.258	19.829	20.097	0.496
511.000	329.337	80.003	19.994	104.257	19.835	19.649	0.530
511.500	329.578	80.003	19.994	104.256	19.836	19.623	0.534
512.000	329.828	80.004	19.995	104.256	19.835	19.672	0.501
512.500	330.072	80.004	19.994	104.256	19.833	19.785	0.493
512.999	330.312	80.004	19.994	104.255	19.835	19.650	0.490
513.500	330.593	80.004	19.996	104.256	19.834	19.741	0.503
514.000	330.815	80.005	19.995	104.257	19.833	19.799	0.512
514.500	331.069	80.003	19.993	104.257	19.831	19.940	0.490
515.000	331.333	80.002	19.994	104.257	19.835	19.666	0.497
515.499	331.535	80.004	19.993	104.257	19.834	19.720	0.492
515.999	331.780	80.004	19.994	104.257	19.833	19.784	0.457
516.499	332.044	80.005	19.994	104.256	19.834	19.724	0.478
516.999	332.287	80.004	19.994	104.255	19.840	19.374	0.508
517.500	332.575	80.005	19.994	104.256	19.835	19.655	0.519
518.000	332.852	80.006	19.993	104.255	19.837	19.577	0.548
518.500	333.048	80.005	19.994	104.255	19.836	19.626	0.519
519.000	333.280	80.007	19.993	104.254	19.831	19.949	0.451
519.499	333.542	80.004	19.994	104.253	19.832	19.900	0.461
519.999	333.750	80.006	19.993	104.251	19.831	19.923	0.482
520.499	334.005	80.004	19.993	104.250	19.834	19.754	0.467
520.999	334.308	80.006	19.994	104.249	19.834	19.755	0.510
521.499	334.502	80.007	19.994	104.250	19.832	19.867	0.527
521.999	334.752	80.006	19.994	104.246	19.833	19.820	0.471
522.500	334.969	80.006	19.995	104.245	19.830	19.979	0.456
523.000	335.298	80.005	19.993	104.245	19.831	19.949	0.507
523.500	335.505	80.007	19.994	104.245	19.829	20.066	0.541
524.000	335.735	80.005	19.994	104.247	19.832	19.895	0.486
524.500	336.004	80.006	19.993	104.252	19.828	20.109	0.467
525.000	336.272	80.006	19.994	104.252	19.830	19.987	0.518
525.500	336.487	80.006	19.994	104.250	19.828	20.161	0.510
526.000	336.751	80.007	19.995	104.246	19.827	20.192	0.481
526.500	336.997	80.006	19.993	104.244	19.830	20.030	0.495
527.000	337.213	80.005	19.994	104.243	19.825	20.310	0.486
527.500	337.461	80.006	19.994	104.245	19.825	20.357	0.463
528.000	337.679	80.005	19.995	104.242	19.821	20.592	0.465
528.500	337.960	80.007	19.993	104.242	19.822	20.551	0.483
529.000	338.205	80.005	19.994	104.241	19.823	20.473	0.512
529.500	338.421	80.006	19.994	104.239	19.819	20.721	0.494
530.000	338.647	80.005	19.994	104.239	19.819	20.729	0.451
530.499	338.918	80.006	19.994	104.244	19.819	20.699	0.469
531.000	339.157	80.006	19.993	104.246	19.816	20.910	0.504
531.500	339.390	80.005	19.993	104.243	19.816	20.906	0.491
532.000	339.633	80.006	19.995	104.246	19.812	21.164	0.474
532.500	339.872	80.005	19.993	104.245	19.810	21.320	0.479
533.000	340.115	80.006	19.993	104.240	19.807	21.540	0.482
533.500	340.350	80.006	19.994	104.237	19.806	21.568	0.480
534.000	340.605	80.005	19.995	104.240	19.804	21.717	0.484
534.500	340.853	80.005	19.993	104.239	19.800	21.957	0.496
535.000	341.084	80.005	19.993	104.237	19.799	22.066	0.491
535.500	341.347	80.005	19.994	104.240	19.798	22.075	0.487
536.000	341.581	80.007	19.994	104.242	19.796	22.254	0.496
536.500	341.855	80.005	19.993	104.239	19.792	22.475	0.502
537.000	342.108	80.006	19.993	104.239	19.791	22.557	0.517
537.500	342.299	80.005	19.995	104.241	19.788	22.742	0.486
538.000	342.579	80.006	19.994	104.239	19.786	22.914	0.458
538.500	342.814	80.006	19.994	104.238	19.788	22.790	0.493
539.000	343.042	80.005	19.993	104.239	19.783	23.077	0.489
539.500	343.295	80.005	19.993	104.240	19.778	23.412	0.472
540.000	343.527	80.007	19.994	104.243	19.775	23.638	0.483
540.500	343.764	80.007	19.993	104.246	19.771	23.883	0.476
541.000	344.024	80.006	19.994	104.250	19.770	23.968	0.483
541.500	344.243	80.005	19.993	104.253	19.765	24.248	0.488
542.000	344.516	80.006	19.993	104.255	19.765	24.270	0.486
542.500	344.721	80.006	19.993	104.254	19.760	24.629	0.485
543.000	344.983	80.007	19.993	104.249	19.759	24.672	0.472
543.500	345.216	80.007	19.993	104.249	19.758	24.742	0.482
544.000	345.479	80.006	19.994	104.249	19.751	25.159	0.496
544.500	345.719	80.006	19.994	104.249	19.750	25.271	0.500
545.000	345.978	80.006	19.994	104.247	19.744	25.645	0.501
545.500	346.211	80.007	19.994	104.251	19.739	25.946	0.495
546.000	346.446	80.007	19.994	104.248	19.737	26.086	0.480
546.500	346.677	80.008	19.993	104.246	19.732	26.458	0.467
547.000	346.900	80.007	19.993	104.244	19.727	26.770	0.460
547.500	347.180	80.006	19.994	104.244	19.724	26.947	0.479
548.000	347.405	80.006	19.993	104.239	19.720	27.241	0.504
548.499	347.648	80.006	19.993	104.241	19.715	27.550	0.486
548.999	347.912	80.006	19.994	104.240	19.713	27.711	0.487
549.499	348.134	80.007	19.994	104.237	19.708	28.029	0.496
549.999	348.397	80.007	19.994	104.234	19.702	28.433	0.486
550.500	348.603	80.007	19.994	104.240	19.695	28.888	0.477
551.000	348.881	80.008	19.993	104.244	19.692	29.049	0.476
551.500	349.127	80.007	19.995	104.246	19.688	29.314	0.503
552.000	349.395	80.007	19.993	104.251	19.682	29.717	0.519
552.500	349.655	80.006	19.994	104.254	19.677	30.066	0.521
553.000	349.904	80.007	19.994	104.251	19.671	30.462	0.519
553.500	350.142	80.005	19.994	104.250	19.667	30.710	0.498
554.000	350.378	80.006	19.994	104.249	19.660	31.170	0.481
554.500	350.636	80.005	19.994	104.249	19.655	31.455	0.484
555.000	350.897	80.006	19.993	104.248	19.648	31.944	0.506
555.500	351.128	80.005	19.994	104.251	19.643	32.285	0.505
555.999	351.371	80.004	19.994	104.250	19.635	32.807	0.483
556.500	351.642	80.005	19.994	104.248	19.628	33.281	0.494
557.000	351.862	80.004	19.995	104.248	19.624	33.543	0.503
557.500	352.132	80.004	19.994	104.248	19.615	34.101	0.490
558.000	352.386	80.005	19.993	104.245	19.609	34.535	0.507
558.500	352.665	80.004	19.994	104.246	19.603	34.881	0.529
559.000	352.923	80.005	19.994	104.250	19.596	35.355	0.535
559.500	353.148	80.003	19.994	104.249	19.588	35.892	0.510
560.000	353.411	80.004	19.994	104.248	19.577	36.591	0.485
560.500	353.660	80.005	19.994	104.246	19.568	37.175	0.500
560.999	353.901	80.004	19.993	104.246	19.564	37.481	0.501
561.499	354.160	80.004	19.994	104.246	19.554	38.142	0.495
561.999	354.404	80.003	19.993	104.249	19.547	38.578	0.501
562.499	354.642	80.003	19.993	104.254	19.535	39.340	0.492
563.000	354.909	80.003	19.994	104.261	19.532	39.586	0.493
563.500	355.129	80.004	19.995	104.264	19.525	40.027	0.497
564.000	355.400	80.004	19.995	104.264	19.513	40.802	0.489
564.500	355.637	80.005	19.994	104.264	19.505	41.318	0.499
565.000	355.889	80.004	19.994	104.263	19.494	42.025	0.498
565.500	356.139	80.004	19.994	104.262	19.484	42.678	0.496
566.000	356.387	80.005	19.995	104.261	19.474	43.340	0.500
566.500	356.603	80.005	19.995	104.261	19.466	43.901	0.481
566.999	356.889	80.004	19.994	104.261	19.459	44.362	0.483
567.499	357.107	80.005	19.995	104.261	19.443	45.373	0.503
568.000	357.392	80.003	19.993	104.261	19.432	46.121	0.503
568.500	357.658	80.004	19.994	104.261	19.420	46.893	0.526
569.000	357.888	80.004	19.994	104.260	19.408	47.718	0.523
569.499	358.133	80.005	19.995	104.260	19.400	48.207	0.486
569.999	358.357	80.004	19.993	104.260	19.389	48.928	0.473
570.500	358.631	80.004	19.994	104.259	19.374	49.929	0.484
571.000	358.851	80.005	19.994	104.260	19.363	50.630	0.496
571.500	359.118	80.004	19.995	104.259	19.350	51.533	0.490
572.000	359.385	80.005	19.996	104.258	19.335	52.462	0.510
572.500	359.621	80.005	19.995	104.258	19.322	53.339	0.518
573.000	359.867	80.005	19.994	104.259	19.307	54.353	0.493
573.500	360.139	80.005	19.995	104.261	19.294	55.190	0.500
574.000	360.370	80.004	19.995	104.264	19.282	55.930	0.511
574.500	360.583	80.003	19.995	104.266	19.263	57.168	0.474
575.000	360.892	80.006	19.994	104.267	19.247	58.271	0.483
575.500	361.123	80.005	19.994	104.268	19.229	59.424	0.531
576.000	361.390	80.006	19.995	104.273	19.216	60.274	0.519
576.499	361.604	80.004	19.995	104.275	19.197	61.542	0.489
577.000	361.872	80.006	19.995	104.275	19.180	62.625	0.481
577.500	362.073	80.004	19.996	104.280	19.161	63.903	0.475
578.000	362.376	80.004	19.994	104.286	19.140	65.294	0.486
578.500	362.609	80.005	19.994	104.287	19.124	66.364	0.520
579.000	362.832	80.004	19.995	104.291	19.103	67.691	0.496
579.500	363.095	80.004	19.995	104.296	19.086	68.840	0.471
580.000	363.351	80.004	19.994	104.297	19.064	70.263	0.503
580.500	363.588	80.004	19.995	104.296	19.044	71.589	0.506
581.000	363.868	80.003	19.995	104.295	19.024	72.904	0.505
581.500	364.107	80.003	19.995	104.295	19.005	74.172	0.518
582.000	364.339	80.005	19.995	104.295	18.983	75.580	0.495
582.500	364.592	80.005	19.995	104.295	18.967	76.642	0.478
583.000	364.830	80.004	19.995	104.293	18.948	77.908	0.488
583.500	365.090	80.005	19.995	104.289	18.928	79.201	0.495
584.000	365.341	80.004	19.994	104.287	18.910	80.401	0.505
584.500	365.608	80.004	19.995	104.282	18.887	81.880	0.514
585.000	365.862	80.004	19.994	104.274	18.866	83.279	0.519
585.500	366.097	80.005	19.993	104.269	18.845	84.657	0.505
586.000	366.361	80.003	19.994	104.265	18.825	85.991	0.494
586.499	366.554	80.003	19.995	104.260	18.802	87.479	0.478
587.000	366.803	80.003	19.995	104.259	18.778	89.040	0.449
587.500	367.064	80.003	19.995	104.264	18.755	90.525	0.475
588.000	367.286	80.005	19.995	104.272	18.733	91.975	0.496
588.500	367.587	80.005	19.995	104.280	18.709	93.590	0.504
588.999	367.829	80.004	19.995	104.290	18.686	95.090	0.533
589.499	368.065	80.003	19.994	104.297	18.663	96.582	0.510
590.000	368.311	80.004	19.995	104.300	18.638	98.245	0.480
590.500	368.581	80.004	19.995	104.300	18.613	99.892	0.499
590.999	368.800	80.005	19.994	104.303	18.587	101.549	0.503
591.500	369.076	80.005	19.993	104.308	18.558	103.459	0.492
592.000	369.312	80.004	19.994	104.311	18.532	105.212	0.503
592.500	369.561	80.004	19.994	104.313	18.507	106.793	0.498
593.000	369.817	80.003	19.993	104.316	18.481	108.534	0.495
593.499	370.086	80.005	19.993	104.314	18.452	110.397	0.515
593.999	370.324	80.005	19.993	104.307	18.427	112.090	0.516
594.499	370.599	80.005	19.993	104.305	18.398	113.961	0.510
594.999	370.821	80.004	19.994	104.303	18.372	115.656	0.505
595.499	371.076	80.005	19.994	104.300	18.344	117.506	0.486
595.999	371.316	80.005	19.994	104.304	18.314	119.445	0.486
596.499	371.537	80.005	19.992	104.307	18.289	121.091	0.478
596.999	371.805	80.005	19.993	104.307	18.262	122.880	0.475
597.500	372.068	80.004	19.993	104.307	18.233	124.811	0.510
598.000	372.349	80.006	19.994	104.308	18.205	126.616	0.538
598.499	372.596	80.005	19.993	104.304	18.181	128.223	0.536
598.999	372.865	80.005	19.993	104.301	18.150	130.254	0.522
599.499	373.113	80.005	19.993	104.301	18.123	132.042	0.516
599.999	373.369	80.006	19.994	104.301	18.092	134.021	0.510
600.499	373.627	80.005	19.993	104.299	18.064	135.868	0.509
600.999	373.871	80.005	19.994	104.298	18.033	137.926	0.508
601.499	374.139	80.005	19.994	104.299	18.006	139.646	0.508
602.000	374.342	80.005	19.993	104.304	17.972	141.859	0.492
602.500	374.609	80.006	19.994	104.305	17.948	143.445	0.470
603.000	374.871	80.006	19.995	104.305	17.918	145.421	0.499
603.500	375.092	80.006	19.995	104.307	17.890	147.248	0.506
604.000	375.379	80.006	19.995	104.308	17.862	149.063	0.495
604.500	375.637	80.006	19.994	104.303	17.836	150.759	0.526
605.000	375.865	80.006	19.994	104.302	17.808	152.574	0.516
605.500	376.129	80.006	19.993	104.302	17.781	154.329	0.490
606.000	376.381	80.006	19.993	104.298	17.753	156.204	0.504
606.500	376.601	80.006	19.993	104.291	17.721	158.276	0.494
607.000	376.870	80.005	19.993	104.288	17.692	160.147	0.481
607.500	377.125	80.006	19.992	104.287	17.661	162.221	0.507
608.000	377.371	80.006	19.992	104.288	17.631	164.212	0.512
608.500	377.637	80.006	19.993	104.292	17.603	166.011	0.506
608.999	377.913	80.006	19.993	104.298	17.572	168.038	0.527
609.499	378.139	80.006	19.995	104.302	17.543	169.933	0.522
610.000	378.403	80.004	19.994	104.305	17.515	171.750	0.497
610.500	378.619	80.007	19.993	104.305	17.488	173.530	0.485
611.000	378.935	80.005	19.994	104.304	17.459	175.418	0.506
611.500	379.168	80.006	19.994	104.302	17.434	177.056	0.541
612.000	379.417	80.004	19.993	104.294	17.405	178.929	0.516
612.500	379.687	80.005	19.993	104.286	17.376	180.787	0.500
613.000	379.904	80.005	19.993	104.278	17.348	182.634	0.502
613.499	380.187	80.005	19.993	104.270	17.319	184.543	0.494
614.000	380.462	80.006	19.994	104.264	17.295	186.099	0.530
614.500	380.686	80.006	19.993	104.259	17.267	187.975	0.529
615.000	380.975	80.006	19.993	104.252	17.240	189.725	0.506
615.499	381.224	80.005	19.993	104.245	17.216	191.273	0.525
616.000	381.414	80.005	19.993	104.237	17.189	193.055	0.488
616.500	381.732	80.006	19.993	104.230	17.166	194.595	0.473
617.000	381.966	80.006	19.993	104.226	17.143	196.079	0.530
617.500	382.214	80.005	19.994	104.225	17.119	197.670	0.517
618.000	382.491	80.006	19.994	104.229	17.094	199.294	0.504
618.499	382.732	80.006	19.993	104.233	17.066	201.077	0.522
618.999	383.008	80.004	19.993	104.233	17.049	202.186	0.517
619.499	383.276	80.004	19.993	104.233	17.025	203.704	0.530
620.000	383.505	80.005	19.994	104.231	17.006	204.966	0.521
620.500	383.766	80.005	19.993	104.224	16.986	206.240	0.494
620.999	384.055	80.005	19.995	104.212	16.966	207.554	0.521
621.499	384.279	80.005	19.993	104.205	16.946	208.836	0.531
622.000	384.572	80.004	19.993	104.197	16.931	209.808	0.514
622.500	384.832	80.005	19.994	104.190	16.913	210.993	0.535
623.000	385.101	80.005	19.995	104.185	16.892	212.308	0.542
623.500	385.330	80.005	19.994	104.184	16.877	213.325	0.514
624.000	385.603	80.005	19.995	104.183	16.861	214.349	0.500
624.500	385.835	80.005	19.992	104.183	16.846	215.293	0.503
625.000	386.111	80.006	19.992	104.179	16.829	216.425	0.506
625.500	386.385	80.004	19.993	104.176	16.815	217.322	0.529
625.999	386.646	80.006	19.993	104.175	16.802	218.231	0.543
626.499	386.897	80.006	19.993	104.177	16.788	219.172	0.524
626.999	387.162	80.007	19.994	104.176	16.779	219.756	0.514
627.500	387.435	80.007	19.993	104.178	16.767	220.532	0.527
628.000	387.694	80.007	19.993	104.179	16.757	221.213	0.535
628.499	387.947	80.006	19.992	104.175	16.752	221.554	0.522
629.000	388.221	80.006	19.994	104.167	16.745	221.958	0.519
629.500	388.467	80.007	19.992	104.159	16.740	222.333	0.524
630.000	388.748	80.007	19.993	104.147	16.733	222.777	0.524
630.500	389.005	80.008	19.992	104.134	16.731	222.842	0.532
631.000	389.269	80.008	19.993	104.124	16.732	222.816	0.529
631.500	389.531	80.008	19.992	104.117	16.730	222.933	0.523
632.000	389.742	80.009	19.992	104.109	16.731	222.833	0.500
632.500	390.020	80.006	19.993	104.108	16.733	222.690	0.481
633.000	390.272	80.006	19.993	104.102	16.736	222.505	0.509
633.499	390.550	80.007	19.994	104.095	16.741	222.194	0.530
634.000	390.818	80.006	19.993	104.085	16.744	221.975	0.538
634.500	391.038	80.007	19.993	104.078	16.749	221.649	0.517
635.000	391.296	80.006	19.993	104.069	16.757	221.137	0.483
635.500	391.570	80.007	19.993	104.067	16.763	220.786	0.505
636.000	391.844	80.006	19.994	104.068	16.773	220.130	0.540
636.500	392.075	80.006	19.994	104.075	16.781	219.623	0.526
637.000	392.362	80.005	19.994	104.084	16.789	219.102	0.511
637.500	392.621	80.007	19.993	104.093	16.803	218.137	0.532
637.999	392.863	80.005	19.994	104.099	16.815	217.419	0.524
638.499	393.124	80.005	19.994	104.105	16.829	216.454	0.502
638.999	393.407	80.007	19.993	104.106	16.844	215.482	0.523
639.499	393.634	80.005	19.994	104.103	16.863	214.245	0.527
640.000	393.901	80.004	19.994	104.095	16.881	213.081	0.503
640.500	394.171	80.004	19.995	104.094	16.902	211.694	0.516
641.000	394.446	80.005	19.994	104.092	16.922	210.415	0.541
641.500	394.674	80.004	19.994	104.084	16.942	209.067	0.524
642.000	394.916	80.005	19.994	104.079	16.962	207.776	0.486
642.500	395.222	80.004	19.994	104.077	16.986	206.211	0.509
643.000	395.472	80.005	19.995	104.071	17.011	204.600	0.552
643.500	395.735	80.006	19.995	104.065	17.034	203.047	0.534
644.000	395.987	80.006	19.995	104.064	17.061	201.309	0.514
644.499	396.219	80.004	19.994	104.063	17.089	199.488	0.499
645.000	396.510	80.005	19.993	104.064	17.115	197.788	0.503
645.500	396.765	80.005	19.995	104.064	17.142	195.976	0.534
646.000	397.044	80.005	19.994	104.068	17.171	194.094	0.540
646.500	397.285	80.006	19.996	104.072	17.200	192.215	0.527
647.000	397.498	80.004	19.995	104.077	17.232	190.133	0.487
647.500	397.783	80.005	19.994	104.083	17.260	188.294	0.476
648.000	398.021	80.003	19.995	104.085	17.292	186.165	0.511
648.500	398.289	80.005	19.993	104.088	17.324	184.094	0.514
649.000	398.557	80.004	19.994	104.091	17.355	182.044	0.521
649.500	398.816	80.005	19.994	104.094	17.389	179.826	0.531
650.000	399.074	80.004	19.994	104.094	17.424	177.527	0.522
650.500	399.306	80.003	19.994	104.098	17.455	175.465	0.504
651.000	399.567	80.004	19.994	104.100	17.489	173.243	0.492
651.500	399.839	80.005	19.995	104.099	17.522	171.103	0.513
652.000	400.082	80.006	19.995	104.100	17.556	168.848	0.524
652.500	400.354	80.004	19.994	104.100	17.594	166.410	0.515
653.000	400.582	80.004	19.994	104.101	17.625	164.337	0.508
653.500	400.876	80.004	19.994	104.100	17.658	162.163	0.511
654.000	401.111	80.004	19.995	104.100	17.695	159.767	0.525
654.500	401.360	80.006	19.993	104.100	17.731	157.414	0.506
655.000	401.605	80.004	19.994	104.101	17.765	155.170	0.489
655.500	401.844	80.004	19.994	104.101	17.798	152.996	0.489
656.000	402.089	80.005	19.995	104.103	17.833	150.705	0.484
656.500	402.369	80.005	19.994	104.104	17.866	148.545	0.505
657.000	402.607	80.006	19.994	104.103	17.904	146.037	0.521
657.500	402.857	80.006	19.994	104.103	17.938	143.825	0.503
658.000	403.097	80.005	19.994	104.103	17.976	141.375	0.489
658.499	403.373	80.006	19.994	104.103	18.012	139.013	0.503
659.000	403.642	80.005	19.993	104.102	18.046	136.772	0.530
659.500	403.887	80.005	19.994	104.101	18.082	134.405	0.530
660.000	404.137	80.005	19.994	104.101	18.116	132.171	0.505
660.500	404.382	80.005	19.994	104.101	18.148	130.067	0.495
661.000	404.605	80.005	19.994	104.101	18.189	127.387	0.481
661.500	404.903	80.004	19.994	104.099	18.221	125.341	0.494
662.000	405.127	80.004	19.995	104.100	18.252	123.303	0.522
662.500	405.418	80.004	19.995	104.097	18.286	121.107	0.518
663.000	405.629	80.005	19.995	104.094	18.323	118.681	0.508
663.500	405.920	80.005	19.994	104.089	18.358	116.388	0.502
664.000	406.155	80.003	19.994	104.088	18.393	114.085	0.514
664.500	406.394	80.005	19.995	104.084	18.426	111.886	0.500
665.000	406.650	80.004	19.995	104.080	18.461	109.600	0.485
665.500	406.864	80.006	19.995	104.076	18.490	107.732	0.482
666.000	407.153	80.004	19.995	104.074	18.525	105.427	0.486
666.499	407.393	80.005	19.994	104.072	18.556	103.408	0.516
667.000	407.691	80.004	19.995	104.074	18.591	101.135	0.534
667.500	407.921	80.004	19.995	104.076	18.626	98.805	0.533
668.000	408.185	80.004	19.994	104.079	18.653	97.039	0.511
668.500	408.409	80.003	19.994	104.081	18.689	94.706	0.491
669.000	408.628	80.003	19.995	104.079	18.721	92.596	0.465
669.500	408.916	80.003	19.994	104.075	18.752	90.587	0.475
670.000	409.143	80.003	19.996	104.072	18.782	88.619	0.511
670.500	409.404	80.002	19.995	104.071	18.811	86.714	0.501
671.000	409.609	80.002	19.995	104.070	18.838	84.946	0.477
671.500	409.925	80.003	19.995	104.077	18.870	82.885	0.494
672.000	410.144	80.002	19.994	104.080	18.899	80.994	0.528
672.500	410.397	80.003	19.994	104.087	18.926	79.178	0.503
672.999	410.664	80.003	19.996	104.094	18.950	77.612	0.496
673.500	410.941	80.004	19.995	104.100	18.980	75.693	0.531
674.000	411.213	80.001	19.996	104.102	19.008	73.836	0.546
674.500	411.422	80.003	19.995	104.106	19.036	72.017	0.516
675.000	411.702	80.003	19.995	104.102	19.058	70.565	0.485
675.500	411.967	80.004	19.995	104.102	19.090	68.470	0.517
676.000	412.175	80.003	19.995	104.103	19.114	66.881	0.509
676.500	412.463	80.001	19.994	104.103	19.138	65.324	0.485
677.000	412.673	80.004	19.996	104.104	19.161	63.798	0.497
677.499	412.959	80.005	19.995	104.110	19.187	62.125	0.497
677.999	413.198	80.004	19.994	104.114	19.210	60.582	0.510
678.499	413.441	80.004	19.995	104.116	19.231	59.214	0.503
678.999	413.677	80.004	19.994	104.118	19.255	57.648	0.480
679.500	413.934	80.004	19.995	104.122	19.274	56.413	0.486
680.000	414.166	80.005	19.995	104.127	19.296	54.956	0.491
680.500	414.420	80.004	19.995	104.131	19.318	53.519	0.488
681.000	414.676	80.005	19.995	104.135	19.339	52.142	0.498
681.500	414.940	80.004	19.995	104.139	19.359	50.845	0.515
682.000	415.179	80.004	19.994	104.142	19.380	49.451	0.511
682.500	415.449	80.004	19.993	104.142	19.401	48.096	0.506
683.000	415.709	80.006	19.993	104.142	19.421	46.800	0.520
683.500	415.942	80.005	19.994	104.143	19.437	45.715	0.512
684.000	416.201	80.006	19.995	104.144	19.458	44.351	0.492
684.500	416.433	80.006	19.995	104.144	19.475	43.272	0.491
684.999	416.693	80.006	19.993	104.144	19.491	42.193	0.492
685.500	416.964	80.006	19.994	104.144	19.509	40.997	0.512
686.000	417.194	80.005	19.992	104.144	19.527	39.851	0.516
686.499	417.479	80.005	19.993	104.144	19.542	38.867	0.508
686.999	417.728	80.007	19.993	104.144	19.556	37.937	0.525
687.499	417.969	80.006	19.993	104.146	19.573	36.820	0.512
687.999	418.257	80.005	19.993	104.147	19.587	35.933	0.509
688.500	418.483	80.006	19.993	104.148	19.604	34.761	0.522
689.000	418.761	80.004	19.993	104.149	19.615	34.054	0.509
689.500	419.009	80.005	19.993	104.149	19.632	32.945	0.515
690.000	419.275	80.006	19.993	104.149	19.643	32.258	0.520
690.500	419.496	80.005	19.993	104.150	19.659	31.210	0.501
691.000	419.798	80.007	19.993	104.151	19.670	30.482	0.505
691.500	420.015	80.005	19.994	104.151	19.686	29.438	0.521
692.000	420.306	80.006	19.993	104.150	19.696	28.766	0.513
692.499	420.547	80.007	19.994	104.149	19.708	27.984	0.520
693.000	420.812	80.006	19.995	104.147	19.721	27.161	0.519
693.500	421.051	80.006	19.992	104.145	19.732	26.383	0.505
694.000	421.316	80.007	19.993	104.146	19.744	25.647	0.504
694.500	421.591	80.005	19.993	104.146	19.754	24.971	0.522
695.000	421.861	80.005	19.994	104.146	19.767	24.140	0.543
695.500	422.085	80.005	19.993	104.146	19.780	23.301	0.519
696.000	422.348	80.004	19.994	104.146	19.787	22.807	0.490
696.500	422.602	80.005	19.992	104.146	19.797	22.130	0.502
697.000	422.838	80.006	19.994	104.145	19.805	21.618	0.503
697.500	423.127	80.005	19.994	104.145	19.815	21.003	0.508
698.000	423.359	80.004	19.994	104.145	19.826	20.235	0.523
698.500	423.626	80.006	19.993	104.144	19.835	19.677	0.510
699.000	423.859	80.006	19.994	104.144	19.842	19.175	0.499
699.500	424.159	80.006	19.993	104.145	19.851	18.632	0.517
699.999	424.410	80.005	19.994	104.147	19.859	18.122	0.542
700.500	424.658	80.006	19.994	104.147	19.866	17.656	0.525
701.000	424.920	80.006	19.993	104.148	19.872	17.240	0.504
701.500	425.168	80.006	19.994	104.150	19.880	16.690	0.510
702.000	425.415	80.006	19.994	104.150	19.889	16.119	0.502
702.500	425.662	80.005	19.993	104.151	19.898	15.537	0.494
703.000	425.953	80.005	19.995	104.151	19.902	15.289	0.516
703.500	426.148	80.005	19.993	104.152	19.910	14.772	0.512
704.000	426.402	80.007	19.994	104.158	19.918	14.220	0.468
704.500	426.667	80.007	19.994	104.163	19.921	14.057	0.484
705.000	426.942	80.006	19.994	104.163	19.927	13.638	0.529
705.500	427.174	80.007	19.993	104.169	19.932	13.313	0.524
706.000	427.462	80.006	19.993	104.172	19.936	13.057	0.514
706.500	427.726	80.007	19.994	104.171	19.944	12.495	0.536
707.000	427.973	80.006	19.993	104.168	19.947	12.348	0.531
707.500	428.239	80.007	19.993	104.168	19.954	11.850	0.512
707.999	428.505	80.006	19.994	104.166	19.961	11.414	0.522
708.500	428.770	80.007	19.994	104.162	19.968	10.979	0.532
709.000	429.021	80.007	19.993	104.159	19.969	10.852	0.524
709.500	429.272	80.008	19.993	104.160	19.971	10.767	0.509
710.000	429.522	80.008	19.994	104.164	19.977	10.347	0.502
710.500	429.776	80.009	19.993	104.168	19.981	10.128	0.503
711.000	430.035	80.007	19.993	104.172	19.986	9.761	0.508
711.500	430.294	80.006	19.993	104.175	19.993	9.315	0.515
712.000	430.556	80.007	19.994	104.177	19.996	9.136	0.519
712.500	430.823	80.007	19.994	104.177	19.997	9.017	0.525
713.000	431.066	80.007	19.995	104.177	20.003	8.685	0.520
713.500	431.305	80.006	19.992	104.176	20.007	8.393	0.496
714.000	431.573	80.007	19.993	104.174	20.009	8.265	0.494
714.500	431.851	80.008	19.993	104.168	20.009	8.281	0.526
715.000	432.097	80.006	19.994	104.163	20.013	7.983	0.535
715.500	432.311	80.008	19.993	104.161	20.016	7.794	0.492
715.999	432.583	80.007	19.993	104.159	20.022	7.405	0.473
716.499	432.820	80.006	19.994	104.155	20.020	7.529	0.497
717.000	433.099	80.006	19.993	104.154	20.026	7.120	0.512
717.500	433.355	80.006	19.993	104.153	20.029	6.973	0.525
717.999	433.598	80.006	19.994	104.150	20.030	6.881	0.517
718.500	433.873	80.006	19.994	104.146	20.031	6.798	0.509
719.000	434.089	80.005	19.994	104.146	20.034	6.602	0.505
719.500	434.395	80.004	19.993	104.146	20.035	6.532	0.507
720.000	434.615	80.005	19.993	104.145	20.037	6.419	0.523
720.500	434.897	80.005	19.993	104.143	20.044	5.957	0.514
721.000	435.132	80.005	19.993	104.142	20.043	6.029	0.510
721.500	435.412	80.005	19.993	104.142	20.046	5.864	0.517
722.000	435.641	80.005	19.992	104.142	20.046	5.848	0.512
722.500	435.903	80.005	19.993	104.145	20.047	5.760	0.500
723.000	436.182	80.005	19.993	104.150	20.052	5.471	0.516
723.500	436.398	80.006	19.993	104.154	20.051	5.494	0.518
724.000	436.675	80.004	19.993	104.157	20.053	5.405	0.493
724.500	436.944	80.005	19.993	104.157	20.057	5.093	0.519
725.000	437.161	80.006	19.994	104.156	20.058	5.037	0.516
725.499	437.465	80.005	19.993	104.151	20.060	4.893	0.503
726.000	437.731	80.005	19.994	104.147	20.062	4.799	0.546
726.500	437.949	80.004	19.995	104.148	20.062	4.803	0.527
726.999	438.208	80.004	19.994	104.155	20.067	4.453	0.481
727.499	438.471	80.004	19.995	104.161	20.065	4.602	0.499
727.999	438.703	80.004	19.995	104.166	20.066	4.501	0.508
728.499	438.961	80.005	19.994	104.168	20.070	4.262	0.492
729.000	439.188	80.006	19.995	104.166	20.071	4.210	0.487
729.500	439.465	80.005	19.994	104.160	20.071	4.185	0.494
729.999	439.725	80.004	19.994	104.153	20.073	4.077	0.521
730.499	439.980	80.005	19.994	104.148	20.071	4.174	0.526
731.000	440.251	80.005	19.994	104.147	20.075	3.928	0.520
731.500	440.480	80.006	19.994	104.148	20.075	3.934	0.513
731.999	440.777	80.004	19.994	104.148	20.077	3.776	0.513
732.499	441.000	80.006	19.993	104.148	20.076	3.902	0.523
732.999	441.250	80.004	19.994	104.148	20.079	3.647	0.497
733.499	441.501	80.004	19.994	104.150	20.079	3.695	0.487
734.000	441.707	80.005	19.994	104.153	20.081	3.566	0.479
734.500	441.999	80.004	19.995	104.154	20.079	3.708	0.477
735.000	442.269	80.005	19.995	104.159	20.081	3.514	0.530
735.500	442.524	80.005	19.995	104.161	20.081	3.562	0.544
736.000	442.758	80.005	19.994	104.158	20.083	3.429	0.507
736.500	443.005	80.004	19.994	104.153	20.083	3.383	0.485
737.000	443.245	80.005	19.993	104.151	20.088	3.092	0.484
737.500	443.499	80.005	19.995	104.145	20.084	3.323	0.491
738.000	443.773	80.004	19.994	104.144	20.084	3.370	0.511
738.500	444.002	80.004	19.995	104.143	20.089	3.047	0.515
738.999	444.314	80.004	19.995	104.143	20.088	3.061	0.522
739.499	444.573	80.005	19.995	104.144	20.087	3.129	0.556
740.000	444.777	80.006	19.994	104.145	20.090	2.939	0.517
740.500	445.038	80.005	19.994	104.145	20.090	2.968	0.464
741.000	445.331	80.004	19.993	104.145	20.089	3.027	0.510
741.500	445.551	80.004	19.994	104.146	20.091	2.869	0.534
742.000	445.825	80.005	19.993	104.145	20.094	2.692	0.504
742.499	446.054	80.004	19.994	104.145	20.093	2.746	0.499
742.999	446.339	80.004	19.996	104.147	20.091	2.880	0.508
743.499	446.567	80.003	19.996	104.148	20.092	2.803	0.513
743.999	446.805	80.005	19.994	104.146	20.094	2.722	0.489
744.499	447.056	80.004	19.995	104.146	20.094	2.724	0.478
745.000	447.335	80.004	19.995	104.146	20.096	2.550	0.510
745.500	447.579	80.004	19.995	104.144	20.096	2.581	0.526
746.000	447.841	80.005	19.996	104.144	20.097	2.471	0.514
746.500	448.054	80.005	19.994	104.144	20.097	2.503	0.491
747.000	448.347	80.004	19.995	104.144	20.097	2.527	0.491
747.500	448.616	80.005	19.994	104.145	20.098	2.439	0.533
748.000	448.860	80.004	19.995	104.144	20.100	2.327	0.537
748.500	449.087	80.003	19.996	104.145	20.100	2.332	0.492
748.999	449.340	80.006	19.995	104.145	20.098	2.460	0.475
749.500	449.614	80.004	19.993	104.146	20.099	2.358	0.503
750.000	449.849	80.004	19.995	104.145	20.100	2.322	0.518
750.500	450.127	80.003	19.995	104.146	20.104	2.011	0.511
751.000	450.350	80.003	19.994	104.147	20.100	2.275	0.507
751.499	450.565	80.003	19.995	104.147	20.099	2.338	0.470
752.000	450.848	80.004	19.995	104.148	20.102	2.188	0.468
752.500	451.134	80.004	19.994	104.151	20.102	2.197	0.533
753.000	451.364	80.002	19.995	104.151	20.102	2.162	0.543
753.500	451.623	80.003	19.994	104.156	20.100	2.295	0.503
754.000	451.887	80.005	19.994	104.163	20.103	2.130	0.506
754.500	452.100	80.003	19.994	104.168	20.101	2.256	0.500
755.000	452.384	80.005	19.994	104.168	20.101	2.240	0.487
755.500	452.613	80.003	19.993	104.172	20.102	2.146	0.504
756.000	452.882	80.004	19.994	104.169	20.103	2.099	0.506
756.499	453.123	80.002	19.994	104.168	20.105	1.999	0.505
756.999	453.368	80.002	19.994	104.169	20.102	2.146	0.498
757.499	453.603	80.005	19.994	104.168	20.106	1.939	0.483
758.000	453.869	80.004	19.992	104.164	20.105	1.984	0.490
758.500	454.125	80.004	19.995	104.165	20.106	1.939	0.511
759.000	454.370	80.005	19.995	104.160	20.106	1.880	0.511
759.500	454.621	80.004	19.995	104.155	20.104	2.069	0.499
760.000	454.895	80.004	19.995	104.154	20.104	2.065	0.511
760.500	455.145	80.004	19.996	104.156	20.105	1.974	0.524
761.000	455.416	80.005	19.996	104.160	20.105	1.974	0.522
761.500	455.694	80.005	19.994	104.166	20.104	2.036	0.535
762.000	455.957	80.004	19.995	104.171	20.106	1.880	0.545
762.500	456.165	80.004	19.994	104.177	20.104	2.007	0.506
763.000	456.401	80.004	19.995	104.179	20.105	1.993	0.458
763.500	456.648	80.005	19.994	104.178	20.106	1.938	0.463
764.000	456.918	80.006	19.994	104.178	20.107	1.860	0.500
764.500	457.181	80.005	19.995	104.179	20.106	1.896	0.525
765.000	457.403	80.007	19.996	104.179	20.106	1.907	0.509
765.500	457.640	80.006	19.994	104.179	20.107	1.834	0.472
766.000	457.917	80.005	19.996	104.178	20.109	1.728	0.486
766.500	458.172	80.006	19.995	104.178	20.108	1.751	0.523
767.000	458.422	80.007	19.995	104.176	20.108	1.808	0.519
767.500	458.688	80.007	19.995	104.171	20.108	1.751	0.511
768.000	458.927	80.007	19.996	104.167	20.107	1.857	0.510
768.500	459.162	80.006	19.996	104.161	20.107	1.869	0.489
769.000	459.395	80.007	19.995	104.160	20.109	1.717	0.471
769.499	459.670	80.006	19.996	104.161	20.108	1.774	0.488
769.999	459.946	80.006	19.995	104.165	20.105	1.959	0.529
770.499	460.187	80.005	19.994	104.169	20.108	1.769	0.534
771.000	460.445	80.006	19.993	104.172	20.110	1.622	0.508
771.500	460.707	80.005	19.996	104.168	20.110	1.629	0.510
772.000	460.916	80.004	19.994	104.165	20.109	1.690	0.496
772.500	461.189	80.006	19.994	104.159	20.109	1.704	0.477
772.999	461.439	80.005	19.996	104.154	20.111	1.561	0.502
773.499	461.649	80.007	19.995	104.153	20.110	1.658	0.492
774.000	461.919	80.006	19.994	104.155	20.112	1.525	0.470
774.500	462.189	80.005	19.995	104.159	20.113	1.458	0.509
775.000	462.431	80.007	19.995	104.165	20.109	1.710	0.526
775.500	462.661	80.006	19.994	104.171	20.110	1.645	0.492
776.000	462.921	80.006	19.994	104.174	20.112	1.512	0.481
776.500	463.177	80.007	19.993	104.174	20.111	1.577	0.503
776.999	463.405	80.006	19.994	104.169	20.114	1.370	0.500
777.499	463.643	80.006	19.993	104.169	20.110	1.620	0.475
777.999	463.908	80.007	19.994	104.168	20.112	1.500	0.485
778.500	464.160	80.005	19.994	104.169	20.112	1.482	0.510
779.000	464.408	80.005	19.993	104.168	20.114	1.415	0.508
779.499	464.646	80.006	19.993	104.171	20.112	1.498	0.493
779.999	464.895	80.007	19.994	104.170	20.110	1.665	0.486
780.499	465.166	80.006	19.994	104.171	20.112	1.509	0.503
781.000	465.390	80.005	19.993	104.168	20.112	1.530	0.507
781.500	465.667	80.006	19.993	104.170	20.113	1.462	0.498
782.000	465.860	80.006	19.993	104.171	20.112	1.541	0.486
782.500	466.171	80.007	19.993	104.173	20.112	1.525	0.487
783.000	466.388	80.007	19.994	104.172	20.110	1.672	0.516
783.500	466.633	80.005	19.993	104.176	20.109	1.685	0.495
784.000	466.870	80.007	19.994	104.172	20.110	1.645	0.472
784.500	467.174	80.006	19.994	104.172	20.111	1.596	0.511
785.000	467.391	80.008	19.993	104.170	20.110	1.636	0.531
785.500	467.679	80.007	19.994	104.170	20.109	1.693	0.513
786.000	467.887	80.007	19.993	104.166	20.112	1.485	0.501
786.500	468.166	80.007	19.993	104.166	20.111	1.611	0.492
787.000	468.420	80.007	19.993	104.167	20.112	1.534	0.510
787.500	468.668	80.007	19.993	104.168	20.111	1.555	0.517
788.000	468.909	80.008	19.994	104.168	20.111	1.597	0.495
788.500	469.145	80.007	19.994	104.173	20.109	1.704	0.483
789.000	469.403	80.007	19.994	104.178	20.112	1.537	0.486
789.499	469.662	80.006	19.994	104.176	20.111	1.575	0.506
789.999	469.915	80.008	19.994	104.172	20.112	1.528	0.515
790.499	470.177	80.008	19.994	104.171	20.112	1.534	0.514
790.999	470.438	80.009	19.993	104.171	20.112	1.541	0.519
791.499	470.668	80.007	19.992	104.171	20.111	1.555	0.507
792.000	470.927	80.008	19.993	104.174	20.111	1.550	0.490
792.500	471.193	80.008	19.994	104.178	20.109	1.679	0.507
793.000	471.436	80.008	19.994	104.177	20.111	1.548	0.517
793.500	471.706	80.007	19.994	104.175	20.112	1.514	0.511
793.999	471.939	80.007	19.994	104.172	20.113	1.446	0.508
794.499	472.181	80.008	19.993	104.171	20.113	1.469	0.489
794.999	472.458	80.005	19.993	104.166	20.109	1.681	0.497
795.499	472.708	80.006	19.994	104.164	20.111	1.577	0.523
796.000	472.942	80.007	19.994	104.164	20.113	1.422	0.506
796.500	473.196	80.006	19.994	104.166	20.111	1.562	0.486
797.000	473.457	80.006	19.993	104.168	20.113	1.455	0.501
797.500	473.681	80.006	19.994	104.173	20.112	1.491	0.500
797.999	473.978	80.007	19.994	104.178	20.108	1.765	0.503
798.499	474.290	80.005	19.993	104.179	20.111	1.589	0.565
799.000	474.472	80.006	19.993	104.176	20.111	1.591	0.552
799.500	474.755	80.006	19.993	104.170	20.116	1.234	0.480
800.000	474.993	80.006	19.994	104.167	20.111	1.595	0.493
800.500	475.261	80.004	19.993	104.167	20.113	1.440	0.514
801.000	475.514	80.005	19.994	104.167	20.112	1.498	0.513
801.500	475.756	80.005	19.994	104.171	20.109	1.710	0.507
802.000	475.997	80.005	19.994	104.177	20.110	1.672	0.488
802.500	476.223	80.003	19.994	104.176	20.111	1.563	0.475
803.000	476.514	80.004	19.995	104.177	20.110	1.674	0.492
803.500	476.767	80.005	19.995	104.177	20.111	1.609	0.531
804.000	476.994	80.003	19.995	104.177	20.114	1.415	0.513
804.500	477.256	80.006	19.995	104.174	20.112	1.484	0.484
805.000	477.492	80.004	19.994	104.176	20.115	1.320	0.493
805.500	477.733	80.006	19.994	104.171	20.112	1.543	0.487
806.000	477.993	80.004	19.994	104.166	20.114	1.376	0.489
806.500	478.261	80.005	19.995	104.166	20.115	1.327	0.515
807.000	478.506	80.004	19.993	104.167	20.111	1.577	0.521
807.500	478.756	80.003	19.994	104.167	20.114	1.394	0.504
808.000	479.029	80.005	19.993	104.171	20.114	1.392	0.509
808.500	479.259	80.005	19.994	104.173	20.113	1.437	0.513
808.999	479.507	80.004	19.993	104.175	20.116	1.227	0.490
809.500	479.746	80.004	19.993	104.175	20.113	1.417	0.482
810.000	480.028	80.002	19.994	104.172	20.113	1.471	0.504
810.500	480.211	80.004	19.994	104.169	20.115	1.308	0.493
811.000	480.475	80.005	19.994	104.172	20.110	1.615	0.456
811.500	480.752	80.004	19.995	104.172	20.116	1.284	0.495
812.000	480.996	80.006	19.994	104.175	20.112	1.519	0.531
812.500	481.206	80.004	19.993	104.180	20.111	1.586	0.487
813.000	481.460	80.004	19.993	104.183	20.113	1.421	0.459
813.500	481.718	80.005	19.993	104.184	20.112	1.523	0.488
814.000	481.977	80.004	19.993	104.184	20.112	1.487	0.515
814.500	482.191	80.005	19.994	104.184	20.115	1.336	0.495
815.000	482.480	80.005	19.993	104.182	20.114	1.397	0.488
815.499	482.703	80.005	19.993	104.180	20.113	1.469	0.507
816.000	482.969	80.005	19.994	104.180	20.113	1.476	0.501
816.500	483.210	80.006	19.993	104.178	20.115	1.306	0.498
816.999	483.444	80.004	19.993	104.176	20.114	1.401	0.491
817.499	483.689	80.005	19.993	104.178	20.113	1.449	0.477
817.999	483.933	80.004	19.992	104.181	20.112	1.530	0.484
818.499	484.206	80.005	19.993	104.181	20.112	1.525	0.503
818.999	484.438	80.006	19.994	104.182	20.112	1.498	0.511
819.499	484.704	80.005	19.992	104.185	20.110	1.636	0.501
819.999	484.941	80.006	19.993	104.183	20.108	1.778	0.500
820.499	485.200	80.005	19.994	104.183	20.112	1.503	0.499
820.999	485.449	80.005	19.992	104.183	20.113	1.460	0.502
821.500	485.712	80.004	19.994	104.183	20.114	1.383	0.510
822.000	485.935	80.005	19.993	104.183	20.113	1.433	0.499
822.499	486.182	80.003	19.994	104.184	20.113	1.439	0.478
822.999	486.464	80.006	19.993	104.184	20.114	1.381	0.499
823.499	486.689	80.005	19.993	104.179	20.116	1.268	0.518
823.999	486.890	80.004	19.993	104.178	20.113	1.435	0.467
824.500	487.166	80.005	19.994	104.176	20.114	1.361	0.451
825.000	487.445	80.004	19.994	104.177	20.111	1.600	0.516
825.499	487.687	80.005	19.993	104.176	20.110	1.667	0.539
825.999	487.921	80.004	19.993	104.179	20.115	1.324	0.499
826.499	488.148	80.003	19.994	104.178	20.111	1.577	0.468
827.000	488.409	80.004	19.994	104.179	20.113	1.446	0.474
827.500	488.673	80.004	19.994	104.179	20.115	1.320	0.506
828.000	488.905	80.004	19.994	104.179	20.114	1.403	0.510
828.500	489.183	80.005	19.994	104.178	20.113	1.458	0.503
829.000	489.399	80.004	19.995	104.180	20.109	1.731	0.502
829.500	489.673	80.005	19.994	104.180	20.114	1.397	0.492
830.000	489.932	80.004	19.994	104.180	20.114	1.390	0.511
830.500	490.154	80.005	19.995	104.179	20.111	1.593	0.506
831.000	490.445	80.005	19.994	104.180	20.110	1.667	0.497
831.500	490.681	80.003	19.995	104.180	20.113	1.438	0.520
832.000	490.940	80.004	19.995	104.181	20.111	1.550	0.511
832.499	491.221	80.003	19.996	104.181	20.111	1.552	0.518
832.999	491.428	80.003	19.995	104.181	20.112	1.512	0.514
833.499	491.640	80.005	19.995	104.181	20.114	1.408	0.453
834.000	491.908	80.003	19.995	104.181	20.110	1.615	0.450
834.500	492.202	80.005	19.995	104.179	20.110	1.629	0.522
835.000	492.475	80.004	19.995	104.173	20.111	1.571	0.565
835.500	492.723	80.004	19.995	104.171	20.113	1.466	0.544
836.000	492.970	80.004	19.995	104.169	20.111	1.586	0.507
836.500	493.197	80.005	19.996	104.170	20.111	1.604	0.484
837.000	493.512	80.004	19.995	104.172	20.111	1.607	0.508
837.500	493.758	80.005	19.995	104.176	20.110	1.647	0.552
838.000	494.021	80.004	19.995	104.178	20.111	1.564	0.535
838.500	494.282	80.005	19.994	104.177	20.113	1.421	0.516
839.000	494.543	80.004	19.994	104.171	20.113	1.437	0.523
839.500	494.790	80.005	19.995	104.169	20.113	1.433	0.515
840.000	495.084	80.005	19.994	104.171	20.113	1.457	0.525
840.500	495.315	80.005	19.995	104.171	20.111	1.548	0.533
841.000	495.551	80.003	19.995	104.170	20.112	1.525	0.496
841.500	495.806	80.005	19.994	104.168	20.112	1.537	0.479
842.000	496.063	80.006	19.994	104.169	20.108	1.751	0.502
842.500	496.316	80.006	19.993	104.167	20.111	1.609	0.511
843.000	496.583	80.005	19.994	104.163	20.110	1.650	0.515
843.500	496.839	80.006	19.996	104.167	20.112	1.534	0.522
843.999	497.103	80.006	19.995	104.171	20.111	1.607	0.521
844.500	497.357	80.007	19.994	104.171	20.110	1.649	0.519
845.000	497.577	80.005	19.995	104.172	20.111	1.597	0.496
845.500	497.859	80.005	19.994	104.177	20.110	1.615	0.488
846.000	498.098	80.007	19.994	104.175	20.108	1.782	0.511
846.500	498.362	80.006	19.995	104.176	20.110	1.663	0.512
847.000	498.616	80.008	19.994	104.178	20.108	1.755	0.511
847.500	498.883	80.008	19.994	104.178	20.111	1.577	0.520
848.000	499.174	80.007	19.994	104.178	20.110	1.618	0.539
848.500	499.417	80.008	19.995	104.180	20.113	1.437	0.546
849.000	499.655	80.007	19.993	104.181	20.112	1.530	0.507
849.500	499.887	80.007	19.995	104.181	20.111	1.604	0.475
850.000	500.196	80.007	19.995	104.181	20.110	1.649	0.506
850.500	500.433	80.007	19.995	104.181	20.111	1.561	0.544
851.000	500.702	80.006	19.994	104.180	20.111	1.579	0.525
851.500	500.936	80.007	19.994	104.180	20.112	1.487	0.504
852.000	501.172	80.005	19.995	104.177	20.111	1.584	0.487
852.500	501.502	80.006	19.995	104.174	20.112	1.537	0.519
853.000	501.729	80.005	19.995	104.168	20.110	1.676	0.562
853.500	501.989	80.007	19.995	104.167	20.112	1.534	0.522
854.000	502.216	80.006	19.995	104.167	20.110	1.654	0.487
854.500	502.450	80.006	19.995	104.170	20.113	1.476	0.474
855.000	502.729	80.006	19.995	104.173	20.113	1.464	0.487
855.500	502.983	80.006	19.995	104.179	20.111	1.586	0.523
856.000	503.235	80.005	19.995	104.180	20.109	1.713	0.519
856.500	503.493	80.006	19.995	104.180	20.110	1.613	0.508
857.000	503.748	80.004	19.995	104.179	20.113	1.433	0.512
857.500	504.035	80.003	19.995	104.177	20.115	1.298	0.527
858.000	504.245	80.005	19.995	104.170	20.111	1.570	0.519
858.499	504.512	80.005	19.995	104.166	20.113	1.453	0.487
859.000	504.765	80.005	19.996	104.165	20.112	1.534	0.498
859.500	505.026	80.005	19.996	104.167	20.111	1.571	0.517
860.000	505.256	80.004	19.996	104.166	20.112	1.482	0.503
860.500	505.516	80.005	19.996	104.168	20.116	1.279	0.490
861.000	505.789	80.006	19.995	104.172	20.113	1.480	0.511
861.500	506.064	80.004	19.996	104.172	20.112	1.482	0.540
862.000	506.332	80.004	19.994	104.172	20.111	1.606	0.545
862.500	506.554	80.003	19.995	104.173	20.113	1.417	0.517
863.000	506.852	80.005	19.997	104.179	20.110	1.640	0.505
863.500	507.082	80.005	19.996	104.176	20.112	1.545	0.524
864.000	507.326	80.004	19.995	104.174	20.113	1.421	0.501
864.500	507.569	80.005	19.996	104.175	20.115	1.297	0.481
865.000	507.839	80.004	19.995	104.176	20.112	1.528	0.500
865.499	508.112	80.005	19.995	104.176	20.113	1.465	0.528
865.999	508.356	80.006	19.995	104.179	20.110	1.618	0.530
866.499	508.634	80.006	19.995	104.180	20.113	1.422	0.519
866.999	508.877	80.006	19.994	104.178	20.116	1.271	0.521
867.500	509.133	80.006	19.994	104.177	20.116	1.252	0.510
868.000	509.387	80.005	19.994	104.176	20.115	1.347	0.505
868.499	509.670	80.006	19.994	104.175	20.117	1.157	0.524
868.999	509.931	80.005	19.994	104.176	20.116	1.246	0.540
869.499	510.194	80.006	19.994	104.178	20.115	1.307	0.534
869.999	510.428	80.005	19.993	104.177	20.114	1.352	0.511
870.499	510.677	80.005	19.994	104.177	20.114	1.361	0.489
870.999	510.972	80.008	19.993	104.175	20.116	1.245	0.513
871.499	511.227	80.006	19.993	104.175	20.117	1.212	0.547
872.000	511.498	80.007	19.993	104.173	20.118	1.124	0.539
872.500	511.716	80.006	19.993	104.175	20.115	1.334	0.508
873.000	511.975	80.006	19.993	104.176	20.113	1.422	0.483
873.500	512.214	80.008	19.992	104.178	20.111	1.561	0.487
873.999	512.486	80.006	19.993	104.179	20.112	1.525	0.504
874.499	512.750	80.007	19.994	104.178	20.111	1.575	0.523
874.999	512.997	80.005	19.993	104.173	20.116	1.268	0.524
875.500	513.225	80.007	19.993	104.169	20.114	1.390	0.493
876.000	513.506	80.004	19.994	104.169	20.109	1.735	0.492
876.499	513.779	80.007	19.994	104.166	20.113	1.451	0.532
876.999	514.040	80.006	19.993	104.164	20.111	1.552	0.544
877.499	514.319	80.005	19.993	104.167	20.114	1.363	0.537
877.999	514.553	80.005	19.994	104.172	20.111	1.591	0.526
878.499	514.840	80.006	19.993	104.173	20.112	1.502	0.516
878.999	515.092	80.005	19.994	104.175	20.114	1.397	0.530
879.499	515.354	80.005	19.994	104.176	20.114	1.394	0.527
880.000	515.626	80.005	19.993	104.178	20.116	1.279	0.524
880.500	515.892	80.004	19.994	104.177	20.115	1.290	0.536
881.000	516.149	80.005	19.993	104.177	20.114	1.390	0.531
881.499	516.390	80.004	19.994	104.178	20.116	1.220	0.510
882.000	516.718	80.005	19.994	104.182	20.114	1.383	0.533
882.500	516.954	80.004	19.994	104.182	20.115	1.290	0.566
883.000	517.195	80.006	19.993	104.183	20.116	1.257	0.521
883.500	517.464	80.005	19.993	104.183	20.114	1.383	0.493
884.000	517.745	80.003	19.994	104.183	20.114	1.403	0.530
884.500	518.038	80.004	19.994	104.185	20.110	1.629	0.562
884.999	518.295	80.004	19.994	104.187	20.114	1.374	0.562
885.500	518.556	80.004	19.992	104.187	20.115	1.331	0.534
886.000	518.825	80.004	19.994	104.187	20.110	1.669	0.524
886.500	519.096	80.004	19.993	104.188	20.114	1.408	0.535
887.000	519.342	80.005	19.995	104.186	20.114	1.388	0.529
887.500	519.602	80.003	19.994	104.185	20.113	1.473	0.512
887.999	519.912	80.004	19.995	104.186	20.107	1.837	0.538
888.499	520.182	80.004	19.994	104.187	20.109	1.721	0.575
888.999	520.492	80.004	19.993	104.186	20.111	1.600	0.580
889.499	520.757	80.004	19.994	104.186	20.113	1.473	0.577
890.000	521.021	80.002	19.993	104.189	20.108	1.753	0.552
890.500	521.324	80.003	19.994	104.190	20.113	1.449	0.548
890.999	521.585	80.004	19.994	104.189	20.112	1.528	0.565
891.500	521.875	80.004	19.994	104.190	20.111	1.611	0.558
892.000	522.166	80.005	19.993	104.193	20.110	1.624	0.566
892.500	522.430	80.005	19.994	104.189	20.111	1.595	0.568
892.999	522.720	80.003	19.995	104.186	20.113	1.424	0.555
893.500	523.009	80.004	19.994	104.186	20.112	1.484	0.567
894.000	523.332	80.005	19.994	104.184	20.108	1.746	0.595
894.500	523.603	80.005	19.993	104.181	20.109	1.688	0.603
895.000	523.913	80.005	19.994	104.182	20.113	1.446	0.587
895.500	524.150	80.005	19.994	104.182	20.110	1.636	0.564
895.999	524.478	80.004	19.994	104.182	20.112	1.543	0.556
896.500	524.750	80.004	19.994	104.181	20.112	1.523	0.583
897.000	525.071	80.006	19.992	104.182	20.114	1.374	0.596
897.499	525.349	80.005	19.993	104.182	20.110	1.620	0.596
898.000	525.655	80.006	19.993	104.182	20.113	1.460	0.592
898.500	525.951	80.004	19.994	104.184	20.111	1.572	0.593
899.000	526.263	80.005	19.994	104.187	20.111	1.597	0.605
899.500	526.527	80.005	19.993	104.188	20.111	1.584	0.592
900.000	526.822	80.004	19.994	104.188	20.114	1.360	0.567
900.500	527.089	80.006	19.993	104.188	20.114	1.399	0.560
901.000	527.393	80.005	19.993	104.186	20.115	1.318	0.566
901.500	527.711	80.006	19.994	104.182	20.112	1.537	0.597
902.000	527.972	80.004	19.994	104.181	20.115	1.342	0.601
902.499	528.321	80.005	19.993	104.181	20.115	1.343	0.595
903.000	528.604	80.005	19.993	104.181	20.117	1.200	0.621
903.500	528.907	80.005	19.994	104.182	20.113	1.419	0.609
904.000	529.175	80.004	19.994	104.181	20.114	1.392	0.578
904.500	529.466	80.006	19.993	104.183	20.113	1.457	0.565
905.000	529.808	80.006	19.994	104.182	20.116	1.266	0.596
905.500	530.066	80.005	19.993	104.183	20.112	1.532	0.617
905.999	530.401	80.005	19.994	104.182	20.110	1.616	0.597
906.499	530.695	80.005	19.992	104.183	20.114	1.365	0.611
906.999	530.986	80.005	19.992	104.182	20.112	1.482	0.607
907.499	531.292	80.004	19.992	104.182	20.113	1.424	0.591
907.999	531.584	80.004	19.993	104.183	20.113	1.458	0.598
908.499	531.920	80.005	19.993	104.184	20.114	1.378	0.613
908.999	532.197	80.004	19.993	104.184	20.113	1.439	0.621
909.499	532.503	80.004	19.994	104.185	20.113	1.430	0.598
909.999	532.789	80.005	19.993	104.185	20.111	1.575	0.587
910.499	533.134	80.003	19.993	104.184	20.114	1.399	0.611
910.999	533.396	80.004	19.993	104.183	20.116	1.273	0.619
911.499	533.739	80.003	19.993	104.182	20.118	1.144	0.606
912.000	534.030	80.006	19.992	104.181	20.115	1.311	0.619
912.500	534.334	80.005	19.994	104.180	20.114	1.397	0.615
912.999	534.632	80.004	19.993	104.180	20.114	1.361	0.599
913.500	534.944	80.005	19.995	104.179	20.116	1.223	0.605
914.000	535.279	80.005	19.992	104.180	20.117	1.218	0.628
914.500	535.556	80.005	19.995	104.181	20.114	1.358	0.630
914.999	535.851	80.005	19.995	104.182	20.117	1.189	0.592
915.499	536.146	80.004	19.994	104.182	20.115	1.315	0.581
915.999	536.485	80.003	19.995	104.181	20.117	1.185	0.612
916.499	536.749	80.005	19.993	104.181	20.116	1.254	0.619
917.000	537.094	80.003	19.995	104.180	20.115	1.288	0.606
917.500	537.350	80.004	19.993	104.177	20.115	1.344	0.605
917.999	537.632	80.005	19.995	104.179	20.118	1.144	0.569
918.499	537.968	80.004	19.995	104.179	20.114	1.401	0.578
918.999	538.282	80.005	19.993	104.179	20.117	1.209	0.634
919.500	538.602	80.004	19.994	104.180	20.116	1.270	0.642
920.000	538.881	80.003	19.995	104.182	20.114	1.363	0.616
920.499	539.171	80.004	19.994	104.182	20.115	1.326	0.584
921.000	539.490	80.004	19.994	104.182	20.113	1.455	0.589
921.500	539.790	80.005	19.993	104.182	20.118	1.144	0.614
922.000	540.076	80.003	19.994	104.182	20.116	1.263	0.603
922.500	540.363	80.003	19.995	104.183	20.117	1.205	0.580
922.999	540.692	80.004	19.994	104.184	20.114	1.388	0.595
923.500	540.958	80.003	19.995	104.184	20.113	1.442	0.606
924.000	541.241	80.004	19.995	104.184	20.114	1.406	0.572
924.500	541.560	80.004	19.995	104.184	20.118	1.137	0.575
924.999	541.924	80.006	19.994	104.184	20.115	1.347	0.643
925.499	542.195	80.005	19.994	104.182	20.116	1.255	0.659
926.000	542.498	80.005	19.994	104.182	20.117	1.218	0.604
926.500	542.785	80.005	19.994	104.182	20.114	1.356	0.582
926.999	543.090	80.005	19.994	104.183	20.114	1.394	0.591
927.500	543.430	80.005	19.994	104.184	20.115	1.333	0.619
928.000	543.704	80.006	19.993	104.185	20.114	1.414	0.630
928.500	544.022	80.006	19.995	104.186	20.117	1.157	0.603
929.000	544.273	80.005	19.993	104.186	20.114	1.352	0.580
929.500	544.566	80.005	19.994	104.185	20.114	1.372	0.556
930.000	544.897	80.006	19.993	104.184	20.115	1.334	0.585
930.500	545.196	80.006	19.993	104.183	20.118	1.110	0.627
931.000	545.457	80.005	19.993	104.182	20.120	0.990	0.595
931.500	545.757	80.004	19.994	104.182	20.119	1.033	0.560
932.000	546.088	80.006	19.994	104.183	20.119	1.040	0.595
932.500	546.363	80.005	19.994	104.183	20.119	1.033	0.618
933.000	546.664	80.005	19.993	104.183	20.116	1.230	0.591
933.500	546.969	80.005	19.994	104.183	20.117	1.157	0.591
934.000	547.262	80.006	19.994	104.183	20.117	1.191	0.602
934.500	547.559	80.004	19.994	104.182	20.116	1.230	0.594
935.000	547.873	80.005	19.994	104.181	20.120	0.972	0.601
935.500	548.156	80.007	19.994	104.181	20.118	1.122	0.604
936.000	548.453	80.005	19.994	104.177	20.117	1.164	0.589
936.500	548.772	80.006	19.993	104.175	20.119	1.065	0.598
937.000	549.072	80.005	19.994	104.176	20.119	1.070	0.617
937.500	549.332	80.005	19.993	104.176	20.118	1.103	0.590
938.000	549.616	80.005	19.993	104.176	20.120	0.988	0.552
938.500	549.950	80.005	19.993	104.180	20.117	1.185	0.581
939.000	550.220	80.003	19.995	104.182	20.115	1.304	0.612
939.499	550.485	80.003	19.994	104.182	20.120	1.004	0.570
940.000	550.849	80.005	19.994	104.181	20.119	1.076	0.581
940.500	551.105	80.005	19.994	104.180	20.116	1.236	0.624
941.000	551.432	80.004	19.994	104.179	20.115	1.336	0.602
941.500	551.678	80.003	19.995	104.180	20.117	1.184	0.579
942.000	551.967	80.004	19.994	104.181	20.117	1.175	0.554
942.500	552.274	80.005	19.995	104.183	20.114	1.370	0.565
943.000	552.604	80.004	19.994	104.184	20.120	0.990	0.617
943.500	552.877	80.004	19.994	104.182	20.119	1.070	0.620
944.000	553.171	80.004	19.994	104.182	20.116	1.259	0.585
944.500	553.466	80.005	19.994	104.181	20.121	0.896	0.578
945.000	553.782	80.004	19.994	104.178	20.117	1.198	0.600
945.500	554.060	80.003	19.994	104.174	20.120	0.971	0.603
946.000	554.344	80.004	19.994	104.175	20.116	1.266	0.578
946.500	554.682	80.003	19.993	104.176	20.117	1.199	0.592
947.000	555.003	80.003	19.993	104.176	20.117	1.178	0.641
947.500	555.268	80.005	19.994	104.177	20.120	0.988	0.622
947.999	555.518	80.004	19.994	104.176	20.116	1.239	0.550
948.500	555.858	80.004	19.995	104.176	20.118	1.088	0.553
949.000	556.083	80.005	19.993	104.174	20.118	1.088	0.578
949.499	556.441	80.006	19.995	104.174	20.117	1.214	0.574
949.999	556.638	80.006	19.994	104.176	20.115	1.338	0.569
950.500	557.016	80.005	19.996	104.180	20.120	0.957	0.565
951.000	557.292	80.006	19.994	104.181	20.117	1.209	0.615
951.500	557.548	80.006	19.994	104.181	20.116	1.275	0.593
952.000	557.853	80.007	19.995	104.179	20.114	1.392	0.546
952.500	558.137	80.006	19.994	104.176	20.116	1.248	0.575
953.000	558.441	80.006	19.994	104.176	20.115	1.341	0.589
953.500	558.723	80.006	19.996	104.175	20.116	1.284	0.587
954.000	558.940	80.005	19.995	104.175	20.114	1.359	0.542
954.500	559.277	80.007	19.995	104.174	20.114	1.385	0.526
955.000	559.553	80.007	19.995	104.173	20.118	1.122	0.583
955.500	559.878	80.005	19.995	104.166	20.116	1.259	0.607
956.000	560.196	80.007	19.995	104.162	20.119	1.061	0.622
956.500	560.436	80.006	19.995	104.157	20.113	1.424	0.601
957.000	560.774	80.006	19.995	104.154	20.116	1.248	0.568
957.500	561.050	80.007	19.994	104.158	20.114	1.390	0.596
958.000	561.283	80.006	19.994	104.164	20.114	1.358	0.562
958.500	561.629	80.007	19.994	104.169	20.114	1.411	0.544
959.000	561.886	80.005	19.995	104.172	20.117	1.191	0.591
959.500	562.191	80.005	19.994	104.175	20.113	1.429	0.582
960.000	562.440	80.006	19.994	104.174	20.118	1.101	0.558
960.500	562.759	80.005	19.995	104.175	20.112	1.501	0.561
961.000	563.038	80.004	19.995	104.173	20.118	1.119	0.583
961.500	563.290	80.006	19.995	104.170	20.121	0.941	0.564
962.000	563.595	80.004	19.995	104.166	20.111	1.611	0.544
962.500	563.900	80.005	19.994	104.163	20.117	1.210	0.584
963.000	564.059	80.004	19.995	104.162	20.127	0.535	0.537
963.499	564.510	80.005	19.993	104.160	20.128	0.436	0.536
963.999	564.661	80.004	19.994	104.164	20.122	0.844	0.606
964.499	565.043	80.004	19.994	104.166	20.127	0.555	0.568
964.999	565.171	80.005	19.993	104.167	20.130	0.363	0.522
965.499	565.589	80.003	19.994	104.166	20.127	0.505	0.528
966.000	565.751	80.003	19.993	104.168	20.127	0.537	0.563
966.500	566.199	80.004	19.994	104.163	20.126	0.607	0.595
967.000	566.296	80.005	19.992	104.159	20.124	0.709	0.577
967.500	566.662	80.004	19.994	104.159	20.110	1.675	0.504
968.000	566.942	80.003	19.993	104.158	20.114	1.388	0.555
968.500	567.231	80.004	19.994	104.155	20.124	0.749	0.607
969.000	567.501	80.005	19.992	104.160	20.126	0.573	0.564
969.500	567.789	80.005	19.993	104.161	20.112	1.521	0.559
970.000	568.098	80.007	19.995	104.160	20.119	1.063	0.577
970.500	568.336	80.004	19.994	104.160	20.117	1.182	0.572
971.000	568.554	80.004	19.994	104.161	20.120	0.959	0.502
971.500	568.988	80.005	19.993	104.162	20.123	0.767	0.554
972.000	569.070	80.004	19.993	104.165	20.116	1.278	0.584
972.500	569.439	80.005	19.993	104.165	20.124	0.747	0.484
973.000	569.836	80.005	19.995	104.167	20.120	0.997	0.609
973.499	569.833	80.005	19.993	104.164	20.118	1.117	0.580
974.000	570.351	80.007	19.993	104.160	20.118	1.120	0.455
974.500	570.569	80.006	19.994	104.160	20.118	1.146	0.626
975.000	570.641	80.005	19.993	104.163	20.117	1.162	0.513
975.500	571.423	80.005	19.994	104.160	20.115	1.316	0.572
976.000	571.023	80.006	19.994	104.162	20.114	1.384	0.618
976.500	572.124	80.005	19.994	104.166	20.118	1.102	0.542
977.000	572.495	80.005	19.993	104.164	20.114	1.383	1.087
977.500	572.654	80.005	19.994	104.164	20.119	1.043	1.001
978.000	572.560	80.002	19.994	104.165	20.119	1.038	0.297
978.500	572.965	80.004	19.994	104.165	20.116	1.241	0.188
979.000	573.536	80.006	19.994	104.164	20.119	1.033	0.644
979.500	573.571	80.004	19.994	104.168	20.117	1.158	0.791
980.000	573.657	80.005	19.994	104.170	20.120	0.964	0.363
980.500	574.341	80.005	19.993	104.167	20.114	1.388	0.445
981.000	574.910	80.006	19.993	104.165	20.117	1.187	1.012
981.500	574.298	80.005	19.993	104.159	20.112	1.487	0.605
982.000	574.306	80.003	19.994	104.156	20.113	1.466	-0.324
982.500	574.996	80.003	19.996	104.152	20.116	1.264	0.047
983.000	575.997	80.006	19.996	104.155	20.114	1.383	1.195
983.500	575.435	80.006	19.995	104.158	20.117	1.187	1.065
984.000	576.094	80.005	19.994	104.160	20.112	1.483	0.268
984.500	576.203	80.005	19.994	104.157	20.116	1.275	0.433
985.000	576.535	80.004	19.994	104.154	20.117	1.207	0.604
985.500	576.874	80.004	19.994	104.149	20.116	1.246	0.556
986.000	576.912	80.003	19.994	104.145	20.110	1.618	0.524
986.500	577.475	80.004	19.993	104.145	20.114	1.354	0.489
987.000	577.531	80.006	19.993	104.148	20.112	1.543	0.610
987.500	577.983	80.006	19.993	104.149	20.114	1.351	0.564
988.000	578.066	80.004	19.995	104.154	20.113	1.428	0.521
988.500	578.476	80.004	19.995	104.155	20.112	1.501	0.514
988.999	578.702	80.004	19.993	104.161	20.114	1.367	0.565
989.499	578.899	80.003	19.995	104.165	20.113	1.428	0.529
990.000	579.230	80.005	19.994	104.172	20.114	1.363	0.475
990.500	579.514	80.004	19.994	104.176	20.115	1.340	0.572
990.999	579.735	80.004	19.995	104.180	20.115	1.347	0.560
991.499	580.088	80.004	19.994	104.180	20.112	1.517	0.539
991.999	580.367	80.005	19.994	104.180	20.114	1.365	0.603
992.500	580.570	80.005	19.993	104.177	20.114	1.406	0.557
993.000	580.988	80.004	19.994	104.177	20.115	1.288	0.551
993.500	581.199	80.005	19.992	104.179	20.115	1.347	0.625
994.000	581.450	80.005	19.994	104.180	20.113	1.449	0.546
994.499	581.786	80.004	19.994	104.181	20.115	1.340	0.524
995.000	582.030	80.004	19.995	104.178	20.115	1.343	0.583
995.500	582.245	80.005	19.993	104.170	20.114	1.350	0.520
996.000	582.537	80.006	19.995	104.164	20.112	1.508	0.484
996.500	582.869	80.006	19.992	104.161	20.114	1.363	0.566
997.000	583.092	80.005	19.994	104.161	20.115	1.331	0.589
997.500	583.389	80.005	19.993	104.167	20.113	1.476	0.537
998.000	583.674	80.005	19.993	104.175	20.112	1.501	0.551
998.500	583.972	80.004	19.994	104.182	20.113	1.466	0.583
999.000	584.291	80.004	19.993	104.185	20.114	1.390	0.600
999.500	584.514	80.006	19.993	104.181	20.113	1.426	0.579
1000.000	584.763	80.006	19.993	104.175	20.110	1.647	0.507
1000.500	585.092	80.004	19.993	104.168	20.116	1.257	0.525
1001.000	585.320	80.005	19.994	104.163	20.113	1.480	0.568
1001.500	585.685	80.003	19.994	104.158	20.116	1.268	0.575
1002.000	585.934	80.006	19.993	104.161	20.114	1.401	0.603
1002.500	586.220	80.006	19.993	104.167	20.117	1.162	0.574
1002.999	586.446	80.005	19.994	104.170	20.114	1.397	0.524
1003.500	586.759	80.005	19.994	104.174	20.114	1.369	0.526
1004.000	587.056	80.005	19.993	104.178	20.115	1.342	0.574
1004.500	587.342	80.005	19.992	104.178	20.113	1.466	0.597
1005.000	587.602	80.006	19.993	104.175	20.114	1.387	0.564
1005.500	587.880	80.005	19.994	104.176	20.112	1.505	0.542
1006.000	588.180	80.005	19.993	104.172	20.111	1.588	0.558
1006.500	588.451	80.004	19.994	104.170	20.115	1.349	0.574
1007.000	588.721	80.006	19.995	104.168	20.110	1.670	0.556
1007.500	589.032	80.007	19.993	104.169	20.110	1.625	0.561
1008.000	589.286	80.006	19.993	104.170	20.111	1.587	0.573
1008.500	589.576	80.007	19.993	104.173	20.111	1.580	0.555
1009.000	589.871	80.007	19.993	104.172	20.115	1.349	0.564
1009.499	590.193	80.006	19.994	104.176	20.114	1.377	0.601
1009.999	590.450	80.006	19.994	104.179	20.111	1.571	0.598
1010.500	590.679	80.004	19.993	104.179	20.110	1.625	0.532
1011.000	590.980	80.007	19.993	104.180	20.112	1.527	0.507
1011.500	591.265	80.005	19.993	104.183	20.113	1.446	0.558
1012.000	591.558	80.005	19.994	104.181	20.111	1.605	0.582
1012.500	591.861	80.006	19.994	104.179	20.115	1.331	0.587
1013.000	592.072	80.006	19.994	104.178	20.113	1.417	0.555
1013.500	592.365	80.006	19.993	104.176	20.112	1.481	0.509
1014.000	592.686	80.005	19.994	104.176	20.113	1.426	0.559
1014.500	592.955	80.007	19.993	104.175	20.115	1.313	0.602
1015.000	593.252	80.006	19.994	104.174	20.115	1.304	0.578
1015.500	593.535	80.006	19.994	104.177	20.114	1.397	0.572
1016.000	593.787	80.006	19.994	104.179	20.111	1.609	0.557
1016.500	594.098	80.006	19.995	104.179	20.114	1.361	0.549
1017.000	594.357	80.005	19.995	104.177	20.113	1.417	0.566
1017.500	594.668	80.005	19.995	104.177	20.112	1.492	0.570
1018.000	594.943	80.004	19.994	104.174	20.111	1.564	0.578
1018.500	595.193	80.006	19.995	104.173	20.112	1.512	0.555
1019.000	595.440	80.004	19.994	104.166	20.108	1.758	0.511
1019.500	595.793	80.006	19.995	104.167	20.112	1.533	0.549
1020.000	596.069	80.005	19.994	104.169	20.114	1.406	0.615
1020.500	596.343	80.006	19.994	104.171	20.116	1.284	0.590
1021.000	596.629	80.004	19.995	104.171	20.113	1.462	0.555
1021.499	596.891	80.004	19.994	104.178	20.112	1.528	0.554
1021.999	597.168	80.005	19.995	104.177	20.112	1.509	0.543
1022.499	597.450	80.006	19.995	104.173	20.116	1.230	0.549
1022.999	597.758	80.005	19.994	104.169	20.113	1.421	0.574
1023.499	597.990	80.004	19.994	104.164	20.115	1.304	0.565
1023.999	598.297	80.006	19.994	104.158	20.112	1.519	0.540
1024.499	598.532	80.005	19.994	104.159	20.113	1.428	0.540
1024.999	598.814	80.006	19.995	104.164	20.111	1.584	0.529
1025.499	599.090	80.007	19.993	104.168	20.111	1.609	0.538
1026.000	599.352	80.006	19.994	104.173	20.112	1.542	0.548
1026.500	599.657	80.006	19.994	104.179	20.113	1.417	0.553
1026.999	599.902	80.006	19.995	104.179	20.113	1.420	0.558
1027.499	600.207	80.006	19.994	104.172	20.114	1.370	0.549
1027.999	600.502	80.006	19.993	104.165	20.115	1.336	0.575
1028.499	600.748	80.006	19.994	104.157	20.112	1.483	0.571
1028.999	601.050	80.006	19.993	104.152	20.112	1.490	0.544
1029.499	601.328	80.007	19.994	104.151	20.112	1.498	0.564
1030.000	601.589	80.007	19.993	104.152	20.111	1.597	0.560
1030.500	601.840	80.006	19.994	104.155	20.110	1.614	0.525
1031.000	602.154	80.006	19.994	104.161	20.112	1.496	0.538
1031.500	602.406	80.005	19.994	104.166	20.112	1.496	0.566
1032.000	602.676	80.007	19.993	104.167	20.110	1.636	0.544
1032.500	602.960	80.006	19.995	104.173	20.112	1.517	0.538
1033.000	603.241	80.006	19.993	104.176	20.112	1.535	0.560
1033.500	603.458	80.006	19.994	104.177	20.111	1.570	0.532
1033.999	603.771	80.008	19.994	104.175	20.115	1.345	0.514
1034.499	604.061	80.007	19.994	104.175	20.115	1.298	0.567
1034.999	604.324	80.009	19.994	104.172	20.117	1.192	0.578
1035.499	604.591	80.005	19.995	104.169	20.113	1.428	0.541
1036.000	604.841	80.008	19.995	104.162	20.112	1.516	0.523
1036.500	605.168	80.009	19.992	104.158	20.112	1.483	0.547
1037.000	605.411	80.008	19.994	104.154	20.113	1.473	0.573
1037.500	605.656	80.009	19.994	104.151	20.112	1.485	0.528
1038.000	605.912	80.005	19.996	104.151	20.115	1.349	0.495
1038.499	606.200	80.007	19.993	104.156	20.114	1.374	0.523
1038.999	606.455	80.006	19.994	104.161	20.116	1.280	0.544
1039.499	606.772	80.007	19.994	104.163	20.115	1.306	0.558
1039.999	607.017	80.005	19.993	104.164	20.112	1.516	0.567
1040.499	607.303	80.006	19.995	104.166	20.115	1.338	0.546
1040.999	607.590	80.007	19.995	104.169	20.111	1.589	0.552
1041.500	607.862	80.006	19.994	104.169	20.117	1.176	0.566
1042.000	608.092	80.005	19.994	104.164	20.117	1.191	0.531
1042.500	608.362	80.006	19.996	104.162	20.112	1.505	0.501
1043.000	608.675	80.006	19.997	104.164	20.115	1.343	0.541
1043.499	608.931	80.004	19.997	104.164	20.115	1.327	0.576
1043.999	609.219	80.006	19.996	104.165	20.116	1.221	0.557
1044.500	609.479	80.002	19.997	104.173	20.116	1.284	0.546
1045.000	609.788	80.005	19.995	104.177	20.116	1.223	0.558
1045.500	610.007	80.004	19.995	104.173	20.114	1.383	0.548
1046.000	610.277	80.004	19.996	104.167	20.114	1.359	0.508
1046.500	610.553	80.004	19.995	104.164	20.114	1.363	0.518
1047.000	610.827	80.003	19.996	104.163	20.114	1.386	0.549
1047.500	611.076	80.004	19.996	104.162	20.120	1.022	0.537
1048.000	611.407	80.003	19.995	104.165	20.117	1.187	0.551
1048.500	611.608	80.004	19.995	104.171	20.118	1.130	0.556
1049.000	611.934	80.005	19.994	104.173	20.114	1.401	0.529
1049.500	612.181	80.003	19.995	104.172	20.115	1.336	0.550
1050.000	612.424	80.005	19.995	104.173	20.115	1.331	0.532
1050.500	612.724	80.003	19.996	104.169	20.116	1.284	0.516
1051.000	612.996	80.005	19.996	104.167	20.117	1.208	0.558
1051.500	613.270	80.005	19.995	104.167	20.116	1.232	0.560
1052.000	613.561	80.004	19.996	104.169	20.115	1.339	0.556
1052.500	613.789	80.004	19.994	104.167	20.113	1.451	0.542
1053.000	614.063	80.006	19.995	104.167	20.114	1.404	0.510
1053.499	614.367	80.004	19.994	104.165	20.116	1.257	0.540
1054.000	614.590	80.003	19.995	104.159	20.115	1.295	0.552
1054.500	614.828	80.003	19.994	104.153	20.114	1.383	0.494
1054.999	615.144	80.002	19.994	104.151	20.116	1.254	0.508
1055.500	615.425	80.004	19.994	104.154	20.115	1.302	0.576
1056.000	615.681	80.006	19.992	104.157	20.115	1.318	0.567
1056.500	615.914	80.005	19.993	104.162	20.114	1.350	0.513
1057.000	616.240	80.003	19.994	104.167	20.113	1.463	0.524
1057.500	616.451	80.005	19.993	104.170	20.114	1.375	0.548
1058.000	616.778	80.004	19.993	104.168	20.116	1.277	0.538
1058.500	617.003	80.003	19.993	104.168	20.116	1.235	0.545
1059.000	617.256	80.005	19.994	104.169	20.115	1.338	0.515
1059.500	617.562	80.005	19.993	104.165	20.113	1.444	0.518
1060.000	617.803	80.004	19.994	104.162	20.115	1.331	0.553
1060.500	618.038	80.005	19.994	104.160	20.112	1.537	0.512
1061.000	618.345	80.004	19.993	104.155	20.113	1.428	0.509
1061.500	618.572	80.005	19.993	104.149	20.115	1.347	0.538
1062.000	618.832	80.003	19.994	104.147	20.113	1.429	0.510
1062.500	619.088	80.003	19.994	104.150	20.113	1.422	0.501
1063.000	619.364	80.006	19.993	104.153	20.113	1.449	0.524
1063.500	619.637	80.004	19.992	104.158	20.114	1.352	0.540
1064.000	619.930	80.004	19.994	104.165	20.116	1.277	0.558
1064.500	620.199	80.004	19.993	104.171	20.116	1.250	0.565
1065.000	620.416	80.004	19.994	104.175	20.115	1.345	0.524
1065.500	620.704	80.004	19.993	104.176	20.114	1.359	0.496
1066.000	620.926	80.005	19.993	104.173	20.113	1.463	0.507
1066.500	621.199	80.004	19.993	104.167	20.117	1.216	0.502
1067.000	621.456	80.004	19.993	104.160	20.116	1.235	0.513
1067.499	621.727	80.004	19.993	104.154	20.119	1.065	0.529
1067.999	621.985	80.006	19.992	104.151	20.114	1.408	0.528
1068.500	622.258	80.004	19.993	104.151	20.117	1.196	0.530
1069.000	622.537	80.005	19.994	104.153	20.115	1.338	0.541
1069.500	622.789	80.003	19.994	104.159	20.114	1.401	0.542
1070.000	623.071	80.004	19.994	104.165	20.118	1.153	0.533
1070.500	623.302	80.005	19.994	104.171	20.115	1.293	0.524
1071.000	623.558	80.003	19.994	104.173	20.114	1.354	0.500
1071.500	623.847	80.005	19.993	104.174	20.118	1.101	0.516
1072.000	624.072	80.004	19.993	104.170	20.115	1.320	0.530
1072.500	624.334	80.005	19.993	104.165	20.114	1.395	0.501
1073.000	624.563	80.004	19.993	104.161	20.116	1.226	0.489
1073.500	624.871	80.003	19.993	104.165	20.117	1.196	0.514
1074.000	625.123	80.005	19.992	104.164	20.115	1.343	0.548
1074.499	625.345	80.002	19.994	104.165	20.112	1.505	0.517
1075.000	625.594	80.004	19.993	104.163	20.114	1.359	0.473
1075.500	625.879	80.004	19.993	104.159	20.115	1.298	0.502
1076.000	626.167	80.003	19.993	104.152	20.114	1.354	0.553
1076.500	626.383	80.003	19.994	104.150	20.114	1.397	0.538
1077.000	626.686	80.004	19.993	104.150	20.114	1.354	0.512
1077.500	626.899	80.003	19.995	104.151	20.112	1.535	0.518
1078.000	627.186	80.003	19.994	104.154	20.114	1.415	0.508
1078.500	627.449	80.004	19.993	104.156	20.115	1.302	0.525
1079.000	627.701	80.004	19.993	104.157	20.111	1.555	0.533
1079.500	627.949	80.004	19.994	104.161	20.113	1.465	0.508
1080.000	628.251	80.003	19.994	104.160	20.112	1.524	0.525
1080.500	628.477	80.004	19.993	104.156	20.114	1.390	0.539
1080.999	628.745	80.004	19.994	104.155	20.113	1.424	0.511
1081.499	628.986	80.005	19.993	104.154	20.110	1.616	0.502
1081.999	629.262	80.005	19.993	104.148	20.112	1.532	0.514
1082.499	629.486	80.003	19.994	104.148	20.112	1.492	0.508
1082.999	629.740	80.003	19.993	104.149	20.111	1.609	0.488
1083.499	629.998	80.006	19.993	104.151	20.116	1.273	0.495
1083.999	630.278	80.004	19.994	104.149	20.116	1.228	0.525
1084.499	630.531	80.004	19.995	104.148	20.114	1.366	0.535
1085.000	630.795	80.005	19.994	104.149	20.115	1.345	0.525
1085.500	631.042	80.006	19.993	104.149	20.111	1.576	0.514
1086.000	631.310	80.005	19.994	104.151	20.114	1.390	0.513
1086.500	631.572	80.006	19.993	104.153	20.116	1.219	0.522
1087.000	631.792	80.007	19.994	104.156	20.114	1.392	0.506
1087.500	632.042	80.006	19.995	104.158	20.115	1.309	0.477
1088.000	632.274	80.005	19.994	104.159	20.117	1.155	0.476
1088.500	632.577	80.006	19.994	104.160	20.116	1.239	0.508
1089.000	632.777	80.006	19.993	104.161	20.115	1.336	0.519
1089.500	633.015	80.007	19.993	104.158	20.114	1.375	0.471
1090.000	633.271	80.006	19.993	104.155	20.115	1.318	0.466
1090.500	633.496	80.007	19.993	104.152	20.113	1.422	0.487
1091.000	633.794	80.008	19.992	104.152	20.113	1.429	0.502
1091.500	634.034	80.007	19.992	104.154	20.112	1.528	0.531
1092.000	634.294	80.006	19.993	104.157	20.113	1.447	0.519
1092.500	634.540	80.007	19.992	104.158	20.114	1.392	0.503
1093.000	634.780	80.006	19.994	104.158	20.114	1.411	0.496
1093.500	635.042	80.009	19.993	104.158	20.117	1.185	0.494
1094.000	635.306	80.005	19.993	104.156	20.117	1.208	0.514
1094.500	635.545	80.006	19.993	104.154	20.114	1.384	0.514
1095.000	635.787	80.006	19.992	104.152	20.120	1.018	0.492
1095.500	636.022	80.005	19.994	104.153	20.115	1.339	0.479
1095.999	636.260	80.006	19.994	104.150	20.116	1.264	0.475
1096.499	636.529	80.006	19.993	104.147	20.115	1.291	0.490
1096.999	636.762	80.007	19.993	104.151	20.114	1.379	0.505
1097.499	637.067	80.007	19.994	104.154	20.117	1.162	0.520
1097.999	637.306	80.007	19.994	104.157	20.114	1.368	0.541
1098.499	637.505	80.006	19.993	104.156	20.113	1.476	0.491
1098.999	637.754	80.006	19.994	104.155	20.114	1.386	0.443
1099.499	637.956	80.005	19.994	104.150	20.113	1.460	0.449
1099.999	638.259	80.006	19.994	104.150	20.114	1.395	0.477
1100.499	638.469	80.007	19.994	104.147	20.115	1.338	0.509
1100.999	638.717	80.006	19.994	104.151	20.114	1.393	0.486
1101.499	638.951	80.006	19.994	104.153	20.112	1.544	0.470
1101.999	639.210	80.005	19.992	104.153	20.114	1.350	0.487
1102.499	639.442	80.006	19.993	104.150	20.115	1.316	0.492
1102.999	639.692	80.006	19.995	104.152	20.113	1.419	0.486
1103.500	639.954	80.006	19.995	104.153	20.116	1.269	0.497
1104.000	640.122	80.005	19.995	104.153	20.115	1.293	0.471
1104.500	640.394	80.005	19.994	104.156	20.112	1.519	0.435
1105.000	640.642	80.007	19.995	104.158	20.115	1.311	0.480
1105.500	640.870	80.004	19.995	104.158	20.114	1.363	0.498
1106.000	641.158	80.006	19.994	104.154	20.115	1.345	0.497
1106.500	641.396	80.007	19.995	104.152	20.113	1.422	0.521
1107.000	641.632	80.006	19.995	104.149	20.113	1.474	0.500
1107.500	641.873	80.007	19.994	104.147	20.114	1.408	0.475
1108.000	642.141	80.007	19.993	104.148	20.113	1.449	0.492
1108.499	642.351	80.005	19.993	104.146	20.115	1.323	0.493
1108.999	642.613	80.007	19.993	104.147	20.116	1.280	0.475
1109.500	642.864	80.005	19.995	104.149	20.113	1.467	0.493
1110.000	643.055	80.005	19.996	104.148	20.114	1.413	0.477
1110.500	643.306	80.006	19.994	104.144	20.113	1.472	0.442
1111.000	643.543	80.007	19.994	104.144	20.116	1.275	0.465
1111.500	643.833	80.007	19.994	104.145	20.114	1.375	0.508
1112.000	643.995	80.005	19.994	104.149	20.116	1.246	0.489
1112.500	644.252	80.006	19.993	104.155	20.114	1.399	0.436
1113.000	644.475	80.006	19.994	104.158	20.114	1.350	0.450
1113.500	644.741	80.005	19.993	104.158	20.112	1.506	0.485
1114.000	644.962	80.007	19.995	104.156	20.115	1.343	0.488
1114.500	645.230	80.006	19.994	104.151	20.113	1.440	0.488
1115.000	645.474	80.006	19.993	104.145	20.117	1.187	0.501
1115.500	645.679	80.007	19.995	104.147	20.114	1.401	0.481
1116.000	645.976	80.007	19.993	104.150	20.116	1.257	0.476
1116.500	646.206	80.006	19.993	104.154	20.117	1.169	0.514
1117.000	646.467	80.006	19.994	104.158	20.118	1.113	0.508
1117.500	646.655	80.008	19.994	104.160	20.115	1.286	0.470
1117.999	646.915	80.007	19.994	104.156	20.116	1.275	0.449
1118.499	647.122	80.007	19.995	104.153	20.117	1.203	0.457
1118.999	647.396	80.007	19.993	104.150	20.115	1.334	0.474
1119.499	647.638	80.007	19.993	104.151	20.118	1.133	0.499
1119.999	647.876	80.008	19.993	104.151	20.117	1.173	0.498
1120.499	648.094	80.007	19.994	104.152	20.116	1.284	0.468
1120.999	648.365	80.006	19.993	104.155	20.113	1.456	0.473
1121.500	648.572	80.006	19.992	104.155	20.113	1.454	0.484
1122.000	648.854	80.006	19.993	104.150	20.116	1.226	0.483
1122.499	649.109	80.004	19.994	104.149	20.114	1.391	0.513
1122.999	649.349	80.006	19.993	104.147	20.113	1.467	0.516
1123.500	649.558	80.005	19.994	104.145	20.115	1.296	0.472
1124.000	649.852	80.005	19.993	104.147	20.114	1.368	0.476
1124.499	650.091	80.005	19.994	104.148	20.114	1.408	0.518
1124.999	650.332	80.005	19.993	104.151	20.113	1.429	0.506
1125.499	650.572	80.004	19.994	104.151	20.113	1.428	0.481
1126.000	650.825	80.005	19.993	104.151	20.115	1.336	0.488
1126.500	651.040	80.005	19.994	104.155	20.113	1.462	0.480
1127.000	651.279	80.004	19.993	104.154	20.114	1.350	0.461
1127.500	651.553	80.005	19.993	104.151	20.113	1.478	0.484
1128.000	651.795	80.004	19.994	104.150	20.113	1.480	0.515
1128.500	652.032	80.003	19.994	104.151	20.111	1.596	0.498
1129.000	652.277	80.003	19.994	104.147	20.111	1.566	0.480
1129.500	652.492	80.004	19.993	104.150	20.113	1.472	0.471
1130.000	652.786	80.003	19.993	104.155	20.112	1.490	0.485
1130.500	653.036	80.004	19.994	104.158	20.111	1.564	0.526
1131.000	653.238	80.003	19.994	104.156	20.113	1.429	0.498
1131.500	653.492	80.003	19.994	104.156	20.113	1.424	0.454
1132.000	653.769	80.005	19.994	104.153	20.117	1.203	0.493
1132.500	654.017	80.003	19.994	104.149	20.112	1.505	0.528
1133.000	654.262	80.004	19.994	104.146	20.119	1.047	0.509
1133.500	654.527	80.003	19.996	104.146	20.123	0.779	0.502
1134.000	654.768	80.004	19.995	104.149	20.106	1.877	0.508
1134.500	654.957	80.004	19.994	104.151	20.115	1.349	0.468
1134.999	655.225	80.003	19.994	104.154	20.111	1.609	0.444
1135.500	655.479	80.003	19.995	104.159	20.113	1.449	0.489
1136.000	655.726	80.003	19.994	104.161	20.109	1.725	0.511
1136.500	655.985	80.003	19.995	104.163	20.104	2.070	0.503
1137.000	656.219	80.004	19.995	104.165	20.120	1.009	0.500
1137.500	656.484	80.003	19.995	104.163	20.114	1.399	0.496
1137.999	656.698	80.004	19.994	104.159	20.112	1.539	0.489
1138.499	656.970	80.003	19.994	104.158	20.111	1.582	0.482
1139.000	657.178	80.003	19.995	104.153	20.113	1.436	0.483
1139.500	657.489	80.004	19.995	104.149	20.113	1.476	0.500
1140.000	657.692	80.003	19.994	104.148	20.110	1.628	0.517
1140.500	657.933	80.003	19.995	104.148	20.115	1.323	0.479
1141.000	658.205	80.003	19.995	104.152	20.112	1.535	0.478
1141.500	658.473	80.004	19.994	104.156	20.112	1.517	0.527
1142.000	658.705	80.005	19.994	104.156	20.115	1.329	0.520
1142.500	658.930	80.005	19.995	104.162	20.112	1.503	0.478
1143.000	659.233	80.004	19.996	104.167	20.112	1.496	0.493
1143.500	659.485	80.005	19.994	104.167	20.114	1.354	0.542
1144.000	659.696	80.005	19.995	104.167	20.114	1.411	0.509
1144.500	659.893	80.005	19.995	104.167	20.112	1.517	0.435
1145.000	660.220	80.006	19.995	104.163	20.115	1.348	0.466
1145.499	660.480	80.004	19.993	104.157	20.114	1.354	0.556
1145.999	660.739	80.006	19.994	104.153	20.114	1.399	0.553
1146.499	660.896	80.004	19.995	104.149	20.112	1.496	0.467
1146.999	661.506	80.006	19.994	104.151	20.111	1.591	0.592
1147.500	662.218	80.007	19.995	104.150	20.114	1.383	1.044
1148.000	661.552	80.005	19.993	104.149	20.114	1.392	0.684
1148.499	661.906	80.004	19.995	104.148	20.112	1.499	-0.133
1148.999	662.213	80.003	19.995	104.148	20.114	1.406	0.174
1149.499	662.402	80.005	19.993	104.146	20.114	1.390	0.579
1150.000	662.820	80.003	19.993	104.144	20.113	1.455	0.552
1150.500	662.552	80.005	19.993	104.144	20.112	1.544	0.379
1151.000	663.464	80.005	19.994	104.146	20.109	1.690	0.397
1151.500	663.495	80.006	19.993	104.147	20.111	1.591	0.794
1152.000	663.754	80.004	19.994	104.149	20.109	1.699	0.616
1152.500	663.991	80.004	19.994	104.150	20.108	1.786	0.393
1153.000	664.259	80.004	19.993	104.152	20.112	1.501	0.500
1153.500	664.497	80.004	19.994	104.151	20.112	1.532	0.505
1154.000	664.705	80.005	19.993	104.151	20.113	1.424	0.476
1154.500	665.054	80.004	19.994	104.148	20.113	1.433	0.501
1155.000	665.242	80.006	19.993	104.148	20.111	1.562	0.547
1155.500	665.560	80.005	19.994	104.146	20.111	1.603	0.522
1156.000	665.782	80.004	19.993	104.145	20.114	1.413	0.523
1156.500	665.960	80.003	19.994	104.144	20.111	1.605	0.470
1157.000	666.272	80.004	19.995	104.144	20.111	1.549	0.445
1157.500	666.516	80.005	19.994	104.146	20.115	1.345	0.523
1158.000	666.768	80.004	19.994	104.149	20.113	1.470	0.526
1158.500	667.031	80.004	19.994	104.151	20.115	1.343	0.506
1158.999	667.250	80.004	19.994	104.154	20.113	1.460	0.498
1159.500	667.492	80.004	19.993	104.159	20.111	1.593	0.471
1160.000	667.738	80.004	19.993	104.163	20.111	1.553	0.475
1160.499	668.038	80.005	19.993	104.165	20.110	1.636	0.518
1160.999	668.294	80.006	19.994	104.168	20.113	1.469	0.551
1161.500	668.517	80.004	19.994	104.165	20.109	1.733	0.517
1162.000	668.790	80.004	19.993	104.160	20.109	1.727	0.487
1162.500	669.050	80.003	19.993	104.155	20.112	1.488	0.514
1163.000	669.292	80.005	19.995	104.151	20.109	1.691	0.518
1163.500	669.555	80.004	19.995	104.147	20.112	1.488	0.503
1164.000	669.781	80.003	19.996	104.151	20.111	1.549	0.497
1164.500	670.055	80.004	19.995	104.150	20.110	1.619	0.495
1165.000	670.258	80.005	19.995	104.150	20.110	1.663	0.489
1165.500	670.534	80.006	19.993	104.150	20.113	1.433	0.478
1166.000	670.771	80.006	19.994	104.150	20.113	1.424	0.496
1166.500	671.033	80.004	19.993	104.147	20.116	1.277	0.506
1167.000	671.286	80.007	19.994	104.147	20.115	1.338	0.507
1167.500	671.544	80.006	19.994	104.146	20.115	1.332	0.513
1168.000	671.779	80.006	19.994	104.144	20.114	1.354	0.501
1168.500	672.015	80.006	19.995	104.142	20.113	1.442	0.482
1169.000	672.308	80.005	19.994	104.145	20.113	1.465	0.500
1169.500	672.536	80.008	19.994	104.151	20.113	1.473	0.525
1170.000	672.809	80.006	19.995	104.158	20.115	1.327	0.511
1170.500	673.067	80.005	19.995	104.159	20.111	1.571	0.517
1171.000	673.309	80.005	19.994	104.159	20.110	1.677	0.516
1171.500	673.579	80.008	19.994	104.156	20.113	1.438	0.506
1172.000	673.824	80.006	19.994	104.149	20.113	1.478	0.513
1172.500	674.098	80.007	19.994	104.144	20.112	1.526	0.517
1173.000	674.310	80.008	19.993	104.143	20.111	1.571	0.503
1173.500	674.581	80.007	19.994	104.142	20.111	1.603	0.485
1174.000	674.822	80.006	19.993	104.143	20.113	1.444	0.497
1174.500	675.084	80.006	19.992	104.144	20.115	1.316	0.507
1175.000	675.352	80.006	19.994	104.144	20.113	1.424	0.517
1175.499	675.621	80.007	19.994	104.144	20.112	1.507	0.533
1175.999	675.876	80.007	19.994	104.145	20.113	1.419	0.531
1176.499	676.105	80.007	19.993	104.148	20.114	1.384	0.504
1177.000	676.367	80.007	19.993	104.152	20.113	1.440	0.487
1177.500	676.580	80.006	19.993	104.155	20.109	1.722	0.483
1178.000	676.840	80.005	19.994	104.157	20.113	1.480	0.474
1178.500	677.098	80.007	19.993	104.158	20.113	1.451	0.496
1179.000	677.385	80.006	19.994	104.157	20.110	1.663	0.532
1179.500	677.595	80.007	19.994	104.159	20.114	1.379	0.521
1180.000	677.887	80.007	19.994	104.161	20.113	1.427	0.499
1180.499	678.136	80.007	19.993	104.167	20.107	1.873	0.521
1181.000	678.395	80.006	19.994	104.171	20.109	1.708	0.525
1181.500	678.638	80.006	19.994	104.169	20.110	1.645	0.506
1182.000	678.872	80.007	19.993	104.164	20.110	1.670	0.490
1182.499	679.143	80.005	19.994	104.159	20.114	1.375	0.491
1183.000	679.369	80.005	19.993	104.153	20.112	1.519	0.501
1183.500	679.615	80.006	19.994	104.147	20.114	1.386	0.485
1184.000	679.855	80.006	19.992	104.146	20.113	1.476	0.479
1184.500	680.116	80.006	19.994	104.147	20.109	1.731	0.493
1185.000	680.348	80.005	19.994	104.149	20.110	1.668	0.497
1185.500	680.628	80.006	19.993	104.150	20.112	1.533	0.503
1186.000	680.884	80.006	19.993	104.154	20.113	1.453	0.524
1186.500	681.125	80.006	19.994	104.158	20.113	1.476	0.517
1187.000	681.390	80.006	19.993	104.159	20.112	1.523	0.501
1187.500	681.611	80.006	19.993	104.157	20.110	1.629	0.495
1188.000	681.881	80.005	19.993	104.158	20.111	1.553	0.488
1188.500	682.100	80.006	19.992	104.156	20.111	1.573	0.491
1189.000	682.402	80.005	19.993	104.152	20.108	1.792	0.505
1189.499	682.638	80.005	19.993	104.153	20.109	1.715	0.529
1189.999	682.920	80.007	19.992	104.155	20.112	1.535	0.528
1190.499	683.140	80.006	19.994	104.152	20.110	1.628	0.510
1191.000	683.382	80.005	19.993	104.153	20.113	1.462	0.482
1191.500	683.630	80.006	19.994	104.154	20.112	1.524	0.476
1191.999	683.912	80.007	19.992	104.154	20.112	1.499	0.510
1192.499	684.122	80.007	19.993	104.152	20.110	1.645	0.511
1192.999	684.356	80.006	19.992	104.153	20.110	1.672	0.468
1193.500	684.642	80.006	19.993	104.157	20.115	1.341	0.482
1194.000	684.989	80.007	19.993	104.157	20.108	1.745	0.576
1194.500	685.098	80.007	19.994	104.157	20.110	1.614	0.544
1195.000	685.327	80.007	19.994	104.157	20.109	1.717	0.397
1195.500	685.575	80.007	19.993	104.156	20.111	1.584	0.407
1195.999	685.888	80.006	19.994	104.152	20.114	1.363	0.519
1196.499	686.135	80.007	19.993	104.158	20.107	1.840	0.561
1197.000	686.340	80.007	19.993	104.158	20.112	1.490	0.506
1197.500	686.634	80.008	19.994	104.160	20.113	1.478	0.476
1198.000	686.870	80.009	19.993	104.163	20.109	1.682	0.514
1198.500	687.129	80.007	19.992	104.161	20.108	1.760	0.512
1199.000	687.388	80.007	19.993	104.154	20.110	1.672	0.507
1199.500	687.623	80.007	19.992	104.151	20.109	1.704	0.506
1200.000	687.916	80.006	19.994	104.148	20.111	1.600	0.511
1200.500	688.114	80.007	19.993	104.144	20.109	1.742	0.510
1201.000	688.397	80.006	19.993	104.145	20.107	1.810	0.486
1201.499	688.593	80.006	19.993	104.147	20.110	1.643	0.480
1202.000	688.887	80.005	19.994	104.148	20.109	1.692	0.485
1202.500	689.154	80.005	19.995	104.149	20.110	1.657	0.525
1202.999	689.365	80.005	19.994	104.148	20.111	1.591	0.519
1203.499	689.636	80.004	19.994	104.148	20.108	1.756	0.480
1203.999	689.881	80.007	19.994	104.147	20.110	1.677	0.499
1204.499	690.121	80.004	19.995	104.147	20.111	1.602	0.501
1204.999	690.390	80.004	19.994	104.152	20.108	1.779	0.497
1205.499	690.645	80.005	19.993	104.154	20.110	1.641	0.516
1206.000	690.860	80.005	19.994	104.154	20.112	1.485	0.497
1206.500	691.116	80.004	19.994	104.156	20.108	1.783	0.471
1207.000	691.349	80.005	19.993	104.157	20.110	1.618	0.480
1207.499	691.618	80.004	19.994	104.152	20.108	1.781	0.495
1207.999	691.824	80.004	19.994	104.154	20.112	1.492	0.489
1208.499	692.138	80.004	19.994	104.157	20.109	1.681	0.498
1208.999	692.406	80.005	19.994	104.155	20.111	1.591	0.551
1209.499	692.644	80.004	19.994	104.155	20.112	1.512	0.544
1209.999	692.925	80.005	19.994	104.158	20.112	1.532	0.512
1210.500	693.177	80.004	19.994	104.156	20.110	1.613	0.526
1211.000	693.410	80.004	19.994	104.156	20.112	1.489	0.509
1211.500	693.682	80.004	19.994	104.157	20.112	1.525	0.496
1212.000	693.926	80.005	19.994	104.157	20.107	1.835	0.511
1212.500	694.165	80.005	19.994	104.156	20.110	1.618	0.499
1213.000	694.424	80.004	19.994	104.160	20.110	1.659	0.491
1213.500	694.734	80.006	19.994	104.159	20.113	1.420	0.533
1214.000	695.000	80.005	19.995	104.158	20.112	1.539	0.573
1214.500	695.288	80.005	19.995	104.162	20.110	1.677	0.565
1215.000	695.525	80.004	19.994	104.161	20.110	1.674	0.540
1215.500	695.792	80.007	19.993	104.160	20.110	1.675	0.514
1216.000	696.055	80.004	19.994	104.158	20.107	1.819	0.517
1216.500	696.328	80.004	19.994	104.156	20.110	1.657	0.533
1217.000	696.561	80.006	19.994	104.154	20.113	1.480	0.521
1217.500	696.855	80.005	19.995	104.153	20.111	1.596	0.516
1218.000	697.073	80.005	19.994	104.150	20.111	1.553	0.519
1218.500	697.392	80.006	19.995	104.150	20.110	1.672	0.525
1219.000	697.663	80.006	19.993	104.153	20.111	1.562	0.563
1219.500	697.920	80.005	19.995	104.156	20.111	1.580	0.559
1220.000	698.214	80.006	19.995	104.161	20.111	1.576	0.540
1220.499	698.449	80.004	19.994	104.159	20.109	1.695	0.540
1221.000	698.723	80.004	19.996	104.162	20.112	1.533	0.519
1221.500	698.987	80.004	19.995	104.167	20.110	1.632	0.524
1221.999	699.249	80.004	19.994	104.165	20.109	1.704	0.532
1222.500	699.526	80.005	19.993	104.164	20.108	1.774	0.532
1223.000	699.774	80.004	19.995	104.165	20.106	1.921	0.532
1223.500	700.061	80.005	19.996	104.168	20.106	1.932	0.530
1224.000	700.359	80.005	19.994	104.166	20.108	1.777	0.560
1224.500	700.616	80.005	19.995	104.167	20.111	1.573	0.570
1225.000	700.902	80.006	19.995	104.167	20.111	1.560	0.549
1225.500	701.164	80.005	19.996	104.165	20.111	1.605	0.545
1226.000	701.408	80.005	19.994	104.158	20.113	1.454	0.527
1226.500	701.659	80.005	19.995	104.155	20.112	1.483	0.500
1227.000	701.952	80.005	19.995	104.153	20.112	1.542	0.519
1227.500	702.238	80.005	19.995	104.152	20.111	1.580	0.562
1228.000	702.515	80.005	19.995	104.157	20.114	1.386	0.571
1228.500	702.742	80.004	19.995	104.158	20.109	1.697	0.534
1229.000	703.009	80.004	19.995	104.156	20.111	1.578	0.499
1229.500	703.236	80.004	19.995	104.155	20.113	1.453	0.494
1230.000	703.536	80.003	19.994	104.154	20.113	1.463	0.510
1230.500	703.812	80.004	19.994	104.147	20.112	1.523	0.551
1231.000	704.095	80.005	19.995	104.147	20.109	1.724	0.567
1231.500	704.319	80.005	19.995	104.146	20.109	1.699	0.533
1232.000	704.604	80.004	19.995	104.145	20.108	1.760	0.508
1232.500	704.864	80.004	19.995	104.147	20.111	1.586	0.527
1232.999	705.100	80.005	19.995	104.148	20.108	1.765	0.521
1233.499	705.386	80.004	19.995	104.149	20.107	1.855	0.510
1234.000	705.641	80.005	19.995	104.148	20.109	1.708	0.531
1234.500	705.896	80.005	19.995	104.146	20.108	1.765	0.525
1235.000	706.161	80.003	19.994	104.143	20.111	1.569	0.515
1235.500	706.443	80.004	19.995	104.142	20.112	1.537	0.533
1236.000	706.677	80.003	19.994	104.142	20.107	1.849	0.532
1236.500	706.924	80.004	19.995	104.142	20.110	1.618	0.498
1237.000	707.170	80.004	19.995	104.141	20.107	1.844	0.487
1237.500	707.401	80.003	19.994	104.141	20.110	1.655	0.485
1238.000	707.690	80.003	19.995	104.141	20.112	1.492	0.499
1238.500	707.963	80.003	19.995	104.141	20.112	1.528	0.541
1239.000	708.190	80.003	19.995	104.143	20.108	1.767	0.531
1239.500	708.467	80.005	19.993	104.145	20.112	1.494	0.502
1240.000	708.722	80.003	19.994	104.148	20.112	1.515	0.518
1240.500	708.969	80.005	19.994	104.150	20.109	1.729	0.517
1241.000	709.214	80.005	19.994	104.153	20.112	1.544	0.497
1241.500	709.495	80.004	19.994	104.153	20.111	1.569	0.509
1242.000	709.757	80.005	19.994	104.156	20.110	1.620	0.534
1242.500	710.025	80.005	19.994	104.157	20.111	1.593	0.536
1243.000	710.223	80.004	19.994	104.156	20.111	1.551	0.498
1243.500	710.459	80.005	19.993	104.158	20.112	1.544	0.450
1244.000	710.733	80.004	19.993	104.158	20.112	1.488	0.471
1244.500	710.986	80.005	19.992	104.154	20.111	1.573	0.518
1245.000	711.191	80.006	19.994	104.151	20.112	1.523	0.493
1245.500	711.459	80.004	19.994	104.151	20.113	1.451	0.466
1246.000	711.707	80.005	19.994	104.147	20.109	1.720	0.495
1246.500	711.917	80.004	19.994	104.146	20.112	1.497	0.487
1247.000	712.185	80.005	19.993	104.148	20.111	1.560	0.468
1247.500	712.414	80.006	19.993	104.148	20.109	1.733	0.488
1248.000	712.654	80.005	19.994	104.148	20.110	1.638	0.483
1248.500	712.915	80.005	19.994	104.148	20.112	1.514	0.485
1249.000	713.156	80.005	19.993	104.150	20.110	1.616	0.502
1249.500	713.410	80.006	19.993	104.149	20.109	1.731	0.498
1250.000	713.624	80.005	19.992	104.149	20.109	1.742	0.481
1250.500	713.875	80.007	19.994	104.149	20.111	1.596	0.467
1251.000	714.134	80.007	19.994	104.149	20.111	1.559	0.488
1251.499	714.412	80.007	19.992	104.147	20.109	1.693	0.523
1251.999	714.628	80.006	19.994	104.148	20.109	1.702	0.515
1252.499	714.892	80.007	19.993	104.147	20.108	1.743	0.487
1252.999	715.108	80.007	19.993	104.147	20.110	1.677	0.480
1253.499	715.377	80.007	19.993	104.147	20.109	1.684	0.482
1253.999	715.612	80.008	19.993	104.149	20.111	1.596	0.494
1254.499	715.841	80.008	19.993	104.149	20.110	1.677	0.484
1255.000	716.099	80.008	19.994	104.148	20.110	1.677	0.476
1255.500	716.356	80.007	19.994	104.147	20.111	1.584	0.501
1256.000	716.588	80.006	19.993	104.147	20.110	1.668	0.502
1256.500	716.796	80.006	19.994	104.148	20.111	1.578	0.464
1257.000	717.061	80.005	19.994	104.148	20.111	1.609	0.457
1257.500	717.288	80.006	19.994	104.149	20.110	1.655	0.483
1258.000	717.549	80.005	19.995	104.150	20.107	1.819	0.490
1258.500	717.753	80.006	19.994	104.150	20.112	1.510	0.476
1259.000	717.976	80.006	19.994	104.150	20.111	1.607	0.445
1259.500	718.240	80.006	19.993	104.150	20.112	1.501	0.457
1260.000	718.494	80.007	19.995	104.149	20.110	1.656	0.503
1260.499	718.699	80.006	19.994	104.149	20.112	1.519	0.489
1261.000	718.922	80.006	19.993	104.151	20.109	1.718	0.444
1261.500	719.193	80.006	19.995	104.150	20.108	1.761	0.461
1261.999	719.421	80.006	19.994	104.150	20.108	1.751	0.496
1262.499	719.660	80.006	19.994	104.150	20.110	1.616	0.483
1262.999	719.894	80.005	19.994	104.150	20.110	1.620	0.470
1263.499	720.113	80.004	19.994	104.148	20.112	1.526	0.463
1264.000	720.342	80.006	19.993	104.147	20.112	1.483	0.451
1264.500	720.606	80.005	19.993	104.146	20.113	1.470	0.470
1264.999	720.845	80.005	19.994	104.147	20.109	1.695	0.497
1265.499	721.057	80.006	19.994	104.146	20.109	1.695	0.477
1265.999	721.298	80.005	19.993	104.146	20.108	1.761	0.452
1266.500	721.567	80.006	19.994	104.147	20.113	1.470	0.481
1267.000	721.760	80.004	19.993	104.147	20.112	1.519	0.486
1267.499	722.002	80.005	19.993	104.147	20.111	1.605	0.448
1268.000	722.247	80.006	19.993	104.150	20.111	1.596	0.461
1268.500	722.459	80.007	19.993	104.152	20.109	1.691	0.472
1269.000	722.724	80.006	19.993	104.154	20.108	1.788	0.468
1269.500	722.948	80.005	19.995	104.156	20.111	1.548	0.483
1270.000	723.196	80.006	19.994	104.158	20.110	1.627	0.480
1270.500	723.449	80.006	19.995	104.155	20.114	1.411	0.487
1271.000	723.652	80.006	19.994	104.153	20.111	1.589	0.478
1271.500	723.897	80.006	19.994	104.151	20.112	1.528	0.452
1272.000	724.130	80.007	19.994	104.150	20.109	1.679	0.463
1272.500	724.360	80.006	19.995	104.149	20.111	1.566	0.470
1273.000	724.597	80.008	19.993	104.151	20.113	1.422	0.465
1273.500	724.834	80.006	19.993	104.150	20.115	1.322	0.470
1273.999	725.091	80.008	19.994	104.150	20.113	1.420	0.484
1274.499	725.333	80.008	19.993	104.147	20.111	1.593	0.497
1274.999	725.515	80.007	19.994	104.146	20.112	1.544	0.461
1275.500	725.767	80.007	19.995	104.143	20.112	1.539	0.429
1276.000	725.988	80.008	19.993	104.143	20.109	1.729	0.454
1276.500	726.228	80.008	19.993	104.143	20.111	1.578	0.467
1277.000	726.448	80.008	19.993	104.142	20.109	1.693	0.461
1277.500	726.700	80.006	19.993	104.142	20.114	1.406	0.466
1278.000	726.933	80.007	19.993	104.142	20.115	1.343	0.478
1278.500	727.169	80.008	19.993	104.143	20.115	1.345	0.477
1278.999	727.419	80.007	19.993	104.143	20.113	1.471	0.478
1279.499	727.596	80.008	19.993	104.143	20.111	1.577	0.457
1279.999	727.876	80.007	19.993	104.143	20.113	1.480	0.442
1280.499	728.094	80.007	19.993	104.143	20.112	1.490	0.477
1281.000	728.325	80.008	19.994	104.142	20.110	1.616	0.474
1281.500	728.536	80.006	19.993	104.146	20.114	1.402	0.446
1282.000	728.797	80.007	19.992	104.152	20.111	1.562	0.457
1282.500	729.052	80.006	19.992	104.155	20.110	1.659	0.494
1283.000	729.315	80.006	19.996	104.157	20.108	1.765	0.517
1283.500	729.548	80.006	19.995	104.157	20.109	1.681	0.507
1284.000	729.813	80.006	19.994	104.156	20.110	1.614	0.497
1284.500	729.994	80.007	19.994	104.156	20.108	1.790	0.472
1285.000	730.271	80.007	19.993	104.158	20.105	1.952	0.452
1285.500	730.507	80.007	19.995	104.159	20.107	1.830	0.486
1286.000	730.743	80.006	19.993	104.159	20.110	1.612	0.493
1286.500	731.003	80.006	19.994	104.157	20.107	1.839	0.484
1287.000	731.260	80.005	19.994	104.151	20.111	1.587	0.507
1287.500	731.553	80.005	19.994	104.152	20.111	1.602	0.534
1288.000	731.758	80.005	19.994	104.154	20.108	1.781	0.524
1288.500	732.030	80.006	19.994	104.157	20.110	1.675	0.487
1288.999	732.274	80.006	19.994	104.162	20.109	1.702	0.496
1289.499	732.505	80.004	19.994	104.164	20.108	1.787	0.496
1290.000	732.762	80.005	19.994	104.162	20.109	1.738	0.482
1290.500	733.042	80.004	19.994	104.158	20.110	1.652	0.512
1291.000	733.300	80.006	19.994	104.156	20.110	1.632	0.537
1291.500	733.558	80.005	19.994	104.150	20.111	1.571	0.527
1291.999	733.809	80.005	19.995	104.151	20.108	1.783	0.513
1292.499	734.029	80.005	19.995	104.153	20.108	1.808	0.490
1293.000	734.309	80.004	19.994	104.158	20.107	1.823	0.485
1293.500	734.603	80.006	19.994	104.164	20.110	1.636	0.537
1294.000	734.835	80.006	19.994	104.169	20.111	1.582	0.550
1294.500	735.070	80.006	19.994	104.165	20.110	1.672	0.496
1295.000	735.310	80.006	19.995	104.163	20.106	1.914	0.471
1295.500	735.556	80.004	19.994	104.156	20.107	1.810	0.481
1296.000	735.780	80.004	19.994	104.152	20.108	1.765	0.478
1296.499	736.074	80.006	19.994	104.148	20.108	1.776	0.494
1297.000	736.322	80.005	19.994	104.148	20.108	1.779	0.530
1297.500	736.595	80.004	19.995	104.149	20.106	1.923	0.531
1298.000	736.827	80.006	19.995	104.155	20.108	1.758	0.513
1298.500	737.092	80.004	19.994	104.160	20.109	1.729	0.501
1299.000	737.337	80.005	19.995	104.160	20.107	1.853	0.504
1299.500	737.649	80.004	19.995	104.159	20.107	1.813	0.534
1300.000	737.901	80.006	19.995	104.157	20.109	1.717	0.560
1300.500	738.143	80.004	19.995	104.150	20.110	1.673	0.529
1301.000	738.449	80.005	19.994	104.144	20.110	1.645	0.521
1301.499	738.665	80.005	19.994	104.146	20.108	1.751	0.535
1301.999	738.951	80.005	19.994	104.149	20.105	1.995	0.512
1302.499	739.210	80.005	19.995	104.157	20.109	1.681	0.524
1302.999	739.460	80.006	19.994	104.162	20.110	1.668	0.527
1303.500	739.713	80.005	19.994	104.165	20.109	1.679	0.506
1304.000	739.975	80.006	19.995	104.167	20.106	1.885	0.508
1304.500	740.261	80.005	19.994	104.165	20.110	1.677	0.531
1305.000	740.533	80.006	19.993	104.158	20.107	1.842	0.553
1305.500	740.779	80.006	19.994	104.159	20.107	1.833	0.538
1306.000	741.020	80.004	19.995	104.161	20.108	1.790	0.502
1306.500	741.341	80.004	19.994	104.160	20.106	1.918	0.524
1307.000	741.612	80.005	19.993	104.158	20.106	1.896	0.577
1307.500	741.836	80.005	19.995	104.157	20.110	1.652	0.544
1307.999	742.138	80.006	19.994	104.151	20.109	1.733	0.511
1308.500	742.388	80.004	19.994	104.147	20.109	1.738	0.539
1309.000	742.626	80.006	19.994	104.144	20.108	1.779	0.520
1309.500	742.904	80.006	19.994	104.144	20.109	1.693	0.502
1310.000	743.158	80.006	19.994	104.145	20.108	1.770	0.524
1310.500	743.402	80.006	19.994	104.146	20.106	1.882	0.515
