Sample ID:	C:\MCC\MCC Cal\Test\PUF_Mattress_Pad_MCC_30K_min_211219_R1.txt
Sample Weight (mg):	4.45
Heating Rate (C/s):	0.5
Combustor Temp (C):	900
N2 Flow Rate (cc/min):	80
O2 Flow Rate (cc/min):	20
Calibration File:	C:\MCC\MCC Cal\Coeff1 JN10440_30_210304.txt.txt
T Correction Coefficients:	0	1.024463	0
Time Shift (s):	14
*
Time (s)	Temperature (C)	N2 flow rate (cc/min)	O2 flow rate (cc/min)	Flow Rate (cc/min)	Oxygen (%)	HRR (W/g)	Heating rate (C/s)
0.000	110.619	80.003	19.992	104.030	19.980	-0.066	-0.012
0.501	110.678	80.001	19.994	104.025	19.980	-0.112	0.015
1.001	110.607	80.001	19.993	104.025	19.983	-0.336	0.009
1.501	110.636	80.000	19.996	104.025	19.981	-0.140	-0.027
2.000	110.639	80.002	19.995	104.025	19.983	-0.350	-0.005
2.500	110.647	80.001	19.995	104.026	19.979	-0.014	0.022
3.000	110.578	80.002	19.995	104.032	19.977	0.148	-0.025
3.500	110.622	80.001	19.995	104.032	19.976	0.218	-0.043
4.000	110.648	80.000	19.995	104.012	19.978	0.024	0.022
4.500	110.597	80.001	19.993	103.991	19.978	0.046	0.023
5.000	110.602	80.000	19.994	103.978	19.978	0.052	-0.035
5.500	110.585	80.002	19.995	103.970	19.979	-0.002	-0.029
6.000	110.621	80.002	19.995	103.965	19.980	-0.096	0.003
6.500	110.641	80.001	19.992	103.985	19.975	0.260	0.038
7.001	110.611	80.001	19.994	104.006	19.977	0.114	0.023
7.501	110.644	80.000	19.994	104.018	19.980	-0.094	-0.004
8.001	110.656	80.001	19.994	104.027	19.979	-0.042	0.024
8.500	110.622	80.001	19.994	104.041	19.978	0.038	0.011
9.000	110.657	80.002	19.994	104.075	19.978	0.030	-0.010
9.501	110.611	80.000	19.993	104.083	19.976	0.218	-0.005
10.001	110.647	80.001	19.994	104.082	19.978	0.076	-0.011
10.501	110.620	80.001	19.993	104.077	19.977	0.108	-0.001
11.001	110.636	80.000	19.992	104.066	19.981	-0.174	-0.001
11.501	110.624	80.000	19.994	104.027	19.980	-0.072	-0.003
12.001	110.606	80.001	19.994	104.015	19.980	-0.082	-0.013
12.501	110.623	79.999	19.994	104.016	19.979	-0.002	-0.016
13.001	110.600	80.000	19.993	104.017	19.979	-0.032	-0.003
13.500	110.617	80.001	19.995	104.018	19.983	-0.296	-0.006
14.000	110.613	80.003	19.995	104.025	19.982	-0.276	0.003
14.501	110.609	80.000	19.995	104.029	19.979	-0.032	0.002
15.001	110.659	80.000	19.993	104.030	19.979	-0.040	0.019
15.500	110.597	80.000	19.993	104.033	19.975	0.258	0.016
16.000	110.651	80.001	19.995	104.037	19.976	0.170	-0.010
16.501	110.645	80.001	19.994	104.044	19.977	0.134	0.020
17.001	110.619	79.999	19.995	104.051	19.976	0.170	0.009
17.500	110.631	80.001	19.993	104.053	19.971	0.593	-0.023
18.000	110.627	80.001	19.994	104.037	19.973	0.382	-0.004
18.500	110.638	80.003	19.994	104.039	19.969	0.707	0.007
19.000	110.631	80.002	19.993	104.043	19.973	0.423	0.006
19.500	110.646	80.003	19.993	104.049	19.970	0.607	0.006
20.000	110.661	80.002	19.996	104.067	19.971	0.585	0.019
20.500	110.620	80.002	19.997	104.107	19.972	0.485	0.002
21.000	110.658	80.002	19.996	104.155	19.970	0.655	-0.014
21.501	110.662	80.000	19.995	104.171	19.966	0.931	0.020
22.001	110.669	80.003	19.995	104.179	19.960	1.331	0.027
22.501	110.713	80.001	19.995	104.179	19.966	0.915	0.031
23.001	110.731	80.002	19.994	104.176	19.964	1.047	0.057
23.501	110.759	80.002	19.993	104.147	19.961	1.293	0.054
24.000	110.740	80.002	19.993	104.145	19.961	1.294	0.027
24.500	110.773	80.001	19.993	104.149	19.959	1.426	0.011
25.000	110.777	80.003	19.994	104.161	19.955	1.752	0.025
25.500	110.822	80.002	19.994	104.170	19.956	1.646	0.044
26.000	110.847	80.002	19.995	104.177	19.953	1.850	0.060
26.500	110.888	80.002	19.994	104.184	19.953	1.884	0.068
27.000	110.914	80.002	19.993	104.187	19.955	1.752	0.066
27.500	110.970	80.003	19.993	104.189	19.954	1.826	0.075
28.000	110.997	80.004	19.993	104.196	19.952	1.943	0.083
28.500	111.025	80.003	19.992	104.203	19.951	1.995	0.069
29.000	111.059	80.003	19.994	104.210	19.949	2.155	0.058
29.501	111.148	80.004	19.993	104.215	19.952	1.927	0.092
30.000	111.148	80.005	19.994	104.215	19.949	2.143	0.106
30.500	111.184	80.004	19.993	104.207	19.949	2.169	0.062
31.000	111.192	80.004	19.994	104.201	19.948	2.273	0.040
31.500	111.309	80.005	19.993	104.195	19.948	2.235	0.085
32.000	111.316	80.004	19.994	104.189	19.946	2.413	0.125
32.501	111.373	80.004	19.993	104.188	19.949	2.183	0.094
33.001	111.429	80.004	19.994	104.190	19.949	2.153	0.089
33.501	111.484	80.002	19.993	104.197	19.947	2.277	0.112
34.001	111.538	80.004	19.994	104.198	19.948	2.235	0.110
34.501	111.604	80.003	19.993	104.199	19.945	2.422	0.114
35.001	111.664	80.003	19.994	104.205	19.946	2.408	0.123
35.501	111.739	80.003	19.994	104.207	19.947	2.304	0.131
36.001	111.791	80.004	19.993	104.200	19.945	2.448	0.131
36.501	111.828	80.004	19.995	104.199	19.944	2.566	0.108
37.001	111.871	80.002	19.994	104.201	19.949	2.167	0.085
37.501	111.966	80.004	19.994	104.200	19.945	2.434	0.109
38.001	112.022	80.003	19.993	104.203	19.945	2.434	0.144
38.501	112.058	80.002	19.994	104.210	19.944	2.564	0.121
39.001	112.149	80.002	19.993	104.220	19.945	2.435	0.109
39.501	112.242	80.003	19.994	104.224	19.943	2.575	0.156
40.001	112.289	80.002	19.993	104.228	19.947	2.345	0.162
40.501	112.366	80.002	19.994	104.229	19.942	2.662	0.132
41.001	112.441	80.002	19.995	104.229	19.939	2.870	0.138
41.501	112.538	80.003	19.996	104.228	19.941	2.738	0.162
42.001	112.625	80.003	19.993	104.230	19.939	2.898	0.178
42.501	112.671	80.003	19.994	104.230	19.938	2.934	0.158
43.000	112.763	80.003	19.995	104.230	19.937	3.068	0.136
43.500	112.876	80.002	19.995	104.230	19.939	2.896	0.172
44.001	112.931	80.002	19.995	104.231	19.937	3.054	0.186
44.501	113.049	80.002	19.995	104.236	19.936	3.106	0.171
45.001	113.141	80.003	19.996	104.241	19.936	3.132	0.192
45.501	113.260	80.002	19.995	104.245	19.938	3.004	0.211
46.001	113.364	80.003	19.996	104.250	19.944	2.554	0.217
46.501	113.428	80.003	19.994	104.251	19.936	3.087	0.195
47.000	113.568	80.003	19.995	104.251	19.939	2.929	0.186
47.501	113.652	80.001	19.995	104.250	19.935	3.161	0.214
48.001	113.775	80.002	19.995	104.246	19.936	3.089	0.216
48.501	113.851	80.003	19.995	104.242	19.936	3.087	0.203
49.001	113.924	80.004	19.994	104.238	19.936	3.139	0.174
49.501	114.066	80.003	19.994	104.230	19.935	3.222	0.182
50.001	114.115	80.003	19.995	104.225	19.935	3.206	0.203
50.501	114.286	80.003	19.993	104.224	19.936	3.135	0.206
51.001	114.380	80.004	19.994	104.224	19.941	2.717	0.242
51.501	114.484	80.003	19.993	104.224	19.934	3.276	0.231
52.001	114.616	80.004	19.995	104.224	19.943	2.637	0.217
52.501	114.697	80.004	19.993	104.225	19.934	3.294	0.225
53.001	114.803	80.003	19.994	104.226	19.937	3.031	0.200
53.501	114.913	80.003	19.994	104.231	19.941	2.721	0.201
54.001	115.092	80.004	19.994	104.232	19.936	3.120	0.252
54.501	115.148	80.005	19.993	104.234	19.938	2.955	0.262
55.000	115.214	80.004	19.995	104.234	19.934	3.290	0.179
55.500	115.383	80.004	19.993	104.233	19.934	3.239	0.178
56.001	115.486	80.003	19.993	104.231	19.932	3.371	0.254
56.501	115.641	80.004	19.993	104.229	19.934	3.270	0.265
57.001	115.723	80.004	19.995	104.232	19.937	3.012	0.247
57.501	115.874	80.004	19.993	104.240	19.936	3.129	0.235
58.001	116.002	80.001	19.994	104.244	19.933	3.315	0.256
58.501	116.149	80.003	19.993	104.249	19.936	3.104	0.277
59.000	116.251	80.002	19.994	104.256	19.937	3.077	0.262
59.501	116.370	80.003	19.994	104.260	19.935	3.199	0.235
60.001	116.478	80.004	19.994	104.261	19.934	3.298	0.224
60.501	116.639	80.002	19.992	104.264	19.935	3.193	0.248
61.001	116.791	80.001	19.994	104.264	19.935	3.156	0.291
61.501	116.899	80.002	19.993	104.265	19.932	3.418	0.286
62.001	117.014	80.001	19.994	104.265	19.934	3.276	0.242
62.501	117.152	80.002	19.994	104.264	19.934	3.242	0.238
63.000	117.313	80.002	19.995	104.265	19.935	3.204	0.276
63.501	117.463	80.001	19.994	104.265	19.933	3.354	0.305
64.001	117.612	80.001	19.994	104.266	19.939	2.928	0.305
64.501	117.726	80.001	19.994	104.267	19.929	3.653	0.281
65.001	117.920	80.001	19.994	104.268	19.933	3.310	0.285
65.501	118.035	79.999	19.994	104.270	19.932	3.411	0.308
66.000	118.172	80.000	19.994	104.278	19.933	3.333	0.281
66.500	118.327	80.001	19.994	104.251	19.935	3.200	0.272
67.001	118.401	80.000	19.996	104.228	19.931	3.455	0.261
67.501	118.595	80.000	19.996	104.215	19.934	3.299	0.249
68.001	118.740	80.000	19.994	104.205	19.932	3.401	0.304
68.501	118.887	80.000	19.994	104.196	19.933	3.341	0.315
69.001	119.034	79.999	19.994	104.244	19.929	3.605	0.293
69.500	119.226	79.998	19.994	104.294	19.930	3.519	0.316
70.000	119.328	80.000	19.995	104.315	19.929	3.627	0.316
70.500	119.466	79.999	19.995	104.325	19.929	3.649	0.267
71.000	119.691	80.000	19.995	104.328	19.930	3.569	0.302
71.501	119.817	80.001	19.995	104.307	19.931	3.517	0.357
72.001	119.975	79.999	19.994	104.284	19.931	3.483	0.318
72.501	120.112	80.000	19.994	104.280	19.929	3.664	0.289
73.001	120.261	79.999	19.995	104.283	19.927	3.784	0.290
73.500	120.449	80.000	19.993	104.284	19.925	3.920	0.311
74.000	120.623	80.000	19.994	104.284	19.924	4.000	0.350
74.501	120.791	80.001	19.994	104.282	19.925	3.930	0.352
75.001	120.940	79.998	19.994	104.282	19.928	3.672	0.329
75.501	121.094	80.000	19.995	104.278	19.924	3.960	0.310
76.001	121.264	80.000	19.994	104.279	19.928	3.694	0.314
76.501	121.455	79.999	19.994	104.286	19.926	3.872	0.343
77.001	121.603	80.001	19.995	104.291	19.926	3.856	0.350
77.501	121.796	80.000	19.993	104.294	19.930	3.562	0.340
78.000	121.976	80.002	19.994	104.301	19.925	3.920	0.356
78.500	122.125	80.000	19.993	104.305	19.923	4.033	0.351
79.000	122.314	80.000	19.994	104.301	19.927	3.756	0.334
79.500	122.519	80.000	19.994	104.294	19.926	3.860	0.366
80.000	122.662	80.001	19.995	104.289	19.926	3.866	0.371
80.501	122.907	80.002	19.994	104.288	19.927	3.780	0.368
81.001	123.044	80.001	19.994	104.288	19.926	3.836	0.385
81.500	123.233	80.001	19.994	104.290	19.927	3.790	0.354
82.000	123.406	80.003	19.994	104.297	19.925	3.932	0.344
82.500	123.582	80.002	19.994	104.301	19.927	3.744	0.356
83.000	123.783	80.002	19.993	104.302	19.924	4.028	0.363
83.501	123.941	80.001	19.993	104.302	19.928	3.678	0.368
84.001	124.132	80.002	19.993	104.306	19.923	4.085	0.353
84.501	124.344	80.001	19.994	104.304	19.924	3.990	0.376
85.001	124.523	80.001	19.994	104.303	19.926	3.870	0.397
85.500	124.707	80.001	19.993	104.303	19.924	4.017	0.377
86.000	124.887	80.002	19.993	104.303	19.926	3.880	0.363
86.500	125.070	80.002	19.993	104.301	19.924	3.995	0.364
87.000	125.241	80.001	19.994	104.303	19.927	3.782	0.358
87.500	125.441	80.002	19.994	104.304	19.926	3.816	0.362
88.000	125.609	80.001	19.994	104.303	19.920	4.317	0.370
88.500	125.824	80.002	19.994	104.303	19.924	4.021	0.376
89.000	125.992	80.002	19.994	104.303	19.924	3.981	0.383
89.500	126.227	80.000	19.993	104.304	19.922	4.129	0.392
90.000	126.391	80.002	19.994	104.304	19.923	4.085	0.401
90.500	126.611	80.002	19.994	104.305	19.924	4.023	0.392
91.001	126.808	80.003	19.994	104.304	19.922	4.115	0.400
91.501	126.996	80.001	19.994	104.304	19.923	4.103	0.401
92.000	127.197	80.002	19.994	104.303	19.924	3.963	0.387
92.500	127.402	80.001	19.994	104.303	19.921	4.190	0.398
93.000	127.576	80.001	19.994	104.302	19.926	3.843	0.393
93.501	127.783	80.001	19.994	104.302	19.923	4.038	0.380
94.001	127.930	80.002	19.994	104.301	19.922	4.149	0.367
94.500	128.214	80.000	19.995	104.303	19.925	3.909	0.393
95.001	128.388	80.001	19.994	104.302	19.924	3.977	0.444
95.501	128.621	80.001	19.994	104.303	19.923	4.081	0.432
96.000	128.838	80.000	19.994	104.304	19.923	4.103	0.428
96.501	129.025	80.001	19.993	104.307	19.918	4.412	0.427
97.001	129.197	80.000	19.994	104.306	19.923	4.043	0.382
97.501	129.452	80.001	19.994	104.306	19.923	4.075	0.393
98.001	129.635	80.000	19.994	104.307	19.922	4.125	0.432
98.501	129.870	80.001	19.994	104.307	19.922	4.167	0.428
99.001	130.060	80.000	19.995	104.291	19.923	4.049	0.422
99.501	130.274	80.001	19.993	104.269	19.922	4.115	0.415
100.000	130.511	80.002	19.994	104.258	19.926	3.880	0.427
100.501	130.677	80.003	19.993	104.255	19.924	4.023	0.427
101.001	130.916	80.001	19.993	104.255	19.922	4.121	0.404
101.501	131.128	80.000	19.995	104.272	19.922	4.163	0.428
102.001	131.312	80.001	19.992	104.321	19.922	4.133	0.423
102.501	131.553	80.000	19.994	104.364	19.925	3.931	0.410
103.001	131.740	80.001	19.994	104.374	19.927	3.770	0.427
103.501	131.982	80.001	19.994	104.378	19.926	3.822	0.429
104.001	132.173	80.001	19.994	104.375	19.926	3.824	0.431
104.501	132.363	80.002	19.995	104.349	19.925	3.932	0.407
105.001	132.608	80.002	19.996	104.317	19.927	3.772	0.408
105.501	132.827	80.002	19.994	104.312	19.925	3.895	0.450
106.001	133.053	80.002	19.993	104.316	19.924	3.997	0.455
106.500	133.315	80.002	19.994	104.321	19.928	3.720	0.467
107.000	133.475	80.003	19.994	104.322	19.927	3.780	0.455
107.501	133.749	80.002	19.994	104.323	19.921	4.211	0.428
108.001	133.968	80.004	19.994	104.320	19.927	3.760	0.464
108.501	134.213	80.004	19.994	104.312	19.926	3.856	0.479
109.000	134.403	80.004	19.994	104.306	19.930	3.576	0.449
109.500	134.668	80.002	19.995	104.304	19.924	4.021	0.445
110.001	134.852	80.004	19.994	104.303	19.925	3.912	0.452
110.501	135.055	80.003	19.994	104.303	19.925	3.932	0.418
111.001	135.348	80.004	19.993	104.304	19.927	3.744	0.441
111.500	135.562	80.004	19.994	104.305	19.920	4.267	0.502
112.000	135.762	80.004	19.994	104.305	19.925	3.884	0.461
112.500	136.015	80.003	19.994	104.307	19.918	4.466	0.433
113.001	136.270	80.004	19.994	104.309	19.926	3.882	0.480
113.501	136.510	80.004	19.993	104.309	19.920	4.275	0.502
114.001	136.690	80.003	19.994	104.310	19.925	3.888	0.457
114.501	136.911	80.004	19.994	104.310	19.921	4.227	0.411
115.001	137.179	80.005	19.993	104.308	19.925	3.899	0.445
115.501	137.400	80.002	19.993	104.308	19.920	4.251	0.489
116.000	137.633	80.004	19.993	104.308	19.920	4.300	0.472
116.500	137.860	80.004	19.993	104.311	19.924	4.027	0.457
117.000	138.153	80.005	19.993	104.314	19.919	4.380	0.490
117.501	138.348	80.002	19.994	104.315	19.922	4.163	0.504
118.001	138.553	80.004	19.992	104.312	19.923	4.035	0.444
118.500	138.842	80.004	19.993	104.311	19.926	3.856	0.447
119.001	139.013	80.003	19.994	104.307	19.922	4.145	0.477
119.501	139.294	80.003	19.994	104.304	19.926	3.866	0.456
120.000	139.536	80.003	19.993	104.304	19.918	4.461	0.487
120.501	139.749	80.004	19.994	104.305	19.922	4.137	0.489
121.001	140.042	80.003	19.993	104.307	19.926	3.850	0.481
121.501	140.279	80.003	19.994	104.308	19.923	4.059	0.518
122.000	140.494	80.004	19.993	104.308	19.926	3.812	0.491
122.501	140.758	80.004	19.992	104.309	19.925	3.948	0.465
123.001	141.017	80.002	19.993	104.309	19.923	4.093	0.501
123.501	141.218	80.003	19.993	104.307	19.926	3.874	0.492
124.001	141.474	80.004	19.993	104.307	19.923	4.068	0.459
124.501	141.722	80.002	19.993	104.307	19.922	4.160	0.481
125.001	141.934	80.002	19.993	104.308	19.924	4.028	0.482
125.501	142.185	80.002	19.993	104.309	19.918	4.467	0.461
126.001	142.412	80.004	19.993	104.312	19.923	4.050	0.470
126.501	142.673	80.002	19.994	104.314	19.924	4.010	0.483
127.001	142.926	80.003	19.993	104.315	19.920	4.313	0.501
127.501	143.173	80.002	19.994	104.313	19.925	3.948	0.507
128.001	143.419	80.002	19.994	104.312	19.917	4.481	0.497
128.501	143.667	80.003	19.992	104.308	19.921	4.193	0.494
129.001	143.909	80.003	19.994	104.306	19.922	4.159	0.492
129.501	144.133	80.003	19.994	104.305	19.919	4.323	0.478
130.001	144.389	80.003	19.992	104.303	19.921	4.191	0.473
130.501	144.657	80.003	19.994	104.303	19.926	3.876	0.502
131.001	144.884	80.002	19.994	104.303	19.927	3.760	0.510
131.501	145.155	80.004	19.994	104.302	19.923	4.080	0.496
132.001	145.397	80.003	19.994	104.303	19.925	3.904	0.505
132.500	145.655	80.003	19.995	104.304	19.926	3.842	0.506
133.000	145.942	80.003	19.995	104.304	19.920	4.260	0.522
133.501	146.160	80.004	19.993	104.302	19.921	4.221	0.525
134.001	146.406	80.004	19.994	104.301	19.923	4.097	0.485
134.501	146.650	80.004	19.995	104.298	19.921	4.203	0.477
135.001	146.887	80.004	19.994	104.298	19.920	4.259	0.486
135.501	147.153	80.002	19.994	104.296	19.926	3.846	0.492
136.001	147.350	80.002	19.994	104.296	19.926	3.865	0.483
136.501	147.627	80.003	19.994	104.296	19.920	4.316	0.469
137.000	147.831	80.004	19.995	104.297	19.922	4.132	0.478
137.501	148.121	80.003	19.994	104.298	19.921	4.234	0.487
138.001	148.385	80.004	19.994	104.299	19.919	4.335	0.524
138.501	148.624	80.004	19.994	104.301	19.923	4.088	0.528
139.001	148.893	80.004	19.994	104.302	19.915	4.629	0.505
139.501	149.142	80.004	19.994	104.303	19.921	4.196	0.513
140.001	149.419	80.002	19.993	104.301	19.923	4.037	0.522
140.501	149.650	80.003	19.993	104.297	19.923	4.100	0.517
141.001	149.912	80.002	19.994	104.296	19.927	3.775	0.501
141.501	150.142	80.003	19.994	104.294	19.925	3.894	0.493
142.001	150.462	80.002	19.993	104.295	19.925	3.896	0.521
142.501	150.652	80.001	19.993	104.297	19.923	4.060	0.530
143.001	150.906	80.002	19.992	104.301	19.920	4.297	0.477
143.501	151.163	80.000	19.994	104.295	19.921	4.179	0.478
144.001	151.433	80.001	19.993	104.276	19.918	4.403	0.519
144.501	151.674	80.001	19.995	104.264	19.923	4.069	0.519
145.001	151.912	80.000	19.994	104.258	19.922	4.121	0.495
145.500	152.172	80.001	19.993	104.251	19.922	4.137	0.488
146.001	152.468	80.001	19.994	104.258	19.920	4.293	0.527
146.501	152.681	80.002	19.993	104.301	19.919	4.373	0.533
147.001	152.937	80.001	19.994	104.320	19.922	4.161	0.489
147.501	153.194	80.002	19.994	104.326	19.925	3.956	0.491
148.001	153.430	80.001	19.994	104.328	19.924	3.990	0.503
148.501	153.733	80.002	19.993	104.326	19.922	4.170	0.516
149.001	153.891	80.002	19.994	104.299	19.922	4.130	0.500
149.501	154.172	80.003	19.995	104.291	19.921	4.230	0.450
150.001	154.430	80.001	19.994	104.284	19.919	4.326	0.490
150.501	154.694	80.001	19.992	104.281	19.924	3.967	0.531
151.001	154.923	80.001	19.994	104.276	19.928	3.734	0.507
151.501	155.158	80.000	19.993	104.277	19.925	3.915	0.478
152.001	155.427	79.999	19.993	104.278	19.925	3.883	0.484
152.501	155.655	80.000	19.993	104.284	19.928	3.707	0.501
153.001	155.944	80.000	19.992	104.291	19.923	4.040	0.507
153.500	156.174	80.001	19.994	104.298	19.927	3.765	0.518
154.001	156.396	80.000	19.994	104.300	19.932	3.418	0.485
154.501	156.697	80.002	19.995	104.300	19.929	3.655	0.487
155.000	156.939	80.001	19.995	104.301	19.933	3.360	0.533
155.500	157.183	80.000	19.994	104.301	19.924	3.992	0.515
156.000	157.447	80.002	19.995	104.302	19.921	4.222	0.497
156.501	157.718	80.003	19.993	104.302	19.929	3.655	0.521
157.001	157.982	80.002	19.994	104.301	19.925	3.943	0.535
157.501	158.223	80.001	19.992	104.299	19.927	3.797	0.520
158.001	158.474	80.001	19.994	104.297	19.924	3.983	0.499
158.501	158.738	80.001	19.993	104.290	19.929	3.656	0.504
159.001	158.996	80.001	19.995	104.283	19.926	3.865	0.518
159.501	159.247	80.000	19.995	104.279	19.923	4.059	0.516
160.000	159.499	80.001	19.995	104.275	19.929	3.597	0.506
160.500	159.751	80.000	19.994	104.270	19.921	4.190	0.503
161.001	160.004	79.999	19.994	104.268	19.927	3.747	0.504
161.501	160.268	80.000	19.994	104.267	19.924	3.983	0.511
162.001	160.511	80.001	19.994	104.264	19.925	3.911	0.512
162.501	160.790	80.001	19.994	104.267	19.925	3.941	0.514
163.001	161.037	80.001	19.994	104.270	19.930	3.562	0.524
163.501	161.281	80.001	19.993	104.274	19.926	3.847	0.509
164.001	161.543	80.000	19.994	104.279	19.923	4.051	0.498
164.501	161.798	80.001	19.996	104.284	19.918	4.458	0.511
165.001	162.013	80.002	19.996	104.281	19.927	3.793	0.494
165.501	162.296	79.999	19.995	104.280	19.928	3.726	0.485
166.001	162.528	80.002	19.996	104.280	19.925	3.911	0.506
166.501	162.847	80.003	19.995	104.281	19.922	4.139	0.532
167.001	163.111	80.002	19.995	104.276	19.921	4.243	0.567
167.501	163.335	80.001	19.995	104.275	19.920	4.303	0.536
168.001	163.628	80.002	19.995	104.271	19.921	4.191	0.502
168.501	163.825	80.001	19.995	104.269	19.923	4.035	0.504
169.001	164.063	80.001	19.996	104.266	19.921	4.225	0.463
169.501	164.353	80.000	19.995	104.268	19.922	4.163	0.481
170.001	164.605	80.002	19.994	104.271	19.924	3.989	0.535
170.501	164.853	80.001	19.996	104.275	19.925	3.887	0.521
171.001	165.147	80.001	19.994	104.276	19.922	4.113	0.521
171.501	165.347	80.001	19.995	104.278	19.922	4.151	0.518
172.001	165.621	80.002	19.994	104.277	19.924	3.977	0.484
172.501	165.899	80.002	19.995	104.273	19.922	4.123	0.513
173.001	166.107	80.002	19.995	104.270	19.920	4.249	0.519
173.501	166.354	80.000	19.993	104.269	19.924	4.025	0.470
174.001	166.643	80.001	19.995	104.264	19.925	3.929	0.495
174.501	166.873	80.001	19.995	104.264	19.921	4.179	0.528
175.001	167.117	79.999	19.994	104.263	19.919	4.340	0.497
175.501	167.391	80.000	19.993	104.263	19.922	4.141	0.496
176.001	167.645	80.001	19.993	104.262	19.923	4.077	0.522
176.501	167.882	80.002	19.994	104.262	19.918	4.442	0.509
177.000	168.136	80.001	19.994	104.261	19.921	4.213	0.491
177.500	168.354	80.000	19.994	104.262	19.916	4.578	0.482
178.000	168.604	80.001	19.993	104.263	19.917	4.502	0.470
178.500	168.885	80.001	19.992	104.263	19.920	4.276	0.499
179.000	169.128	80.002	19.994	104.264	19.918	4.450	0.528
179.501	169.388	79.999	19.995	104.264	19.918	4.436	0.514
180.001	169.625	80.001	19.995	104.264	19.924	4.019	0.500
180.501	169.861	80.001	19.993	104.265	19.921	4.190	0.485
181.001	170.093	80.001	19.994	104.266	19.920	4.310	0.470
181.501	170.403	80.002	19.993	104.266	19.919	4.324	0.505
182.001	170.592	80.001	19.993	104.267	19.918	4.460	0.521
182.501	170.891	80.002	19.993	104.267	19.918	4.428	0.493
183.001	171.113	80.002	19.994	104.267	19.922	4.161	0.504
183.501	171.321	79.999	19.992	104.266	19.924	4.005	0.475
184.001	171.583	80.001	19.993	104.265	19.918	4.398	0.450
184.501	171.854	80.001	19.994	104.264	19.916	4.592	0.501
185.001	172.103	80.000	19.994	104.266	19.919	4.360	0.527
185.501	172.354	80.000	19.993	104.265	19.916	4.578	0.510
186.001	172.608	80.003	19.994	104.266	19.921	4.195	0.503
186.501	172.858	80.001	19.992	104.266	19.920	4.285	0.505
187.001	173.132	80.001	19.993	104.266	19.918	4.444	0.514
187.501	173.327	80.000	19.993	104.265	19.915	4.664	0.496
188.001	173.607	80.002	19.994	104.267	19.920	4.292	0.472
188.501	173.820	80.002	19.994	104.268	19.924	4.027	0.484
189.001	174.098	80.002	19.992	104.268	19.920	4.270	0.492
189.501	174.375	80.003	19.995	104.269	19.918	4.418	0.523
190.000	174.564	80.003	19.994	104.270	19.920	4.304	0.511
190.500	174.880	80.002	19.993	104.271	19.922	4.147	0.486
191.000	175.055	80.002	19.994	104.270	19.923	4.035	0.498
191.500	175.324	80.003	19.993	104.270	19.916	4.566	0.467
192.000	175.595	80.002	19.992	104.270	19.918	4.402	0.492
192.500	175.797	80.003	19.993	104.269	19.917	4.498	0.506
193.000	176.059	80.003	19.994	104.268	19.913	4.810	0.468
193.501	176.324	80.003	19.993	104.268	19.920	4.284	0.495
194.001	176.584	80.004	19.994	104.267	19.921	4.237	0.527
194.501	176.808	80.003	19.994	104.266	19.919	4.394	0.505
195.001	177.051	80.004	19.996	104.267	19.916	4.548	0.475
195.501	177.291	80.003	19.993	104.266	19.920	4.308	0.475
196.001	177.565	80.002	19.993	104.264	19.918	4.414	0.499
196.501	177.827	80.003	19.993	104.263	19.921	4.211	0.524
197.001	178.056	80.003	19.993	104.262	19.919	4.386	0.513
197.501	178.316	80.004	19.994	104.262	19.923	4.099	0.490
198.001	178.555	80.002	19.993	104.262	19.922	4.133	0.494
198.501	178.775	80.003	19.993	104.265	19.917	4.482	0.479
199.001	179.049	80.004	19.994	104.266	19.919	4.354	0.477
199.501	179.305	80.003	19.993	104.267	19.920	4.276	0.512
200.001	179.557	80.002	19.993	104.267	19.916	4.578	0.519
200.501	179.801	80.002	19.992	104.267	19.923	4.089	0.502
201.000	180.070	80.001	19.994	104.266	19.920	4.251	0.505
201.501	180.318	80.000	19.993	104.266	19.920	4.295	0.515
202.001	180.525	80.002	19.994	104.264	19.920	4.251	0.486
202.501	180.802	80.001	19.995	104.265	19.916	4.586	0.469
203.001	181.033	80.002	19.995	104.265	19.915	4.652	0.496
203.501	181.292	80.001	19.994	104.265	19.917	4.484	0.499
204.000	181.554	80.001	19.993	104.265	19.917	4.468	0.506
204.500	181.783	80.001	19.994	104.266	19.916	4.550	0.506
205.001	182.050	80.002	19.993	104.267	19.919	4.393	0.494
205.501	182.282	80.001	19.992	104.267	19.917	4.481	0.497
206.000	182.527	80.002	19.994	104.267	19.914	4.730	0.488
206.501	182.794	80.001	19.994	104.266	19.915	4.662	0.495
207.001	183.053	80.001	19.993	104.267	19.920	4.297	0.519
207.501	183.300	80.001	19.993	104.266	19.920	4.271	0.516
208.001	183.545	80.001	19.993	104.266	19.916	4.585	0.499
208.501	183.795	80.002	19.993	104.267	19.917	4.485	0.493
209.001	184.009	80.002	19.993	104.267	19.919	4.343	0.480
209.500	184.335	80.000	19.993	104.267	19.917	4.481	0.502
210.000	184.563	80.003	19.994	104.266	19.920	4.279	0.547
210.500	184.817	80.002	19.993	104.267	19.913	4.800	0.518
211.000	185.037	80.001	19.994	104.267	19.918	4.447	0.478
211.500	185.272	80.002	19.992	104.266	19.915	4.658	0.464
212.000	185.576	80.001	19.993	104.264	19.913	4.782	0.497
212.500	185.827	80.003	19.993	104.264	19.918	4.428	0.547
213.000	186.114	80.003	19.993	104.261	19.914	4.714	0.546
213.501	186.279	80.002	19.993	104.261	19.916	4.544	0.495
214.001	186.564	80.003	19.993	104.261	19.915	4.650	0.451
214.501	186.821	80.003	19.993	104.262	19.911	4.970	0.496
215.000	187.057	80.002	19.993	104.263	19.914	4.758	0.517
215.501	187.323	80.004	19.993	104.264	19.905	5.367	0.497
216.001	187.519	80.004	19.993	104.259	19.920	4.263	0.482
216.501	187.789	80.002	19.993	104.256	19.915	4.644	0.464
217.001	188.058	80.005	19.992	104.255	19.918	4.443	0.502
217.501	188.283	80.002	19.993	104.254	19.912	4.866	0.516
218.001	188.552	80.004	19.993	104.250	19.909	5.118	0.494
218.501	188.760	80.005	19.992	104.251	19.909	5.088	0.486
219.001	189.015	80.004	19.992	104.251	19.911	4.906	0.470
219.500	189.253	80.003	19.994	104.252	19.912	4.880	0.478
220.001	189.519	80.005	19.993	104.252	19.913	4.824	0.498
220.501	189.769	80.004	19.994	104.252	19.913	4.830	0.510
221.001	190.044	80.004	19.993	104.254	19.914	4.696	0.520
221.500	190.283	80.005	19.993	104.254	19.908	5.162	0.520
222.001	190.532	80.004	19.993	104.254	19.911	4.960	0.501
222.501	190.776	80.003	19.994	104.255	19.911	4.966	0.490
223.001	191.028	80.003	19.994	104.258	19.908	5.194	0.494
223.501	191.283	80.003	19.994	104.260	19.910	5.028	0.502
224.000	191.509	80.003	19.995	104.259	19.913	4.811	0.495
224.500	191.756	80.004	19.995	104.258	19.907	5.220	0.478
225.001	192.004	80.003	19.994	104.257	19.911	4.932	0.484
225.501	192.245	80.003	19.994	104.254	19.908	5.178	0.492
226.000	192.489	80.003	19.996	104.253	19.908	5.166	0.487
226.500	192.735	80.004	19.996	104.254	19.912	4.900	0.487
227.000	192.977	80.002	19.994	104.252	19.908	5.167	0.489
227.500	193.179	80.004	19.995	104.252	19.906	5.309	0.466
228.000	193.482	80.000	19.995	104.253	19.907	5.257	0.475
228.500	193.717	80.002	19.995	104.253	19.905	5.399	0.522
229.000	193.954	80.001	19.994	104.256	19.912	4.856	0.505
229.500	194.224	80.000	19.992	104.256	19.903	5.541	0.489
230.000	194.460	80.003	19.996	104.255	19.908	5.194	0.506
230.500	194.751	80.003	19.994	104.254	19.901	5.691	0.516
231.000	194.989	80.003	19.995	104.254	19.904	5.427	0.528
231.500	195.210	80.000	19.993	104.252	19.907	5.248	0.495
232.000	195.433	80.001	19.993	104.250	19.906	5.337	0.452
232.501	195.699	80.001	19.995	104.251	19.902	5.567	0.466
233.001	195.931	80.002	19.995	104.251	19.904	5.473	0.493
233.501	196.168	80.000	19.994	104.251	19.903	5.551	0.483
234.001	196.443	80.002	19.995	104.249	19.907	5.237	0.491
234.501	196.663	80.000	19.994	104.249	19.903	5.564	0.503
235.001	196.902	80.001	19.995	104.244	19.902	5.569	0.477
235.501	197.155	80.002	19.995	104.245	19.900	5.714	0.476
236.001	197.425	80.001	19.994	104.247	19.897	5.932	0.508
236.501	197.675	80.001	19.994	104.250	19.900	5.771	0.521
237.001	197.934	80.001	19.994	104.254	19.897	5.979	0.514
237.500	198.139	80.002	19.994	104.260	19.901	5.700	0.487
238.000	198.427	80.001	19.995	104.262	19.897	5.940	0.478
238.500	198.643	80.001	19.994	104.259	19.902	5.568	0.498
239.000	198.907	80.003	19.995	104.258	19.899	5.788	0.492
239.500	199.139	80.001	19.994	104.254	19.895	6.117	0.488
240.000	199.403	80.003	19.993	104.248	19.901	5.680	0.496
240.500	199.648	80.003	19.995	104.246	19.898	5.869	0.503
241.000	199.906	80.003	19.994	104.247	19.898	5.893	0.506
241.500	200.155	80.001	19.993	104.247	19.899	5.807	0.504
242.000	200.411	80.000	19.994	104.247	19.898	5.895	0.506
242.500	200.631	80.000	19.993	104.251	19.900	5.775	0.491
243.001	200.861	80.003	19.995	104.252	19.893	6.230	0.463
243.501	201.142	80.001	19.994	104.253	19.897	5.966	0.480
244.001	201.386	80.002	19.995	104.254	19.893	6.272	0.518
244.500	201.636	80.001	19.994	104.257	19.894	6.156	0.509
245.000	201.893	80.003	19.996	104.259	19.890	6.496	0.500
245.500	202.110	80.003	19.995	104.261	19.893	6.242	0.490
246.000	202.395	80.001	19.995	104.260	19.892	6.306	0.488
246.500	202.632	80.001	19.995	104.258	19.892	6.354	0.512
247.000	202.851	80.002	19.995	104.252	19.892	6.342	0.489
247.501	203.110	80.001	19.993	104.247	19.889	6.568	0.467
248.001	203.379	80.002	19.994	104.242	19.892	6.329	0.503
248.500	203.625	80.003	19.994	104.236	19.892	6.296	0.521
249.000	203.864	80.002	19.994	104.232	19.888	6.629	0.500
249.500	204.106	80.002	19.994	104.235	19.887	6.683	0.483
250.000	204.384	80.002	19.994	104.236	19.889	6.581	0.500
250.501	204.629	80.002	19.994	104.235	19.887	6.665	0.521
251.001	204.871	80.002	19.992	104.238	19.886	6.781	0.505
251.501	205.081	80.001	19.994	104.241	19.891	6.409	0.470
252.001	205.382	80.003	19.993	104.238	19.887	6.679	0.481
252.501	205.603	80.002	19.994	104.239	19.889	6.547	0.516
253.001	205.891	80.000	19.994	104.245	19.884	6.931	0.516
253.501	206.123	80.000	19.993	104.251	19.880	7.176	0.515
254.001	206.349	80.001	19.995	104.250	19.882	7.038	0.489
254.501	206.628	80.001	19.995	104.252	19.881	7.146	0.482
255.001	206.858	80.000	19.995	104.252	19.883	7.000	0.507
255.501	207.148	79.999	19.993	104.251	19.880	7.236	0.514
256.000	207.384	80.000	19.995	104.249	19.885	6.833	0.522
256.501	207.607	80.001	19.995	104.252	19.877	7.410	0.492
257.001	207.850	80.000	19.995	104.252	19.878	7.385	0.463
257.501	208.141	80.000	19.994	104.248	19.878	7.347	0.500
258.001	208.365	80.000	19.994	104.243	19.876	7.524	0.524
258.501	208.585	80.000	19.994	104.239	19.876	7.482	0.480
259.000	208.825	80.001	19.994	104.238	19.880	7.219	0.452
259.500	209.091	80.000	19.995	104.243	19.874	7.670	0.483
260.000	209.320	80.001	19.996	104.248	19.873	7.718	0.501
260.500	209.575	80.000	19.996	104.252	19.873	7.730	0.489
261.000	209.846	80.000	19.995	104.256	19.871	7.843	0.505
261.500	210.073	80.001	19.996	104.257	19.874	7.654	0.512
262.000	210.364	80.000	19.995	104.257	19.872	7.786	0.508
262.500	210.583	79.999	19.994	104.257	19.873	7.716	0.514
263.000	210.828	80.001	19.995	104.257	19.869	7.983	0.487
263.500	211.081	80.000	19.994	104.254	19.871	7.867	0.481
264.000	211.305	80.001	19.994	104.254	19.868	8.097	0.487
264.501	211.577	80.000	19.995	104.254	19.865	8.270	0.486
265.000	211.819	80.000	19.995	104.254	19.866	8.202	0.505
265.500	212.071	80.001	19.996	104.258	19.864	8.364	0.504
266.000	212.316	80.001	19.994	104.263	19.862	8.559	0.495
266.500	212.559	80.002	19.995	104.259	19.866	8.236	0.492
267.000	212.795	80.002	19.994	104.252	19.863	8.476	0.484
267.500	213.057	79.999	19.993	104.246	19.862	8.532	0.489
268.000	213.293	80.001	19.995	104.241	19.860	8.634	0.498
268.501	213.543	79.999	19.994	104.242	19.862	8.560	0.492
269.000	213.814	80.001	19.994	104.243	19.860	8.642	0.503
269.500	214.060	80.000	19.994	104.246	19.858	8.830	0.519
270.001	214.319	80.000	19.994	104.249	19.860	8.690	0.511
270.501	214.552	80.002	19.994	104.251	19.860	8.696	0.498
271.001	214.804	80.001	19.993	104.249	19.858	8.844	0.489
271.501	215.059	80.003	19.994	104.251	19.851	9.335	0.496
272.001	215.333	80.001	19.993	104.250	19.857	8.921	0.518
272.501	215.571	80.002	19.993	104.250	19.856	8.969	0.520
273.001	215.787	80.003	19.993	104.250	19.851	9.337	0.483
273.501	216.036	80.003	19.994	104.245	19.853	9.175	0.460
274.001	216.290	80.003	19.993	104.247	19.855	9.015	0.485
274.501	216.538	80.003	19.993	104.253	19.849	9.466	0.503
275.001	216.756	80.002	19.993	104.256	19.850	9.434	0.484
275.501	217.063	80.004	19.994	104.256	19.846	9.658	0.495
276.000	217.265	80.003	19.993	104.260	19.846	9.671	0.517
276.500	217.497	80.002	19.994	104.261	19.844	9.813	0.472
277.000	217.776	80.003	19.993	104.261	19.842	9.969	0.473
277.501	218.027	80.003	19.993	104.256	19.842	9.994	0.521
278.001	218.274	80.002	19.993	104.253	19.843	9.927	0.514
278.501	218.506	80.002	19.992	104.252	19.843	9.921	0.488
279.001	218.738	80.003	19.993	104.252	19.840	10.147	0.471
279.500	219.009	80.001	19.993	104.251	19.839	10.185	0.484
280.000	219.244	80.002	19.993	104.251	19.840	10.129	0.505
280.501	219.511	80.003	19.993	104.250	19.837	10.385	0.504
281.001	219.768	80.002	19.992	104.250	19.837	10.379	0.513
281.501	220.009	80.003	19.995	104.250	19.836	10.458	0.511
282.001	220.281	80.002	19.994	104.247	19.836	10.434	0.506
282.501	220.517	80.002	19.993	104.249	19.837	10.328	0.511
283.001	220.752	80.002	19.994	104.254	19.831	10.778	0.489
283.501	220.973	80.003	19.992	104.254	19.830	10.863	0.464
284.001	221.211	80.000	19.993	104.255	19.827	11.061	0.458
284.501	221.485	80.002	19.995	104.256	19.827	11.057	0.486
285.001	221.703	80.002	19.994	104.259	19.828	11.009	0.502
285.501	221.989	80.001	19.994	104.259	19.823	11.362	0.498
286.000	222.221	80.000	19.994	104.258	19.825	11.213	0.511
286.500	222.475	80.002	19.996	104.259	19.827	11.055	0.502
287.000	222.726	80.003	19.993	104.261	19.819	11.678	0.496
287.500	222.965	80.003	19.995	104.263	19.823	11.376	0.497
288.000	223.260	80.003	19.995	104.265	19.823	11.358	0.511
288.500	223.477	80.001	19.992	104.266	19.818	11.760	0.523
289.000	223.688	80.002	19.993	104.266	19.815	11.990	0.470
289.500	223.925	80.002	19.995	104.262	19.821	11.554	0.438
290.000	224.230	80.002	19.993	104.259	19.815	11.924	0.495
290.500	224.460	80.002	19.994	104.256	19.817	11.786	0.539
291.001	224.716	80.002	19.994	104.257	19.812	12.151	0.511
291.501	224.977	80.002	19.993	104.258	19.810	12.308	0.502
292.001	225.243	80.003	19.994	104.258	19.807	12.512	0.522
292.500	225.445	80.003	19.995	104.259	19.809	12.422	0.497
293.000	225.651	80.002	19.994	104.260	19.809	12.412	0.438
293.500	225.971	80.002	19.993	104.260	19.805	12.680	0.467
294.000	226.250	80.002	19.994	104.261	19.808	12.455	0.563
294.501	226.457	80.002	19.994	104.263	19.802	12.944	0.543
295.001	226.722	80.002	19.993	104.264	19.799	13.154	0.479
295.500	226.971	80.003	19.993	104.264	19.803	12.852	0.493
296.000	227.204	80.003	19.994	104.263	19.795	13.403	0.498
296.501	227.440	80.001	19.994	104.263	19.800	13.042	0.475
297.000	227.674	80.002	19.993	104.262	19.794	13.505	0.470
297.500	227.939	80.002	19.993	104.262	19.795	13.453	0.485
298.001	228.204	80.004	19.993	104.262	19.797	13.247	0.515
298.501	228.438	80.003	19.993	104.263	19.795	13.453	0.515
299.000	228.718	80.004	19.994	104.262	19.788	13.926	0.506
299.500	228.962	80.003	19.993	104.263	19.790	13.762	0.519
300.001	229.196	80.003	19.993	104.260	19.785	14.132	0.501
300.500	229.461	80.005	19.993	104.261	19.785	14.137	0.489
301.000	229.698	80.004	19.993	104.261	19.780	14.483	0.500
301.500	229.961	80.003	19.993	104.261	19.780	14.491	0.501
302.000	230.208	80.004	19.993	104.261	19.774	14.932	0.505
302.501	230.439	80.004	19.994	104.266	19.776	14.802	0.494
303.000	230.718	80.004	19.995	104.266	19.772	15.083	0.494
303.500	230.957	80.005	19.995	104.266	19.776	14.833	0.514
304.000	231.200	80.002	19.994	104.266	19.771	15.169	0.500
304.500	231.450	80.002	19.994	104.264	19.770	15.272	0.488
305.000	231.693	80.004	19.994	104.262	19.768	15.417	0.494
305.500	231.964	80.005	19.993	104.261	19.760	15.951	0.504
306.001	232.190	80.004	19.993	104.261	19.766	15.550	0.505
306.501	232.409	80.004	19.994	104.260	19.763	15.775	0.471
307.001	232.718	80.004	19.994	104.262	19.762	15.867	0.487
307.501	232.951	80.001	19.994	104.263	19.762	15.851	0.535
308.001	233.208	80.002	19.994	104.262	19.762	15.858	0.516
308.501	233.444	80.003	19.994	104.262	19.756	16.263	0.492
309.001	233.704	80.002	19.993	104.263	19.755	16.376	0.495
309.501	233.979	80.003	19.993	104.262	19.750	16.706	0.516
310.001	234.186	80.004	19.994	104.263	19.751	16.672	0.508
310.501	234.458	80.003	19.993	104.263	19.749	16.776	0.480
311.000	234.689	80.002	19.993	104.263	19.745	17.082	0.491
311.500	234.904	80.002	19.993	104.264	19.744	17.126	0.475
312.001	235.189	80.002	19.993	104.265	19.742	17.323	0.473
312.501	235.440	80.002	19.994	104.265	19.738	17.567	0.518
313.001	235.679	80.001	19.993	104.265	19.743	17.227	0.513
313.501	235.896	80.002	19.995	104.265	19.735	17.791	0.473
314.001	236.161	80.002	19.993	104.269	19.733	17.930	0.469
314.501	236.397	80.001	19.993	104.271	19.731	18.106	0.491
315.001	236.647	80.003	19.994	104.271	19.728	18.290	0.493
315.501	236.863	80.000	19.993	104.274	19.725	18.529	0.476
316.001	237.124	80.001	19.993	104.276	19.726	18.465	0.471
316.500	237.374	80.000	19.994	104.272	19.723	18.713	0.494
317.000	237.642	80.001	19.994	104.272	19.718	19.024	0.514
317.500	237.845	80.001	19.994	104.274	19.721	18.858	0.495
318.000	238.119	80.001	19.993	104.274	19.716	19.238	0.474
318.501	238.320	80.001	19.993	104.274	19.716	19.223	0.476
319.001	238.597	80.001	19.994	104.279	19.711	19.598	0.476
319.501	238.819	80.001	19.994	104.283	19.708	19.804	0.488
320.001	239.093	80.002	19.994	104.284	19.708	19.779	0.497
320.501	239.317	80.003	19.994	104.282	19.706	19.938	0.497
321.001	239.566	80.001	19.995	104.280	19.707	19.874	0.485
321.500	239.806	80.001	19.995	104.282	19.701	20.329	0.481
322.000	240.052	80.001	19.994	104.280	19.701	20.287	0.488
322.501	240.319	80.001	19.994	104.279	19.694	20.825	0.500
323.000	240.567	80.001	19.995	104.284	19.690	21.114	0.514
323.500	240.788	80.001	19.994	104.290	19.687	21.298	0.492
324.001	241.040	80.001	19.994	104.292	19.689	21.207	0.471
324.501	241.265	80.001	19.993	104.290	19.684	21.530	0.475
325.000	241.492	80.002	19.994	104.290	19.682	21.664	0.465
325.500	241.773	80.001	19.993	104.289	19.678	21.968	0.480
326.000	242.009	80.002	19.995	104.290	19.677	22.057	0.513
326.500	242.240	80.001	19.994	104.289	19.675	22.191	0.492
327.001	242.535	80.001	19.995	104.293	19.674	22.296	0.496
327.501	242.734	80.000	19.994	104.299	19.673	22.386	0.510
328.001	243.002	80.001	19.995	104.302	19.664	23.005	0.480
328.500	243.202	80.001	19.995	104.302	19.670	22.534	0.468
329.000	243.444	80.001	19.994	104.297	19.664	23.019	0.455
329.500	243.723	80.001	19.994	104.296	19.661	23.202	0.481
330.000	243.934	80.000	19.995	104.294	19.656	23.586	0.505
330.501	244.200	80.002	19.994	104.293	19.654	23.765	0.484
331.000	244.480	80.002	19.993	104.290	19.652	23.897	0.512
331.500	244.705	80.001	19.993	104.294	19.651	23.963	0.526
332.000	244.949	80.001	19.994	104.295	19.647	24.272	0.487
332.500	245.164	80.001	19.994	104.294	19.644	24.468	0.464
333.000	245.442	80.001	19.994	104.294	19.642	24.593	0.476
333.501	245.673	80.002	19.995	104.298	19.642	24.651	0.501
334.001	245.910	80.001	19.993	104.299	19.632	25.375	0.489
334.501	246.169	80.001	19.994	104.300	19.630	25.519	0.482
335.001	246.410	80.002	19.995	104.302	19.632	25.382	0.498
335.501	246.679	80.001	19.994	104.303	19.626	25.805	0.505
336.001	246.925	80.001	19.994	104.303	19.623	26.013	0.513
336.500	247.130	80.001	19.993	104.303	19.618	26.356	0.483
337.000	247.421	80.002	19.993	104.305	19.618	26.398	0.473
337.501	247.640	80.001	19.994	104.305	19.613	26.767	0.503
338.001	247.866	80.001	19.994	104.305	19.608	27.119	0.478
338.501	248.133	80.002	19.993	104.306	19.609	27.031	0.469
339.001	248.372	80.001	19.994	104.306	19.604	27.364	0.499
339.501	248.599	80.002	19.993	104.306	19.601	27.653	0.486
340.001	248.844	80.001	19.994	104.306	19.600	27.709	0.469
340.501	249.111	80.001	19.992	104.306	19.596	27.988	0.492
341.001	249.363	80.001	19.994	104.306	19.594	28.119	0.515
341.501	249.603	80.000	19.993	104.306	19.585	28.807	0.505
342.001	249.879	79.999	19.992	104.305	19.585	28.770	0.504
342.500	250.160	80.000	19.993	104.305	19.583	28.960	0.537
343.000	250.410	80.000	19.993	104.305	19.577	29.400	0.544
343.501	250.639	80.000	19.993	104.306	19.570	29.875	0.504
344.001	250.869	80.000	19.993	104.306	19.569	29.935	0.469
344.500	251.138	80.000	19.996	104.307	19.565	30.262	0.479
345.000	251.373	80.001	19.996	104.307	19.558	30.747	0.502
345.500	251.601	80.001	19.996	104.307	19.557	30.833	0.484
346.000	251.869	80.002	19.995	104.305	19.552	31.182	0.480
346.500	252.120	80.002	19.995	104.305	19.552	31.233	0.508
347.001	252.348	80.001	19.994	104.304	19.546	31.640	0.499
347.501	252.627	80.001	19.995	104.304	19.543	31.873	0.493
348.001	252.852	80.001	19.993	104.306	19.537	32.331	0.505
348.501	253.095	80.001	19.994	104.311	19.533	32.571	0.486
349.000	253.353	80.000	19.995	104.317	19.533	32.609	0.485
349.500	253.566	80.001	19.994	104.318	19.528	32.942	0.486
350.000	253.833	80.000	19.994	104.318	19.524	33.271	0.475
350.500	254.049	80.002	19.995	104.315	19.519	33.592	0.481
351.001	254.318	80.000	19.994	104.312	19.513	34.067	0.484
351.500	254.570	80.001	19.994	104.306	19.512	34.168	0.503
352.000	254.830	80.000	19.995	104.308	19.509	34.356	0.517
352.501	255.061	80.001	19.994	104.310	19.502	34.860	0.502
353.001	255.316	80.002	19.995	104.314	19.495	35.349	0.489
353.501	255.576	80.001	19.994	104.315	19.493	35.552	0.500
354.000	255.794	80.002	19.995	104.318	19.488	35.911	0.496
354.500	256.029	80.001	19.994	104.318	19.485	36.128	0.466
355.000	256.325	80.002	19.995	104.322	19.479	36.546	0.493
355.500	256.565	80.002	19.995	104.325	19.470	37.207	0.534
356.000	256.814	80.002	19.995	104.329	19.470	37.195	0.512
356.500	257.037	80.001	19.995	104.332	19.466	37.499	0.480
357.001	257.287	80.003	19.994	104.336	19.461	37.871	0.472
357.501	257.529	80.002	19.994	104.334	19.453	38.473	0.483
358.000	257.799	80.002	19.993	104.335	19.450	38.670	0.501
358.500	258.043	80.003	19.994	104.335	19.446	38.947	0.513
359.000	258.264	80.003	19.995	104.337	19.442	39.288	0.490
359.500	258.511	80.002	19.995	104.335	19.437	39.665	0.467
360.000	258.774	80.002	19.995	104.336	19.429	40.185	0.489
360.500	259.035	80.002	19.993	104.336	19.427	40.341	0.517
361.000	259.294	80.003	19.993	104.337	19.418	41.030	0.522
361.501	259.508	80.003	19.995	104.337	19.413	41.424	0.497
362.000	259.739	80.002	19.994	104.338	19.408	41.733	0.459
362.500	259.999	80.004	19.994	104.340	19.403	42.158	0.468
363.001	260.260	80.002	19.994	104.339	19.400	42.357	0.506
363.500	260.491	80.003	19.995	104.340	19.392	42.967	0.506
364.000	260.766	80.003	19.995	104.340	19.388	43.208	0.498
364.500	260.990	80.003	19.995	104.340	19.383	43.554	0.502
365.000	261.239	80.003	19.994	104.340	19.376	44.106	0.486
365.501	261.482	80.003	19.994	104.342	19.369	44.650	0.483
366.001	261.754	80.003	19.995	104.344	19.364	44.988	0.504
366.500	261.980	80.002	19.993	104.350	19.359	45.368	0.506
367.000	262.247	80.003	19.995	104.355	19.355	45.660	0.495
367.500	262.484	80.004	19.993	104.358	19.355	45.668	0.499
368.001	262.750	80.003	19.994	104.362	19.344	46.434	0.503
368.501	262.988	80.003	19.994	104.362	19.337	46.977	0.504
369.001	263.239	80.003	19.993	104.364	19.328	47.632	0.497
369.500	263.497	80.003	19.993	104.365	19.321	48.156	0.499
370.000	263.752	80.004	19.994	104.369	19.323	47.984	0.511
370.500	264.025	80.002	19.994	104.371	19.308	49.095	0.521
371.000	264.234	80.002	19.993	104.376	19.310	48.915	0.505
371.500	264.472	80.003	19.995	104.376	19.293	50.168	0.464
372.000	264.729	80.002	19.994	104.377	19.286	50.733	0.471
372.500	265.016	80.002	19.994	104.379	19.278	51.319	0.520
373.000	265.221	80.003	19.993	104.381	19.267	52.114	0.518
373.500	265.505	80.002	19.993	104.381	19.262	52.473	0.490
374.000	265.752	80.002	19.993	104.381	19.256	52.872	0.509
374.500	266.028	80.003	19.995	104.382	19.244	53.818	0.527
375.000	266.240	80.004	19.994	104.381	19.238	54.249	0.506
375.500	266.502	80.002	19.993	104.381	19.232	54.665	0.481
376.000	266.786	80.002	19.995	104.381	19.223	55.323	0.509
376.500	267.011	80.002	19.993	104.386	19.211	56.202	0.527
377.000	267.289	80.002	19.993	104.388	19.209	56.355	0.506
377.501	267.556	80.003	19.994	104.391	19.197	57.246	0.524
378.001	267.750	80.002	19.994	104.393	19.190	57.750	0.503
378.500	268.074	80.003	19.994	104.394	19.182	58.357	0.490
379.000	268.270	80.003	19.993	104.392	19.172	59.032	0.519
379.500	268.496	80.004	19.993	104.392	19.161	59.853	0.471
380.000	268.770	80.004	19.992	104.395	19.153	60.494	0.461
380.501	269.039	80.003	19.994	104.399	19.141	61.318	0.522
381.000	269.230	80.003	19.994	104.405	19.131	62.087	0.501
381.500	269.501	80.003	19.996	104.409	19.119	62.993	0.461
382.000	269.788	80.003	19.994	104.413	19.109	63.654	0.510
382.500	270.027	80.003	19.994	104.415	19.100	64.341	0.542
383.000	270.293	80.004	19.993	104.418	19.086	65.355	0.515
383.500	270.538	80.004	19.992	104.419	19.078	65.966	0.508
384.001	270.793	80.005	19.993	104.420	19.064	67.002	0.505
384.501	271.054	80.003	19.993	104.423	19.047	68.270	0.508
385.001	271.279	80.005	19.994	104.423	19.036	69.049	0.502
385.501	271.568	80.004	19.992	104.424	19.026	69.762	0.500
386.001	271.823	80.004	19.994	104.424	19.011	70.878	0.529
386.500	272.039	80.004	19.993	104.425	18.996	71.979	0.507
387.000	272.313	80.004	19.992	104.425	18.981	73.097	0.481
387.500	272.705	80.004	19.992	104.425	18.971	73.773	0.578
388.000	272.826	80.004	19.992	104.426	18.956	74.909	0.590
388.501	273.075	80.004	19.991	104.433	18.942	75.929	0.442
389.000	273.311	80.004	19.993	104.438	18.927	77.071	0.428
389.500	273.548	80.004	19.994	104.442	18.913	78.055	0.479
390.000	273.872	80.005	19.995	104.448	18.896	79.324	0.517
390.500	274.053	80.004	19.992	104.452	18.884	80.223	0.533
391.000	274.368	80.003	19.993	104.452	18.869	81.288	0.500
391.501	274.614	80.004	19.993	104.455	18.854	82.420	0.528
392.000	274.854	80.003	19.993	104.458	18.839	83.526	0.523
392.500	275.123	80.003	19.995	104.459	18.827	84.403	0.498
393.000	275.346	80.004	19.993	104.460	18.809	85.716	0.500
393.500	275.601	80.002	19.992	104.462	18.792	86.935	0.485
394.000	275.860	80.003	19.993	104.462	18.779	87.883	0.496
394.500	276.093	80.003	19.993	104.463	18.759	89.350	0.503
395.000	276.350	80.001	19.993	104.463	18.748	90.196	0.491
395.500	276.593	80.002	19.993	104.465	18.734	91.191	0.495
396.000	276.820	80.001	19.993	104.468	18.718	92.354	0.485
396.500	277.078	80.001	19.992	104.469	18.703	93.454	0.477
397.000	277.307	80.002	19.992	104.473	18.688	94.597	0.485
397.500	277.581	80.001	19.993	104.476	18.675	95.527	0.494
398.001	277.827	80.002	19.994	104.475	18.658	96.761	0.512
398.501	278.087	80.001	19.992	104.477	18.647	97.555	0.514
399.001	278.334	80.002	19.994	104.483	18.630	98.822	0.506
399.501	278.577	80.002	19.994	104.486	18.616	99.826	0.498
400.001	278.827	80.002	19.993	104.490	18.606	100.590	0.491
400.501	279.096	80.003	19.993	104.496	18.590	101.742	0.506
401.000	279.302	80.003	19.993	104.499	18.580	102.452	0.498
401.500	279.534	80.003	19.992	104.501	18.567	103.432	0.457
402.000	279.826	80.002	19.993	104.502	18.557	104.166	0.481
402.500	280.063	80.002	19.994	104.502	18.543	105.190	0.526
403.000	280.260	80.001	19.994	104.503	18.536	105.696	0.481
403.500	280.579	80.002	19.993	104.503	18.527	106.359	0.475
404.000	280.808	80.001	19.994	104.503	18.515	107.172	0.532
404.500	281.050	80.002	19.995	104.502	18.508	107.707	0.510
405.000	281.318	80.002	19.994	104.502	18.499	108.328	0.490
405.501	281.556	80.001	19.993	104.502	18.489	109.080	0.507
406.001	281.788	80.002	19.993	104.502	18.486	109.315	0.488
406.501	282.073	80.002	19.994	104.503	18.476	110.035	0.494
407.001	282.307	80.001	19.993	104.504	18.475	110.082	0.518
407.501	282.544	80.001	19.993	104.506	18.471	110.363	0.495
408.001	282.822	80.002	19.997	104.506	18.470	110.488	0.493
408.501	283.084	80.001	19.995	104.506	18.467	110.685	0.527
409.000	283.299	80.002	19.995	104.505	18.465	110.823	0.509
409.500	283.598	80.002	19.995	104.504	18.465	110.833	0.496
410.001	283.819	80.001	19.994	104.502	18.466	110.712	0.517
410.501	284.083	80.002	19.993	104.502	18.469	110.545	0.502
411.000	284.328	80.002	19.994	104.499	18.470	110.419	0.497
411.500	284.545	80.003	19.993	104.498	18.479	109.831	0.486
412.000	284.805	80.002	19.993	104.497	18.485	109.399	0.470
412.500	285.062	80.002	19.993	104.495	18.495	108.686	0.497
413.000	285.318	80.002	19.994	104.492	18.506	107.870	0.515
413.500	285.541	80.001	19.994	104.486	18.520	106.838	0.496
414.000	285.814	80.002	19.993	104.477	18.531	106.013	0.487
414.500	286.040	80.001	19.993	104.469	18.547	104.854	0.498
415.000	286.321	80.001	19.994	104.461	18.563	103.671	0.504
415.501	286.536	80.002	19.993	104.451	18.587	101.922	0.501
416.000	286.828	80.002	19.992	104.449	18.607	100.496	0.501
416.500	287.083	80.002	19.994	104.445	18.631	98.734	0.526
417.000	287.340	80.002	19.994	104.437	18.657	96.781	0.529
417.501	287.554	80.002	19.994	104.431	18.680	95.076	0.492
418.000	287.792	80.002	19.994	104.430	18.701	93.586	0.462
418.500	288.053	80.002	19.996	104.428	18.731	91.345	0.476
419.000	288.294	80.002	19.995	104.429	18.758	89.364	0.501
419.501	288.520	80.002	19.994	104.429	18.785	87.401	0.485
420.001	288.848	80.002	19.994	104.428	18.813	85.305	0.510
420.500	289.075	80.001	19.994	104.427	18.836	83.654	0.555
421.000	289.340	80.001	19.993	104.422	18.859	81.922	0.524
421.500	289.564	80.002	19.993	104.420	18.885	80.069	0.491
422.001	289.799	80.002	19.994	104.426	18.907	78.437	0.474
422.500	290.067	80.001	19.995	104.433	18.930	76.723	0.481
423.000	290.338	80.002	19.995	104.441	18.951	75.192	0.521
423.501	290.530	80.002	19.996	104.451	18.973	73.564	0.501
424.001	290.848	80.000	19.994	104.465	18.991	72.224	0.487
424.501	291.090	80.002	19.995	104.474	19.015	70.490	0.535
425.001	291.385	80.002	19.994	104.480	19.028	69.558	0.548
425.501	291.622	80.001	19.994	104.483	19.047	68.193	0.534
426.001	291.864	80.002	19.994	104.481	19.067	66.685	0.506
426.500	292.131	80.001	19.993	104.479	19.082	65.635	0.494
427.000	292.400	80.002	19.994	104.472	19.098	64.442	0.522
427.500	292.630	80.002	19.995	104.464	19.115	63.220	0.517
428.001	292.840	80.001	19.994	104.460	19.130	62.089	0.470
428.501	293.111	80.003	19.994	104.455	19.138	61.511	0.461
429.001	293.369	80.002	19.995	104.444	19.155	60.279	0.505
429.501	293.619	80.001	19.995	104.436	19.170	59.210	0.518
430.000	293.817	80.002	19.994	104.428	19.177	58.634	0.478
430.500	294.126	80.001	19.994	104.421	19.191	57.647	0.478
431.000	294.373	80.001	19.993	104.409	19.203	56.742	0.531
431.500	294.641	80.001	19.995	104.400	19.217	55.747	0.535
432.000	294.828	80.002	19.994	104.389	19.225	55.122	0.485
432.500	295.107	80.002	19.994	104.379	19.233	54.555	0.460
433.000	295.366	80.002	19.994	104.369	19.243	53.838	0.502
433.500	295.615	80.002	19.994	104.362	19.250	53.296	0.524
434.000	295.862	80.001	19.995	104.357	19.256	52.857	0.502
434.501	296.108	80.003	19.995	104.356	19.263	52.357	0.495
435.001	296.357	80.002	19.995	104.355	19.268	51.933	0.494
435.500	296.617	80.003	19.994	104.352	19.274	51.553	0.501
436.000	296.831	80.002	19.994	104.357	19.274	51.519	0.491
436.500	297.130	80.002	19.995	104.363	19.275	51.447	0.494
437.000	297.358	80.003	19.994	104.366	19.275	51.445	0.520
437.500	297.626	80.003	19.994	104.371	19.275	51.430	0.512
438.000	297.868	80.003	19.996	104.378	19.274	51.511	0.503
438.500	298.142	80.003	19.994	104.379	19.275	51.411	0.513
439.001	298.375	80.003	19.994	104.380	19.272	51.695	0.512
439.501	298.642	80.003	19.993	104.380	19.269	51.891	0.504
440.001	298.932	80.004	19.995	104.386	19.269	51.915	0.529
440.500	299.182	80.002	19.994	104.387	19.267	52.066	0.548
441.000	299.424	80.004	19.994	104.386	19.266	52.142	0.516
441.500	299.688	80.003	19.993	104.384	19.266	52.149	0.499
442.000	299.959	80.003	19.995	104.376	19.261	52.480	0.521
442.501	300.190	80.004	19.994	104.362	19.262	52.407	0.518
443.001	300.472	80.002	19.994	104.348	19.263	52.355	0.508
443.500	300.719	80.003	19.995	104.333	19.264	52.258	0.521
444.000	301.009	80.002	19.993	104.318	19.267	52.040	0.533
444.500	301.221	80.003	19.994	104.311	19.272	51.701	0.519
445.000	301.523	80.003	19.995	104.302	19.273	51.584	0.508
445.500	301.806	80.004	19.995	104.293	19.274	51.533	0.549
446.000	302.032	80.004	19.994	104.286	19.278	51.237	0.547
446.500	302.300	80.002	19.995	104.284	19.284	50.779	0.502
447.000	302.528	80.003	19.995	104.279	19.288	50.477	0.495
447.500	302.812	80.002	19.996	104.276	19.294	50.095	0.504
448.000	303.064	80.002	19.995	104.276	19.300	49.630	0.524
448.501	303.353	80.004	19.994	104.281	19.301	49.524	0.539
449.000	303.579	80.002	19.995	104.283	19.308	49.020	0.528
449.500	303.838	80.003	19.995	104.288	19.310	48.905	0.500
450.001	304.098	80.002	19.993	104.295	19.323	47.981	0.502
450.501	304.369	80.002	19.995	104.302	19.324	47.844	0.525
451.001	304.639	80.002	19.994	104.307	19.332	47.312	0.536
451.501	304.892	80.003	19.994	104.312	19.337	46.950	0.532
452.001	305.153	80.003	19.994	104.319	19.349	46.068	0.519
452.501	305.427	80.002	19.994	104.321	19.353	45.725	0.525
453.001	305.713	80.001	19.995	104.321	19.364	44.956	0.548
453.501	305.954	80.002	19.995	104.321	19.365	44.874	0.544
454.001	306.237	80.001	19.994	104.317	19.375	44.147	0.525
454.501	306.483	80.003	19.993	104.310	19.382	43.612	0.526
455.000	306.741	80.002	19.996	104.306	19.393	42.853	0.516
455.500	307.007	80.002	19.994	104.307	19.400	42.350	0.514
456.000	307.263	80.002	19.997	104.306	19.406	41.858	0.522
456.500	307.516	80.001	19.994	104.307	19.417	41.054	0.515
457.000	307.805	80.003	19.994	104.309	19.423	40.653	0.526
457.500	308.071	80.003	19.994	104.310	19.429	40.189	0.549
458.000	308.344	80.003	19.995	104.309	19.441	39.332	0.547
458.500	308.592	80.003	19.995	104.309	19.443	39.117	0.530
459.000	308.870	80.004	19.995	104.309	19.455	38.311	0.523
459.500	309.089	80.002	19.993	104.307	19.456	38.217	0.511
460.000	309.375	80.003	19.994	104.308	19.461	37.864	0.501
460.500	309.646	80.003	19.994	104.308	19.472	37.028	0.531
461.001	309.890	80.004	19.993	104.308	19.477	36.637	0.536
461.500	310.153	80.003	19.994	104.306	19.482	36.279	0.511
462.000	310.375	80.004	19.993	104.304	19.488	35.872	0.496
462.500	310.661	80.002	19.993	104.301	19.492	35.567	0.496
463.000	310.943	80.004	19.992	104.301	19.495	35.343	0.538
463.501	311.182	80.003	19.993	104.300	19.502	34.836	0.545
464.000	311.478	80.002	19.993	104.300	19.507	34.474	0.528
464.500	311.713	80.004	19.995	104.301	19.513	34.037	0.533
465.000	311.974	80.003	19.995	104.304	19.521	33.473	0.513
465.500	312.243	80.003	19.994	104.304	19.520	33.505	0.513
466.001	312.509	80.004	19.994	104.304	19.523	33.274	0.533
466.501	312.770	80.004	19.995	104.304	19.528	32.965	0.531
467.001	313.014	80.004	19.995	104.303	19.536	32.350	0.516
467.501	313.295	80.004	19.993	104.296	19.542	31.950	0.515
468.001	313.573	80.005	19.994	104.285	19.545	31.715	0.542
468.501	313.791	80.004	19.993	104.277	19.551	31.272	0.528
469.000	314.062	80.005	19.993	104.270	19.552	31.219	0.493
469.500	314.323	80.004	19.992	104.263	19.560	30.621	0.511
470.000	314.607	80.004	19.992	104.259	19.562	30.478	0.538
470.500	314.872	80.004	19.993	104.260	19.566	30.184	0.547
471.000	315.123	80.004	19.993	104.259	19.572	29.716	0.533
471.500	315.395	80.005	19.993	104.257	19.573	29.611	0.519
472.000	315.642	80.004	19.992	104.257	19.576	29.451	0.521
472.500	315.885	80.006	19.993	104.259	19.584	28.847	0.505
473.000	316.130	80.005	19.992	104.256	19.583	28.932	0.489
473.500	316.369	80.004	19.994	104.254	19.588	28.572	0.486
474.000	316.662	80.004	19.993	104.256	19.594	28.099	0.508
474.500	316.877	80.003	19.993	104.256	19.597	27.922	0.520
475.000	317.146	80.002	19.993	104.258	19.600	27.671	0.496
475.500	317.383	80.004	19.993	104.264	19.603	27.442	0.495
476.000	317.638	80.003	19.992	104.267	19.607	27.150	0.499
476.500	317.895	80.003	19.994	104.267	19.612	26.830	0.502
477.000	318.170	80.003	19.994	104.265	19.615	26.600	0.522
477.500	318.439	80.002	19.993	104.265	19.618	26.332	0.538
478.000	318.684	80.004	19.994	104.264	19.619	26.314	0.529
478.500	318.958	80.003	19.994	104.259	19.623	26.020	0.517
479.000	319.202	80.002	19.992	104.256	19.626	25.741	0.519
479.500	319.477	80.002	19.994	104.257	19.631	25.377	0.519
480.001	319.737	80.003	19.993	104.253	19.636	25.014	0.527
480.501	319.965	80.002	19.994	104.251	19.639	24.815	0.511
481.001	320.229	80.002	19.993	104.248	19.643	24.540	0.490
481.500	320.469	80.001	19.995	104.242	19.648	24.195	0.498
482.000	320.721	80.002	19.995	104.237	19.647	24.259	0.498
482.500	321.011	80.001	19.994	104.234	19.652	23.860	0.517
483.000	321.224	80.003	19.993	104.229	19.652	23.893	0.522
483.500	321.496	80.002	19.993	104.230	19.659	23.324	0.494
484.000	321.770	80.002	19.994	104.233	19.656	23.584	0.516
484.500	321.990	80.003	19.995	104.237	19.660	23.289	0.520
485.001	322.211	80.003	19.995	104.237	19.661	23.183	0.468
485.501	322.479	80.003	19.994	104.239	19.662	23.153	0.465
486.000	322.724	80.003	19.993	104.243	19.662	23.149	0.501
486.500	322.996	80.003	19.994	104.241	19.668	22.671	0.515
487.000	323.210	80.001	19.995	104.236	19.667	22.765	0.501
487.500	323.507	80.003	19.993	104.240	19.671	22.445	0.499
488.000	323.715	80.002	19.995	104.238	19.673	22.296	0.508
488.500	323.974	80.002	19.994	104.232	19.673	22.298	0.486
489.000	324.254	80.001	19.994	104.233	19.677	22.070	0.503
489.500	324.484	80.003	19.994	104.237	19.675	22.190	0.524
490.000	324.676	80.003	19.994	104.232	19.676	22.107	0.466
490.500	324.980	80.002	19.994	104.233	19.679	21.901	0.459
491.001	325.194	80.002	19.996	104.233	19.681	21.782	0.507
491.501	325.431	80.003	19.994	104.230	19.681	21.734	0.485
492.001	325.706	80.002	19.992	104.226	19.684	21.552	0.482
492.500	325.960	80.001	19.993	104.225	19.682	21.674	0.520
493.000	326.192	80.004	19.994	104.224	19.683	21.627	0.507
493.500	326.468	80.003	19.995	104.224	19.682	21.692	0.497
494.000	326.695	80.001	19.995	104.225	19.683	21.569	0.505
494.500	326.984	80.004	19.994	104.224	19.685	21.474	0.510
495.000	327.212	80.003	19.995	104.222	19.689	21.189	0.517
495.500	327.451	80.003	19.993	104.222	19.685	21.480	0.492
496.000	327.678	80.003	19.993	104.221	19.684	21.554	0.467
496.500	327.942	80.004	19.993	104.222	19.688	21.259	0.478
497.000	328.225	80.003	19.993	104.222	19.687	21.286	0.519
497.500	328.473	80.003	19.994	104.224	19.691	21.027	0.539
498.000	328.665	80.003	19.994	104.224	19.692	20.962	0.486
498.500	328.924	80.004	19.993	104.225	19.690	21.124	0.446
499.000	329.197	80.003	19.993	104.225	19.688	21.228	0.492
499.500	329.416	80.002	19.992	104.225	19.692	20.961	0.512
500.000	329.681	80.002	19.993	104.225	19.695	20.709	0.488
500.500	329.884	80.002	19.993	104.223	19.689	21.168	0.476
501.000	330.177	80.004	19.993	104.221	19.694	20.833	0.482
501.500	330.448	80.002	19.994	104.220	19.691	21.038	0.530
502.000	330.692	80.002	19.993	104.218	19.691	21.010	0.539
502.500	330.919	80.003	19.994	104.217	19.691	21.010	0.493
503.000	331.179	80.002	19.993	104.219	19.691	21.027	0.479
503.500	331.423	80.003	19.993	104.219	19.697	20.608	0.495
504.000	331.675	80.001	19.993	104.220	19.695	20.731	0.499
504.500	331.883	80.002	19.993	104.218	19.692	20.955	0.478
505.000	332.159	80.001	19.994	104.215	19.691	21.040	0.472
505.500	332.401	80.002	19.993	104.209	19.691	20.985	0.501
506.000	332.635	80.003	19.994	104.205	19.693	20.876	0.497
506.500	332.904	80.004	19.993	104.198	19.692	20.965	0.490
507.000	333.168	80.002	19.993	104.200	19.690	21.114	0.518
507.500	333.371	80.002	19.993	104.205	19.692	20.951	0.500
508.000	333.635	80.002	19.994	104.210	19.688	21.261	0.467
508.500	333.896	80.003	19.993	104.215	19.690	21.060	0.496
509.000	334.128	80.002	19.994	104.222	19.687	21.313	0.509
509.500	334.393	80.001	19.992	104.223	19.684	21.529	0.495
510.000	334.629	80.003	19.993	104.219	19.684	21.562	0.499
510.501	334.861	80.003	19.994	104.219	19.682	21.683	0.484
511.001	335.139	80.002	19.994	104.218	19.684	21.561	0.489
511.501	335.381	80.002	19.994	104.218	19.682	21.680	0.515
512.001	335.623	80.002	19.994	104.220	19.682	21.674	0.502
512.500	335.889	80.002	19.994	104.224	19.679	21.893	0.496
513.000	336.117	80.001	19.993	104.222	19.684	21.539	0.501
513.501	336.373	80.001	19.994	104.220	19.679	21.894	0.489
514.000	336.620	80.001	19.996	104.218	19.680	21.826	0.494
514.500	336.852	80.001	19.993	104.213	19.678	21.955	0.491
515.000	337.086	80.001	19.994	104.208	19.676	22.096	0.472
515.500	337.378	80.001	19.994	104.205	19.676	22.133	0.495
516.001	337.589	80.001	19.994	104.204	19.671	22.464	0.514
516.501	337.865	80.002	19.994	104.207	19.673	22.354	0.495
517.001	338.105	80.001	19.994	104.212	19.672	22.376	0.501
517.500	338.349	80.000	19.994	104.217	19.670	22.527	0.500
518.000	338.620	80.001	19.995	104.221	19.668	22.697	0.500
518.500	338.867	80.003	19.994	104.225	19.668	22.725	0.517
519.001	339.093	80.001	19.994	104.224	19.666	22.867	0.495
519.500	339.345	80.001	19.993	104.224	19.665	22.909	0.476
520.000	339.574	80.002	19.994	104.224	19.662	23.115	0.480
520.501	339.824	80.003	19.993	104.221	19.669	22.616	0.480
521.000	340.080	80.002	19.994	104.219	19.664	23.023	0.493
521.500	340.331	80.004	19.994	104.214	19.658	23.464	0.507
522.001	340.560	80.003	19.994	104.213	19.657	23.528	0.493
522.501	340.817	80.002	19.993	104.210	19.658	23.432	0.483
523.000	341.046	80.002	19.993	104.210	19.655	23.640	0.486
523.500	341.352	80.001	19.993	104.212	19.651	23.918	0.511
524.001	341.555	80.003	19.994	104.214	19.648	24.123	0.522
524.500	341.805	80.002	19.994	104.216	19.642	24.628	0.481
525.000	342.021	80.003	19.995	104.218	19.642	24.566	0.459
525.501	342.302	80.003	19.995	104.219	19.642	24.597	0.482
526.000	342.497	80.003	19.995	104.214	19.642	24.598	0.487
526.500	342.744	80.003	19.994	104.212	19.639	24.837	0.459
527.000	343.006	80.003	19.993	104.212	19.632	25.343	0.476
527.500	343.225	80.004	19.995	104.212	19.634	25.189	0.495
528.000	343.467	80.004	19.993	104.215	19.633	25.258	0.470
528.500	343.721	80.004	19.995	104.218	19.629	25.513	0.478
529.000	343.967	80.004	19.994	104.218	19.623	25.964	0.498
529.500	344.225	80.004	19.995	104.217	19.618	26.332	0.502
530.000	344.489	80.004	19.993	104.214	19.615	26.565	0.513
530.500	344.681	80.003	19.994	104.214	19.615	26.581	0.489
531.000	344.958	80.005	19.993	104.216	19.610	26.942	0.463
531.500	345.214	80.003	19.994	104.221	19.606	27.236	0.502
532.000	345.473	80.003	19.993	104.223	19.605	27.314	0.525
532.500	345.711	80.002	19.993	104.225	19.597	27.882	0.506
533.001	345.982	80.003	19.994	104.225	19.595	28.002	0.503
533.501	346.223	80.003	19.993	104.224	19.592	28.284	0.510
534.000	346.448	80.002	19.993	104.225	19.589	28.506	0.489
534.500	346.724	80.003	19.994	104.224	19.582	28.994	0.484
535.000	346.947	80.000	19.993	104.224	19.582	29.005	0.501
535.500	347.194	80.003	19.993	104.225	19.580	29.145	0.485
536.000	347.421	80.003	19.993	104.225	19.577	29.353	0.472
536.500	347.668	80.003	19.992	104.222	19.568	29.974	0.474
537.000	347.931	80.003	19.994	104.219	19.562	30.411	0.492
537.500	348.160	80.003	19.993	104.220	19.560	30.599	0.501
538.001	348.420	80.002	19.993	104.220	19.556	30.850	0.490
538.500	348.657	80.002	19.994	104.220	19.548	31.503	0.493
539.000	348.882	80.002	19.993	104.223	19.543	31.809	0.480
539.501	349.135	80.002	19.995	104.227	19.540	32.043	0.470
540.001	349.394	80.001	19.995	104.226	19.534	32.497	0.495
540.501	349.689	80.002	19.993	104.227	19.528	32.960	0.532
541.001	349.931	80.001	19.994	104.226	19.525	33.178	0.545
541.500	350.184	80.000	19.994	104.227	19.517	33.739	0.516
542.000	350.411	80.001	19.994	104.228	19.511	34.187	0.487
542.500	350.663	80.002	19.994	104.229	19.503	34.739	0.480
543.000	350.880	80.002	19.994	104.227	19.499	35.059	0.475
543.500	351.176	80.001	19.995	104.224	19.492	35.542	0.491
544.001	351.376	80.003	19.994	104.223	19.488	35.876	0.504
544.500	351.627	80.001	19.994	104.221	19.483	36.207	0.473
545.000	351.908	80.004	19.994	104.221	19.476	36.709	0.491
545.501	352.160	80.003	19.994	104.221	19.469	37.210	0.532
546.000	352.419	80.003	19.994	104.224	19.460	37.933	0.522
546.500	352.667	80.003	19.995	104.224	19.459	37.969	0.509
547.001	352.897	80.003	19.995	104.223	19.447	38.871	0.492
547.500	353.151	80.002	19.994	104.223	19.438	39.471	0.482
548.000	353.413	80.002	19.995	104.223	19.431	40.038	0.500
548.500	353.641	80.002	19.995	104.223	19.424	40.510	0.503
549.000	353.924	80.004	19.994	104.224	19.412	41.368	0.501
549.500	354.208	80.003	19.994	104.224	19.408	41.714	0.539
550.000	354.421	80.003	19.994	104.223	19.404	42.023	0.532
550.500	354.683	80.003	19.994	104.223	19.394	42.720	0.486
551.001	354.979	80.004	19.994	104.221	19.387	43.255	0.516
551.501	355.192	80.003	19.996	104.221	19.376	44.003	0.534
552.001	355.454	80.003	19.995	104.222	19.366	44.798	0.492
552.501	355.691	80.004	19.994	104.221	19.358	45.388	0.487
553.001	355.911	80.003	19.994	104.221	19.350	45.910	0.478
553.501	356.175	80.005	19.994	104.224	19.333	47.158	0.470
554.001	356.405	80.005	19.994	104.223	19.325	47.787	0.489
554.501	356.698	80.006	19.993	104.223	19.317	48.345	0.509
555.001	356.909	80.005	19.994	104.223	19.301	49.493	0.514
555.500	357.126	80.005	19.993	104.223	19.290	50.321	0.466
556.000	357.418	80.005	19.992	104.223	19.284	50.756	0.468
556.500	357.649	80.006	19.994	104.228	19.273	51.551	0.516
557.001	357.914	80.005	19.993	104.229	19.262	52.341	0.510
557.501	358.182	80.005	19.993	104.229	19.250	53.252	0.514
558.001	358.432	80.003	19.992	104.229	19.240	53.973	0.525
558.501	358.674	80.005	19.993	104.229	19.228	54.851	0.505
559.000	358.908	80.005	19.993	104.223	19.219	55.561	0.484
559.500	359.191	80.005	19.993	104.223	19.205	56.569	0.497
560.000	359.403	80.004	19.992	104.223	19.190	57.686	0.506
560.500	359.691	80.005	19.994	104.223	19.180	58.416	0.497
561.000	359.923	80.005	19.992	104.223	19.168	59.258	0.510
561.500	360.156	80.004	19.994	104.223	19.156	60.130	0.492
562.000	360.420	80.004	19.993	104.224	19.143	61.092	0.481
562.500	360.676	80.003	19.992	104.227	19.129	62.135	0.508
563.000	360.905	80.004	19.993	104.227	19.113	63.265	0.502
563.500	361.155	80.003	19.993	104.230	19.099	64.301	0.482
564.000	361.397	80.004	19.993	104.233	19.085	65.286	0.485
564.500	361.730	80.003	19.994	104.233	19.069	66.454	0.534
565.001	361.937	80.002	19.994	104.234	19.056	67.458	0.558
565.500	362.172	80.002	19.994	104.241	19.043	68.356	0.491
566.000	362.468	80.004	19.994	104.245	19.023	69.855	0.486
566.500	362.672	80.003	19.995	104.242	19.005	71.181	0.516
567.000	362.917	80.002	19.994	104.244	18.991	72.218	0.474
567.501	363.176	80.001	19.993	104.246	18.974	73.431	0.476
568.001	363.451	80.002	19.993	104.245	18.955	74.804	0.519
568.501	363.684	80.003	19.993	104.246	18.936	76.251	0.521
569.000	363.936	80.002	19.994	104.254	18.918	77.556	0.497
569.500	364.158	80.002	19.993	104.259	18.902	78.728	0.479
570.001	364.418	80.000	19.994	104.265	18.883	80.065	0.477
570.500	364.660	80.003	19.993	104.266	18.867	81.232	0.492
571.000	364.931	80.003	19.994	104.266	18.844	82.976	0.508
571.500	365.174	80.002	19.993	104.266	18.825	84.339	0.513
572.000	365.432	80.002	19.994	104.266	18.810	85.427	0.508
572.500	365.692	80.001	19.995	104.263	18.792	86.801	0.510
573.000	365.944	80.002	19.993	104.263	18.768	88.546	0.515
573.501	366.195	80.002	19.992	104.262	18.749	89.902	0.507
574.001	366.454	80.001	19.993	104.259	18.732	91.166	0.507
574.500	366.751	80.001	19.994	104.253	18.713	92.548	0.533
575.000	366.962	80.002	19.994	104.249	18.691	94.131	0.532
575.500	367.209	80.002	19.993	104.249	18.673	95.474	0.483
576.001	367.454	80.003	19.993	104.249	18.655	96.804	0.475
576.501	367.742	80.002	19.995	104.250	18.627	98.805	0.512
577.000	367.982	80.003	19.994	104.252	18.608	100.176	0.530
577.500	368.254	80.003	19.994	104.257	18.588	101.640	0.520
578.001	368.508	80.003	19.993	104.257	18.564	103.400	0.519
578.501	368.707	80.003	19.993	104.258	18.545	104.808	0.490
579.001	368.977	80.002	19.994	104.261	18.525	106.260	0.460
579.501	369.225	80.004	19.992	104.265	18.497	108.299	0.493
580.001	369.458	80.003	19.994	104.265	18.474	109.968	0.499
580.501	369.719	80.001	19.993	104.265	18.448	111.913	0.487
581.001	369.963	80.001	19.994	104.269	18.427	113.388	0.499
581.501	370.263	80.002	19.993	104.273	18.399	115.457	0.525
582.000	370.496	80.002	19.995	104.278	18.369	117.638	0.539
582.500	370.721	80.001	19.997	104.284	18.347	119.248	0.496
583.000	370.976	80.002	19.996	104.292	18.317	121.433	0.469
583.501	371.197	80.002	19.995	104.298	18.293	123.196	0.478
584.001	371.452	80.001	19.994	104.302	18.263	125.449	0.476
584.501	371.728	80.002	19.995	104.305	18.234	127.539	0.503
585.000	371.951	80.003	19.994	104.307	18.209	129.334	0.515
585.500	372.220	80.002	19.994	104.308	18.179	131.538	0.496
586.001	372.494	80.002	19.994	104.306	18.150	133.624	0.518
586.501	372.734	80.003	19.994	104.302	18.126	135.419	0.529
587.001	372.979	80.002	19.993	104.294	18.100	137.322	0.499
587.501	373.255	80.002	19.994	104.286	18.076	139.106	0.503
588.000	373.497	80.002	19.994	104.279	18.047	141.183	0.519
588.500	373.805	80.002	19.993	104.270	18.020	143.208	0.534
589.000	374.019	80.001	19.993	104.266	17.995	145.041	0.537
589.500	374.233	80.004	19.994	104.262	17.963	147.312	0.475
590.000	374.513	80.003	19.993	104.257	17.940	149.042	0.461
590.500	374.768	80.002	19.994	104.253	17.914	150.914	0.514
591.000	374.996	80.002	19.994	104.253	17.885	153.016	0.509
591.500	375.291	80.004	19.994	104.254	17.862	154.701	0.503
592.000	375.518	80.001	19.993	104.258	17.840	156.330	0.522
592.500	375.786	80.004	19.992	104.263	17.810	158.459	0.509
593.001	376.072	80.003	19.993	104.264	17.786	160.249	0.524
593.501	376.280	80.003	19.993	104.264	17.765	161.772	0.523
594.001	376.532	80.003	19.992	104.264	17.735	163.923	0.477
594.500	376.778	80.003	19.993	104.264	17.712	165.634	0.479
595.000	377.041	80.001	19.993	104.264	17.686	167.454	0.504
595.500	377.289	80.003	19.993	104.263	17.657	169.556	0.510
596.000	377.549	80.002	19.992	104.260	17.633	171.349	0.509
596.500	377.779	80.003	19.993	104.256	17.608	173.108	0.499
597.000	378.079	80.002	19.993	104.253	17.584	174.850	0.510
597.500	378.300	80.002	19.994	104.250	17.555	176.966	0.526
598.000	378.542	80.003	19.994	104.253	17.529	178.811	0.492
598.500	378.781	80.001	19.994	104.257	17.500	180.893	0.472
599.000	379.031	80.001	19.992	104.261	17.475	182.741	0.484
599.500	379.257	80.002	19.993	104.263	17.451	184.505	0.482
600.000	379.543	80.002	19.992	104.266	17.424	186.452	0.494
600.500	379.769	80.002	19.993	104.265	17.398	188.342	0.512
601.000	380.020	80.002	19.994	104.264	17.371	190.301	0.494
601.500	380.305	80.001	19.993	104.258	17.345	192.265	0.507
602.000	380.582	80.002	19.993	104.251	17.322	193.945	0.549
602.500	380.842	80.003	19.994	104.244	17.301	195.502	0.549
603.000	381.050	80.002	19.993	104.238	17.271	197.694	0.503
603.500	381.279	80.001	19.992	104.231	17.251	199.216	0.453
604.000	381.529	80.001	19.992	104.228	17.230	200.712	0.458
604.500	381.813	80.001	19.993	104.222	17.207	202.429	0.506
605.000	382.041	80.004	19.993	104.214	17.186	203.937	0.523
605.500	382.299	80.003	19.993	104.206	17.164	205.531	0.499
606.001	382.506	80.002	19.993	104.195	17.149	206.605	0.476
606.501	382.793	80.003	19.993	104.181	17.131	207.881	0.480
607.001	383.025	80.004	19.993	104.171	17.114	209.143	0.506
607.501	383.271	80.002	19.993	104.159	17.101	210.018	0.498
608.001	383.519	80.003	19.993	104.145	17.088	210.930	0.486
608.501	383.775	80.002	19.994	104.134	17.076	211.787	0.499
609.001	384.036	80.003	19.994	104.124	17.063	212.709	0.511
609.500	384.291	80.004	19.994	104.111	17.048	213.811	0.517
610.000	384.504	80.003	19.994	104.102	17.041	214.310	0.492
610.501	384.792	80.004	19.993	104.097	17.023	215.668	0.484
611.000	385.009	80.004	19.993	104.095	17.007	216.833	0.503
611.500	385.227	80.004	19.993	104.096	16.996	217.658	0.470
612.000	385.480	80.004	19.994	104.107	16.985	218.471	0.453
612.500	385.741	80.004	19.993	104.121	16.969	219.679	0.492
613.000	385.986	80.004	19.993	104.136	16.961	220.242	0.510
613.500	386.200	80.005	19.993	104.147	16.947	221.277	0.482
614.000	386.460	80.005	19.994	104.157	16.935	222.119	0.467
614.500	386.723	80.003	19.993	104.165	16.934	222.177	0.499
615.000	386.960	80.005	19.994	104.167	16.919	223.260	0.511
615.500	387.216	80.004	19.994	104.167	16.917	223.445	0.497
616.000	387.484	80.004	19.994	104.164	16.911	223.851	0.509
616.501	387.734	80.003	19.995	104.160	16.911	223.848	0.521
617.001	387.976	80.004	19.994	104.149	16.903	224.411	0.505
617.501	388.224	80.002	19.994	104.138	16.904	224.320	0.491
618.001	388.479	80.005	19.994	104.123	16.902	224.456	0.496
618.501	388.709	80.003	19.994	104.107	16.899	224.633	0.494
619.000	388.978	80.005	19.995	104.092	16.903	224.351	0.493
619.500	389.207	80.004	19.995	104.078	16.904	224.281	0.499
620.001	389.470	80.005	19.994	104.066	16.903	224.318	0.495
620.500	389.712	80.003	19.995	104.061	16.904	224.286	0.499
621.000	389.967	80.004	19.995	104.060	16.908	223.982	0.501
621.500	390.193	80.003	19.993	104.062	16.913	223.634	0.489
622.000	390.479	80.004	19.994	104.069	16.913	223.686	0.496
622.500	390.718	80.004	19.995	104.082	16.921	223.082	0.518
623.000	390.968	80.004	19.994	104.090	16.928	222.603	0.507
623.501	391.239	80.004	19.993	104.098	16.936	221.960	0.505
624.001	391.429	80.004	19.993	104.105	16.944	221.420	0.491
624.501	391.710	80.004	19.994	104.105	16.950	220.992	0.466
625.000	391.953	80.003	19.993	104.099	16.964	219.922	0.497
625.500	392.207	80.003	19.993	104.095	16.974	219.234	0.510
626.000	392.469	80.004	19.994	104.087	16.988	218.164	0.506
626.500	392.721	80.004	19.994	104.078	17.007	216.801	0.515
627.000	392.959	80.004	19.994	104.068	17.015	216.185	0.503
627.500	393.194	80.002	19.993	104.064	17.036	214.661	0.482
628.000	393.452	80.003	19.994	104.055	17.055	213.260	0.483
628.500	393.702	80.004	19.993	104.048	17.072	212.057	0.500
629.000	393.960	80.002	19.995	104.041	17.084	211.211	0.508
629.500	394.180	80.004	19.993	104.038	17.106	209.594	0.493
630.000	394.478	80.004	19.994	104.032	17.127	208.078	0.499
630.501	394.711	80.004	19.993	104.028	17.141	207.075	0.524
631.001	394.966	80.004	19.993	104.032	17.164	205.379	0.509
631.500	395.222	80.002	19.994	104.040	17.186	203.749	0.500
632.000	395.451	80.004	19.993	104.048	17.212	201.908	0.498
632.501	395.714	80.004	19.993	104.054	17.231	200.473	0.488
633.001	396.009	80.004	19.995	104.062	17.256	198.636	0.525
633.500	396.269	80.005	19.993	104.066	17.284	196.636	0.557
634.000	396.479	80.004	19.993	104.065	17.305	195.093	0.513
634.501	396.729	80.005	19.994	104.065	17.333	193.029	0.465
635.000	396.970	80.004	19.994	104.067	17.362	190.924	0.476
635.501	397.239	80.003	19.994	104.062	17.388	189.053	0.501
636.001	397.492	80.005	19.993	104.058	17.417	186.876	0.516
636.500	397.747	80.004	19.993	104.055	17.444	184.929	0.515
637.000	398.026	80.005	19.994	104.047	17.474	182.749	0.521
637.500	398.219	80.005	19.995	104.041	17.507	180.372	0.503
638.000	398.480	80.005	19.994	104.041	17.535	178.278	0.463
638.500	398.768	80.004	19.994	104.043	17.561	176.417	0.502
639.000	398.986	80.005	19.995	104.046	17.592	174.172	0.527
639.500	399.230	80.006	19.995	104.054	17.621	172.032	0.483
640.000	399.485	80.005	19.995	104.060	17.654	169.626	0.480
640.500	399.744	80.004	19.995	104.065	17.681	167.621	0.507
641.000	399.962	80.004	19.995	104.069	17.712	165.387	0.496
641.500	400.237	80.003	19.994	104.071	17.744	163.066	0.485
642.000	400.480	80.005	19.994	104.071	17.772	161.031	0.506
642.500	400.718	80.005	19.994	104.076	17.803	158.767	0.500
643.000	400.958	80.003	19.993	104.079	17.835	156.409	0.479
643.500	401.223	80.004	19.994	104.076	17.865	154.197	0.492
644.000	401.445	80.003	19.994	104.076	17.893	152.168	0.496
644.501	401.683	80.003	19.996	104.078	17.928	149.605	0.473
645.001	401.961	80.002	19.997	104.074	17.958	147.409	0.487
645.500	402.207	80.003	19.995	104.072	17.987	145.313	0.520
646.000	402.444	80.001	19.995	104.071	18.020	142.948	0.504
646.500	402.714	80.001	19.995	104.070	18.056	140.321	0.495
647.000	402.937	80.001	19.995	104.068	18.080	138.550	0.499
647.500	403.231	80.002	19.995	104.071	18.112	136.175	0.505
648.000	403.435	80.000	19.995	104.072	18.142	134.008	0.508
648.500	403.693	80.002	19.995	104.072	18.175	131.612	0.481
649.000	403.934	80.001	19.996	104.073	18.211	128.967	0.481
649.501	404.216	80.002	19.994	104.073	18.241	126.830	0.511
650.000	404.422	80.002	19.994	104.071	18.267	124.875	0.506
650.500	404.687	80.001	19.993	104.070	18.300	122.491	0.479
651.000	404.951	80.001	19.994	104.070	18.329	120.372	0.499
651.501	405.222	80.003	19.994	104.070	18.362	117.994	0.532
652.001	405.448	80.001	19.994	104.070	18.396	115.504	0.516
652.501	405.734	80.004	19.994	104.069	18.422	113.614	0.504
653.000	405.932	80.002	19.995	104.069	18.452	111.458	0.498
653.500	406.226	80.002	19.994	104.069	18.477	109.585	0.488
654.000	406.460	80.003	19.993	104.069	18.510	107.178	0.510
654.500	406.686	80.002	19.994	104.070	18.541	104.918	0.493
655.000	406.962	80.002	19.992	104.071	18.565	103.190	0.481
655.501	407.215	80.001	19.993	104.071	18.597	100.874	0.516
656.000	407.481	80.002	19.994	104.071	18.625	98.779	0.524
656.500	407.717	80.002	19.993	104.072	18.651	96.935	0.510
657.000	408.002	80.003	19.993	104.071	18.677	94.978	0.512
657.500	408.237	80.002	19.994	104.072	18.708	92.750	0.521
658.001	408.479	80.002	19.993	104.074	18.736	90.700	0.499
658.500	408.722	80.002	19.994	104.074	18.761	88.900	0.481
659.000	408.991	80.001	19.993	104.075	18.785	87.122	0.498
659.500	409.201	80.001	19.993	104.077	18.815	84.965	0.496
660.000	409.462	80.001	19.993	104.078	18.838	83.225	0.475
660.501	409.708	80.002	19.995	104.076	18.864	81.389	0.489
661.000	409.937	80.002	19.994	104.077	18.886	79.777	0.491
661.500	410.235	80.001	19.994	104.082	18.910	77.968	0.501
662.000	410.477	80.003	19.993	104.088	18.933	76.353	0.534
662.501	410.727	80.002	19.993	104.091	18.955	74.724	0.516
663.000	411.001	80.002	19.994	104.097	18.979	72.984	0.508
663.500	411.246	80.001	19.993	104.102	19.003	71.225	0.522
664.000	411.493	80.004	19.993	104.100	19.023	69.726	0.506
664.500	411.766	80.002	19.993	104.097	19.044	68.222	0.506
665.000	412.002	80.003	19.992	104.100	19.064	66.764	0.515
665.500	412.264	80.002	19.993	104.101	19.084	65.289	0.503
666.000	412.510	80.003	19.993	104.103	19.104	63.827	0.503
666.500	412.737	80.003	19.993	104.106	19.126	62.253	0.491
667.000	413.005	80.000	19.993	104.109	19.143	61.015	0.484
667.500	413.273	80.002	19.992	104.110	19.167	59.233	0.515
668.000	413.518	80.001	19.993	104.111	19.182	58.196	0.525
668.500	413.778	80.003	19.993	104.112	19.201	56.772	0.509
669.000	414.032	80.000	19.993	104.113	19.222	55.275	0.509
669.500	414.273	80.002	19.992	104.113	19.241	53.822	0.505
670.001	414.507	80.001	19.992	104.114	19.253	52.988	0.485
670.501	414.762	80.000	19.993	104.114	19.269	51.786	0.482
671.001	415.005	80.000	19.993	104.114	19.287	50.483	0.494
671.501	415.223	80.002	19.993	104.113	19.306	49.091	0.479
672.001	415.498	80.002	19.993	104.113	19.321	48.009	0.477
672.501	415.752	80.001	19.993	104.113	19.334	47.091	0.511
673.000	416.015	80.001	19.993	104.114	19.353	45.711	0.523
673.500	416.262	80.002	19.993	104.114	19.368	44.602	0.513
674.000	416.518	80.001	19.992	104.114	19.382	43.592	0.506
674.500	416.762	80.002	19.994	104.119	19.397	42.479	0.501
675.000	417.019	80.000	19.994	104.121	19.412	41.376	0.500
675.500	417.281	80.001	19.994	104.123	19.427	40.292	0.510
676.000	417.515	80.001	19.993	104.124	19.437	39.511	0.508
676.500	417.789	80.001	19.993	104.123	19.456	38.133	0.502
677.000	418.032	80.002	19.993	104.120	19.466	37.406	0.512
677.501	418.265	80.002	19.994	104.122	19.476	36.681	0.497
678.000	418.511	80.002	19.993	104.125	19.491	35.593	0.478
678.500	418.772	80.002	19.993	104.131	19.503	34.713	0.493
679.000	419.027	80.002	19.993	104.137	19.516	33.800	0.511
679.500	419.263	80.002	19.993	104.135	19.525	33.121	0.503
680.000	419.515	80.002	19.995	104.130	19.536	32.287	0.490
680.500	419.764	80.002	19.993	104.125	19.546	31.575	0.495
681.001	420.012	80.003	19.993	104.118	19.558	30.698	0.499
681.501	420.273	80.001	19.993	104.115	19.567	30.028	0.503
682.000	420.537	80.002	19.994	104.119	19.576	29.370	0.517
682.500	420.768	80.001	19.993	104.124	19.590	28.372	0.510
683.000	421.030	80.003	19.993	104.129	19.595	27.970	0.494
683.500	421.296	80.002	19.994	104.134	19.611	26.810	0.510
684.000	421.526	80.003	19.993	104.132	19.613	26.696	0.512
684.500	421.768	80.000	19.993	104.129	19.622	26.023	0.484
685.000	422.036	80.002	19.992	104.125	19.633	25.221	0.491
685.500	422.291	80.001	19.993	104.123	19.639	24.820	0.516
686.000	422.517	80.002	19.993	104.119	19.649	24.073	0.502
686.500	422.760	80.002	19.993	104.123	19.653	23.745	0.475
687.000	423.023	80.003	19.994	104.129	19.661	23.198	0.488
687.500	423.281	80.003	19.993	104.136	19.666	22.816	0.514
688.000	423.549	80.004	19.995	104.138	19.674	22.256	0.523
688.500	423.803	80.002	19.993	104.142	19.682	21.627	0.523
689.000	424.038	80.002	19.994	104.140	19.689	21.157	0.506
689.500	424.315	80.003	19.994	104.139	19.695	20.741	0.501
690.000	424.552	80.004	19.994	104.138	19.700	20.372	0.513
690.500	424.814	80.004	19.994	104.137	19.708	19.749	0.507
691.000	425.089	80.004	19.994	104.139	19.711	19.552	0.519
691.500	425.352	80.004	19.993	104.139	19.720	18.856	0.537
692.000	425.618	80.002	19.993	104.138	19.726	18.440	0.533
692.501	425.885	80.004	19.993	104.137	19.731	18.068	0.531
693.000	426.106	80.003	19.993	104.133	19.733	17.963	0.511
693.500	426.406	80.004	19.992	104.125	19.738	17.564	0.504
694.000	426.609	80.002	19.993	104.122	19.744	17.122	0.512
694.500	426.877	80.003	19.992	104.121	19.749	16.778	0.487
695.000	427.169	80.004	19.992	104.122	19.753	16.483	0.516
695.500	427.414	80.005	19.993	104.129	19.759	16.053	0.548
696.000	427.661	80.005	19.993	104.136	19.763	15.757	0.515
696.500	427.939	80.004	19.993	104.144	19.763	15.723	0.509
697.000	428.211	80.005	19.993	104.146	19.770	15.227	0.538
697.500	428.466	80.004	19.993	104.147	19.774	14.925	0.538
698.001	428.725	80.005	19.992	104.147	19.779	14.577	0.520
698.501	428.963	80.005	19.993	104.147	19.782	14.356	0.505
699.001	429.253	80.005	19.994	104.148	19.788	13.930	0.513
699.501	429.470	80.005	19.993	104.147	19.788	13.907	0.518
700.001	429.736	80.004	19.994	104.147	19.792	13.602	0.495
700.501	430.005	80.003	19.993	104.146	19.794	13.469	0.509
701.000	430.261	80.003	19.993	104.144	19.798	13.202	0.530
701.500	430.474	80.003	19.992	104.142	19.799	13.102	0.497
702.001	430.738	80.005	19.993	104.139	19.802	12.860	0.473
702.500	431.011	80.003	19.993	104.138	19.805	12.694	0.507
703.000	431.274	80.004	19.993	104.137	19.811	12.256	0.537
703.500	431.550	80.004	19.994	104.138	19.808	12.476	0.538
704.000	431.800	80.002	19.993	104.137	19.812	12.142	0.532
704.500	432.072	80.002	19.994	104.140	19.814	12.017	0.523
705.000	432.341	80.004	19.994	104.141	19.814	11.995	0.531
705.500	432.610	80.003	19.994	104.143	19.819	11.633	0.540
706.000	432.871	80.004	19.995	104.140	19.821	11.501	0.534
706.500	433.127	80.003	19.994	104.142	19.825	11.219	0.523
707.000	433.396	80.002	19.994	104.143	19.820	11.556	0.521
707.501	433.660	80.004	19.993	104.142	19.824	11.312	0.529
708.001	433.904	80.003	19.993	104.142	19.827	11.085	0.521
708.501	434.173	80.003	19.993	104.144	19.829	10.899	0.510
709.000	434.411	80.003	19.994	104.145	19.830	10.869	0.510
709.500	434.703	80.003	19.993	104.144	19.834	10.549	0.519
710.000	435.007	80.003	19.995	104.142	19.835	10.461	0.563
710.500	435.228	80.003	19.993	104.137	19.837	10.307	0.561
711.001	435.535	80.004	19.994	104.132	19.839	10.205	0.527
711.500	435.793	80.003	19.994	104.125	19.837	10.365	0.546
712.000	436.016	80.002	19.993	104.118	19.839	10.181	0.523
712.501	436.292	80.004	19.994	104.113	19.843	9.882	0.490
713.001	436.580	80.003	19.993	104.113	19.842	9.972	0.532
713.501	436.864	80.002	19.994	104.115	19.847	9.612	0.568
714.001	437.099	80.004	19.993	104.118	19.843	9.898	0.545
714.501	437.396	80.003	19.994	104.119	19.848	9.502	0.525
715.000	437.580	80.003	19.992	104.120	19.848	9.554	0.507
715.500	437.859	80.004	19.993	104.124	19.855	9.027	0.472
716.000	438.110	80.004	19.993	104.124	19.852	9.251	0.496
716.500	438.396	80.004	19.994	104.124	19.854	9.133	0.533
717.000	438.657	80.003	19.993	104.129	19.849	9.436	0.542
717.500	438.909	80.003	19.994	104.128	19.856	8.973	0.530
718.001	439.155	80.004	19.995	104.123	19.857	8.895	0.506
718.500	439.388	80.004	19.993	104.122	19.855	9.019	0.489
719.000	439.663	80.004	19.994	104.126	19.858	8.783	0.493
719.500	439.967	80.004	19.993	104.129	19.858	8.787	0.543
720.000	440.216	80.003	19.992	104.133	19.859	8.712	0.566
720.501	440.477	80.004	19.993	104.136	19.862	8.480	0.532
721.001	440.738	80.005	19.993	104.136	19.862	8.518	0.516
721.501	440.984	80.003	19.992	104.135	19.863	8.466	0.514
722.000	441.252	80.004	19.993	104.132	19.865	8.332	0.510
722.500	441.545	80.004	19.993	104.135	19.865	8.327	0.538
723.000	441.772	80.003	19.994	104.139	19.863	8.462	0.540
723.500	442.046	80.004	19.993	104.143	19.863	8.434	0.510
724.000	442.307	80.004	19.993	104.144	19.864	8.336	0.518
724.500	442.544	80.003	19.993	104.146	19.864	8.369	0.517
725.000	442.851	80.004	19.993	104.146	19.867	8.120	0.521
725.500	443.091	80.002	19.995	104.146	19.866	8.240	0.546
726.000	443.355	80.003	19.993	104.145	19.869	8.026	0.526
726.500	443.603	80.003	19.992	104.144	19.868	8.067	0.508
727.000	443.890	80.003	19.992	104.144	19.867	8.170	0.523
727.500	444.135	80.003	19.994	104.144	19.866	8.242	0.533
728.000	444.403	80.003	19.993	104.144	19.866	8.244	0.523
728.500	444.662	80.005	19.994	104.144	19.868	8.048	0.520
729.000	444.899	80.004	19.994	104.144	19.869	8.040	0.511
729.500	445.200	80.002	19.994	104.145	19.871	7.857	0.517
730.000	445.464	80.004	19.994	104.145	19.871	7.845	0.551
730.500	445.711	80.002	19.993	104.147	19.870	7.959	0.538
731.000	445.956	80.002	19.994	104.153	19.871	7.831	0.501
731.500	446.216	80.001	19.994	104.154	19.874	7.603	0.498
732.000	446.483	80.003	19.993	104.155	19.873	7.711	0.516
732.500	446.721	80.001	19.994	104.155	19.875	7.545	0.516
733.000	447.001	80.001	19.993	104.154	19.875	7.591	0.512
733.500	447.282	80.002	19.993	104.150	19.875	7.536	0.540
734.000	447.506	80.001	19.994	104.152	19.874	7.664	0.533
734.500	447.788	80.001	19.994	104.159	19.873	7.738	0.505
735.000	448.016	80.001	19.993	104.163	19.873	7.731	0.508
735.500	448.286	80.003	19.993	104.165	19.875	7.579	0.504
736.000	448.551	80.001	19.994	104.164	19.876	7.478	0.516
736.500	448.818	80.003	19.994	104.163	19.875	7.590	0.533
737.000	449.050	80.001	19.993	104.156	19.878	7.364	0.515
737.500	449.284	80.001	19.994	104.153	19.877	7.424	0.482
738.000	449.566	80.001	19.993	104.155	19.876	7.463	0.491
738.500	449.784	80.000	19.994	104.159	19.874	7.619	0.508
739.000	450.069	80.001	19.994	104.159	19.879	7.275	0.501
739.500	450.366	80.002	19.993	104.159	19.876	7.465	0.543
740.000	450.622	80.002	19.995	104.157	19.877	7.398	0.568
740.500	450.856	80.001	19.994	104.154	19.876	7.528	0.522
741.000	451.125	80.001	19.994	104.150	19.875	7.556	0.496
741.500	451.379	80.003	19.994	104.150	19.880	7.197	0.513
742.000	451.600	80.000	19.995	104.150	19.881	7.133	0.499
742.500	451.903	80.002	19.994	104.153	19.878	7.310	0.499
743.000	452.162	80.002	19.994	104.153	19.877	7.385	0.543
743.501	452.425	80.002	19.996	104.150	19.881	7.161	0.542
744.001	452.663	80.002	19.993	104.147	19.880	7.175	0.511
744.500	452.931	80.001	19.994	104.145	19.884	6.923	0.504
745.000	453.209	80.002	19.994	104.140	19.881	7.137	0.526
745.500	453.438	80.002	19.995	104.139	19.883	6.969	0.526
746.000	453.709	80.003	19.995	104.147	19.881	7.102	0.504
746.500	453.949	80.003	19.994	104.156	19.877	7.399	0.506
747.000	454.231	80.002	19.995	104.165	19.882	7.038	0.517
747.500	454.468	80.003	19.994	104.170	19.881	7.122	0.521
748.000	454.721	80.003	19.994	104.170	19.884	6.898	0.504
748.500	454.991	80.002	19.995	104.164	19.881	7.132	0.506
749.000	455.251	80.004	19.994	104.157	19.882	7.091	0.526
749.500	455.524	80.002	19.994	104.149	19.882	7.039	0.531
750.000	455.753	80.002	19.994	104.151	19.881	7.143	0.518
750.500	456.021	80.002	19.993	104.159	19.885	6.809	0.500
751.000	456.304	80.003	19.993	104.164	19.881	7.105	0.524
751.500	456.583	80.002	19.994	104.165	19.883	6.987	0.557
752.001	456.835	80.003	19.994	104.165	19.883	6.969	0.546
752.501	457.050	80.003	19.993	104.159	19.881	7.158	0.499
753.001	457.321	80.003	19.992	104.151	19.883	6.955	0.476
753.501	457.583	80.004	19.993	104.146	19.879	7.276	0.509
754.001	457.843	80.004	19.993	104.151	19.881	7.145	0.527
754.500	458.107	80.004	19.993	104.157	19.882	7.065	0.523
755.000	458.365	80.004	19.994	104.158	19.880	7.213	0.523
755.500	458.610	80.003	19.993	104.158	19.881	7.093	0.513
756.000	458.917	80.005	19.993	104.158	19.880	7.237	0.528
756.500	459.162	80.001	19.993	104.155	19.879	7.289	0.552
757.001	459.432	80.003	19.994	104.149	19.884	6.935	0.534
757.501	459.702	80.002	19.993	104.146	19.880	7.173	0.527
758.001	459.941	80.004	19.992	104.146	19.880	7.181	0.524
758.500	460.203	80.001	19.993	104.146	19.878	7.317	0.505
759.000	460.460	80.003	19.994	104.144	19.879	7.275	0.510
759.501	460.674	80.003	19.994	104.144	19.884	6.931	0.494
760.000	460.956	80.002	19.993	104.150	19.879	7.264	0.483
760.500	461.228	80.001	19.993	104.153	19.883	7.013	0.526
761.000	461.472	80.003	19.993	104.154	19.880	7.179	0.535
761.500	461.750	80.002	19.994	104.154	19.883	6.981	0.519
762.000	461.968	80.003	19.993	104.156	19.887	6.693	0.509
762.500	462.263	80.002	19.994	104.160	19.881	7.142	0.504
763.000	462.472	80.003	19.993	104.163	19.885	6.854	0.508
763.500	462.746	80.002	19.994	104.163	19.882	7.085	0.494
764.000	463.015	80.002	19.994	104.165	19.886	6.784	0.513
764.500	463.265	80.002	19.995	104.162	19.882	7.055	0.531
765.000	463.504	80.003	19.995	104.157	19.881	7.157	0.504
765.500	463.773	80.003	19.995	104.158	19.882	7.061	0.498
766.000	464.017	80.002	19.994	104.158	19.881	7.163	0.510
766.500	464.256	80.002	19.995	104.158	19.882	7.091	0.498
767.000	464.531	80.003	19.993	104.159	19.884	6.894	0.498
767.500	464.787	80.003	19.995	104.158	19.885	6.860	0.522
768.000	465.029	80.002	19.994	104.153	19.880	7.237	0.515
768.500	465.277	80.001	19.994	104.151	19.882	7.063	0.494
769.000	465.520	80.003	19.993	104.153	19.883	7.013	0.491
769.500	465.783	80.003	19.994	104.152	19.883	6.985	0.498
770.000	466.030	80.003	19.993	104.154	19.884	6.917	0.508
770.500	466.265	80.003	19.994	104.160	19.881	7.141	0.496
771.001	466.560	80.002	19.994	104.165	19.885	6.845	0.505
771.500	466.799	80.002	19.994	104.163	19.879	7.253	0.532
772.000	467.046	80.001	19.993	104.162	19.885	6.819	0.510
772.500	467.331	80.004	19.993	104.160	19.885	6.842	0.509
773.000	467.560	80.004	19.994	104.153	19.885	6.832	0.523
773.500	467.815	80.004	19.993	104.148	19.887	6.706	0.499
774.000	468.083	80.004	19.993	104.148	19.884	6.939	0.504
774.500	468.373	80.005	19.993	104.150	19.884	6.937	0.541
775.000	468.619	80.004	19.993	104.150	19.887	6.687	0.547
775.501	468.856	80.004	19.993	104.152	19.884	6.879	0.509
776.001	469.131	80.005	19.993	104.153	19.886	6.749	0.497
776.500	469.406	80.003	19.994	104.153	19.886	6.757	0.531
777.000	469.635	80.004	19.993	104.152	19.883	6.973	0.527
777.501	469.839	80.005	19.993	104.151	19.885	6.825	0.469
778.001	470.153	80.004	19.994	104.150	19.886	6.789	0.475
778.501	470.367	80.003	19.994	104.148	19.886	6.789	0.523
779.001	470.622	80.004	19.994	104.150	19.886	6.768	0.499
779.501	470.901	80.005	19.994	104.150	19.884	6.909	0.501
780.001	471.117	80.005	19.993	104.150	19.883	6.955	0.514
780.500	471.375	80.004	19.992	104.152	19.886	6.737	0.485
781.000	471.656	80.005	19.993	104.159	19.885	6.851	0.507
781.501	471.911	80.004	19.992	104.160	19.887	6.713	0.537
782.000	472.130	80.005	19.993	104.161	19.888	6.619	0.504
782.500	472.405	80.003	19.992	104.161	19.885	6.837	0.484
783.000	472.641	80.006	19.993	104.159	19.886	6.793	0.503
783.500	472.897	80.003	19.993	104.151	19.882	7.033	0.501
784.000	473.190	80.005	19.994	104.150	19.885	6.837	0.520
784.500	473.396	80.005	19.993	104.151	19.882	7.061	0.524
785.000	473.673	80.004	19.993	104.153	19.884	6.909	0.491
785.500	473.917	80.003	19.993	104.155	19.885	6.803	0.502
786.000	474.200	80.005	19.993	104.156	19.886	6.781	0.524
786.500	474.413	80.004	19.994	104.158	19.884	6.893	0.511
787.000	474.730	80.005	19.993	104.156	19.885	6.805	0.513
787.500	474.987	80.003	19.993	104.157	19.885	6.865	0.552
788.001	475.235	80.004	19.993	104.156	19.887	6.657	0.540
788.501	475.512	80.003	19.992	104.155	19.888	6.633	0.515
789.000	475.749	80.004	19.992	104.154	19.886	6.791	0.519
789.500	476.000	80.004	19.993	104.153	19.883	6.957	0.501
790.000	476.261	80.003	19.994	104.152	19.886	6.728	0.500
790.500	476.504	80.005	19.992	104.154	19.882	7.053	0.508
791.001	476.732	80.003	19.993	104.157	19.885	6.815	0.488
791.501	476.996	80.005	19.993	104.161	19.884	6.917	0.481
792.001	477.285	80.004	19.993	104.161	19.883	6.990	0.522
792.501	477.484	80.004	19.993	104.162	19.881	7.116	0.520
793.000	477.753	80.003	19.992	104.163	19.882	7.064	0.478
793.500	478.012	80.005	19.993	104.162	19.882	7.022	0.498
794.000	478.246	80.003	19.994	104.159	19.885	6.811	0.511
794.500	478.519	80.003	19.992	104.159	19.886	6.731	0.500
795.000	478.745	80.002	19.992	104.157	19.887	6.668	0.503
795.500	479.031	80.003	19.993	104.153	19.884	6.936	0.506
796.001	479.247	80.005	19.992	104.151	19.885	6.834	0.508
796.501	479.511	80.003	19.992	104.153	19.884	6.944	0.491
797.001	479.771	80.004	19.993	104.153	19.885	6.846	0.502
797.500	480.024	80.004	19.993	104.153	19.884	6.896	0.518
798.000	480.297	80.003	19.992	104.153	19.886	6.764	0.519
798.500	480.503	80.003	19.993	104.155	19.884	6.894	0.502
799.000	480.819	80.004	19.993	104.153	19.885	6.822	0.500
799.500	481.059	80.003	19.993	104.154	19.883	6.996	0.539
800.000	481.306	80.004	19.992	104.154	19.885	6.808	0.521
800.500	481.568	80.003	19.993	104.153	19.881	7.153	0.499
801.000	481.814	80.004	19.993	104.152	19.886	6.756	0.509
801.500	482.096	80.004	19.994	104.153	19.884	6.940	0.518
802.000	482.319	80.005	19.993	104.156	19.882	7.040	0.516
802.500	482.596	80.005	19.994	104.162	19.880	7.190	0.503
803.000	482.815	80.005	19.992	104.167	19.884	6.938	0.498
803.500	483.085	80.005	19.995	104.167	19.882	7.086	0.492
804.000	483.350	80.003	19.994	104.168	19.882	7.080	0.511
804.500	483.592	80.005	19.993	104.166	19.883	6.984	0.521
805.000	483.868	80.005	19.994	104.159	19.885	6.828	0.513
805.501	484.072	80.006	19.995	104.155	19.886	6.762	0.499
806.000	484.321	80.005	19.994	104.153	19.882	7.090	0.467
806.500	484.558	80.003	19.994	104.149	19.883	7.008	0.470
807.000	484.827	80.005	19.993	104.148	19.885	6.868	0.496
807.500	485.100	80.004	19.994	104.149	19.884	6.892	0.524
808.000	485.343	80.005	19.994	104.149	19.884	6.872	0.529
808.500	485.615	80.005	19.993	104.150	19.887	6.722	0.515
809.000	485.856	80.003	19.993	104.150	19.883	6.946	0.514
809.500	486.133	80.004	19.993	104.150	19.886	6.782	0.516
810.000	486.381	80.005	19.994	104.150	19.887	6.711	0.521
810.500	486.612	80.005	19.994	104.150	19.885	6.849	0.501
811.000	486.886	80.006	19.992	104.149	19.882	7.068	0.492
811.500	487.121	80.004	19.993	104.149	19.885	6.838	0.507
812.000	487.383	80.006	19.992	104.149	19.885	6.844	0.503
812.500	487.634	80.004	19.994	104.149	19.879	7.262	0.505
813.000	487.887	80.003	19.993	104.148	19.885	6.869	0.509
813.501	488.125	80.005	19.993	104.147	19.883	6.987	0.498
814.000	488.383	80.002	19.995	104.148	19.884	6.872	0.493
814.500	488.591	80.003	19.994	104.147	19.883	6.990	0.481
815.000	488.917	80.003	19.994	104.145	19.880	7.177	0.500
815.500	489.157	80.002	19.993	104.146	19.882	7.026	0.550
816.001	489.386	80.002	19.994	104.141	19.882	7.045	0.517
816.501	489.633	80.001	19.994	104.137	19.883	6.968	0.472
817.001	489.885	80.005	19.993	104.136	19.880	7.175	0.488
817.501	490.125	80.003	19.995	104.139	19.882	7.083	0.496
818.000	490.411	80.003	19.995	104.139	19.883	6.997	0.509
818.500	490.673	80.004	19.992	104.142	19.885	6.848	0.537
819.000	490.905	80.002	19.994	104.146	19.882	7.050	0.521
819.500	491.182	80.004	19.994	104.146	19.885	6.850	0.502
820.000	491.417	80.002	19.995	104.145	19.883	6.996	0.510
820.500	491.641	80.003	19.994	104.150	19.882	7.028	0.485
821.000	491.938	80.001	19.995	104.157	19.884	6.876	0.491
821.500	492.111	80.003	19.994	104.164	19.885	6.829	0.496
822.000	492.441	80.002	19.994	104.171	19.882	7.037	0.486
822.500	492.699	80.004	19.994	104.173	19.881	7.099	0.545
823.000	492.950	80.001	19.994	104.170	19.885	6.833	0.548
823.500	493.161	80.004	19.994	104.165	19.883	6.951	0.486
824.000	493.431	80.001	19.994	104.158	19.882	7.087	0.471
824.500	493.707	80.003	19.996	104.151	19.884	6.920	0.513
825.001	493.926	80.003	19.995	104.150	19.884	6.894	0.521
825.500	494.187	80.004	19.995	104.149	19.881	7.101	0.488
826.000	494.424	80.002	19.997	104.149	19.880	7.229	0.489
826.500	494.697	80.003	19.993	104.149	19.880	7.199	0.504
827.000	494.954	80.002	19.995	104.149	19.880	7.182	0.520
827.500	495.218	80.002	19.995	104.148	19.883	6.966	0.525
828.000	495.494	80.001	19.994	104.149	19.879	7.262	0.531
828.500	495.740	80.002	19.995	104.157	19.880	7.184	0.531
829.001	495.976	80.001	19.995	104.164	19.882	7.054	0.502
829.501	496.182	80.002	19.996	104.172	19.879	7.259	0.462
830.000	496.447	80.004	19.995	104.174	19.880	7.185	0.456
830.500	496.757	80.005	19.995	104.179	19.882	7.040	0.523
831.000	496.995	80.003	19.995	104.177	19.881	7.162	0.562
831.500	497.239	80.002	19.995	104.173	19.881	7.152	0.515
832.000	497.494	80.000	19.995	104.168	19.881	7.156	0.490
832.501	497.781	80.004	19.995	104.165	19.880	7.221	0.520
833.001	497.981	80.002	19.995	104.161	19.881	7.157	0.514
833.501	498.273	80.001	19.994	104.157	19.882	7.045	0.490
834.001	498.489	80.003	19.994	104.154	19.884	6.933	0.500
834.501	498.752	80.004	19.994	104.152	19.880	7.236	0.493
835.001	499.020	80.003	19.995	104.151	19.880	7.195	0.505
835.501	499.231	80.001	19.996	104.149	19.884	6.931	0.505
836.001	499.501	80.003	19.995	104.148	19.880	7.207	0.480
836.501	499.726	80.003	19.994	104.153	19.883	7.015	0.488
837.001	500.020	80.002	19.994	104.156	19.881	7.093	0.507
837.500	500.248	80.003	19.996	104.160	19.882	7.049	0.521
838.000	500.518	80.002	19.994	104.164	19.883	6.981	0.510
838.501	500.764	80.001	19.995	104.170	19.878	7.319	0.507
839.001	501.002	80.004	19.994	104.170	19.877	7.395	0.500
839.501	501.262	80.004	19.993	104.168	19.882	7.067	0.490
840.001	501.457	80.002	19.993	104.165	19.881	7.127	0.476
840.501	501.762	80.003	19.993	104.161	19.882	7.049	0.478
841.001	501.926	80.001	19.994	104.154	19.882	7.047	0.484
841.501	502.260	80.002	19.993	104.148	19.879	7.255	0.483
842.000	502.462	80.003	19.996	104.146	19.880	7.177	0.517
842.500	502.731	80.002	19.994	104.146	19.885	6.863	0.504
843.000	503.009	80.002	19.994	104.147	19.882	7.043	0.509
843.500	503.194	80.003	19.994	104.152	19.884	6.877	0.505
844.000	503.468	80.002	19.995	104.154	19.880	7.230	0.461
844.501	503.689	80.003	19.995	104.159	19.883	7.000	0.477
845.001	503.986	80.001	19.994	104.162	19.875	7.548	0.507
845.501	504.232	80.001	19.994	104.163	19.889	6.577	0.530
846.001	504.483	80.003	19.994	104.158	19.890	6.439	0.520
846.500	504.764	80.003	19.994	104.157	19.885	6.861	0.515
847.000	504.935	80.002	19.993	104.154	19.877	7.421	0.492
847.500	505.252	80.002	19.994	104.153	19.878	7.369	0.470
848.000	505.535	80.002	19.996	104.154	19.878	7.333	0.544
848.501	505.691	80.003	19.993	104.154	19.884	6.909	0.519
849.000	506.021	80.001	19.993	104.156	19.877	7.421	0.463
849.500	506.228	80.003	19.995	104.156	19.887	6.668	0.512
850.000	506.521	80.003	19.993	104.154	19.878	7.317	0.518
850.500	506.775	80.003	19.993	104.156	19.879	7.265	0.523
851.000	507.017	80.002	19.993	104.158	19.876	7.479	0.521
851.500	507.289	80.003	19.994	104.158	19.881	7.111	0.505
852.000	507.481	80.001	19.993	104.157	19.877	7.449	0.489
852.501	507.750	80.002	19.993	104.155	19.878	7.333	0.462
853.000	508.029	80.001	19.993	104.153	19.880	7.231	0.505
853.500	508.218	80.004	19.994	104.152	19.881	7.159	0.508
854.000	508.516	80.004	19.994	104.152	19.872	7.786	0.477
854.500	508.801	80.002	19.995	104.157	19.877	7.389	0.535
855.000	508.996	80.003	19.996	104.164	19.877	7.441	0.532
855.500	509.327	80.003	19.996	104.167	19.879	7.285	0.504
856.000	509.609	80.002	19.993	104.166	19.877	7.388	0.570
856.500	509.796	80.002	19.993	104.166	19.880	7.195	0.541
857.000	510.135	80.004	19.994	104.166	19.873	7.694	0.498
857.500	510.400	80.004	19.993	104.159	19.877	7.421	0.565
858.001	510.616	80.003	19.993	104.156	19.877	7.450	0.543
858.500	510.906	80.005	19.993	104.156	19.878	7.379	0.494
859.000	510.876	80.005	19.993	104.155	19.880	7.207	0.383
859.500	511.806	80.004	19.994	104.151	19.877	7.439	0.580
860.000	511.987	80.004	19.993	104.151	19.878	7.364	1.005
860.500	512.306	80.003	19.993	104.150	19.876	7.518	0.805
861.001	512.099	80.005	19.992	104.149	19.879	7.289	0.306
861.501	512.177	80.003	19.993	104.150	19.878	7.325	-0.009
862.001	512.381	80.004	19.992	104.151	19.878	7.377	0.077
862.501	513.107	80.005	19.994	104.153	19.876	7.511	0.606
863.000	512.759	80.005	19.993	104.154	19.877	7.403	0.654
863.500	513.441	80.004	19.993	104.158	19.873	7.710	0.356
864.001	513.638	80.006	19.994	104.158	19.877	7.428	0.607
864.500	513.948	80.005	19.993	104.157	19.877	7.426	0.693
865.000	514.146	80.004	19.993	104.157	19.872	7.820	0.507
865.501	514.488	80.004	19.994	104.159	19.874	7.651	0.524
866.001	514.627	80.005	19.994	104.158	19.875	7.549	0.511
866.500	514.936	80.004	19.994	104.158	19.878	7.381	0.464
867.000	515.256	80.004	19.994	104.162	19.875	7.563	0.538
867.501	515.515	80.003	19.993	104.162	19.879	7.279	0.603
868.001	515.704	80.004	19.993	104.162	19.876	7.491	0.514
868.501	515.969	80.004	19.993	104.160	19.876	7.497	0.451
869.000	516.238	80.005	19.993	104.160	19.875	7.555	0.494
869.500	516.575	80.004	19.993	104.159	19.876	7.485	0.570
870.000	516.694	80.005	19.993	104.159	19.874	7.637	0.531
870.500	517.098	80.004	19.992	104.159	19.874	7.607	0.489
871.000	517.286	80.004	19.992	104.162	19.878	7.337	0.557
871.501	517.592	80.005	19.993	104.162	19.875	7.539	0.543
872.001	517.820	80.003	19.993	104.159	19.876	7.487	0.514
872.501	518.131	80.003	19.993	104.157	19.878	7.337	0.536
873.001	518.383	80.005	19.994	104.158	19.880	7.215	0.551
873.501	518.650	80.003	19.993	104.159	19.878	7.347	0.541
874.001	518.936	80.005	19.994	104.157	19.879	7.277	0.536
874.500	519.227	80.005	19.994	104.161	19.876	7.499	0.565
875.000	519.387	80.002	19.994	104.162	19.876	7.489	0.514
875.500	519.720	80.005	19.994	104.160	19.874	7.621	0.472
876.000	519.982	80.004	19.993	104.157	19.875	7.537	0.544
876.500	520.162	80.004	19.994	104.157	19.876	7.485	0.518
877.000	520.490	80.005	19.994	104.157	19.879	7.299	0.475
877.500	520.721	80.003	19.993	104.157	19.876	7.519	0.533
878.000	521.038	80.005	19.994	104.155	19.879	7.285	0.553
878.500	521.269	80.005	19.993	104.153	19.877	7.401	0.548
879.000	521.538	80.004	19.993	104.153	19.877	7.435	0.524
879.500	521.795	80.005	19.994	104.149	19.880	7.220	0.513
880.000	522.040	80.003	19.993	104.147	19.877	7.425	0.513
880.500	522.326	80.005	19.993	104.146	19.877	7.449	0.516
881.001	522.563	80.004	19.993	104.147	19.876	7.511	0.527
881.500	522.890	80.005	19.993	104.147	19.875	7.575	0.544
882.000	523.123	80.005	19.994	104.147	19.877	7.431	0.562
882.500	523.378	80.007	19.993	104.147	19.877	7.425	0.524
883.000	523.649	80.007	19.994	104.148	19.878	7.365	0.507
883.501	523.899	80.004	19.993	104.148	19.875	7.565	0.524
884.000	524.142	80.004	19.993	104.151	19.877	7.439	0.507
884.500	524.467	80.006	19.995	104.152	19.878	7.323	0.531
885.000	524.707	80.007	19.994	104.155	19.878	7.371	0.566
885.500	524.941	80.003	19.994	104.155	19.874	7.649	0.520
886.001	525.215	80.006	19.993	104.154	19.875	7.535	0.491
886.500	525.487	80.005	19.993	104.155	19.875	7.567	0.527
887.000	525.772	80.005	19.995	104.159	19.872	7.803	0.551
887.500	526.041	80.007	19.992	104.158	19.876	7.497	0.555
888.000	526.324	80.006	19.995	104.157	19.875	7.597	0.552
888.501	526.528	80.005	19.993	104.157	19.876	7.525	0.519
889.000	526.803	80.006	19.993	104.154	19.873	7.715	0.483
889.500	527.074	80.008	19.993	104.149	19.876	7.491	0.513
890.000	527.330	80.007	19.993	104.147	19.874	7.667	0.537
890.500	527.631	80.007	19.993	104.147	19.876	7.517	0.542
891.001	527.828	80.005	19.993	104.148	19.871	7.865	0.527
891.500	528.133	80.005	19.993	104.148	19.874	7.675	0.500
892.000	528.389	80.006	19.993	104.147	19.873	7.685	0.531
892.501	528.668	80.006	19.993	104.147	19.872	7.763	0.548
893.000	528.899	80.006	19.992	104.147	19.876	7.499	0.523
893.500	529.164	80.006	19.993	104.147	19.874	7.621	0.504
894.001	529.417	80.008	19.992	104.148	19.876	7.477	0.507
894.500	529.690	80.007	19.993	104.152	19.875	7.579	0.522
895.000	529.947	80.005	19.994	104.152	19.876	7.515	0.528
895.500	530.177	80.004	19.994	104.152	19.874	7.627	0.508
896.000	530.467	80.005	19.994	104.151	19.873	7.681	0.503
896.501	530.754	80.005	19.993	104.150	19.874	7.609	0.548
897.001	530.986	80.006	19.993	104.147	19.875	7.559	0.548
897.500	531.250	80.006	19.995	104.146	19.874	7.639	0.508
898.000	531.509	80.003	19.993	104.146	19.875	7.562	0.510
898.500	531.753	80.004	19.994	104.147	19.873	7.683	0.513
899.000	532.023	80.004	19.995	104.146	19.870	7.899	0.509
899.500	532.265	80.003	19.994	104.151	19.874	7.621	0.513
900.000	532.537	80.002	19.994	104.155	19.874	7.625	0.512
900.500	532.781	80.003	19.993	104.154	19.875	7.561	0.515
901.000	533.035	80.005	19.994	104.154	19.877	7.444	0.507
901.500	533.306	80.004	19.995	104.154	19.873	7.730	0.511
902.000	533.581	80.004	19.994	104.150	19.873	7.728	0.536
902.500	533.844	80.004	19.994	104.147	19.874	7.643	0.543
903.000	534.102	80.003	19.994	104.147	19.879	7.273	0.530
903.500	534.380	80.006	19.995	104.149	19.875	7.593	0.528
904.000	534.637	80.002	19.994	104.152	19.875	7.553	0.535
904.500	534.903	80.003	19.994	104.151	19.875	7.563	0.529
905.000	535.116	80.004	19.994	104.152	19.874	7.605	0.501
905.500	535.377	80.004	19.995	104.151	19.874	7.609	0.477
906.000	535.615	80.004	19.994	104.150	19.875	7.597	0.487
906.500	535.928	80.003	19.995	104.146	19.874	7.653	0.524
907.000	536.165	80.003	19.995	104.146	19.872	7.801	0.551
907.500	536.430	80.003	19.994	104.145	19.877	7.433	0.526
908.001	536.728	80.003	19.995	104.145	19.875	7.599	0.532
908.500	536.929	80.003	19.994	104.145	19.876	7.515	0.531
909.000	537.199	80.003	19.994	104.144	19.878	7.353	0.485
909.500	537.462	80.005	19.993	104.146	19.876	7.473	0.502
910.001	537.673	80.000	19.996	104.146	19.877	7.417	0.503
910.501	537.970	80.001	19.994	104.146	19.875	7.573	0.491
911.000	538.203	80.005	19.994	104.146	19.875	7.549	0.519
911.500	538.503	80.003	19.994	104.145	19.874	7.649	0.532
912.000	538.711	80.000	19.994	104.142	19.876	7.497	0.521
912.500	538.991	80.002	19.994	104.141	19.876	7.481	0.498
913.001	539.244	80.001	19.993	104.142	19.876	7.497	0.510
913.501	539.504	80.005	19.993	104.145	19.876	7.461	0.523
914.000	539.765	80.003	19.993	104.148	19.877	7.437	0.518
914.500	540.015	80.002	19.994	104.152	19.875	7.545	0.516
915.001	540.235	80.002	19.993	104.152	19.877	7.407	0.490
915.500	540.489	80.004	19.994	104.151	19.879	7.297	0.472
916.000	540.769	80.002	19.994	104.149	19.879	7.283	0.504
916.500	541.049	80.003	19.994	104.148	19.876	7.490	0.547
917.000	541.272	80.004	19.993	104.147	19.879	7.291	0.531
917.500	541.521	80.005	19.994	104.149	19.877	7.425	0.487
918.000	541.793	80.004	19.993	104.150	19.877	7.441	0.496
918.500	542.040	80.002	19.993	104.150	19.878	7.311	0.520
919.000	542.293	80.004	19.992	104.150	19.878	7.355	0.510
919.501	542.563	80.003	19.993	104.151	19.878	7.317	0.512
920.001	542.805	80.003	19.995	104.150	19.876	7.483	0.517
920.501	543.049	80.004	19.994	104.150	19.879	7.277	0.499
921.001	543.310	80.002	19.994	104.149	19.876	7.492	0.495
921.501	543.566	80.005	19.992	104.150	19.877	7.418	0.511
922.001	543.831	80.001	19.994	104.150	19.876	7.503	0.520
922.501	544.062	80.002	19.993	104.152	19.880	7.230	0.509
923.001	544.360	80.004	19.995	104.151	19.878	7.365	0.512
923.501	544.576	80.002	19.995	104.152	19.877	7.448	0.522
924.000	544.853	80.003	19.994	104.151	19.878	7.350	0.504
924.500	545.093	80.002	19.995	104.150	19.876	7.524	0.505
925.001	545.354	80.005	19.993	104.149	19.876	7.464	0.509
925.500	545.580	80.002	19.995	104.153	19.879	7.257	0.494
926.000	545.853	80.002	19.994	104.157	19.876	7.473	0.493
926.501	546.133	80.003	19.993	104.159	19.876	7.503	0.526
927.001	546.356	80.003	19.994	104.160	19.880	7.215	0.528
927.501	546.627	80.001	19.994	104.160	19.878	7.331	0.499
928.001	546.897	80.002	19.995	104.156	19.877	7.413	0.517
928.501	547.137	80.002	19.995	104.151	19.878	7.351	0.525
929.001	547.387	80.001	19.994	104.150	19.876	7.481	0.500
929.500	547.690	80.002	19.994	104.149	19.877	7.417	0.521
930.000	547.946	80.001	19.994	104.149	19.876	7.495	0.556
930.501	548.191	80.002	19.995	104.150	19.878	7.353	0.530
931.000	548.429	79.999	19.995	104.154	19.878	7.355	0.492
931.500	548.704	80.003	19.995	104.160	19.877	7.417	0.498
932.000	548.956	80.005	19.994	104.167	19.874	7.621	0.520
932.500	549.243	80.000	19.994	104.172	19.878	7.341	0.533
933.001	549.465	80.001	19.995	104.178	19.877	7.405	0.524
933.501	549.718	80.002	19.994	104.176	19.878	7.355	0.492
934.001	550.012	80.001	19.994	104.175	19.877	7.399	0.511
934.501	550.272	80.002	19.994	104.172	19.876	7.507	0.550
935.000	550.499	80.003	19.994	104.170	19.875	7.545	0.520
935.500	550.816	80.002	19.995	104.165	19.874	7.617	0.516
936.000	551.063	79.999	19.994	104.163	19.875	7.589	0.554
936.500	551.321	80.002	19.994	104.159	19.875	7.569	0.535
937.001	551.557	80.001	19.994	104.155	19.881	7.146	0.500
937.500	551.832	80.004	19.994	104.152	19.875	7.542	0.503
938.000	552.050	80.002	19.995	104.150	19.878	7.360	0.502
938.500	552.326	80.001	19.995	104.151	19.875	7.595	0.493
939.000	552.598	80.002	19.994	104.151	19.876	7.489	0.521
939.500	552.813	80.003	19.994	104.151	19.878	7.316	0.518
940.000	553.108	80.002	19.995	104.152	19.877	7.419	0.499
940.500	553.382	80.002	19.993	104.154	19.878	7.336	0.540
941.000	553.625	80.004	19.995	104.158	19.878	7.354	0.543
941.500	553.901	80.004	19.994	104.157	19.874	7.617	0.518
942.000	554.149	80.002	19.993	104.158	19.874	7.653	0.522
942.500	554.453	80.003	19.993	104.157	19.874	7.617	0.538
943.000	554.681	80.003	19.994	104.153	19.878	7.377	0.542
943.500	554.923	80.003	19.993	104.149	19.872	7.765	0.500
944.000	555.211	80.001	19.993	104.148	19.876	7.496	0.500
944.500	555.471	80.004	19.996	104.149	19.872	7.770	0.540
945.001	555.727	80.005	19.996	104.156	19.874	7.648	0.532
945.501	555.937	80.004	19.994	104.158	19.873	7.702	0.491
946.000	556.243	80.006	19.996	104.158	19.875	7.584	0.491
946.500	556.436	80.002	19.994	104.157	19.878	7.358	0.508
947.000	556.719	80.006	19.995	104.153	19.874	7.603	0.487
947.500	556.965	80.005	19.994	104.145	19.878	7.370	0.502
948.001	557.228	80.004	19.995	104.143	19.876	7.515	0.519
948.501	557.468	80.006	19.994	104.143	19.874	7.625	0.507
949.001	557.734	80.006	19.994	104.143	19.876	7.521	0.505
949.501	557.957	80.003	19.993	104.146	19.874	7.669	0.497
950.001	558.269	80.007	19.993	104.147	19.871	7.845	0.512
950.501	558.502	80.005	19.994	104.147	19.872	7.795	0.540
951.001	558.764	80.004	19.993	104.146	19.873	7.731	0.520
951.500	559.016	80.006	19.994	104.146	19.871	7.839	0.505
952.000	559.259	80.005	19.993	104.146	19.873	7.695	0.504
952.501	559.493	80.003	19.993	104.146	19.872	7.803	0.486
953.000	559.750	80.005	19.993	104.147	19.867	8.177	0.484
953.500	560.014	80.004	19.992	104.147	19.870	7.925	0.506
954.000	560.239	80.007	19.992	104.146	19.871	7.879	0.505
954.500	560.503	80.005	19.994	104.146	19.870	7.905	0.489
955.000	560.804	80.004	19.993	104.140	19.871	7.841	0.527
955.500	560.996	80.005	19.994	104.139	19.872	7.811	0.528
956.000	561.268	80.006	19.993	104.140	19.873	7.737	0.478
956.500	561.546	80.002	19.993	104.138	19.869	8.039	0.508
957.000	561.791	80.006	19.994	104.138	19.873	7.725	0.537
957.500	562.028	80.003	19.993	104.143	19.871	7.847	0.503
958.000	562.273	80.004	19.993	104.145	19.870	7.933	0.482
958.500	562.534	80.003	19.994	104.144	19.872	7.792	0.494
959.000	562.759	80.003	19.994	104.146	19.871	7.829	0.496
959.500	563.074	80.005	19.993	104.147	19.871	7.873	0.513
960.000	563.313	80.005	19.993	104.147	19.873	7.693	0.547
960.500	563.551	80.004	19.993	104.146	19.872	7.751	0.516
961.000	563.779	80.004	19.994	104.146	19.871	7.851	0.472
961.500	564.049	80.003	19.993	104.146	19.873	7.723	0.482
962.000	564.268	80.002	19.993	104.146	19.870	7.923	0.493
962.500	564.502	80.005	19.993	104.145	19.870	7.899	0.471
963.001	564.756	80.004	19.994	104.145	19.871	7.863	0.471
963.501	565.001	80.003	19.993	104.145	19.871	7.871	0.494
964.000	565.280	80.002	19.994	104.146	19.871	7.867	0.511
964.500	565.540	80.005	19.994	104.146	19.871	7.843	0.531
965.000	565.791	80.002	19.994	104.147	19.872	7.803	0.525
965.500	566.024	80.003	19.993	104.146	19.869	7.985	0.497
966.000	566.263	80.003	19.993	104.147	19.871	7.871	0.478
966.500	566.485	80.004	19.992	104.146	19.869	7.983	0.467
967.000	566.780	80.003	19.994	104.146	19.871	7.871	0.489
967.500	567.019	80.005	19.993	104.146	19.870	7.909	0.526
968.001	567.284	80.005	19.993	104.144	19.871	7.839	0.519
968.501	567.510	80.004	19.993	104.143	19.869	7.989	0.497
969.001	567.748	80.005	19.994	104.143	19.870	7.953	0.477
969.500	568.048	80.006	19.994	104.143	19.871	7.861	0.501
970.000	568.300	80.003	19.994	104.143	19.868	8.043	0.545
970.501	568.521	80.005	19.994	104.144	19.867	8.125	0.513
971.001	568.782	80.005	19.993	104.145	19.870	7.954	0.478
971.501	569.042	80.006	19.994	104.145	19.868	8.056	0.502
972.001	569.267	80.006	19.994	104.144	19.871	7.878	0.503
972.500	569.520	80.006	19.992	104.144	19.870	7.910	0.481
973.000	569.826	80.006	19.993	104.145	19.868	8.080	0.518
973.501	570.096	80.005	19.994	104.145	19.872	7.803	0.568
974.001	570.324	80.006	19.995	104.145	19.870	7.951	0.537
974.501	570.549	80.007	19.995	104.145	19.869	8.039	0.476
975.000	570.794	80.008	19.995	104.145	19.870	7.907	0.462
975.500	571.014	80.006	19.994	104.145	19.869	7.984	0.468
976.000	571.298	80.004	19.994	104.145	19.871	7.863	0.484
976.500	571.540	80.006	19.994	104.144	19.869	7.973	0.515
977.001	571.781	80.006	19.993	104.144	19.869	8.013	0.505
977.501	571.995	80.007	19.993	104.145	19.868	8.093	0.469
978.000	572.264	80.003	19.993	104.144	19.872	7.758	0.469
978.500	572.521	80.004	19.994	104.146	19.871	7.886	0.505
979.001	572.760	80.004	19.993	104.147	19.871	7.843	0.511
979.500	573.052	80.005	19.993	104.147	19.869	7.993	0.513
980.000	573.288	80.003	19.993	104.147	19.870	7.944	0.529
980.500	573.533	80.006	19.993	104.147	19.869	7.979	0.505
981.001	573.801	80.006	19.993	104.147	19.870	7.905	0.498
981.500	574.014	80.006	19.994	104.150	19.870	7.921	0.497
982.000	574.297	80.003	19.994	104.157	19.870	7.963	0.488
982.500	574.552	80.003	19.993	104.157	19.869	8.031	0.517
983.000	574.847	80.000	19.994	104.157	19.870	7.934	0.544
983.500	575.071	80.003	19.993	104.157	19.867	8.120	0.535
984.000	575.296	80.004	19.993	104.155	19.869	8.018	0.484
984.500	575.546	80.005	19.994	104.150	19.869	8.022	0.462
985.000	575.807	80.008	19.992	104.151	19.870	7.906	0.493
985.501	576.089	79.998	19.993	104.153	19.870	7.920	0.527
986.000	576.342	80.007	19.994	104.155	19.870	7.913	0.539
986.500	576.588	79.996	19.994	104.156	19.870	7.961	0.517
987.000	576.827	80.004	19.994	104.155	19.870	7.915	0.492
987.500	577.077	80.003	19.993	104.153	19.870	7.960	0.487
988.001	577.325	80.000	19.993	104.148	19.869	8.006	0.493
988.501	577.576	80.007	19.993	104.143	19.871	7.890	0.499
989.001	577.847	80.001	19.994	104.143	19.866	8.245	0.511
989.501	578.112	80.004	19.994	104.141	19.867	8.152	0.529
990.000	578.286	80.004	19.993	104.145	19.867	8.122	0.487
990.500	578.573	80.009	19.994	104.152	19.866	8.224	0.450
991.000	578.820	80.002	19.994	104.162	19.864	8.378	0.498
991.500	579.113	80.002	19.994	104.168	19.867	8.139	0.537
992.000	579.343	79.997	19.995	104.170	19.866	8.226	0.532
992.500	579.616	80.002	19.993	104.174	19.868	8.078	0.513
993.000	579.865	79.998	19.993	104.174	19.868	8.089	0.512
993.500	580.091	80.003	19.995	104.168	19.864	8.353	0.498
994.001	580.353	80.003	19.994	104.163	19.868	8.058	0.481
994.501	580.620	80.004	19.993	104.162	19.869	7.973	0.509
995.001	580.910	80.001	19.995	104.160	19.867	8.185	0.543
995.500	581.157	80.006	19.993	104.157	19.867	8.149	0.547
996.000	581.446	80.007	19.993	104.157	19.868	8.099	0.537
996.500	581.662	80.001	19.994	104.157	19.866	8.241	0.521
997.000	581.890	80.014	19.993	104.155	19.867	8.172	0.474
997.501	582.177	80.001	19.994	104.153	19.866	8.208	0.479
998.001	582.384	80.002	19.994	104.151	19.866	8.220	0.505
998.501	582.664	80.001	19.994	104.157	19.869	7.992	0.491
999.001	582.953	80.013	19.993	104.159	19.869	8.021	0.528
999.500	583.185	79.997	19.995	104.164	19.868	8.100	0.545
1000.000	583.458	80.002	19.994	104.165	19.865	8.270	0.513
1000.500	583.717	80.002	19.993	104.165	19.865	8.309	0.518
1001.001	583.992	80.003	19.993	104.159	19.868	8.071	0.533
1001.500	584.268	80.002	19.993	104.157	19.868	8.059	0.543
1002.000	584.480	80.006	19.994	104.153	19.866	8.239	0.519
1002.500	584.771	80.001	19.994	104.152	19.871	7.859	0.496
1003.000	585.006	80.001	19.995	104.158	19.870	7.921	0.514
1003.500	585.234	80.001	19.994	104.165	19.867	8.171	0.494
1004.000	585.512	80.002	19.993	104.171	19.868	8.093	0.484
1004.500	585.776	80.003	19.994	104.175	19.867	8.137	0.524
1005.000	586.023	80.002	19.995	104.180	19.865	8.294	0.527
1005.500	586.289	80.002	19.995	104.178	19.863	8.435	0.512
1006.000	586.523	80.003	19.995	104.174	19.867	8.131	0.506
1006.501	586.804	80.004	19.995	104.170	19.866	8.189	0.508
1007.000	587.069	80.003	19.994	104.168	19.868	8.067	0.531
1007.500	587.298	80.004	19.994	104.165	19.867	8.177	0.520
1008.000	587.572	80.000	19.994	104.162	19.866	8.196	0.498
1008.500	587.859	80.002	19.993	104.160	19.868	8.093	0.532
1009.000	588.127	80.006	19.994	104.160	19.868	8.091	0.558
1009.500	588.367	80.008	19.994	104.157	19.866	8.241	0.532
1010.000	588.653	80.010	19.992	104.153	19.866	8.209	0.517
1010.500	588.898	79.999	19.994	104.154	19.866	8.211	0.528
1011.000	589.147	79.997	19.995	104.153	19.868	8.109	0.512
1011.500	589.425	79.988	19.995	104.151	19.864	8.343	0.510
1012.000	589.708	80.001	19.994	104.150	19.869	8.032	0.544
1012.500	589.938	80.006	19.994	104.150	19.867	8.120	0.537
1013.000	590.208	79.996	19.995	104.148	19.865	8.318	0.507
1013.500	590.465	80.020	19.991	104.145	19.868	8.052	0.514
1014.001	590.725	80.004	19.993	104.150	19.867	8.134	0.522
1014.501	590.996	80.006	19.995	104.151	19.868	8.077	0.524
1015.000	591.214	80.005	19.994	104.151	19.866	8.221	0.510
1015.500	591.494	79.999	19.995	104.152	19.866	8.255	0.494
1016.000	591.744	80.002	19.994	104.154	19.866	8.245	0.514
1016.500	592.027	80.004	19.994	104.151	19.867	8.159	0.531
1017.001	592.267	80.011	19.995	104.151	19.863	8.431	0.528
1017.500	592.541	80.003	19.994	104.152	19.866	8.207	0.518
1018.000	592.798	80.010	19.993	104.150	19.866	8.203	0.522
1018.500	593.049	80.010	19.992	104.152	19.865	8.319	0.519
1019.000	593.281	79.999	19.994	104.153	19.863	8.415	0.496
1019.500	593.589	79.995	19.995	104.151	19.867	8.183	0.512
1020.000	593.857	80.000	19.993	104.150	19.866	8.235	0.558
1020.500	594.093	80.013	19.993	104.150	19.862	8.513	0.540
1021.000	594.364	80.004	19.994	104.149	19.864	8.353	0.505
1021.501	594.595	80.006	19.994	104.146	19.862	8.491	0.504
1022.000	594.924	79.991	19.995	104.145	19.862	8.501	0.531
1022.500	595.159	80.004	19.994	104.150	19.865	8.283	0.562
1023.000	595.432	80.001	19.994	104.157	19.865	8.301	0.536
1023.501	595.698	79.999	19.996	104.159	19.865	8.265	0.523
1024.000	595.938	80.001	19.994	104.160	19.865	8.304	0.523
1024.500	596.220	80.001	19.994	104.160	19.866	8.198	0.515
1025.001	596.470	80.005	19.993	104.157	19.867	8.132	0.527
1025.501	596.702	80.004	19.994	104.152	19.864	8.337	0.507
1026.000	596.996	80.006	19.995	104.148	19.863	8.421	0.504
1026.500	597.269	80.007	19.994	104.146	19.864	8.341	0.546
1027.000	597.497	79.981	19.996	104.149	19.865	8.300	0.534
1027.500	597.793	79.995	19.996	104.144	19.866	8.188	0.512
1028.000	598.044	80.004	19.993	104.141	19.863	8.427	0.535
1028.500	598.302	80.006	19.994	104.141	19.867	8.139	0.528
1029.000	598.563	80.004	19.995	104.142	19.865	8.291	0.514
1029.500	598.804	80.003	19.995	104.141	19.865	8.285	0.510
1030.000	599.088	80.000	19.995	104.144	19.866	8.218	0.514
1030.500	599.320	80.005	19.994	104.143	19.865	8.322	0.521
1031.000	599.639	80.008	19.995	104.143	19.865	8.295	0.534
1031.500	599.866	80.005	19.995	104.143	19.863	8.469	0.548
1032.000	600.132	80.001	19.994	104.143	19.866	8.198	0.520
1032.500	600.370	80.006	19.995	104.143	19.867	8.120	0.498
1033.000	600.631	80.007	19.993	104.145	19.869	8.026	0.502
1033.501	600.889	80.012	19.993	104.148	19.867	8.171	0.509
1034.001	601.181	80.010	19.994	104.149	19.865	8.281	0.534
1034.500	601.459	79.995	19.994	104.152	19.864	8.362	0.560
1035.000	601.695	80.009	19.995	104.157	19.864	8.356	0.542
1035.500	601.943	79.999	19.997	104.162	19.865	8.283	0.499
1036.000	602.214	80.005	19.995	104.162	19.867	8.134	0.501
1036.500	602.490	80.001	19.995	104.166	19.866	8.258	0.533
1037.000	602.756	80.005	19.995	104.168	19.866	8.236	0.545
1037.500	603.031	80.008	19.993	104.166	19.864	8.396	0.542
1038.000	603.266	80.006	19.993	104.162	19.863	8.462	0.526
1038.500	603.547	80.007	19.994	104.165	19.866	8.188	0.513
1039.000	603.833	80.007	19.994	104.167	19.865	8.263	0.541
1039.500	604.057	79.996	19.994	104.169	19.867	8.167	0.538
1040.000	604.329	79.989	19.994	104.169	19.864	8.404	0.503
1040.500	604.591	80.011	19.992	104.166	19.867	8.169	0.515
1041.000	604.856	80.007	19.993	104.164	19.865	8.305	0.531
1041.500	605.132	80.010	19.992	104.162	19.866	8.247	0.534
1042.000	605.374	80.012	19.992	104.166	19.867	8.131	0.529
1042.500	605.696	80.020	19.990	104.172	19.867	8.123	0.541
1043.000	605.925	80.008	19.992	104.181	19.864	8.401	0.557
1043.500	606.221	80.006	19.992	104.185	19.867	8.153	0.538
1044.000	606.462	80.005	19.994	104.182	19.863	8.458	0.531
1044.500	606.732	79.992	19.995	104.175	19.864	8.384	0.524
1045.000	607.007	80.008	19.992	104.165	19.863	8.474	0.528
1045.500	607.221	79.984	19.995	104.159	19.865	8.262	0.517
1046.000	607.514	79.998	19.992	104.154	19.863	8.439	0.498
1046.500	607.811	80.011	19.992	104.152	19.864	8.376	0.548
1047.000	608.063	80.016	19.991	104.154	19.860	8.636	0.569
1047.500	608.306	80.005	19.989	104.161	19.862	8.540	0.522
1048.000	608.516	79.987	19.996	104.161	19.861	8.564	0.474
1048.501	608.790	80.005	19.993	104.156	19.863	8.446	0.469
1049.000	609.100	79.998	19.993	104.156	19.860	8.654	0.534
1049.500	609.339	80.005	19.992	104.153	19.863	8.476	0.566
1050.001	609.611	80.008	19.993	104.151	19.864	8.382	0.530
1050.501	609.855	80.006	19.994	104.147	19.862	8.482	0.513
1051.001	610.139	79.996	19.995	104.152	19.865	8.312	0.522
1051.501	610.382	80.007	19.993	104.151	19.864	8.352	0.528
1052.001	610.625	79.988	19.994	104.151	19.865	8.272	0.506
1052.500	610.919	80.010	19.991	104.146	19.863	8.436	0.511
1053.000	611.144	80.005	19.994	104.147	19.865	8.308	0.528
1053.500	611.460	80.011	19.993	104.146	19.865	8.324	0.531
1054.000	611.719	79.985	19.994	104.147	19.863	8.411	0.558
1054.500	612.002	80.021	19.992	104.144	19.862	8.493	0.558
1055.000	612.245	80.005	19.993	104.151	19.865	8.287	0.534
1055.500	612.472	79.996	19.994	104.153	19.868	8.113	0.498
1056.000	612.760	79.999	19.993	104.158	19.864	8.377	0.493
1056.501	613.043	80.009	19.993	104.162	19.865	8.313	0.543
1057.000	613.255	80.013	19.993	104.165	19.865	8.307	0.533
1057.500	613.536	80.007	19.994	104.163	19.863	8.459	0.494
1058.000	613.793	80.007	19.992	104.158	19.864	8.401	0.516
1058.500	614.086	80.006	19.993	104.156	19.866	8.259	0.544
1059.000	614.331	80.007	19.992	104.152	19.865	8.289	0.543
1059.500	614.583	80.023	19.990	104.152	19.866	8.217	0.518
1060.000	614.876	80.002	19.993	104.157	19.865	8.317	0.521
1060.500	615.101	80.006	19.992	104.160	19.863	8.415	0.531
1061.000	615.406	80.001	19.994	104.157	19.867	8.135	0.524
1061.500	615.675	80.011	19.992	104.157	19.869	8.009	0.552
1062.000	615.923	80.000	19.993	104.160	19.866	8.245	0.546
1062.500	616.164	80.005	19.993	104.154	19.862	8.479	0.503
1063.001	616.452	80.017	19.990	104.155	19.868	8.113	0.509
1063.501	616.686	80.008	19.992	104.159	19.865	8.273	0.526
1064.001	616.948	79.997	19.994	104.160	19.864	8.349	0.509
1064.501	617.216	79.993	19.995	104.152	19.864	8.356	0.513
1065.001	617.494	80.012	19.992	104.148	19.862	8.492	0.538
1065.501	617.712	80.007	19.993	104.148	19.865	8.330	0.521
1066.000	617.980	79.997	19.995	104.145	19.865	8.272	0.491
1066.500	618.259	80.000	19.996	104.144	19.865	8.298	0.517
1067.001	618.498	80.001	19.994	104.147	19.865	8.263	0.533
1067.500	618.751	80.007	19.995	104.148	19.862	8.542	0.505
1068.000	619.031	80.005	19.994	104.144	19.863	8.420	0.513
1068.500	619.310	79.999	19.993	104.143	19.864	8.353	0.546
1069.000	619.525	79.998	19.994	104.144	19.865	8.287	0.526
1069.500	619.801	80.007	19.995	104.144	19.863	8.430	0.492
1070.000	620.058	79.991	19.994	104.144	19.867	8.139	0.512
1070.501	620.353	80.005	19.992	104.146	19.865	8.289	0.543
1071.000	620.609	80.005	19.993	104.148	19.863	8.409	0.552
1071.500	620.851	80.001	19.994	104.149	19.864	8.361	0.525
1072.000	621.108	80.005	19.993	104.150	19.861	8.597	0.498
1072.500	621.327	79.995	19.993	104.153	19.861	8.557	0.487
1073.001	621.650	80.002	19.992	104.152	19.862	8.552	0.510
1073.501	621.833	79.993	19.995	104.150	19.860	8.688	0.524
1074.001	622.122	80.002	19.992	104.146	19.860	8.688	0.489
1074.500	622.378	80.004	19.992	104.148	19.862	8.542	0.509
1075.000	622.656	80.020	19.991	104.148	19.861	8.562	0.539
1075.500	622.875	80.015	19.994	104.153	19.861	8.580	0.515
1076.001	623.144	80.002	19.991	104.151	19.861	8.590	0.493
1076.500	623.394	80.002	19.992	104.157	19.861	8.555	0.504
1077.000	623.683	80.017	19.994	104.156	19.857	8.909	0.529
1077.501	623.917	80.001	19.992	104.153	19.862	8.536	0.531
1078.000	624.168	80.002	19.993	104.150	19.858	8.831	0.504
1078.500	624.438	80.013	19.992	104.155	19.859	8.737	0.502
1079.000	624.659	79.987	19.994	104.154	19.862	8.502	0.506
1079.501	624.963	80.010	19.993	104.150	19.861	8.578	0.508
1080.000	625.235	80.017	19.993	104.150	19.860	8.648	0.551
1080.500	625.505	80.003	19.993	104.151	19.859	8.704	0.559
1081.000	625.698	79.997	19.992	104.149	19.857	8.858	0.502
1081.500	625.977	80.005	19.992	104.146	19.862	8.496	0.468
1082.001	626.223	79.993	19.993	104.149	19.860	8.664	0.499
1082.501	626.476	79.993	19.995	104.150	19.859	8.726	0.512
1083.001	626.737	80.010	19.993	104.148	19.859	8.763	0.506
1083.501	627.019	80.000	19.994	104.149	19.861	8.591	0.529
1084.001	627.267	80.015	19.991	104.151	19.860	8.631	0.537
1084.500	627.519	80.011	19.993	104.154	19.862	8.503	0.515
1085.000	627.788	80.002	19.994	104.155	19.861	8.592	0.510
1085.500	628.043	80.021	19.991	104.157	19.862	8.520	0.523
1086.000	628.275	79.999	19.995	104.159	19.858	8.818	0.506
1086.501	628.564	80.006	19.993	104.160	19.860	8.650	0.503
1087.001	628.825	80.010	19.992	104.160	19.857	8.859	0.535
1087.500	629.066	79.994	19.996	104.164	19.860	8.651	0.526
1088.000	629.338	80.000	19.995	104.163	19.863	8.459	0.508
1088.500	629.626	80.019	19.991	104.159	19.859	8.725	0.537
1089.000	629.891	80.012	19.992	104.161	19.862	8.511	0.557
1089.501	630.141	80.008	19.994	104.161	19.858	8.842	0.534
1090.000	630.434	79.994	19.995	104.157	19.863	8.447	0.529
1090.500	630.680	79.990	19.994	104.157	19.858	8.800	0.541
1091.001	630.933	80.001	19.994	104.161	19.860	8.688	0.519
1091.500	631.198	80.017	19.992	104.159	19.859	8.722	0.509
1092.000	631.458	80.007	19.994	104.158	19.862	8.552	0.521
1092.501	631.729	80.008	19.995	104.160	19.860	8.636	0.527
1093.001	631.997	79.995	19.995	104.157	19.861	8.578	0.535
1093.501	632.240	80.012	19.993	104.150	19.865	8.322	0.525
1094.000	632.564	80.013	19.994	104.147	19.863	8.450	0.540
1094.500	632.795	79.991	19.996	104.146	19.861	8.590	0.561
1095.000	633.063	80.002	19.994	104.140	19.859	8.708	0.527
1095.500	633.364	80.018	19.993	104.145	19.858	8.774	0.534
1096.000	633.650	80.013	19.992	104.151	19.859	8.744	0.579
1096.500	633.887	80.003	19.994	104.152	19.861	8.598	0.555
1097.000	634.165	79.993	19.997	104.151	19.859	8.730	0.518
1097.500	634.487	79.999	19.996	104.150	19.861	8.598	0.557
1098.000	634.716	80.006	19.995	104.147	19.857	8.906	0.576
1098.500	634.984	79.997	19.994	104.146	19.858	8.828	0.524
1099.000	635.258	80.006	19.994	104.142	19.860	8.695	0.520
1099.500	635.502	80.004	19.995	104.145	19.859	8.759	0.530
1100.000	635.792	80.000	19.994	104.149	19.859	8.764	0.526
1100.500	636.114	80.004	19.993	104.150	19.858	8.780	0.573
1101.000	636.337	80.005	19.995	104.150	19.859	8.754	0.578
1101.500	636.638	79.995	19.994	104.150	19.861	8.620	0.534
1102.000	636.909	80.005	19.993	104.150	19.859	8.740	0.548
1102.500	637.180	80.002	19.994	104.154	19.858	8.798	0.558
1103.000	637.429	79.988	19.995	104.156	19.858	8.782	0.531
1103.500	637.678	79.987	19.996	104.156	19.860	8.664	0.509
1104.000	637.978	80.002	19.995	104.158	19.856	8.934	0.523
1104.500	638.209	79.997	19.994	104.156	19.858	8.794	0.540
1105.000	638.502	80.010	19.993	104.153	19.860	8.656	0.527
1105.500	638.793	80.011	19.994	104.152	19.862	8.492	0.554
1106.000	639.091	80.011	19.994	104.150	19.861	8.614	0.586
1106.500	639.309	80.006	19.996	104.153	19.861	8.576	0.553
1107.000	639.564	80.012	19.994	104.152	19.859	8.754	0.495
1107.501	639.839	80.021	19.994	104.154	19.860	8.689	0.501
1108.000	640.142	80.011	19.996	104.156	19.858	8.801	0.554
1108.500	640.353	79.997	19.994	104.155	19.859	8.721	0.546
1109.000	640.679	79.998	19.995	104.151	19.859	8.729	0.525
1109.500	640.891	80.000	19.994	104.150	19.856	8.926	0.537
1110.000	641.202	80.014	19.992	104.148	19.859	8.742	0.530
1110.500	641.468	80.008	19.994	104.147	19.861	8.586	0.550
1111.000	641.658	80.000	19.994	104.150	19.859	8.765	0.516
1111.500	641.980	80.008	19.993	104.154	19.862	8.553	0.484
1112.000	642.233	80.002	19.993	104.157	19.862	8.491	0.544
1112.500	642.499	80.005	19.994	104.157	19.865	8.316	0.547
1113.000	642.803	80.007	19.992	104.155	19.861	8.608	0.545
1113.500	643.042	80.002	19.995	104.154	19.859	8.734	0.557
1114.000	643.285	80.003	19.993	104.151	19.859	8.758	0.513
1114.500	643.592	80.007	19.993	104.151	19.857	8.904	0.516
1115.000	643.853	80.003	19.993	104.150	19.859	8.766	0.558
1115.500	644.127	80.013	19.994	104.151	19.855	9.062	0.551
1116.000	644.342	80.001	19.994	104.152	19.858	8.842	0.512
1116.500	644.642	80.003	19.994	104.153	19.859	8.754	0.502
1117.000	644.901	80.009	19.993	104.152	19.858	8.814	0.537
1117.500	645.107	79.993	19.996	104.152	19.859	8.751	0.512
1118.000	645.449	80.002	19.994	104.149	19.856	8.920	0.506
1118.501	645.659	80.003	19.995	104.147	19.859	8.764	0.550
1119.001	645.928	79.994	19.996	104.146	19.856	8.962	0.516
1119.500	646.201	80.004	19.993	104.143	19.855	9.025	0.511
1120.000	646.466	79.999	19.994	104.145	19.857	8.908	0.540
1120.500	646.788	80.009	19.992	104.147	19.855	9.022	0.562
1121.000	647.044	79.999	19.994	104.155	19.853	9.175	0.582
1121.500	647.267	80.006	19.994	104.159	19.858	8.842	0.529
1122.000	647.547	80.006	19.994	104.163	19.859	8.754	0.491
1122.500	647.851	80.004	19.993	104.162	19.857	8.902	0.544
1123.000	648.086	79.995	19.995	104.163	19.857	8.898	0.562
1123.501	648.374	80.009	19.993	104.154	19.858	8.836	0.531
1124.001	648.628	79.997	19.995	104.152	19.855	9.056	0.532
1124.501	648.884	80.011	19.996	104.152	19.857	8.850	0.526
1125.001	649.131	80.004	19.997	104.156	19.856	8.976	0.507
1125.501	649.467	80.011	19.994	104.154	19.856	8.928	0.543
1126.001	649.701	80.017	19.994	104.157	19.856	8.978	0.577
1126.500	650.011	80.005	19.993	104.157	19.858	8.843	0.557
1127.000	650.228	80.004	19.996	104.158	19.858	8.809	0.535
1127.501	650.456	79.996	19.995	104.152	19.858	8.783	0.486
1128.001	650.744	80.009	19.994	104.156	19.856	8.961	0.481
1128.501	651.026	79.995	19.996	104.160	19.858	8.797	0.544
1129.001	651.260	80.003	19.996	104.158	19.857	8.879	0.543
1129.500	651.507	79.998	19.996	104.154	19.854	9.104	0.498
1130.000	651.825	80.008	19.994	104.158	19.856	8.942	0.523
1130.500	651.995	79.999	19.996	104.159	19.852	9.248	0.526
1131.001	652.296	80.002	19.995	104.155	19.854	9.101	0.479
1131.500	652.633	80.005	19.995	104.155	19.857	8.869	0.555
1132.000	652.813	80.005	19.994	104.160	19.858	8.782	0.578
1132.501	653.092	80.004	19.995	104.158	19.855	9.020	0.488
1133.001	653.353	80.003	19.995	104.154	19.858	8.840	0.499
1133.500	653.634	79.999	19.995	104.153	19.856	8.980	0.541
1134.000	653.891	80.006	19.994	104.153	19.857	8.908	0.540
1134.501	654.146	80.007	19.994	104.154	19.856	8.974	0.525
1135.001	654.364	80.000	19.995	104.154	19.856	8.958	0.493
1135.500	654.668	79.998	19.995	104.152	19.857	8.894	0.498
1136.000	654.963	80.008	19.992	104.150	19.859	8.762	0.560
1136.501	655.195	80.007	19.994	104.153	19.860	8.632	0.563
1137.001	655.451	80.011	19.993	104.154	19.859	8.770	0.508
1137.500	655.731	80.005	19.994	104.160	19.860	8.638	0.512
1138.000	655.985	80.005	19.994	104.162	19.855	8.995	0.535
1138.501	656.272	80.005	19.992	104.163	19.859	8.724	0.538
1139.001	656.501	80.004	19.993	104.163	19.860	8.644	0.529
1139.500	656.757	80.007	19.993	104.166	19.861	8.624	0.501
1140.000	657.066	80.004	19.993	104.164	19.856	8.968	0.525
1140.500	657.327	80.007	19.993	104.170	19.859	8.739	0.567
1141.000	657.566	80.007	19.994	104.176	19.859	8.740	0.535
1141.500	657.814	80.006	19.993	104.172	19.855	9.030	0.494
1142.000	658.084	80.006	19.993	104.165	19.858	8.822	0.502
1142.500	658.348	80.005	19.993	104.160	19.856	8.946	0.525
1143.000	658.603	80.006	19.992	104.153	19.857	8.912	0.527
1143.500	658.804	80.005	19.993	104.148	19.858	8.827	0.488
1144.000	659.090	80.008	19.993	104.152	19.854	9.067	0.471
1144.500	659.370	80.007	19.994	104.154	19.856	8.969	0.526
1145.000	659.604	80.005	19.994	104.154	19.859	8.761	0.540
1145.500	659.885	80.007	19.993	104.154	19.856	8.945	0.515
1146.000	660.183	80.006	19.993	104.152	19.858	8.838	0.547
1146.500	660.432	80.003	19.993	104.149	19.857	8.896	0.563
1147.000	660.678	80.007	19.994	104.152	19.856	8.979	0.521
1147.501	660.929	80.005	19.993	104.153	19.855	9.019	0.496
1148.000	661.148	80.007	19.994	104.157	19.855	9.047	0.483
1148.500	661.447	80.006	19.993	104.159	19.854	9.072	0.494
1149.000	661.669	80.006	19.992	104.160	19.856	8.990	0.520
1149.500	661.938	80.003	19.994	104.155	19.856	8.965	0.506
1150.000	662.238	80.004	19.994	104.153	19.854	9.105	0.530
1150.501	662.458	80.008	19.993	104.151	19.853	9.186	0.544
1151.000	662.753	80.001	19.994	104.148	19.854	9.086	0.517
1151.500	663.022	80.005	19.994	104.146	19.854	9.122	0.540
1152.000	663.253	80.005	19.994	104.149	19.854	9.134	0.532
1152.500	663.499	80.003	19.994	104.151	19.855	9.052	0.488
1153.001	663.747	80.002	19.994	104.151	19.856	8.990	0.485
1153.501	664.022	80.005	19.993	104.150	19.856	8.926	0.509
1154.000	664.253	80.003	19.994	104.150	19.854	9.137	0.515
1154.500	664.515	80.004	19.994	104.146	19.852	9.237	0.500
1155.000	664.769	80.008	19.993	104.145	19.853	9.188	0.505
1155.500	665.002	80.001	19.993	104.146	19.854	9.096	0.501
1156.000	665.233	79.999	19.994	104.146	19.856	8.952	0.475
1156.501	665.526	80.004	19.993	104.146	19.852	9.236	0.494
1157.001	665.803	80.007	19.994	104.151	19.853	9.188	0.547
1157.501	666.049	80.003	19.994	104.156	19.854	9.076	0.547
1158.001	666.283	80.006	19.994	104.159	19.853	9.138	0.501
1158.500	666.553	80.002	19.995	104.160	19.851	9.308	0.492
1159.000	666.776	80.002	19.994	104.160	19.853	9.148	0.499
1159.501	667.010	80.006	19.994	104.154	19.853	9.152	0.476
1160.001	667.294	80.003	19.993	104.149	19.853	9.139	0.488
1160.500	667.558	80.004	19.994	104.146	19.851	9.289	0.532
1161.000	667.802	80.000	19.994	104.146	19.854	9.103	0.527
1161.500	668.020	80.005	19.994	104.146	19.854	9.119	0.485
1162.000	668.295	80.004	19.993	104.150	19.851	9.310	0.478
1162.500	668.514	79.999	19.994	104.150	19.853	9.156	0.494
1163.000	668.785	80.003	19.995	104.151	19.852	9.259	0.492
1163.501	669.044	80.002	19.992	104.155	19.853	9.208	0.510
1164.000	669.268	80.003	19.994	104.157	19.852	9.252	0.506
1164.500	669.515	80.002	19.995	104.155	19.854	9.134	0.477
1165.000	669.750	80.002	19.993	104.157	19.854	9.106	0.477
1165.501	669.976	80.003	19.995	104.157	19.853	9.158	0.471
1166.001	670.240	80.004	19.994	104.153	19.851	9.350	0.475
1166.501	670.497	80.003	19.995	104.151	19.855	9.016	0.505
1167.001	670.727	80.005	19.994	104.152	19.854	9.114	0.504
1167.501	670.973	80.002	19.994	104.152	19.854	9.118	0.482
1168.000	671.218	80.002	19.993	104.151	19.853	9.190	0.484
1168.500	671.485	80.006	19.995	104.151	19.851	9.292	0.501
1169.000	671.727	80.004	19.994	104.149	19.852	9.260	0.510
1169.500	671.977	80.004	19.994	104.149	19.853	9.142	0.501
1170.000	672.190	80.005	19.994	104.149	19.852	9.276	0.478
1170.500	672.439	80.003	19.993	104.154	19.853	9.138	0.462
1171.000	672.668	80.004	19.993	104.158	19.852	9.248	0.470
1171.500	672.919	80.006	19.993	104.161	19.852	9.250	0.479
1172.000	673.160	80.004	19.994	104.160	19.852	9.268	0.486
1172.500	673.451	80.003	19.994	104.159	19.849	9.478	0.512
1173.000	673.679	80.003	19.994	104.155	19.854	9.076	0.525
1173.500	673.906	80.008	19.993	104.156	19.854	9.108	0.487
1174.000	674.141	80.005	19.994	104.156	19.854	9.066	0.458
1174.500	674.412	80.002	19.993	104.155	19.849	9.492	0.484
1175.000	674.636	80.005	19.991	104.155	19.851	9.288	0.501
1175.500	674.898	80.002	19.992	104.154	19.854	9.130	0.491
1176.000	675.183	80.002	19.993	104.150	19.852	9.210	0.517
1176.500	675.373	79.997	19.994	104.149	19.851	9.292	0.511
1177.000	675.640	80.005	19.994	104.148	19.853	9.156	0.466
1177.500	675.907	79.996	19.994	104.150	19.850	9.368	0.496
1178.000	676.128	80.006	19.992	104.153	19.852	9.240	0.511
1178.501	676.386	80.002	19.994	104.153	19.851	9.338	0.483
1179.001	676.634	80.002	19.993	104.153	19.852	9.246	0.492
1179.501	676.864	80.001	19.992	104.154	19.850	9.386	0.492
1180.001	677.139	80.003	19.993	104.152	19.852	9.260	0.491
1180.500	677.353	80.002	19.994	104.149	19.853	9.206	0.497
1181.000	677.614	80.003	19.993	104.149	19.851	9.284	0.482
1181.500	677.808	80.002	19.994	104.148	19.851	9.328	0.466
1182.001	678.044	80.002	19.992	104.148	19.852	9.240	0.443
1182.501	678.298	80.002	19.993	104.147	19.851	9.290	0.460
1183.001	678.558	80.001	19.994	104.148	19.850	9.414	0.502
1183.501	678.791	80.005	19.994	104.148	19.848	9.524	0.503
1184.000	678.980	80.004	19.992	104.149	19.852	9.242	0.457
1184.500	679.307	80.005	19.995	104.150	19.851	9.344	0.469
1185.001	679.496	80.005	19.994	104.151	19.850	9.403	0.516
1185.500	679.724	80.000	19.993	104.151	19.851	9.305	0.467
1186.000	679.953	80.003	19.994	104.150	19.848	9.533	0.437
1186.500	680.213	80.001	19.993	104.149	19.851	9.352	0.473
1187.001	680.450	80.002	19.994	104.148	19.851	9.350	0.493
1187.501	680.654	80.005	19.993	104.148	19.850	9.376	0.469
1188.001	680.930	80.002	19.995	104.149	19.849	9.468	0.461
1188.501	681.176	80.003	19.995	104.150	19.850	9.386	0.501
1189.000	681.425	80.002	19.994	104.152	19.846	9.657	0.508
1189.500	681.664	80.002	19.994	104.152	19.850	9.398	0.491
1190.000	681.909	80.003	19.995	104.152	19.848	9.527	0.486
1190.500	682.157	80.002	19.994	104.150	19.850	9.400	0.489
1191.000	682.369	80.003	19.994	104.151	19.851	9.344	0.477
1191.500	682.616	80.001	19.995	104.150	19.849	9.436	0.460
1192.000	682.879	80.001	19.994	104.150	19.850	9.417	0.484
1192.501	683.111	80.002	19.995	104.150	19.851	9.311	0.502
1193.000	683.369	80.002	19.995	104.149	19.848	9.559	0.493
1193.500	683.616	80.003	19.993	104.145	19.846	9.700	0.498
1194.001	683.836	80.003	19.994	104.146	19.848	9.554	0.486
1194.500	684.103	80.003	19.995	104.147	19.850	9.380	0.477
1195.000	684.333	80.002	19.995	104.151	19.848	9.531	0.492
1195.500	684.589	80.004	19.993	104.152	19.848	9.515	0.491
1196.000	684.844	80.004	19.994	104.155	19.849	9.474	0.499
1196.500	685.098	80.004	19.993	104.156	19.849	9.442	0.510
1197.000	685.325	80.004	19.995	104.155	19.849	9.435	0.495
1197.500	685.580	80.002	19.994	104.151	19.848	9.553	0.482
1198.000	685.815	80.003	19.995	104.155	19.850	9.384	0.486
1198.500	686.071	80.005	19.995	104.154	19.850	9.384	0.490
1199.000	686.350	80.004	19.994	104.154	19.850	9.402	0.513
1199.500	686.594	80.004	19.994	104.154	19.851	9.342	0.529
1200.000	686.834	80.004	19.994	104.153	19.850	9.420	0.504
1200.500	687.073	80.004	19.993	104.155	19.851	9.337	0.482
1201.000	687.326	80.003	19.994	104.162	19.850	9.383	0.485
1201.501	687.591	80.004	19.994	104.166	19.848	9.514	0.505
1202.000	687.827	80.004	19.994	104.168	19.852	9.250	0.510
1202.500	688.073	80.005	19.994	104.169	19.850	9.389	0.491
1203.000	688.319	80.004	19.995	104.164	19.850	9.407	0.487
1203.500	688.605	80.005	19.994	104.158	19.850	9.405	0.512
1204.000	688.854	80.004	19.994	104.159	19.850	9.418	0.534
1204.501	689.126	80.005	19.994	104.165	19.850	9.374	0.528
1205.001	689.363	80.004	19.994	104.170	19.849	9.454	0.515
1205.501	689.624	80.006	19.994	104.174	19.850	9.368	0.503
1206.001	689.865	80.004	19.993	104.178	19.851	9.331	0.500
1206.500	690.102	80.004	19.994	104.179	19.851	9.299	0.490
1207.000	690.369	80.004	19.994	104.174	19.851	9.308	0.491
1207.500	690.591	80.006	19.994	104.168	19.852	9.282	0.496
1208.001	690.884	80.005	19.994	104.164	19.851	9.322	0.502
1208.500	691.141	80.005	19.994	104.161	19.850	9.399	0.532
1209.000	691.425	80.005	19.993	104.154	19.850	9.371	0.545
1209.501	691.622	80.004	19.995	104.153	19.848	9.531	0.511
1210.000	691.904	80.004	19.994	104.152	19.847	9.604	0.480
1210.500	692.162	80.005	19.993	104.153	19.850	9.386	0.509
1211.000	692.440	80.004	19.993	104.155	19.853	9.162	0.538
1211.500	692.664	80.004	19.994	104.158	19.850	9.420	0.519
1212.001	692.934	80.002	19.996	104.163	19.852	9.250	0.498
1212.501	693.211	80.004	19.993	104.168	19.853	9.160	0.521
1213.000	693.500	80.003	19.994	104.169	19.850	9.366	0.557
1213.500	693.767	80.005	19.992	104.165	19.850	9.356	0.561
1214.001	693.975	80.004	19.995	104.163	19.852	9.248	0.515
1214.500	694.250	80.005	19.995	104.156	19.851	9.294	0.479
1215.000	694.543	80.002	19.995	104.153	19.849	9.480	0.525
1215.500	694.784	80.005	19.994	104.151	19.848	9.560	0.551
1216.001	695.050	80.003	19.995	104.150	19.850	9.420	0.521
1216.501	695.295	80.003	19.995	104.155	19.850	9.374	0.509
1217.001	695.527	80.004	19.995	104.160	19.849	9.490	0.494
1217.500	695.833	80.003	19.994	104.165	19.846	9.650	0.508
1218.000	696.106	80.003	19.995	104.171	19.848	9.546	0.558
1218.501	696.355	80.004	19.994	104.176	19.844	9.804	0.550
1219.001	696.625	80.002	19.995	104.170	19.848	9.546	0.520
1219.501	696.866	80.005	19.994	104.166	19.847	9.630	0.515
1220.001	697.127	80.002	19.995	104.160	19.847	9.616	0.507
1220.500	697.406	80.006	19.994	104.154	19.847	9.620	0.521
1221.000	697.656	80.003	19.994	104.149	19.848	9.562	0.535
1221.500	697.930	80.004	19.996	104.149	19.850	9.383	0.526
1222.000	698.192	80.003	19.994	104.148	19.850	9.425	0.530
1222.500	698.467	80.003	19.995	104.149	19.850	9.405	0.537
1223.000	698.714	80.005	19.994	104.149	19.851	9.353	0.529
1223.501	698.988	80.006	19.995	104.148	19.846	9.695	0.521
1224.001	699.258	80.006	19.994	104.148	19.849	9.457	0.533
1224.501	699.476	80.004	19.995	104.148	19.849	9.471	0.516
1225.001	699.744	80.004	19.995	104.146	19.847	9.637	0.487
1225.500	699.989	80.005	19.994	104.145	19.847	9.624	0.500
1226.000	700.312	80.006	19.993	104.144	19.848	9.554	0.541
1226.501	700.553	80.006	19.994	104.145	19.848	9.527	0.566
1227.000	700.796	80.003	19.994	104.148	19.851	9.295	0.524
1227.500	701.054	80.004	19.995	104.147	19.849	9.448	0.492
1228.000	701.286	80.005	19.994	104.149	19.848	9.545	0.495
1228.500	701.548	80.006	19.995	104.149	19.847	9.600	0.492
1229.000	701.809	80.005	19.993	104.148	19.848	9.519	0.509
1229.500	702.064	80.007	19.994	104.150	19.848	9.537	0.520
1230.000	702.308	80.006	19.994	104.151	19.849	9.494	0.507
1230.500	702.570	80.006	19.994	104.150	19.849	9.430	0.503
1231.000	702.845	80.005	19.994	104.149	19.849	9.454	0.522
1231.500	703.054	80.003	19.995	104.151	19.847	9.592	0.510
1232.000	703.357	80.005	19.994	104.146	19.853	9.184	0.497
1232.500	703.622	80.004	19.994	104.143	19.851	9.292	0.540
1233.000	703.845	80.007	19.994	104.143	19.851	9.325	0.529
1233.500	704.098	80.004	19.993	104.143	19.849	9.473	0.482
1234.000	704.330	80.006	19.993	104.141	19.850	9.411	0.480
1234.501	704.602	80.004	19.994	104.141	19.849	9.476	0.494
1235.000	704.874	80.004	19.994	104.142	19.851	9.294	0.524
1235.500	705.146	80.003	19.993	104.142	19.848	9.512	0.544
1236.001	705.370	80.004	19.994	104.142	19.853	9.194	0.520
1236.501	705.607	80.003	19.993	104.145	19.850	9.362	0.478
1237.001	705.860	80.006	19.992	104.150	19.854	9.101	0.475
1237.501	706.140	80.003	19.994	104.158	19.851	9.313	0.511
1238.000	706.406	80.003	19.994	104.167	19.853	9.167	0.540
1238.500	706.662	80.002	19.994	104.174	19.853	9.149	0.534
1239.000	706.897	80.001	19.993	104.176	19.854	9.127	0.506
1239.500	707.155	80.005	19.993	104.171	19.853	9.142	0.492
1240.000	707.376	80.003	19.994	104.164	19.854	9.070	0.486
1240.500	707.642	80.003	19.993	104.156	19.855	9.010	0.483
1241.000	707.868	80.003	19.993	104.153	19.854	9.110	0.489
1241.500	708.101	80.001	19.994	104.151	19.852	9.220	0.476
1242.000	708.380	80.003	19.994	104.151	19.854	9.074	0.486
1242.500	708.593	80.003	19.992	104.151	19.849	9.436	0.502
1243.000	708.846	80.002	19.993	104.150	19.853	9.156	0.478
1243.500	709.117	80.003	19.993	104.147	19.851	9.288	0.495
1244.001	709.398	80.002	19.993	104.144	19.855	9.056	0.538
1244.501	709.620	80.003	19.995	104.142	19.856	8.942	0.528
1245.001	709.829	80.003	19.995	104.142	19.852	9.260	0.467
1245.500	710.074	80.001	19.992	104.144	19.855	9.048	0.442
1246.000	710.350	80.003	19.994	104.145	19.851	9.330	0.488
1246.500	710.618	80.003	19.994	104.145	19.850	9.382	0.533
1247.000	710.817	80.003	19.992	104.147	19.852	9.258	0.506
1247.500	711.046	80.004	19.994	104.148	19.855	9.038	0.447
1248.000	711.335	80.002	19.994	104.145	19.856	8.970	0.473
1248.500	711.544	80.002	19.995	104.144	19.853	9.188	0.508
1249.000	711.788	80.003	19.995	104.144	19.851	9.334	0.475
1249.500	712.023	80.003	19.995	104.144	19.852	9.248	0.466
1250.001	712.276	80.003	19.995	104.144	19.850	9.376	0.484
1250.501	712.481	80.002	19.995	104.150	19.851	9.302	0.473
1251.000	712.735	80.003	19.994	104.152	19.852	9.278	0.458
1251.500	713.004	80.004	19.995	104.153	19.849	9.470	0.491
1252.001	713.231	80.006	19.990	104.153	19.850	9.384	0.510
1252.501	713.454	80.001	19.995	104.154	19.853	9.162	0.473
1253.001	713.685	80.005	19.992	104.151	19.852	9.252	0.452
1253.501	713.926	80.003	19.994	104.149	19.851	9.346	0.463
1254.000	714.155	80.002	19.992	104.149	19.855	9.032	0.472
1254.500	714.411	80.003	19.994	104.148	19.851	9.348	0.478
1255.000	714.618	80.006	19.992	104.147	19.851	9.296	0.473
1255.500	714.910	80.005	19.994	104.148	19.858	8.838	0.481
1256.001	715.084	80.002	19.993	104.148	19.850	9.386	0.483
1256.500	715.348	80.004	19.996	104.147	19.852	9.266	0.452
1257.000	715.546	80.004	19.994	104.147	19.850	9.394	0.449
1257.500	715.850	80.005	19.994	104.147	19.851	9.336	0.482
1258.000	716.068	80.003	19.995	104.147	19.853	9.172	0.512
1258.500	716.308	80.003	19.994	104.146	19.849	9.450	0.490
1259.000	716.533	80.003	19.993	104.147	19.852	9.252	0.461
1259.500	716.779	80.005	19.992	104.147	19.849	9.446	0.467
1260.000	717.005	80.002	19.993	104.147	19.848	9.513	0.471
1260.500	717.245	80.003	19.993	104.148	19.850	9.395	0.469
1261.000	717.445	80.004	19.992	104.147	19.849	9.447	0.453
1261.500	717.693	80.004	19.992	104.147	19.849	9.433	0.444
1262.000	717.960	80.009	19.990	104.148	19.850	9.415	0.481
1262.500	718.184	80.005	19.993	104.148	19.849	9.439	0.503
1263.000	718.376	80.003	19.992	104.148	19.845	9.753	0.454
1263.501	718.623	80.005	19.992	104.148	19.849	9.489	0.428
1264.000	718.844	80.002	19.994	104.148	19.851	9.329	0.454
1264.500	719.060	80.003	19.993	104.149	19.847	9.589	0.452
1265.000	719.335	80.003	19.995	104.149	19.848	9.543	0.464
1265.500	719.536	80.003	19.993	104.149	19.849	9.495	0.484
1266.000	719.755	80.007	19.993	104.150	19.850	9.363	0.448
1266.500	720.003	80.001	19.994	104.150	19.847	9.577	0.443
1267.000	720.255	80.003	19.993	104.149	19.848	9.509	0.483
1267.500	720.419	80.003	19.994	104.150	19.849	9.439	0.458
1268.001	720.710	80.005	19.992	104.151	19.848	9.510	0.436
1268.500	720.971	80.003	19.989	104.152	19.848	9.508	0.503
1269.000	721.148	80.003	19.994	104.152	19.852	9.262	0.495
1269.500	721.364	80.003	19.992	104.152	19.846	9.648	0.416
1270.001	721.602	80.003	19.994	104.151	19.848	9.505	0.423
1270.501	721.811	80.003	19.992	104.150	19.849	9.499	0.450
1271.001	722.080	80.003	19.993	104.157	19.851	9.335	0.463
1271.501	722.306	80.002	19.993	104.162	19.850	9.369	0.487
1272.001	722.543	80.004	19.994	104.162	19.851	9.307	0.479
1272.500	722.764	80.004	19.993	104.163	19.848	9.553	0.461
1273.000	723.031	80.002	19.994	104.164	19.850	9.394	0.473
1273.500	723.217	80.002	19.994	104.159	19.847	9.603	0.470
1274.000	723.487	80.002	19.991	104.155	19.845	9.731	0.454
1274.501	723.685	80.002	19.994	104.157	19.847	9.588	0.462
1275.001	723.910	80.006	19.990	104.157	19.846	9.716	0.445
1275.500	724.202	80.005	19.990	104.156	19.846	9.680	0.470
1276.000	724.348	80.002	19.992	104.157	19.843	9.894	0.478
1276.501	724.594	80.007	19.993	104.160	19.846	9.656	0.415
1277.001	724.853	80.004	19.992	104.159	19.849	9.444	0.448
1277.501	725.105	80.004	19.994	104.161	19.846	9.650	0.508
1278.000	725.325	80.006	19.991	104.158	19.848	9.538	0.491
1278.500	725.563	80.003	19.992	104.155	19.848	9.502	0.465
1279.000	725.811	80.004	19.993	104.151	19.847	9.606	0.472
1279.500	726.049	80.001	19.993	104.148	19.846	9.663	0.486
1280.000	726.231	80.005	19.993	104.148	19.847	9.605	0.453
1280.500	726.492	80.004	19.991	104.151	19.848	9.507	0.431
1281.000	726.765	80.004	19.993	104.155	19.847	9.603	0.488
1281.500	726.990	80.004	19.992	104.158	19.849	9.477	0.516
1282.000	727.247	80.005	19.994	104.158	19.851	9.326	0.490
1282.500	727.489	80.008	19.990	104.159	19.848	9.520	0.490
1283.000	727.708	80.006	19.993	104.159	19.850	9.364	0.480
1283.500	727.930	80.002	19.993	104.156	19.851	9.318	0.451
1284.000	728.188	80.003	19.994	104.154	19.848	9.530	0.460
1284.500	728.438	80.005	19.993	104.156	19.845	9.784	0.494
1285.000	728.667	80.006	19.992	104.153	19.849	9.484	0.494
1285.500	728.934	80.004	19.995	104.151	19.850	9.422	0.488
1286.000	729.174	80.006	19.989	104.148	19.848	9.564	0.501
1286.500	729.378	80.006	19.992	104.148	19.849	9.434	0.475
1287.000	729.636	80.006	19.994	104.147	19.849	9.490	0.453
1287.500	729.873	80.002	19.994	104.146	19.850	9.404	0.479
1288.000	730.135	80.000	19.998	104.146	19.850	9.359	0.497
1288.500	730.355	79.994	20.002	104.149	19.851	9.298	0.491
1289.000	730.582	80.006	19.995	104.147	19.847	9.583	0.464
1289.500	730.836	80.003	19.993	104.148	19.848	9.557	0.464
1290.000	731.100	80.005	19.992	104.149	19.851	9.345	0.499
1290.500	731.297	80.003	19.994	104.154	19.851	9.314	0.489
1291.000	731.594	80.003	19.993	104.155	19.846	9.709	0.477
1291.501	731.834	80.002	19.989	104.161	19.846	9.676	0.516
1292.001	732.090	80.005	19.992	104.161	19.850	9.418	0.517
1292.501	732.337	80.003	19.994	104.160	19.850	9.384	0.500
1293.001	732.578	80.005	19.993	104.155	19.848	9.502	0.495
1293.500	732.834	80.002	19.992	104.152	19.847	9.629	0.492
1294.000	733.092	80.004	19.994	104.148	19.848	9.507	0.505
1294.500	733.316	80.002	19.995	104.145	19.848	9.522	0.498
1295.000	733.530	80.003	19.998	104.144	19.849	9.461	0.461
1295.501	733.849	80.007	19.989	104.143	19.848	9.540	0.486
1296.001	734.058	80.006	19.992	104.144	19.845	9.790	0.530
1296.500	734.319	79.999	19.996	104.144	19.847	9.581	0.499
1297.000	734.544	80.006	19.996	104.146	19.845	9.727	0.478
1297.501	734.788	80.005	19.995	104.148	19.844	9.809	0.477
1298.001	735.041	80.006	19.990	104.152	19.843	9.884	0.483
1298.501	735.277	80.009	19.988	104.153	19.847	9.620	0.493
1299.001	735.496	80.003	19.995	104.156	19.848	9.552	0.472
1299.500	735.735	80.003	19.995	104.155	19.844	9.816	0.456
1300.000	735.998	80.007	19.990	104.157	19.848	9.528	0.480
1300.500	736.226	80.000	19.995	104.157	19.846	9.662	0.497
1301.000	736.471	80.001	19.995	104.157	19.846	9.653	0.482
1301.500	736.719	80.007	19.992	104.153	19.848	9.557	0.483
1302.000	736.940	80.003	19.999	104.155	19.846	9.692	0.481
1302.501	737.203	80.008	19.995	104.152	19.847	9.632	0.477
1303.001	737.438	80.007	19.995	104.150	19.848	9.537	0.491
1303.500	737.691	80.007	19.991	104.151	19.843	9.871	0.493
1304.000	737.943	80.004	19.993	104.153	19.845	9.775	0.496
1304.500	738.187	80.004	19.996	104.153	19.848	9.534	0.500
1305.000	738.384	80.007	19.994	104.159	19.845	9.720	0.469
1305.500	738.637	80.007	19.996	104.165	19.848	9.534	0.446
1306.001	738.891	80.009	19.993	104.165	19.847	9.600	0.478
1306.500	739.139	80.003	20.000	104.167	19.845	9.790	0.504
1307.000	739.393	80.010	19.989	104.167	19.844	9.840	0.502
1307.500	739.619	80.006	19.995	104.163	19.843	9.880	0.491
1308.000	739.882	80.005	19.994	104.157	19.845	9.726	0.484
1308.501	740.118	80.005	19.993	104.154	19.848	9.508	0.494
1309.001	740.361	80.007	19.994	104.149	19.845	9.788	0.489
1309.501	740.623	80.007	19.993	104.145	19.846	9.690	0.492
1310.000	740.878	80.005	19.994	104.144	19.849	9.484	0.511
1310.500	741.114	80.004	19.996	104.144	19.846	9.700	0.504
1311.000	741.378	80.007	19.994	104.148	19.843	9.921	0.495
1311.500	741.633	80.004	19.989	104.151	19.845	9.725	0.509
1312.000	741.857	80.006	19.994	104.157	19.844	9.847	0.499
1312.500	742.079	80.005	19.993	104.159	19.843	9.871	0.463
1313.000	742.351	80.007	19.994	104.166	19.841	10.013	0.470
1313.500	742.607	80.004	19.996	104.164	19.842	9.995	0.511
1314.000	742.822	80.008	19.994	104.163	19.844	9.823	0.499
1314.500	743.116	80.002	19.998	104.157	19.844	9.802	0.491
1315.001	743.401	80.009	19.991	104.155	19.845	9.756	0.544
1315.500	743.607	80.004	19.990	104.149	19.841	10.034	0.534
