Sample ID:	C:\MCC\MCC Cal\Test\Roof_Felt_MCC_30K_min_2109299_R2.txt
Sample Weight (mg):	5
Heating Rate (C/s):	0.5
Combustor Temp (C):	900
N2 Flow Rate (cc/min):	80
O2 Flow Rate (cc/min):	20
Calibration File:	C:\MCC\MCC Cal\Coeff1 JN10440_30_210304.txt.txt
T Correction Coefficients:	0	1.024463	0
Time Shift (s):	14
*
Time (s)	Temperature (C)	N2 flow rate (cc/min)	O2 flow rate (cc/min)	Flow Rate (cc/min)	Oxygen (%)	HRR (W/g)	Heating rate (C/s)
-0.001	106.539	80.002	19.995	100.682	19.972	0.121	0.004
0.499	106.527	80.003	19.996	100.682	19.973	0.041	0.013
1.000	106.547	80.004	19.996	100.682	19.975	-0.092	0.007
1.500	106.509	80.002	19.995	100.683	19.972	0.121	-0.005
2.000	106.490	80.003	19.995	100.682	19.978	-0.298	-0.038
2.500	106.532	80.003	19.996	100.682	19.974	-0.034	-0.017
3.000	106.534	80.004	19.996	100.681	19.968	0.354	0.033
3.500	106.546	80.004	19.996	100.681	19.971	0.167	0.029
4.000	106.531	80.003	19.996	100.682	19.974	-0.005	0.006
4.500	106.566	80.003	19.996	100.683	19.973	0.007	0.009
5.000	106.553	80.004	19.998	100.683	19.971	0.129	0.021
5.500	106.542	80.005	19.997	100.683	19.973	0.054	-0.001
6.000	106.519	80.002	19.995	100.683	19.971	0.172	-0.029
6.500	106.525	80.004	19.996	100.684	19.972	0.094	-0.026
7.000	106.556	80.003	19.995	100.685	19.971	0.138	0.010
7.500	106.541	80.004	19.996	100.686	19.976	-0.133	0.026
8.000	106.528	80.003	19.995	100.688	19.966	0.488	-0.006
8.500	106.542	80.003	19.996	100.691	19.969	0.269	-0.014
9.000	106.517	80.004	19.997	100.691	19.967	0.414	-0.005
9.500	106.570	80.003	19.996	100.694	19.968	0.359	0.009
10.000	106.542	80.003	19.996	100.701	19.967	0.385	0.026
10.500	106.550	80.003	19.996	100.707	19.968	0.356	0.002
11.000	106.543	80.004	19.996	100.710	19.965	0.562	-0.010
11.500	106.537	80.002	19.995	100.714	19.969	0.301	-0.006
12.000	106.574	80.003	19.996	100.715	19.968	0.366	0.009
12.500	106.545	80.004	19.995	100.715	19.964	0.584	0.020
13.000	106.539	80.002	19.994	100.712	19.969	0.301	-0.014
13.501	106.540	80.003	19.995	100.708	19.966	0.487	-0.021
14.000	106.526	80.003	19.996	100.707	19.970	0.203	-0.009
14.500	106.583	80.004	19.996	100.703	19.971	0.175	0.015
15.000	106.550	80.001	19.995	100.701	19.971	0.163	0.034
15.500	106.570	80.004	19.996	100.703	19.967	0.395	0.006
16.000	106.535	80.004	19.997	100.708	19.971	0.175	-0.014
16.500	106.551	80.004	19.996	100.712	19.967	0.417	-0.017
17.000	106.555	80.003	19.996	100.716	19.966	0.450	0.001
17.500	106.554	80.002	19.996	100.720	19.968	0.325	0.011
18.000	106.571	80.004	19.996	100.720	19.963	0.649	0.009
18.500	106.559	80.004	19.996	100.720	19.964	0.610	0.011
19.000	106.562	80.003	19.996	100.720	19.965	0.533	-0.002
19.500	106.580	80.002	19.996	100.720	19.967	0.385	0.006
20.000	106.575	80.003	19.996	100.719	19.965	0.525	0.017
20.500	106.611	80.003	19.997	100.721	19.965	0.511	0.022
21.000	106.588	80.003	19.995	100.722	19.966	0.492	0.022
21.500	106.552	80.004	19.996	100.725	19.960	0.864	-0.023
22.000	106.589	80.003	19.995	100.730	19.964	0.583	-0.029
22.500	106.591	80.004	19.996	100.737	19.967	0.416	0.020
23.000	106.613	80.002	19.994	100.743	19.965	0.545	0.032
23.500	106.618	80.003	19.996	100.749	19.960	0.854	0.026
24.000	106.667	80.003	19.996	100.754	19.964	0.622	0.041
24.500	106.643	80.003	19.996	100.761	19.960	0.881	0.040
25.000	106.645	80.003	19.997	100.770	19.957	1.031	0.001
25.500	106.675	80.002	19.997	100.777	19.957	1.048	0.005
26.000	106.668	80.004	19.996	100.787	19.954	1.210	0.028
26.500	106.678	80.005	19.996	100.800	19.952	1.347	0.013
27.000	106.716	80.003	19.997	100.810	19.949	1.568	0.025
27.500	106.747	80.003	19.997	100.818	19.950	1.452	0.059
28.000	106.769	80.003	19.996	100.825	19.951	1.400	0.061
28.500	106.803	80.002	19.995	100.834	19.952	1.372	0.054
29.000	106.845	80.003	19.998	100.839	19.949	1.534	0.066
29.500	106.870	80.004	19.998	100.846	19.947	1.649	0.072
30.000	106.892	80.004	19.998	100.853	19.944	1.836	0.057
30.500	106.920	80.004	19.998	100.860	19.948	1.635	0.048
31.000	106.919	80.002	19.997	100.859	19.946	1.707	0.039
31.500	106.994	80.004	19.998	100.860	19.946	1.730	0.051
32.000	107.013	80.003	19.997	100.859	19.946	1.717	0.084
32.499	107.089	80.006	19.998	100.858	19.941	2.041	0.095
32.999	107.119	80.004	19.996	100.857	19.942	1.974	0.100
33.499	107.150	80.002	19.997	100.863	19.940	2.133	0.083
33.999	107.198	80.005	19.996	100.868	19.940	2.109	0.070
34.499	107.238	80.004	19.995	100.873	19.937	2.308	0.083
34.999	107.268	80.004	19.997	100.875	19.938	2.254	0.079
35.499	107.350	80.004	19.997	100.879	19.935	2.452	0.091
35.999	107.398	80.001	19.996	100.882	19.933	2.526	0.121
36.499	107.483	80.004	19.998	100.884	19.936	2.363	0.131
36.999	107.558	80.004	19.996	100.888	19.935	2.428	0.147
37.499	107.577	80.004	19.996	100.891	19.932	2.629	0.127
37.999	107.662	80.004	19.997	100.895	19.932	2.605	0.100
38.499	107.698	80.004	19.995	100.900	19.934	2.506	0.112
38.999	107.756	80.003	19.995	100.906	19.930	2.724	0.107
39.499	107.833	80.003	19.996	100.909	19.930	2.767	0.114
39.999	107.934	80.002	19.994	100.911	19.929	2.782	0.157
40.499	107.964	80.004	19.995	100.910	19.934	2.519	0.155
40.999	108.038	80.003	19.996	100.909	19.927	2.918	0.117
41.500	108.121	80.004	19.994	100.907	19.933	2.581	0.130
42.001	108.205	80.004	19.994	100.909	19.923	3.213	0.163
42.500	108.313	80.002	19.995	100.910	19.928	2.860	0.180
42.999	108.377	80.002	19.994	100.913	19.931	2.683	0.182
43.499	108.432	80.001	19.994	100.913	19.928	2.890	0.145
44.000	108.512	80.004	19.995	100.912	19.928	2.898	0.127
44.501	108.625	80.004	19.995	100.912	19.920	3.351	0.164
45.000	108.748	80.005	19.995	100.912	19.927	2.927	0.215
45.499	108.853	80.003	19.995	100.911	19.932	2.642	0.232
45.999	108.893	80.005	19.995	100.912	19.929	2.806	0.186
46.499	108.999	80.004	19.995	100.909	19.928	2.884	0.146
46.999	109.105	80.004	19.996	100.904	19.927	2.954	0.180
47.499	109.188	80.004	19.997	100.903	19.929	2.825	0.201
47.999	109.280	80.004	19.994	100.902	19.927	2.958	0.181
48.499	109.385	80.004	19.996	100.901	19.928	2.850	0.186
48.999	109.462	80.005	19.995	100.901	19.925	3.049	0.190
49.499	109.562	80.003	19.995	100.901	19.924	3.095	0.180
50.000	109.672	80.005	19.995	100.896	19.930	2.739	0.194
50.501	109.754	80.003	19.995	100.894	19.920	3.370	0.201
51.000	109.870	80.004	19.995	100.891	19.923	3.174	0.195
51.499	109.987	80.005	19.994	100.892	19.926	3.007	0.215
51.999	110.109	80.007	19.995	100.893	19.923	3.176	0.236
52.499	110.180	80.005	19.995	100.896	19.923	3.155	0.216
52.999	110.295	80.005	19.995	100.898	19.925	3.041	0.190
53.499	110.389	80.006	19.995	100.900	19.926	3.015	0.197
53.999	110.503	80.005	19.995	100.899	19.927	2.961	0.209
54.499	110.614	80.006	19.995	100.901	19.929	2.789	0.216
54.999	110.751	80.005	19.994	100.902	19.929	2.818	0.236
55.499	110.872	80.005	19.995	100.901	19.930	2.736	0.253
55.999	110.940	80.005	19.994	100.898	19.927	2.956	0.224
56.499	111.078	80.006	19.994	100.901	19.930	2.731	0.197
56.999	111.215	80.006	19.993	100.902	19.924	3.111	0.240
57.499	111.314	80.006	19.995	100.904	19.928	2.895	0.256
57.999	111.426	80.005	19.995	100.906	19.929	2.816	0.223
58.500	111.549	80.006	19.994	100.906	19.929	2.784	0.223
59.000	111.669	80.004	19.995	100.900	19.924	3.111	0.240
59.499	111.791	80.006	19.995	100.895	19.933	2.556	0.242
59.999	111.913	80.007	19.994	100.890	19.932	2.646	0.242
60.499	112.036	80.006	19.995	100.890	19.930	2.750	0.244
61.000	112.146	80.005	19.995	100.891	19.932	2.597	0.239
61.500	112.316	80.005	19.995	100.895	19.932	2.593	0.257
61.999	112.401	80.005	19.995	100.895	19.933	2.545	0.268
62.499	112.533	80.006	19.995	100.897	19.929	2.784	0.236
62.999	112.630	80.005	19.994	100.893	19.925	3.067	0.223
63.499	112.797	80.005	19.996	100.890	19.930	2.759	0.246
63.999	112.900	80.004	19.996	100.891	19.930	2.762	0.267
64.499	113.039	80.004	19.996	100.893	19.932	2.602	0.256
64.999	113.178	80.004	19.995	100.891	19.929	2.779	0.260
65.499	113.302	80.005	19.995	100.893	19.930	2.740	0.271
65.999	113.419	80.004	19.994	100.895	19.928	2.861	0.252
66.500	113.563	80.005	19.996	100.895	19.930	2.728	0.251
67.000	113.711	80.004	19.995	100.894	19.929	2.808	0.277
67.499	113.891	80.004	19.995	100.897	19.927	2.958	0.310
67.999	114.015	80.006	19.997	100.899	19.926	3.008	0.316
68.499	114.163	80.003	19.995	100.903	19.933	2.540	0.288
68.999	114.282	80.003	19.996	100.905	19.932	2.636	0.270
69.499	114.436	80.003	19.996	100.906	19.930	2.721	0.270
69.999	114.553	80.004	19.997	100.908	19.926	2.965	0.272
70.499	114.688	80.004	19.995	100.910	19.924	3.096	0.261
70.999	114.845	80.005	19.997	100.911	19.926	2.980	0.272
71.499	114.983	80.003	19.996	100.912	19.928	2.878	0.294
71.999	115.129	80.003	19.995	100.914	19.929	2.817	0.290
72.499	115.268	80.005	19.996	100.914	19.929	2.808	0.284
72.999	115.389	80.005	19.996	100.914	19.925	3.081	0.272
73.499	115.559	80.003	19.996	100.914	19.925	3.033	0.275
73.999	115.671	80.005	19.995	100.915	19.931	2.704	0.286
74.499	115.812	80.004	19.995	100.915	19.924	3.135	0.267
74.999	115.995	80.004	19.995	100.915	19.929	2.825	0.289
75.499	116.129	80.004	19.994	100.915	19.926	2.965	0.320
75.999	116.283	80.003	19.995	100.915	19.922	3.236	0.302
76.499	116.463	80.003	19.995	100.915	19.927	2.924	0.311
76.999	116.582	80.004	19.994	100.915	19.925	3.033	0.316
77.499	116.733	80.003	19.995	100.915	19.924	3.103	0.285
77.999	116.898	80.003	19.996	100.915	19.926	3.001	0.294
78.499	117.036	80.003	19.995	100.915	19.926	3.023	0.310
78.999	117.165	80.003	19.995	100.915	19.927	2.945	0.285
79.499	117.319	80.005	19.996	100.915	19.925	3.072	0.275
80.000	117.469	80.005	19.996	100.915	19.924	3.107	0.293
80.500	117.647	80.002	19.995	100.916	19.923	3.153	0.316
80.999	117.823	80.003	19.995	100.916	19.925	3.031	0.341
81.500	117.976	80.004	19.995	100.917	19.923	3.190	0.342
82.000	118.119	80.003	19.995	100.916	19.925	3.047	0.313
82.499	118.325	80.004	19.994	100.916	19.923	3.209	0.322
82.999	118.445	80.004	19.994	100.917	19.926	2.963	0.337
83.499	118.601	80.004	19.995	100.917	19.924	3.090	0.301
83.999	118.774	80.004	19.997	100.916	19.923	3.202	0.303
84.499	118.903	80.005	19.996	100.916	19.922	3.221	0.315
84.999	119.094	80.006	19.996	100.915	19.922	3.226	0.311
85.499	119.269	80.004	19.995	100.914	19.925	3.037	0.343
85.999	119.406	80.006	19.995	100.913	19.922	3.221	0.339
86.499	119.558	80.006	19.996	100.913	19.922	3.253	0.300
86.999	119.729	80.005	19.995	100.914	19.920	3.355	0.306
87.499	119.890	80.004	19.995	100.914	19.924	3.112	0.327
87.999	120.074	80.004	19.994	100.914	19.923	3.204	0.338
88.499	120.231	80.004	19.994	100.914	19.926	2.987	0.343
88.999	120.408	80.004	19.995	100.915	19.925	3.083	0.338
89.500	120.584	80.004	19.996	100.917	19.927	2.962	0.344
90.000	120.716	80.004	19.995	100.918	19.927	2.905	0.331
90.499	120.905	80.004	19.995	100.919	19.923	3.175	0.314
90.999	121.077	80.004	19.996	100.920	19.925	3.035	0.341
91.499	121.231	80.004	19.995	100.920	19.927	2.914	0.344
91.999	121.419	80.004	19.996	100.918	19.925	3.061	0.334
92.499	121.628	80.003	19.995	100.917	19.920	3.391	0.369
92.999	121.815	80.004	19.996	100.918	19.926	2.974	0.396
93.499	121.922	80.004	19.996	100.917	19.923	3.209	0.345
93.999	122.158	80.003	19.996	100.920	19.928	2.897	0.319
94.500	122.322	80.002	19.994	100.923	19.926	2.974	0.372
95.000	122.514	80.002	19.996	100.924	19.921	3.289	0.378
95.500	122.663	80.003	19.995	100.924	19.927	2.921	0.348
96.000	122.851	80.002	19.996	100.925	19.927	2.920	0.339
96.499	123.045	80.002	19.995	100.924	19.927	2.949	0.360
96.999	123.210	80.002	19.995	100.921	19.917	3.530	0.370
97.499	123.376	80.006	19.996	100.920	19.922	3.232	0.345
98.000	123.544	80.003	19.996	100.919	19.922	3.247	0.333
98.501	123.731	80.003	19.995	100.919	19.924	3.141	0.345
99.000	123.913	80.000	19.995	100.922	19.921	3.303	0.362
99.499	124.077	80.002	19.996	100.923	19.921	3.302	0.357
99.999	124.248	80.003	19.996	100.924	19.925	3.037	0.340
100.499	124.464	80.003	19.998	100.924	19.927	2.910	0.361
101.000	124.638	80.001	19.996	100.924	19.924	3.094	0.388
101.501	124.820	80.004	19.996	100.921	19.925	3.073	0.373
102.000	125.003	80.003	19.997	100.921	19.923	3.165	0.361
102.499	125.160	80.003	19.996	100.924	19.922	3.269	0.353
102.999	125.366	80.003	19.996	100.925	19.925	3.037	0.351
103.499	125.537	80.003	19.995	100.925	19.920	3.361	0.370
103.999	125.753	80.002	19.996	100.924	19.924	3.090	0.382
104.499	125.958	80.002	19.995	100.926	19.924	3.148	0.404
104.999	126.110	80.002	19.997	100.927	19.921	3.286	0.388
105.499	126.299	80.004	19.996	100.927	19.920	3.360	0.349
105.999	126.476	80.003	19.995	100.934	19.920	3.389	0.354
106.499	126.687	80.004	19.996	100.940	19.920	3.353	0.377
106.999	126.889	80.003	19.995	100.940	19.920	3.348	0.401
107.499	127.083	80.003	19.996	100.940	19.920	3.360	0.404
107.999	127.245	80.003	19.996	100.941	19.923	3.184	0.376
108.499	127.413	80.005	19.995	100.936	19.921	3.339	0.343
108.999	127.609	80.004	19.995	100.931	19.922	3.228	0.347
109.499	127.815	80.003	19.995	100.934	19.920	3.346	0.383
109.999	128.009	80.005	19.996	100.938	19.918	3.477	0.401
110.499	128.193	80.001	19.996	100.942	19.923	3.163	0.389
110.999	128.411	80.004	19.996	100.947	19.919	3.428	0.390
111.499	128.584	80.004	19.995	100.951	19.922	3.256	0.396
111.999	128.776	80.005	19.996	100.953	19.922	3.244	0.378
112.499	128.978	80.006	19.995	100.948	19.921	3.338	0.380
112.999	129.182	80.004	19.995	100.942	19.919	3.466	0.400
113.499	129.373	80.006	19.995	100.938	19.918	3.482	0.401
113.999	129.613	80.005	19.995	100.935	19.921	3.293	0.413
114.499	129.731	80.005	19.995	100.935	19.918	3.506	0.394
114.999	129.962	80.005	19.995	100.936	19.918	3.520	0.354
115.499	130.174	80.003	19.995	100.939	19.920	3.384	0.396
116.000	130.341	80.006	19.995	100.943	19.920	3.343	0.411
116.500	130.552	80.004	19.995	100.946	19.916	3.602	0.378
116.999	130.741	80.004	19.997	100.944	19.916	3.628	0.389
117.499	130.972	80.004	19.996	100.946	19.918	3.513	0.411
117.999	131.170	80.005	19.995	100.950	19.918	3.498	0.424
118.499	131.370	80.003	19.995	100.950	19.917	3.582	0.413
118.999	131.589	80.003	19.996	100.949	19.918	3.508	0.408
119.499	131.752	80.003	19.995	100.944	19.917	3.532	0.401
119.999	131.954	80.003	19.995	100.938	19.919	3.433	0.374
120.499	132.192	80.004	19.996	100.934	19.915	3.704	0.403
120.999	132.336	80.003	19.995	100.934	19.916	3.604	0.411
121.500	132.562	80.005	19.995	100.933	19.915	3.672	0.376
122.001	132.732	80.003	19.995	100.941	19.917	3.592	0.383
122.500	132.941	80.003	19.995	100.944	19.915	3.670	0.388
122.999	133.163	80.002	19.997	100.947	19.922	3.276	0.405
123.499	133.344	80.002	19.995	100.945	19.915	3.718	0.417
123.999	133.561	80.004	19.996	100.946	19.917	3.585	0.400
124.499	133.771	80.002	19.997	100.943	19.916	3.617	0.412
124.999	134.012	80.004	19.996	100.944	19.916	3.650	0.439
125.500	134.166	80.002	19.996	100.945	19.916	3.609	0.423
126.000	134.388	80.004	19.997	100.948	19.918	3.510	0.386
126.499	134.565	80.002	19.996	100.949	19.912	3.890	0.388
126.999	134.822	80.003	19.996	100.951	19.918	3.522	0.417
127.499	134.996	80.004	19.997	100.952	19.918	3.488	0.432
128.000	135.222	80.002	19.997	100.951	19.921	3.310	0.415
128.500	135.446	80.005	19.996	100.950	19.915	3.670	0.425
129.000	135.634	80.002	19.996	100.949	19.915	3.660	0.431
129.500	135.831	80.006	19.996	100.948	19.917	3.561	0.399
130.000	136.051	80.003	19.996	100.947	19.916	3.605	0.401
130.500	136.249	80.003	19.996	100.945	19.914	3.759	0.417
131.000	136.457	80.002	19.997	100.946	19.916	3.604	0.412
131.500	136.662	80.003	19.996	100.946	19.918	3.479	0.409
132.000	136.861	80.003	19.997	100.945	19.918	3.503	0.409
132.500	137.057	80.003	19.996	100.945	19.915	3.684	0.400
133.000	137.311	80.004	19.997	100.945	19.914	3.723	0.422
133.500	137.505	80.005	19.995	100.945	19.917	3.546	0.449
134.000	137.729	80.004	19.996	100.945	19.915	3.694	0.433
134.500	137.915	80.005	19.995	100.945	19.913	3.798	0.414
135.000	138.124	80.004	19.996	100.947	19.915	3.679	0.402
135.500	138.338	80.006	19.996	100.948	19.914	3.740	0.409
136.000	138.531	80.004	19.995	100.948	19.911	3.909	0.415
136.500	138.758	80.008	19.996	100.945	19.915	3.657	0.414
137.000	138.986	80.006	19.994	100.946	19.910	4.025	0.438
137.500	139.205	80.008	19.995	100.942	19.913	3.793	0.451
138.000	139.367	80.004	19.995	100.943	19.909	4.047	0.414
138.500	139.607	80.006	19.994	100.944	19.913	3.836	0.391
139.000	139.812	80.006	19.994	100.946	19.918	3.471	0.424
139.500	140.032	80.006	19.994	100.947	19.917	3.575	0.435
140.000	140.275	80.007	19.995	100.950	19.913	3.810	0.444
140.500	140.480	80.006	19.994	100.950	19.916	3.619	0.455
141.000	140.695	80.007	19.996	100.948	19.914	3.720	0.434
141.500	140.923	80.006	19.995	100.947	19.917	3.551	0.431
142.000	141.134	80.006	19.996	100.947	19.911	3.955	0.441
142.500	141.351	80.006	19.995	100.948	19.910	3.986	0.433
143.000	141.546	80.006	19.996	100.947	19.910	3.979	0.420
143.500	141.783	80.004	19.995	100.949	19.912	3.863	0.422
144.000	142.014	80.005	19.997	100.951	19.913	3.803	0.450
144.500	142.219	80.005	19.994	100.951	19.916	3.595	0.452
145.000	142.435	80.008	19.996	100.951	19.913	3.829	0.428
145.500	142.674	80.003	19.994	100.951	19.911	3.964	0.438
146.000	142.860	80.005	19.995	100.952	19.914	3.733	0.440
146.500	143.113	80.005	19.995	100.952	19.911	3.957	0.432
147.000	143.329	80.005	19.994	100.952	19.916	3.631	0.454
147.500	143.537	80.004	19.995	100.952	19.916	3.634	0.447
148.000	143.758	80.005	19.996	100.952	19.912	3.849	0.426
148.501	144.025	80.004	19.996	100.951	19.914	3.749	0.459
149.001	144.232	80.004	19.996	100.951	19.915	3.710	0.481
149.500	144.448	80.003	19.995	100.951	19.914	3.757	0.448
150.000	144.662	80.004	19.996	100.951	19.918	3.523	0.427
150.500	144.871	80.003	19.995	100.950	19.917	3.542	0.426
151.000	145.058	80.003	19.996	100.949	19.912	3.898	0.409
151.500	145.320	80.004	19.995	100.947	19.912	3.893	0.423
152.000	145.572	80.003	19.996	100.944	19.911	3.936	0.482
152.500	145.785	80.004	19.996	100.942	19.919	3.462	0.489
153.000	146.054	80.002	19.996	100.942	19.918	3.528	0.473
153.500	146.228	80.001	19.997	100.943	19.917	3.530	0.463
154.000	146.459	80.005	19.994	100.944	19.911	3.909	0.424
154.500	146.687	80.003	19.996	100.947	19.915	3.663	0.432
155.000	146.944	80.002	19.995	100.949	19.917	3.585	0.472
155.500	147.122	80.002	19.995	100.950	19.911	3.945	0.460
156.000	147.342	80.006	19.996	100.951	19.911	3.948	0.417
156.500	147.599	80.005	19.997	100.952	19.915	3.657	0.438
157.000	147.810	80.004	19.994	100.951	19.915	3.704	0.473
157.500	148.030	80.005	19.995	100.950	19.912	3.902	0.449
158.000	148.269	80.000	19.996	100.950	19.915	3.711	0.444
158.500	148.499	80.004	19.996	100.950	19.917	3.571	0.464
159.000	148.682	80.003	19.996	100.950	19.913	3.818	0.441
159.500	148.936	80.005	19.995	100.950	19.914	3.741	0.425
160.000	149.221	80.003	19.996	100.951	19.918	3.469	0.488
160.500	149.442	80.004	19.996	100.948	19.917	3.570	0.522
161.000	149.667	80.002	19.996	100.944	19.916	3.595	0.476
161.501	149.898	80.002	19.996	100.942	19.911	3.935	0.451
162.000	150.104	80.003	19.996	100.937	19.917	3.534	0.447
162.500	150.362	80.004	19.995	100.932	19.913	3.783	0.450
163.000	150.568	80.005	19.996	100.932	19.917	3.536	0.464
163.500	150.783	80.004	19.996	100.934	19.916	3.643	0.443
164.000	151.039	80.003	19.995	100.934	19.917	3.563	0.446
164.500	151.286	80.002	19.996	100.939	19.914	3.773	0.487
165.000	151.480	80.004	19.995	100.942	19.912	3.846	0.472
165.500	151.718	80.004	19.995	100.944	19.913	3.833	0.437
166.000	151.954	80.002	19.995	100.945	19.917	3.579	0.453
166.500	152.162	80.005	19.995	100.948	19.915	3.662	0.459
167.000	152.426	80.003	19.996	100.949	19.913	3.790	0.458
167.500	152.643	80.006	19.995	100.951	19.913	3.816	0.476
168.000	152.892	80.002	19.995	100.946	19.918	3.491	0.473
168.500	153.134	80.003	19.995	100.942	19.915	3.696	0.479
169.000	153.314	80.005	19.995	100.935	19.913	3.833	0.456
169.500	153.543	80.005	19.995	100.927	19.917	3.572	0.415
170.000	153.844	80.005	19.995	100.922	19.913	3.831	0.470
170.500	154.026	80.005	19.995	100.933	19.914	3.732	0.507
171.000	154.269	80.002	19.995	100.940	19.913	3.812	0.454
171.500	154.464	80.003	19.995	100.948	19.917	3.578	0.432
172.000	154.686	80.002	19.995	100.954	19.914	3.761	0.427
172.500	154.972	80.002	19.995	100.961	19.911	3.921	0.462
173.000	155.214	80.005	19.996	100.955	19.911	3.915	0.517
173.500	155.425	80.006	19.994	100.953	19.917	3.556	0.490
174.000	155.652	80.004	19.995	100.952	19.912	3.861	0.446
174.500	155.870	80.002	19.995	100.952	19.914	3.739	0.442
175.000	156.102	80.007	19.994	100.952	19.913	3.829	0.447
175.500	156.335	80.004	19.995	100.954	19.909	4.071	0.458
176.000	156.609	80.005	19.994	100.956	19.914	3.759	0.486
176.500	156.815	80.001	19.995	100.958	19.914	3.778	0.493
177.000	157.064	80.003	19.995	100.958	19.913	3.802	0.467
177.500	157.315	80.003	19.995	100.959	19.912	3.882	0.478
178.000	157.556	80.004	19.995	100.957	19.912	3.870	0.496
178.500	157.775	80.003	19.994	100.957	19.913	3.843	0.476
179.000	158.002	80.004	19.995	100.957	19.911	3.947	0.453
179.500	158.209	80.003	19.995	100.957	19.914	3.746	0.440
180.000	158.505	80.003	19.994	100.957	19.914	3.739	0.468
180.500	158.697	80.005	19.995	100.957	19.915	3.657	0.496
181.000	158.923	80.001	19.995	100.957	19.913	3.824	0.453
181.500	159.189	80.003	19.994	100.956	19.912	3.889	0.455
182.000	159.458	80.007	19.995	100.956	19.912	3.887	0.514
182.500	159.618	80.005	19.993	100.957	19.909	4.067	0.482
183.000	159.885	79.999	19.997	100.958	19.911	3.914	0.428
183.500	160.150	80.002	19.995	100.958	19.911	3.963	0.479
184.000	160.349	80.002	19.995	100.959	19.913	3.826	0.498
184.500	160.624	80.000	19.994	100.957	19.912	3.907	0.469
185.000	160.864	80.002	19.995	100.951	19.907	4.171	0.494
185.500	161.105	80.000	19.995	100.949	19.913	3.782	0.498
186.000	161.341	80.002	19.996	100.949	19.910	4.028	0.479
186.500	161.568	80.004	19.995	100.949	19.908	4.115	0.470
187.000	161.804	80.000	19.994	100.951	19.905	4.297	0.463
187.501	162.065	80.001	19.995	100.955	19.909	4.093	0.480
188.001	162.268	80.002	19.996	100.954	19.909	4.065	0.480
188.501	162.534	80.002	19.996	100.954	19.907	4.164	0.466
189.001	162.750	80.005	19.994	100.954	19.905	4.321	0.476
189.500	162.961	80.002	19.996	100.954	19.911	3.919	0.454
190.000	163.254	80.003	19.996	100.954	19.905	4.287	0.465
190.500	163.487	80.001	19.996	100.956	19.908	4.108	0.515
191.000	163.723	80.005	19.994	100.954	19.906	4.239	0.498
191.500	163.943	80.003	19.997	100.952	19.907	4.193	0.463
192.000	164.221	80.002	19.996	100.952	19.906	4.246	0.477
192.500	164.484	80.006	19.996	100.948	19.910	4.033	0.520
193.000	164.774	80.005	19.996	100.945	19.909	4.086	0.548
193.500	165.004	80.003	19.997	100.943	19.908	4.132	0.537
194.000	165.197	80.006	19.995	100.939	19.912	3.861	0.471
194.500	165.471	80.001	19.995	100.932	19.908	4.146	0.445
195.000	165.713	80.006	19.996	100.930	19.904	4.398	0.491
195.500	165.966	80.007	19.996	100.931	19.910	4.008	0.505
196.000	166.149	80.005	19.996	100.930	19.909	4.035	0.466
196.500	166.438	80.006	19.996	100.931	19.908	4.140	0.454
197.000	166.694	80.004	19.996	100.935	19.911	3.927	0.509
197.500	166.947	80.007	19.995	100.936	19.907	4.164	0.527
198.000	167.165	80.004	19.995	100.934	19.908	4.119	0.490
198.500	167.429	80.005	19.995	100.931	19.905	4.321	0.476
199.000	167.653	80.004	19.996	100.933	19.909	4.089	0.485
199.500	167.897	80.006	19.996	100.930	19.907	4.181	0.478
200.000	168.139	80.003	19.996	100.931	19.905	4.304	0.477
200.500	168.400	80.005	19.996	100.933	19.905	4.323	0.495
201.000	168.632	80.006	19.995	100.935	19.911	3.963	0.498
201.500	168.878	80.005	19.996	100.932	19.908	4.130	0.486
202.000	169.124	80.003	19.996	100.932	19.905	4.292	0.485
202.500	169.369	80.006	19.995	100.932	19.907	4.160	0.492
203.000	169.623	80.005	19.995	100.932	19.907	4.183	0.496
203.500	169.861	80.008	19.993	100.936	19.904	4.403	0.496
204.000	170.138	80.007	19.995	100.940	19.905	4.307	0.503
204.500	170.372	80.005	19.995	100.944	19.905	4.290	0.513
205.000	170.596	80.003	19.995	100.948	19.903	4.469	0.484
205.500	170.858	80.004	19.995	100.946	19.902	4.520	0.472
206.000	171.053	80.005	19.997	100.941	19.904	4.351	0.471
206.500	171.350	80.004	19.995	100.938	19.907	4.184	0.475
207.000	171.615	80.002	19.995	100.933	19.902	4.491	0.528
207.500	171.865	80.003	19.995	100.925	19.904	4.367	0.538
208.000	172.121	80.003	19.996	100.922	19.905	4.286	0.510
208.500	172.313	80.003	19.996	100.922	19.906	4.246	0.477
209.000	172.606	80.004	19.996	100.923	19.903	4.435	0.467
209.500	172.828	80.003	19.996	100.926	19.903	4.466	0.500
210.000	173.098	80.004	19.997	100.933	19.904	4.375	0.503
210.501	173.368	80.004	19.996	100.935	19.905	4.329	0.516
211.000	173.635	80.004	19.997	100.935	19.905	4.348	0.539
211.500	173.858	80.003	19.996	100.933	19.907	4.195	0.514
212.000	174.086	80.004	19.996	100.929	19.906	4.224	0.470
212.500	174.348	80.007	19.997	100.923	19.907	4.186	0.470
213.000	174.605	80.005	19.996	100.923	19.903	4.416	0.505
213.500	174.858	80.002	19.995	100.924	19.906	4.232	0.515
214.000	175.089	80.006	19.996	100.927	19.905	4.338	0.497
214.500	175.333	80.009	19.996	100.931	19.906	4.247	0.479
215.000	175.569	80.003	19.997	100.932	19.903	4.433	0.478
215.500	175.834	80.006	19.996	100.932	19.905	4.339	0.491
216.000	176.077	80.007	19.997	100.929	19.908	4.130	0.504
216.500	176.330	79.997	19.998	100.924	19.907	4.218	0.502
217.000	176.637	79.999	19.997	100.916	19.905	4.302	0.529
217.500	176.822	79.999	19.997	100.915	19.905	4.298	0.526
218.000	177.087	80.009	19.995	100.914	19.905	4.339	0.471
218.500	177.342	80.006	19.996	100.920	19.905	4.339	0.485
219.000	177.607	79.999	19.997	100.921	19.906	4.244	0.520
219.500	177.851	80.008	19.997	100.925	19.901	4.539	0.514
220.000	178.101	80.002	19.997	100.926	19.900	4.604	0.501
220.500	178.355	80.016	19.996	100.927	19.905	4.308	0.499
221.000	178.636	80.013	19.996	100.924	19.905	4.327	0.520
221.500	178.876	80.002	19.996	100.926	19.904	4.387	0.528
222.000	179.096	80.005	19.995	100.927	19.904	4.389	0.490
222.500	179.345	80.008	19.997	100.926	19.901	4.571	0.465
223.000	179.611	80.008	19.996	100.923	19.906	4.283	0.492
223.500	179.868	80.007	19.996	100.921	19.902	4.528	0.519
224.000	180.108	79.997	19.996	100.921	19.904	4.392	0.510
224.500	180.363	80.001	19.996	100.918	19.901	4.595	0.496
225.000	180.657	80.002	19.996	100.922	19.903	4.438	0.522
225.500	180.911	80.004	19.996	100.923	19.905	4.346	0.549
226.000	181.135	80.007	19.996	100.924	19.904	4.378	0.513
226.500	181.452	80.002	19.995	100.922	19.906	4.256	0.509
227.000	181.672	80.005	19.995	100.922	19.903	4.423	0.539
227.500	181.910	80.005	19.996	100.917	19.902	4.493	0.497
228.000	182.172	80.005	19.995	100.915	19.909	4.090	0.479
228.500	182.443	80.004	19.995	100.917	19.907	4.222	0.517
229.000	182.673	80.004	19.996	100.923	19.906	4.259	0.517
229.500	182.924	80.000	19.994	100.924	19.904	4.378	0.491
230.000	183.172	80.011	19.995	100.924	19.904	4.356	0.490
230.500	183.427	80.007	19.996	100.926	19.902	4.491	0.501
231.000	183.697	80.007	19.995	100.922	19.902	4.496	0.514
231.500	183.928	79.996	19.995	100.916	19.903	4.428	0.512
232.000	184.191	80.002	19.995	100.915	19.900	4.602	0.497
232.500	184.430	80.006	19.996	100.915	19.906	4.230	0.498
233.000	184.694	80.004	19.995	100.914	19.904	4.354	0.503
233.500	184.966	80.004	19.995	100.916	19.901	4.542	0.520
234.000	185.202	80.004	19.996	100.916	19.904	4.349	0.522
234.500	185.494	80.004	19.995	100.917	19.906	4.245	0.517
235.000	185.789	80.001	19.995	100.917	19.903	4.472	0.558
235.500	186.004	80.005	19.995	100.917	19.898	4.784	0.549
236.000	186.243	80.003	19.996	100.917	19.896	4.898	0.482
236.500	186.487	80.000	19.995	100.917	19.904	4.360	0.469
237.000	186.766	80.004	19.994	100.916	19.902	4.523	0.503
237.500	187.008	80.001	19.995	100.916	19.902	4.501	0.522
238.000	187.269	80.003	19.996	100.917	19.896	4.858	0.512
238.500	187.514	80.009	19.995	100.916	19.899	4.665	0.505
239.000	187.793	80.001	19.995	100.917	19.899	4.680	0.515
239.500	188.058	80.006	19.995	100.917	19.899	4.703	0.534
240.000	188.258	79.986	19.999	100.918	19.902	4.503	0.504
240.500	188.547	80.007	19.996	100.913	19.900	4.641	0.477
241.000	188.782	80.003	19.996	100.914	19.902	4.523	0.507
241.500	189.091	79.999	19.995	100.912	19.899	4.707	0.534
242.000	189.271	80.003	19.995	100.912	19.905	4.348	0.516
242.500	189.527	80.005	19.995	100.911	19.901	4.595	0.463
243.000	189.772	80.007	19.993	100.916	19.898	4.730	0.469
243.500	190.046	80.001	19.995	100.915	19.901	4.552	0.510
244.000	190.269	80.003	19.995	100.915	19.903	4.455	0.508
244.500	190.568	80.005	19.996	100.916	19.902	4.474	0.509
245.000	190.780	80.008	19.996	100.916	19.899	4.678	0.516
245.500	191.015	80.004	19.995	100.916	19.903	4.433	0.479
246.000	191.310	80.009	19.994	100.916	19.901	4.593	0.489
246.500	191.571	80.006	19.996	100.917	19.899	4.685	0.543
247.000	191.793	80.009	19.995	100.918	19.900	4.632	0.519
247.500	192.086	80.006	19.995	100.919	19.900	4.620	0.499
248.001	192.227	79.998	19.997	100.919	19.903	4.463	0.474
248.500	192.696	80.016	19.993	100.918	19.906	4.257	0.522
249.000	192.666	80.010	19.994	100.919	19.903	4.470	0.525
249.500	192.936	80.003	19.994	100.920	19.902	4.484	0.340
250.000	193.196	80.005	19.995	100.920	19.900	4.641	0.385
250.500	193.595	80.002	19.996	100.920	19.901	4.543	0.594
251.000	193.822	80.005	19.995	100.922	19.901	4.591	0.642
251.500	194.030	80.001	19.997	100.918	19.900	4.647	0.530
252.000	194.326	80.003	19.995	100.918	19.902	4.506	0.469
252.500	194.508	80.004	19.996	100.916	19.901	4.552	0.491
253.000	194.791	80.006	19.995	100.914	19.901	4.598	0.472
253.500	194.980	80.004	19.996	100.916	19.901	4.588	0.469
254.000	195.336	80.003	19.995	100.917	19.897	4.790	0.509
254.500	195.515	80.002	19.997	100.917	19.901	4.570	0.540
255.000	195.765	80.005	19.996	100.916	19.898	4.734	0.481
255.500	196.042	80.006	19.995	100.916	19.900	4.659	0.478
256.000	196.255	80.002	19.995	100.916	19.898	4.755	0.509
256.500	196.539	80.002	19.996	100.915	19.898	4.772	0.494
257.000	196.782	80.003	19.994	100.915	19.901	4.593	0.512
257.500	197.010	80.004	19.995	100.912	19.900	4.641	0.499
258.000	197.239	80.004	19.996	100.912	19.900	4.641	0.465
258.500	197.531	79.996	19.996	100.910	19.901	4.596	0.489
259.000	197.781	80.005	19.996	100.909	19.897	4.808	0.532
259.500	198.025	80.005	19.995	100.909	19.901	4.578	0.518
260.001	198.301	80.002	19.994	100.912	19.903	4.438	0.506
260.501	198.521	80.005	19.994	100.912	19.900	4.654	0.508
261.000	198.775	79.998	19.996	100.909	19.899	4.706	0.485
261.500	199.023	80.006	19.994	100.907	19.896	4.879	0.488
262.000	199.305	80.008	19.994	100.907	19.901	4.579	0.516
262.500	199.524	80.005	19.996	100.908	19.895	4.934	0.516
263.000	199.767	79.999	19.996	100.907	19.895	4.934	0.482
263.500	200.018	80.004	19.996	100.906	19.896	4.860	0.478
264.000	200.274	80.006	19.996	100.908	19.902	4.506	0.500
264.500	200.531	80.004	19.996	100.906	19.901	4.586	0.510
265.000	200.753	79.997	19.995	100.902	19.896	4.908	0.496
265.500	200.980	80.010	19.995	100.901	19.899	4.693	0.464
266.000	201.257	80.006	19.994	100.906	19.899	4.679	0.476
266.500	201.498	80.012	19.995	100.908	19.898	4.730	0.511
267.001	201.741	80.005	19.996	100.910	19.898	4.758	0.501
267.500	201.990	80.002	19.996	100.912	19.900	4.611	0.488
268.000	202.205	79.997	19.995	100.915	19.899	4.668	0.478
268.500	202.430	80.000	19.996	100.913	19.899	4.690	0.452
269.000	202.691	80.004	19.995	100.913	19.897	4.835	0.463
269.500	202.940	80.010	19.996	100.912	19.898	4.751	0.497
270.000	203.218	80.002	19.995	100.914	19.898	4.739	0.518
270.500	203.428	80.002	19.995	100.914	19.894	5.022	0.508
271.000	203.707	80.003	19.995	100.913	19.894	4.988	0.489
271.500	203.952	80.011	19.995	100.914	19.894	5.000	0.507
272.000	204.191	80.004	19.994	100.914	19.894	5.007	0.504
272.500	204.432	80.006	19.995	100.912	19.896	4.901	0.482
273.000	204.693	80.005	19.995	100.912	19.895	4.930	0.491
273.500	204.937	80.007	19.995	100.910	19.892	5.145	0.503
274.000	205.174	80.004	19.996	100.909	19.891	5.199	0.493
274.500	205.431	80.005	19.995	100.907	19.888	5.415	0.487
275.000	205.655	80.001	19.995	100.906	19.892	5.151	0.487
275.500	205.933	79.999	19.996	100.905	19.891	5.194	0.492
276.000	206.168	80.008	19.995	100.904	19.888	5.357	0.507
276.500	206.371	80.006	19.994	100.900	19.891	5.207	0.475
277.000	206.694	80.007	19.994	100.899	19.888	5.385	0.482
277.500	206.942	80.005	19.994	100.898	19.893	5.092	0.548
278.000	207.172	80.004	19.994	100.896	19.889	5.325	0.524
278.500	207.417	80.006	19.995	100.900	19.891	5.206	0.477
279.000	207.667	80.007	19.995	100.905	19.891	5.218	0.485
279.500	207.919	80.004	19.995	100.907	19.894	5.011	0.499
280.000	208.164	80.004	19.996	100.906	19.888	5.391	0.500
280.500	208.378	80.006	19.995	100.908	19.889	5.344	0.478
281.000	208.653	80.004	19.995	100.909	19.889	5.315	0.474
281.500	208.874	80.005	19.995	100.908	19.890	5.274	0.493
282.000	209.136	80.005	19.996	100.908	19.890	5.285	0.490
282.500	209.420	80.004	19.995	100.909	19.889	5.332	0.515
283.000	209.632	80.004	19.995	100.905	19.890	5.292	0.521
283.500	209.858	80.003	19.995	100.906	19.887	5.423	0.467
284.000	210.094	80.002	19.996	100.905	19.889	5.340	0.450
284.500	210.303	80.004	19.996	100.897	19.887	5.446	0.453
285.000	210.589	80.005	19.996	100.891	19.886	5.482	0.470
285.500	210.811	80.006	19.996	100.888	19.890	5.234	0.502
286.001	211.054	80.005	19.995	100.887	19.890	5.261	0.487
286.501	211.287	80.001	19.996	100.888	19.887	5.474	0.471
287.000	211.527	80.006	19.996	100.888	19.889	5.343	0.474
287.500	211.753	80.000	19.996	100.890	19.889	5.310	0.469
288.000	211.989	80.003	19.997	100.894	19.888	5.380	0.464
288.500	212.229	79.994	19.996	100.895	19.885	5.572	0.469
289.000	212.484	80.004	19.996	100.888	19.884	5.610	0.486
289.500	212.751	80.010	19.996	100.889	19.884	5.610	0.509
290.000	212.977	80.010	19.995	100.891	19.886	5.511	0.508
290.500	213.259	80.007	19.995	100.893	19.885	5.549	0.500
291.000	213.503	80.010	19.996	100.891	19.882	5.777	0.516
291.500	213.709	80.009	19.996	100.894	19.886	5.518	0.488
292.000	213.983	80.006	19.995	100.898	19.879	5.961	0.465
292.500	214.219	80.001	19.995	100.902	19.882	5.765	0.495
293.000	214.503	79.998	19.996	100.901	19.884	5.635	0.515
293.500	214.774	80.021	19.992	100.901	19.882	5.775	0.537
294.000	214.964	79.994	19.997	100.909	19.882	5.748	0.508
294.500	215.187	80.004	19.996	100.910	19.884	5.616	0.437
295.000	215.437	80.007	19.995	100.910	19.879	5.949	0.443
295.500	215.646	80.018	19.993	100.914	19.883	5.704	0.466
296.000	215.901	79.998	19.998	100.921	19.880	5.903	0.461
296.500	216.127	80.010	19.995	100.914	19.881	5.820	0.472
297.000	216.337	79.995	19.997	100.914	19.882	5.750	0.459
297.500	216.627	80.007	19.997	100.909	19.880	5.900	0.469
298.000	216.879	80.005	19.994	100.905	19.882	5.789	0.521
298.500	217.132	80.003	19.996	100.896	19.879	5.923	0.523
299.000	217.384	80.004	19.996	100.896	19.880	5.884	0.505
299.500	217.640	80.002	19.996	100.891	19.878	6.012	0.507
300.000	217.868	80.006	19.996	100.894	19.880	5.869	0.496
300.500	218.082	80.008	19.996	100.895	19.879	5.939	0.463
301.000	218.356	80.005	19.995	100.899	19.884	5.664	0.465
301.500	218.581	80.008	19.994	100.901	19.878	6.000	0.494
302.000	218.825	80.003	19.995	100.904	19.880	5.905	0.483
302.500	219.068	80.003	19.996	100.903	19.877	6.056	0.478
303.000	219.300	79.998	19.997	100.899	19.878	5.992	0.481
303.500	219.560	80.011	19.995	100.893	19.877	6.050	0.484
304.000	219.792	80.005	19.996	100.890	19.879	5.943	0.492
304.500	220.056	80.007	19.995	100.886	19.876	6.127	0.494
305.000	220.282	79.995	19.996	100.887	19.877	6.067	0.493
305.500	220.497	80.003	19.997	100.886	19.877	6.097	0.466
306.000	220.755	80.006	19.995	100.890	19.877	6.107	0.457
306.500	221.017	80.004	19.996	100.894	19.876	6.133	0.496
307.000	221.266	80.006	19.995	100.897	19.874	6.254	0.515
307.500	221.478	80.000	19.996	100.894	19.874	6.260	0.486
308.000	221.728	80.006	19.995	100.895	19.874	6.247	0.462
308.500	221.972	80.017	19.994	100.892	19.878	6.016	0.478
309.001	222.196	80.002	19.996	100.891	19.874	6.238	0.481
309.500	222.455	80.006	19.994	100.893	19.874	6.255	0.475
310.000	222.693	80.005	19.995	100.896	19.870	6.512	0.490
310.500	222.958	80.007	19.995	100.897	19.869	6.575	0.500
311.000	223.158	80.004	19.996	100.898	19.878	5.997	0.484
311.500	223.430	80.004	19.996	100.894	19.870	6.525	0.468
312.000	223.695	80.003	19.996	100.891	19.870	6.511	0.504
312.500	223.942	79.996	19.997	100.893	19.872	6.395	0.525
313.000	224.170	80.001	19.996	100.895	19.871	6.442	0.493
313.500	224.423	80.005	19.995	100.895	19.868	6.667	0.478
314.000	224.677	80.004	19.995	100.898	19.870	6.507	0.494
314.500	224.922	80.002	19.995	100.901	19.870	6.507	0.503
315.000	225.178	80.003	19.996	100.899	19.871	6.444	0.500
315.500	225.439	80.007	19.994	100.897	19.870	6.546	0.509
316.000	225.666	80.005	19.995	100.899	19.869	6.561	0.503
316.500	225.871	79.999	19.997	100.895	19.869	6.570	0.460
317.000	226.113	80.000	19.996	100.887	19.872	6.375	0.439
317.500	226.379	80.005	19.995	100.885	19.867	6.701	0.478
318.000	226.619	80.002	19.996	100.886	19.869	6.561	0.507
318.500	226.890	80.002	19.996	100.884	19.872	6.402	0.508
319.000	227.106	80.003	19.995	100.890	19.866	6.767	0.499
319.500	227.370	80.006	19.995	100.899	19.864	6.922	0.483
320.000	227.595	80.003	19.996	100.903	19.866	6.773	0.484
320.500	227.867	80.004	19.997	100.902	19.864	6.882	0.493
321.000	228.098	79.997	19.996	100.904	19.865	6.845	0.500
321.500	228.351	80.004	19.996	100.896	19.863	6.976	0.493
322.000	228.630	80.000	19.996	100.890	19.865	6.843	0.508
322.500	228.896	80.006	19.994	100.886	19.867	6.722	0.538
323.000	229.097	80.001	19.996	100.884	19.863	6.960	0.506
323.500	229.387	80.009	19.994	100.884	19.861	7.065	0.479
324.000	229.609	80.004	19.997	100.891	19.866	6.772	0.502
324.500	229.864	79.993	19.997	100.897	19.866	6.739	0.494
325.000	230.121	80.004	19.997	100.897	19.864	6.877	0.494
325.500	230.377	80.003	19.996	100.900	19.861	7.112	0.512
326.000	230.606	80.007	19.996	100.902	19.860	7.170	0.499
326.500	230.863	79.997	19.997	100.897	19.857	7.348	0.486
327.000	231.105	80.004	19.995	100.893	19.859	7.231	0.493
327.500	231.401	79.995	19.995	100.898	19.862	7.051	0.518
328.000	231.590	80.006	19.994	100.896	19.860	7.148	0.511
328.500	231.854	80.001	19.995	100.894	19.860	7.158	0.469
329.000	232.078	79.998	19.998	100.893	19.858	7.264	0.471
329.500	232.321	79.996	19.997	100.894	19.857	7.320	0.478
330.000	232.593	80.009	19.996	100.892	19.856	7.388	0.491
330.500	232.811	80.005	19.994	100.895	19.857	7.360	0.502
331.000	233.070	80.016	19.993	100.898	19.860	7.159	0.483
331.500	233.311	80.013	19.993	100.902	19.856	7.370	0.488
332.000	233.588	79.999	19.995	100.903	19.855	7.473	0.509
332.500	233.830	80.006	19.995	100.902	19.857	7.336	0.518
333.000	234.039	79.997	19.996	100.900	19.854	7.529	0.485
333.501	234.285	80.001	19.997	100.898	19.852	7.676	0.453
334.000	234.532	80.005	19.996	100.893	19.853	7.559	0.474
334.500	234.802	80.007	19.995	100.887	19.854	7.502	0.505
335.000	235.065	80.004	19.995	100.886	19.854	7.521	0.525
335.500	235.338	80.004	19.994	100.882	19.853	7.611	0.534
336.000	235.525	80.005	19.996	100.880	19.852	7.667	0.498
336.500	235.766	79.990	19.997	100.883	19.850	7.773	0.445
337.000	236.033	80.010	19.993	100.882	19.851	7.724	0.469
337.500	236.264	80.006	19.996	100.888	19.851	7.684	0.503
338.000	236.517	80.004	19.994	100.893	19.849	7.839	0.491
338.500	236.757	79.999	19.996	100.899	19.847	7.996	0.489
339.000	237.008	80.002	19.995	100.900	19.848	7.924	0.492
339.500	237.249	79.999	19.997	100.905	19.845	8.085	0.491
340.000	237.519	80.008	19.994	100.904	19.849	7.829	0.501
340.500	237.755	80.005	19.995	100.901	19.846	8.062	0.509
341.000	238.002	80.009	19.995	100.895	19.847	7.976	0.495
341.500	238.232	80.003	19.996	100.894	19.847	7.985	0.480
342.000	238.474	80.008	19.994	100.890	19.847	7.968	0.475
342.500	238.727	80.005	19.995	100.889	19.841	8.355	0.484
343.001	238.970	80.006	19.996	100.892	19.847	7.968	0.495
343.500	239.228	79.998	19.996	100.892	19.844	8.165	0.499
344.000	239.465	80.007	19.994	100.893	19.844	8.142	0.498
344.500	239.692	80.005	19.995	100.898	19.844	8.171	0.479
345.000	239.941	80.005	19.994	100.899	19.845	8.115	0.470
345.500	240.172	79.994	19.998	100.899	19.840	8.384	0.478
346.000	240.442	80.006	19.995	100.897	19.842	8.277	0.490
346.500	240.671	80.011	19.995	100.895	19.841	8.328	0.500
347.000	240.918	80.001	19.996	100.891	19.839	8.448	0.488
347.500	241.166	80.000	19.997	100.889	19.839	8.487	0.486
348.000	241.415	80.000	19.996	100.883	19.840	8.384	0.496
348.500	241.653	80.002	19.995	100.884	19.842	8.275	0.492
349.000	241.924	80.002	19.995	100.886	19.835	8.720	0.498
349.500	242.155	80.000	19.996	100.888	19.836	8.651	0.506
350.001	242.432	80.010	19.995	100.888	19.836	8.637	0.505
350.500	242.668	80.005	19.996	100.894	19.834	8.772	0.511
351.000	242.906	80.011	19.994	100.897	19.831	8.996	0.494
351.500	243.140	80.002	19.997	100.903	19.835	8.735	0.473
352.000	243.413	80.008	19.994	100.901	19.833	8.822	0.489
352.500	243.668	80.003	19.995	100.904	19.829	9.084	0.517
353.000	243.870	79.997	19.996	100.906	19.834	8.795	0.492
353.500	244.138	80.006	19.994	100.907	19.833	8.866	0.463
354.000	244.370	80.012	19.996	100.905	19.828	9.146	0.485
354.500	244.654	80.012	19.994	100.909	19.831	8.966	0.508
355.001	244.879	80.003	19.995	100.910	19.828	9.147	0.513
355.500	245.137	80.004	19.994	100.907	19.829	9.082	0.496
356.000	245.362	80.003	19.996	100.908	19.828	9.179	0.482
356.500	245.601	80.004	19.996	100.909	19.827	9.219	0.473
357.001	245.871	80.009	19.993	100.910	19.826	9.298	0.486
357.500	246.099	80.006	19.995	100.909	19.824	9.415	0.504
358.000	246.357	80.008	19.995	100.910	19.820	9.647	0.493
358.500	246.619	80.000	19.996	100.908	19.821	9.586	0.503
359.000	246.881	80.006	19.995	100.903	19.824	9.425	0.522
359.500	247.101	80.004	19.996	100.902	19.821	9.613	0.503
360.000	247.332	80.000	19.995	100.901	19.822	9.541	0.467
360.500	247.573	79.995	19.996	100.898	19.823	9.456	0.462
361.000	247.796	80.002	19.995	100.892	19.819	9.742	0.468
361.500	248.089	80.002	19.994	100.890	19.815	9.959	0.490
362.000	248.343	80.004	19.994	100.887	19.818	9.822	0.531
362.500	248.598	80.004	19.995	100.886	19.815	10.013	0.528
363.000	248.840	80.007	19.993	100.888	19.815	9.972	0.503
363.500	249.073	80.001	19.995	100.896	19.813	10.117	0.486
364.000	249.317	80.002	19.995	100.901	19.814	10.064	0.476
364.500	249.614	80.006	19.994	100.903	19.816	9.909	0.509
365.000	249.849	80.009	19.995	100.905	19.813	10.107	0.537
365.500	250.119	80.007	19.994	100.909	19.812	10.179	0.519
366.000	250.364	80.005	19.994	100.911	19.813	10.132	0.510
366.500	250.591	80.004	19.995	100.912	19.810	10.280	0.493
367.000	250.851	80.005	19.995	100.913	19.813	10.106	0.480
367.500	251.139	80.004	19.995	100.914	19.812	10.197	0.517
368.000	251.361	80.010	19.993	100.910	19.809	10.381	0.529
368.500	251.600	80.006	19.997	100.905	19.807	10.459	0.486
369.000	251.862	80.012	19.995	100.901	19.809	10.365	0.481
369.500	252.093	80.004	19.994	100.903	19.809	10.375	0.497
370.000	252.344	80.005	19.997	100.900	19.806	10.551	0.488
370.500	252.573	80.000	19.995	100.899	19.807	10.513	0.481
371.000	252.838	79.996	19.996	100.899	19.807	10.498	0.487
371.500	253.087	79.997	19.995	100.898	19.807	10.466	0.504
372.000	253.310	80.001	19.996	100.894	19.804	10.683	0.493
372.500	253.544	80.009	19.997	100.897	19.804	10.689	0.464
373.000	253.810	80.012	19.995	100.899	19.806	10.566	0.479
373.500	254.067	80.004	19.995	100.895	19.805	10.627	0.512
374.000	254.311	80.005	19.995	100.895	19.803	10.712	0.512
374.500	254.614	80.004	19.996	100.892	19.801	10.862	0.524
375.000	254.818	80.002	19.995	100.890	19.796	11.171	0.527
375.500	255.026	80.005	19.996	100.892	19.801	10.888	0.460
376.000	255.333	80.005	19.994	100.898	19.798	11.073	0.463
376.500	255.547	80.005	19.994	100.905	19.796	11.194	0.518
377.000	255.794	80.008	19.995	100.910	19.796	11.154	0.492
377.500	256.052	79.998	19.995	100.909	19.797	11.108	0.483
378.000	256.280	80.004	19.995	100.907	19.795	11.212	0.495
378.500	256.549	80.003	19.994	100.907	19.795	11.244	0.492
379.000	256.787	80.006	19.994	100.907	19.791	11.466	0.502
379.500	257.057	80.006	19.996	100.904	19.794	11.324	0.507
380.000	257.269	80.008	19.994	100.901	19.792	11.458	0.495
380.500	257.555	80.004	19.997	100.898	19.789	11.640	0.490
381.000	257.773	80.003	19.996	100.890	19.788	11.652	0.501
381.500	258.058	80.001	19.994	100.887	19.791	11.490	0.503
382.000	258.313	80.000	19.996	100.891	19.788	11.684	0.521
382.500	258.537	80.002	19.996	100.896	19.790	11.565	0.510
383.000	258.792	80.004	19.995	100.900	19.787	11.739	0.479
383.500	259.070	80.001	19.997	100.904	19.781	12.099	0.506
384.000	259.337	80.002	19.996	100.902	19.786	11.799	0.539
384.500	259.543	80.004	19.996	100.898	19.783	11.972	0.509
385.000	259.822	80.005	19.996	100.897	19.783	12.003	0.479
385.500	260.045	80.011	19.995	100.897	19.781	12.107	0.494
386.000	260.297	80.006	19.995	100.900	19.780	12.192	0.489
386.500	260.564	80.005	19.995	100.903	19.781	12.091	0.497
387.000	260.785	80.014	19.995	100.905	19.780	12.216	0.503
387.500	261.005	80.006	19.996	100.904	19.777	12.385	0.464
388.000	261.253	80.005	19.996	100.903	19.777	12.344	0.454
388.500	261.516	80.008	19.994	100.899	19.774	12.569	0.489
389.000	261.739	80.008	19.997	100.898	19.773	12.654	0.498
389.500	261.954	80.007	19.995	100.900	19.774	12.586	0.462
390.000	262.229	80.006	19.995	100.899	19.775	12.503	0.465
390.500	262.463	80.008	19.995	100.902	19.770	12.796	0.500
391.000	262.744	80.006	19.995	100.904	19.771	12.755	0.512
391.500	262.975	80.001	19.995	100.906	19.772	12.706	0.513
392.000	263.241	80.013	19.995	100.903	19.767	12.990	0.504
392.500	263.471	80.002	19.995	100.905	19.767	12.982	0.497
393.000	263.696	80.005	19.995	100.904	19.765	13.112	0.476
393.500	263.958	80.004	19.995	100.903	19.765	13.104	0.471
394.000	264.226	80.018	19.993	100.900	19.762	13.327	0.509
394.500	264.490	80.004	19.996	100.904	19.760	13.429	0.531
395.000	264.720	80.006	19.995	100.903	19.764	13.215	0.513
395.500	264.977	80.005	19.995	100.902	19.759	13.529	0.490
396.000	265.194	80.010	19.995	100.899	19.759	13.503	0.481
396.500	265.433	80.004	19.997	100.901	19.759	13.508	0.465
397.000	265.708	80.006	19.995	100.901	19.755	13.767	0.485
397.500	265.971	79.998	19.997	100.900	19.756	13.676	0.526
398.000	266.218	80.000	19.995	100.900	19.755	13.790	0.524
398.500	266.458	80.001	19.997	100.902	19.756	13.712	0.498
399.000	266.704	80.007	19.996	100.901	19.754	13.812	0.487
399.500	266.969	80.005	19.996	100.901	19.752	13.945	0.499
400.000	267.225	80.006	19.996	100.902	19.750	14.105	0.516
400.500	267.445	79.997	19.997	100.903	19.752	13.926	0.499
401.000	267.640	80.006	19.995	100.904	19.748	14.175	0.445
401.500	267.936	79.998	19.998	100.905	19.750	14.086	0.453
402.000	268.161	80.003	19.995	100.902	19.745	14.390	0.506
402.500	268.442	80.002	19.997	100.904	19.747	14.248	0.514
403.000	268.684	80.005	19.996	100.905	19.743	14.517	0.514
403.500	268.888	79.998	19.996	100.907	19.743	14.515	0.484
404.000	269.123	80.008	19.994	100.905	19.742	14.571	0.442
404.500	269.351	80.005	19.995	100.910	19.738	14.825	0.451
405.000	269.640	80.005	19.996	100.910	19.740	14.722	0.490
405.500	269.907	80.016	19.995	100.911	19.737	14.903	0.536
406.000	270.156	80.009	19.997	100.912	19.738	14.848	0.536
406.500	270.352	80.004	19.997	100.916	19.734	15.089	0.481
407.000	270.660	80.008	19.997	100.913	19.733	15.138	0.475
407.500	270.877	80.003	19.996	100.912	19.735	15.048	0.514
408.000	271.167	80.010	19.997	100.910	19.733	15.163	0.516
408.500	271.391	80.004	19.997	100.910	19.733	15.149	0.511
409.000	271.643	79.994	19.997	100.907	19.729	15.392	0.495
409.500	271.912	80.010	19.995	100.906	19.728	15.438	0.498
410.000	272.144	79.993	19.997	100.907	19.723	15.755	0.511
410.500	272.384	79.999	19.997	100.907	19.724	15.705	0.487
411.000	272.657	79.994	19.999	100.905	19.725	15.661	0.493
411.500	272.850	79.997	19.997	100.904	19.722	15.852	0.489
412.000	273.103	80.008	19.996	100.905	19.723	15.781	0.456
412.500	273.350	80.001	19.997	100.904	19.716	16.194	0.473
413.000	273.622	79.994	19.997	100.905	19.718	16.076	0.510
413.500	273.900	80.014	19.995	100.904	19.718	16.102	0.535
414.000	274.085	80.003	19.996	100.909	19.715	16.252	0.506
414.500	274.343	80.013	19.996	100.910	19.712	16.451	0.453
415.000	274.599	79.997	19.996	100.910	19.714	16.324	0.479
415.500	274.858	80.002	19.996	100.910	19.715	16.311	0.515
416.000	275.101	80.006	19.994	100.912	19.712	16.459	0.508
416.500	275.342	80.007	19.997	100.912	19.713	16.405	0.492
417.000	275.578	80.012	19.996	100.914	19.712	16.458	0.480
417.500	275.847	80.005	19.996	100.916	19.706	16.871	0.491
418.000	276.085	80.004	19.995	100.916	19.706	16.826	0.506
418.500	276.323	79.987	19.997	100.917	19.704	16.953	0.492
419.000	276.553	80.000	19.998	100.910	19.703	17.067	0.472
419.500	276.830	80.003	19.996	100.908	19.703	17.050	0.488
420.000	277.055	80.000	19.996	100.902	19.701	17.171	0.504
420.500	277.287	80.006	19.994	100.902	19.699	17.296	0.479
421.000	277.551	80.008	19.993	100.902	19.702	17.089	0.476
421.500	277.767	80.000	19.995	100.907	19.696	17.502	0.488
422.000	278.030	80.001	19.996	100.909	19.695	17.545	0.480
422.500	278.296	80.006	19.995	100.912	19.695	17.565	0.504
423.000	278.537	80.007	19.994	100.914	19.696	17.504	0.518
423.500	278.780	80.010	19.995	100.914	19.691	17.795	0.496
424.000	279.047	80.009	19.994	100.913	19.688	17.995	0.498
424.500	279.269	79.998	19.997	100.915	19.688	17.983	0.499
425.000	279.522	79.998	19.996	100.915	19.686	18.133	0.482
425.500	279.715	80.004	19.997	100.913	19.683	18.275	0.461
426.000	280.003	80.015	19.995	100.911	19.682	18.376	0.464
426.500	280.258	80.007	19.995	100.913	19.681	18.396	0.512
427.000	280.520	80.009	19.994	100.913	19.677	18.664	0.530
427.500	280.725	80.002	19.995	100.916	19.675	18.796	0.492
428.000	281.010	79.997	19.997	100.917	19.675	18.827	0.478
428.500	281.276	80.006	19.995	100.917	19.672	19.011	0.520
429.000	281.513	80.009	19.993	100.916	19.669	19.162	0.527
429.500	281.752	80.004	19.996	100.917	19.671	19.060	0.489
430.000	281.998	80.006	19.995	100.917	19.665	19.456	0.480
430.500	282.254	80.011	19.995	100.918	19.663	19.585	0.493
431.000	282.482	80.001	19.995	100.920	19.665	19.418	0.493
431.500	282.755	79.997	19.995	100.919	19.666	19.379	0.493
432.000	283.001	80.002	19.996	100.918	19.659	19.837	0.510
432.500	283.275	80.007	19.994	100.918	19.659	19.795	0.520
433.000	283.476	80.006	19.994	100.919	19.659	19.830	0.497
433.500	283.716	80.000	19.996	100.920	19.656	20.015	0.458
434.000	283.970	80.002	19.996	100.921	19.656	19.985	0.467
434.501	284.293	80.005	19.994	100.919	19.656	19.999	0.535
435.000	284.501	80.011	19.993	100.921	19.652	20.276	0.554
435.500	284.780	80.008	19.996	100.921	19.650	20.381	0.509
436.000	285.011	80.003	19.995	100.922	19.648	20.506	0.499
436.500	285.270	80.010	19.994	100.923	19.646	20.641	0.500
437.000	285.508	80.002	19.996	100.924	19.642	20.900	0.493
437.500	285.768	80.011	19.994	100.922	19.646	20.655	0.497
438.000	285.994	79.994	19.997	100.924	19.640	20.991	0.492
438.500	286.253	80.011	19.995	100.920	19.639	21.039	0.486
439.000	286.529	79.998	19.996	100.921	19.638	21.102	0.510
439.500	286.757	80.003	19.996	100.918	19.637	21.190	0.519
440.000	287.003	80.007	19.994	100.917	19.635	21.304	0.488
440.500	287.279	80.005	19.995	100.915	19.635	21.346	0.498
441.000	287.523	80.022	19.994	100.918	19.628	21.730	0.521
441.500	287.748	80.010	19.994	100.923	19.628	21.770	0.495
442.000	287.962	80.002	19.995	100.926	19.627	21.813	0.454
442.500	288.277	80.009	19.995	100.927	19.627	21.815	0.484
443.000	288.495	80.012	19.995	100.925	19.624	21.996	0.531
443.500	288.714	80.021	19.993	100.924	19.618	22.406	0.485
444.000	288.994	79.998	19.996	100.921	19.619	22.340	0.468
444.500	289.240	80.005	19.994	100.918	19.619	22.344	0.513
445.000	289.506	80.006	19.995	100.921	19.616	22.506	0.519
445.500	289.736	80.001	19.996	100.923	19.613	22.687	0.504
446.000	289.978	79.995	19.996	100.920	19.609	22.938	0.484
446.501	290.234	80.014	19.995	100.915	19.610	22.885	0.485
447.000	290.471	80.012	19.996	100.919	19.610	22.906	0.496
447.500	290.763	80.021	19.993	100.919	19.611	22.853	0.511
448.000	291.019	80.014	19.994	100.920	19.607	23.087	0.538
448.500	291.251	79.991	19.997	100.923	19.605	23.219	0.518
449.000	291.540	80.013	19.994	100.921	19.602	23.409	0.505
449.500	291.751	80.011	19.994	100.922	19.600	23.495	0.510
450.000	292.019	80.002	19.996	100.922	19.600	23.496	0.489
450.500	292.253	80.007	19.995	100.918	19.595	23.848	0.491
451.000	292.493	80.004	19.996	100.919	19.591	24.101	0.488
451.500	292.745	80.001	19.996	100.923	19.589	24.216	0.483
452.000	293.009	80.014	19.993	100.919	19.590	24.164	0.505
452.500	293.243	80.009	19.994	100.921	19.590	24.179	0.507
453.000	293.508	80.004	19.996	100.921	19.587	24.367	0.498
453.500	293.735	80.020	19.994	100.922	19.584	24.529	0.495
454.000	293.970	80.006	19.996	100.927	19.582	24.627	0.477
454.500	294.245	80.006	19.996	100.928	19.581	24.731	0.486
455.000	294.490	80.006	19.994	100.925	19.581	24.706	0.515
455.501	294.748	80.014	19.993	100.925	19.576	25.053	0.512
456.001	294.989	80.005	19.994	100.925	19.576	25.013	0.501
456.501	295.204	80.015	19.995	100.920	19.575	25.081	0.478
457.001	295.464	80.006	19.996	100.921	19.572	25.308	0.465
457.500	295.706	80.002	19.996	100.921	19.569	25.452	0.488
458.000	295.941	80.006	19.996	100.923	19.567	25.615	0.490
458.500	296.192	80.005	19.995	100.923	19.565	25.761	0.482
459.000	296.415	80.006	19.994	100.922	19.562	25.904	0.479
459.500	296.684	80.006	19.995	100.921	19.563	25.838	0.483
460.000	296.883	80.007	19.995	100.921	19.558	26.181	0.480
460.500	297.128	80.006	19.996	100.918	19.555	26.354	0.456
461.000	297.395	80.006	19.994	100.917	19.554	26.435	0.478
461.500	297.649	80.007	19.994	100.919	19.553	26.486	0.517
462.000	297.899	80.007	19.995	100.920	19.550	26.660	0.512
462.501	298.123	80.002	19.995	100.925	19.548	26.786	0.489
463.000	298.412	80.007	19.996	100.927	19.545	26.998	0.494
463.500	298.604	80.007	19.995	100.925	19.543	27.126	0.497
464.000	298.878	80.008	19.995	100.923	19.543	27.089	0.473
464.500	299.096	80.003	19.996	100.922	19.544	27.041	0.479
465.000	299.366	79.998	19.997	100.917	19.541	27.248	0.490
465.500	299.581	80.002	19.995	100.913	19.539	27.377	0.487
466.000	299.853	80.015	19.993	100.914	19.534	27.688	0.486
466.500	300.050	80.010	19.997	100.917	19.535	27.621	0.478
467.000	300.331	80.010	19.993	100.915	19.530	27.926	0.473
467.500	300.534	79.991	20.005	100.920	19.535	27.632	0.481
468.000	300.805	79.987	19.997	100.920	19.523	28.351	0.480
468.500	301.060	80.013	19.994	100.922	19.529	27.995	0.500
469.000	301.319	80.015	19.995	100.927	19.526	28.175	0.519
469.500	301.557	80.016	19.995	100.932	19.525	28.233	0.505
470.000	301.810	80.009	19.996	100.932	19.521	28.478	0.494
470.500	302.024	80.018	19.996	100.938	19.520	28.558	0.479
471.000	302.270	80.011	19.997	100.945	19.515	28.871	0.463
471.500	302.543	80.011	19.995	100.942	19.514	28.920	0.489
472.000	302.757	80.007	19.996	100.942	19.513	28.979	0.503
472.500	303.013	80.008	19.996	100.941	19.508	29.315	0.479
473.000	303.260	80.007	19.996	100.940	19.512	29.096	0.486
473.500	303.488	80.010	19.995	100.934	19.508	29.350	0.489
474.000	303.756	80.010	19.994	100.934	19.503	29.670	0.486
474.500	304.016	80.009	19.996	100.934	19.501	29.791	0.512
475.000	304.262	80.008	19.995	100.935	19.499	29.889	0.517
475.500	304.479	80.005	19.996	100.936	19.497	30.046	0.484
476.001	304.731	80.006	19.996	100.933	19.497	29.998	0.466
476.501	304.997	80.007	19.995	100.931	19.493	30.268	0.494
477.001	305.199	80.007	19.996	100.931	19.489	30.502	0.493
477.500	305.489	80.006	19.996	100.930	19.489	30.510	0.480
478.000	305.713	80.008	19.996	100.929	19.488	30.596	0.503
478.500	305.977	80.005	19.997	100.933	19.485	30.745	0.501
479.000	306.234	80.005	19.996	100.938	19.484	30.818	0.504
479.500	306.490	80.000	19.997	100.940	19.480	31.098	0.517
480.000	306.720	80.004	19.996	100.941	19.476	31.336	0.499
480.500	306.969	80.008	19.995	100.942	19.473	31.540	0.482
481.000	307.223	80.005	19.995	100.940	19.468	31.821	0.491
481.500	307.466	80.003	19.996	100.939	19.469	31.764	0.500
482.000	307.717	80.004	19.996	100.936	19.471	31.644	0.495
482.500	307.938	80.017	19.993	100.935	19.465	32.026	0.483
483.000	308.206	80.017	19.994	100.940	19.463	32.162	0.481
483.500	308.454	80.020	19.994	100.944	19.461	32.317	0.503
484.000	308.717	79.994	19.998	100.948	19.454	32.743	0.514
484.500	308.983	80.001	19.995	100.949	19.456	32.575	0.520
485.000	309.258	79.997	19.998	100.951	19.452	32.837	0.535
485.500	309.461	79.998	19.995	100.946	19.450	32.992	0.509
486.001	309.717	80.002	19.997	100.944	19.453	32.807	0.468
486.501	309.965	80.002	19.996	100.941	19.450	32.961	0.482
487.001	310.274	80.006	19.996	100.943	19.444	33.354	0.531
487.500	310.520	80.011	19.995	100.945	19.442	33.497	0.556
488.000	310.775	79.998	19.997	100.949	19.442	33.463	0.528
488.500	310.977	80.005	19.997	100.948	19.439	33.681	0.479
489.000	311.240	79.991	19.997	100.950	19.437	33.792	0.461
489.500	311.542	80.005	19.995	100.947	19.436	33.865	0.515
490.000	311.765	80.007	19.996	100.947	19.432	34.136	0.545
490.500	312.028	80.003	19.995	100.946	19.430	34.245	0.505
491.000	312.307	80.002	19.994	100.949	19.430	34.254	0.514
491.500	312.574	80.003	19.995	100.949	19.427	34.459	0.544
492.000	312.842	80.011	19.995	100.953	19.424	34.641	0.540
492.500	313.095	80.003	19.995	100.955	19.421	34.794	0.528
493.000	313.332	79.997	19.995	100.954	19.419	34.907	0.506
493.500	313.563	79.998	19.995	100.953	19.414	35.266	0.479
494.000	313.813	79.999	19.995	100.951	19.418	35.024	0.474
494.500	314.067	79.997	19.996	100.951	19.413	35.323	0.492
495.000	314.350	79.995	19.995	100.949	19.409	35.575	0.521
495.500	314.573	80.005	19.995	100.948	19.407	35.686	0.522
496.000	314.867	80.005	19.995	100.950	19.404	35.850	0.512
496.500	315.107	80.002	19.996	100.951	19.404	35.865	0.525
497.000	315.333	80.004	19.997	100.953	19.398	36.253	0.499
497.500	315.588	80.005	19.996	100.954	19.399	36.202	0.473
498.000	315.847	80.005	19.996	100.956	19.395	36.424	0.498
498.500	316.101	80.008	19.994	100.955	19.391	36.693	0.514
499.000	316.356	80.002	19.996	100.956	19.387	36.924	0.511
499.500	316.617	80.003	19.995	100.955	19.389	36.821	0.512
500.000	316.884	80.013	19.994	100.956	19.385	37.059	0.522
500.500	317.088	80.011	19.996	100.959	19.385	37.067	0.500
501.000	317.360	80.003	19.995	100.959	19.382	37.250	0.473
501.501	317.616	79.985	19.998	100.958	19.382	37.295	0.502
502.000	317.870	80.004	19.998	100.954	19.379	37.484	0.519
502.500	318.175	80.005	19.996	100.950	19.374	37.762	0.535
503.000	318.383	80.002	19.996	100.949	19.369	38.053	0.536
503.500	318.662	80.006	19.996	100.948	19.369	38.101	0.501
504.000	318.929	80.002	19.996	100.948	19.364	38.378	0.517
504.500	319.151	80.007	19.996	100.951	19.365	38.333	0.517
505.000	319.428	79.995	19.998	100.953	19.359	38.708	0.493
505.500	319.654	80.014	19.996	100.949	19.356	38.876	0.501
506.000	319.904	80.010	19.995	100.951	19.357	38.870	0.490
506.500	320.135	80.006	19.997	100.952	19.352	39.158	0.479
507.000	320.389	79.998	19.995	100.953	19.349	39.330	0.483
507.500	320.668	80.001	19.996	100.953	19.344	39.642	0.509
508.000	320.941	80.007	19.996	100.955	19.344	39.669	0.543
508.501	321.154	80.007	19.995	100.956	19.342	39.821	0.519
509.001	321.442	79.995	19.996	100.955	19.338	40.050	0.493
509.500	321.699	80.005	19.996	100.955	19.337	40.079	0.523
510.000	321.907	80.001	19.995	100.956	19.335	40.206	0.505
510.500	322.205	80.009	19.995	100.958	19.333	40.344	0.485
511.000	322.420	79.995	19.997	100.958	19.328	40.699	0.510
511.500	322.659	80.003	19.998	100.956	19.326	40.780	0.484
512.000	322.885	80.000	19.996	100.956	19.325	40.853	0.459
512.500	323.202	80.001	19.997	100.955	19.320	41.197	0.504
513.000	323.439	79.993	19.997	100.954	19.319	41.237	0.549
513.500	323.674	80.002	19.996	100.952	19.314	41.546	0.514
514.000	323.948	79.998	19.995	100.955	19.315	41.507	0.491
514.500	324.210	80.003	19.996	100.956	19.309	41.889	0.522
515.000	324.454	80.009	19.993	100.959	19.308	41.923	0.521
515.500	324.706	80.004	19.993	100.963	19.305	42.140	0.501
516.000	324.982	80.002	19.995	100.965	19.298	42.554	0.512
516.500	325.201	80.001	19.997	100.964	19.300	42.428	0.511
517.000	325.470	80.002	19.995	100.964	19.295	42.738	0.491
517.500	325.710	80.005	19.997	100.963	19.290	43.065	0.499
518.000	325.975	80.002	19.995	100.963	19.290	43.095	0.507
518.500	326.219	80.006	19.996	100.966	19.286	43.332	0.507
519.000	326.471	80.005	19.995	100.970	19.284	43.477	0.503
519.500	326.713	79.997	19.994	100.971	19.281	43.617	0.495
520.000	326.964	80.004	19.998	100.967	19.277	43.920	0.493
520.500	327.193	80.008	19.996	100.964	19.274	44.088	0.486
521.000	327.438	80.009	19.994	100.963	19.276	43.966	0.477
521.500	327.702	80.007	19.994	100.965	19.268	44.459	0.491
522.000	327.986	80.004	19.994	100.970	19.271	44.281	0.529
522.500	328.210	80.008	19.995	100.976	19.265	44.638	0.528
523.000	328.453	80.006	19.995	100.979	19.258	45.073	0.487
523.500	328.699	80.003	19.996	100.979	19.257	45.166	0.478
524.000	328.989	80.008	19.995	100.972	19.251	45.534	0.512
524.500	329.225	80.006	19.995	100.971	19.250	45.569	0.531
525.000	329.452	80.001	19.996	100.968	19.246	45.850	0.495
525.500	329.720	79.986	19.998	100.968	19.241	46.135	0.479
526.000	329.976	80.004	19.995	100.964	19.239	46.315	0.509
526.500	330.220	80.005	19.995	100.966	19.236	46.498	0.512
527.000	330.478	80.007	19.995	100.967	19.235	46.565	0.501
527.500	330.722	80.000	19.995	100.971	19.231	46.802	0.502
528.000	330.959	80.011	19.993	100.975	19.225	47.141	0.492
528.500	331.221	80.012	19.995	100.983	19.226	47.100	0.490
529.000	331.453	80.006	19.995	100.988	19.219	47.534	0.496
529.500	331.733	80.005	19.994	100.988	19.217	47.688	0.503
530.000	331.964	79.998	19.996	100.989	19.217	47.673	0.511
530.500	332.226	80.003	19.996	100.988	19.208	48.233	0.502
531.000	332.452	80.009	19.994	100.986	19.204	48.481	0.491
531.500	332.722	80.005	19.995	100.987	19.203	48.530	0.492
532.000	332.981	80.008	19.993	100.986	19.199	48.816	0.512
532.500	333.266	80.002	19.995	100.986	19.195	49.058	0.536
533.000	333.499	80.008	19.994	100.989	19.191	49.326	0.531
533.500	333.765	80.006	19.995	100.990	19.189	49.446	0.509
534.000	334.001	80.000	19.993	100.991	19.183	49.847	0.501
534.500	334.254	80.001	19.996	100.992	19.178	50.149	0.495
535.000	334.524	80.005	19.994	100.991	19.177	50.195	0.505
535.500	334.791	80.009	19.994	100.991	19.170	50.665	0.530
536.000	335.030	80.006	19.995	100.991	19.170	50.671	0.522
536.500	335.279	80.002	19.996	100.991	19.165	50.970	0.497
537.000	335.538	80.002	19.995	100.989	19.160	51.276	0.498
537.501	335.790	80.001	19.998	100.990	19.155	51.622	0.510
538.000	336.047	80.003	19.996	100.988	19.149	52.005	0.510
538.500	336.262	80.003	19.998	100.988	19.148	52.045	0.490
539.000	336.563	80.005	19.994	100.987	19.143	52.335	0.494
539.500	336.822	80.003	19.996	100.990	19.141	52.496	0.538
540.000	337.044	80.007	19.996	100.990	19.135	52.858	0.520
540.500	337.279	79.999	19.997	100.992	19.130	53.180	0.468
541.000	337.546	80.003	20.003	100.992	19.128	53.291	0.479
541.500	337.799	80.008	19.995	100.993	19.125	53.483	0.511
542.000	338.066	80.004	19.994	100.992	19.117	53.988	0.520
542.500	338.300	80.006	19.994	100.994	19.115	54.094	0.511
543.000	338.568	80.005	19.995	100.996	19.112	54.312	0.502
543.500	338.820	80.006	19.994	100.996	19.106	54.706	0.511
544.000	339.039	80.010	19.996	100.999	19.102	54.933	0.495
544.500	339.304	79.999	19.996	100.997	19.099	55.139	0.478
545.000	339.544	80.008	19.995	100.996	19.092	55.545	0.495
545.500	339.801	80.014	19.994	100.996	19.091	55.651	0.501
546.000	340.020	80.007	19.996	101.004	19.085	56.022	0.486
546.500	340.333	80.001	19.997	101.008	19.082	56.205	0.504
547.000	340.575	80.008	19.994	101.014	19.080	56.344	0.543
547.500	340.779	80.005	19.994	101.020	19.077	56.529	0.500
548.000	341.051	80.007	19.996	101.021	19.068	57.071	0.461
548.500	341.295	80.005	19.995	101.017	19.064	57.360	0.497
549.000	341.502	80.006	19.995	101.016	19.057	57.797	0.484
549.500	341.789	80.004	19.997	101.014	19.054	57.998	0.472
550.000	342.057	80.008	19.995	101.014	19.053	58.066	0.524
550.500	342.267	80.009	19.996	101.018	19.046	58.445	0.517
551.000	342.559	80.011	19.995	101.021	19.042	58.750	0.490
551.500	342.767	80.006	19.993	101.024	19.037	59.051	0.501
552.000	343.004	80.003	19.995	101.028	19.031	59.428	0.472
552.500	343.272	80.009	19.995	101.028	19.028	59.602	0.475
553.000	343.509	80.002	19.996	101.029	19.025	59.776	0.505
553.500	343.744	80.012	19.997	101.028	19.021	60.060	0.489
554.000	344.031	80.007	19.996	101.027	19.012	60.625	0.497
554.500	344.275	80.018	19.993	101.027	19.010	60.760	0.526
555.000	344.495	80.011	19.994	101.033	19.004	61.096	0.497
555.500	344.765	79.997	19.995	101.033	19.000	61.388	0.477
556.000	344.986	80.007	19.993	101.032	18.997	61.558	0.490
556.500	345.221	80.010	19.994	101.033	18.993	61.836	0.473
557.000	345.473	80.017	19.995	101.034	18.987	62.170	0.471
557.500	345.753	80.017	19.993	101.030	18.984	62.397	0.510
558.000	346.000	80.007	19.994	101.032	18.983	62.456	0.529
558.500	346.240	80.005	19.995	101.035	18.972	63.122	0.507
559.000	346.490	80.014	19.993	101.035	18.972	63.172	0.488
559.500	346.750	80.003	19.995	101.038	18.964	63.651	0.500
560.000	346.991	80.004	19.996	101.038	18.961	63.854	0.505
560.500	347.247	80.003	19.996	101.035	18.957	64.072	0.499
561.000	347.508	80.002	19.997	101.034	18.955	64.230	0.507
561.500	347.771	80.008	19.994	101.032	18.951	64.461	0.520
562.000	347.998	80.012	19.993	101.030	18.945	64.817	0.507
562.500	348.247	80.005	19.995	101.032	18.941	65.078	0.483
563.000	348.478	80.002	19.995	101.034	18.940	65.183	0.478
563.500	348.747	80.001	19.994	101.034	18.932	65.637	0.490
564.000	348.974	80.005	19.996	101.036	18.930	65.778	0.498
564.500	349.237	80.007	19.995	101.035	18.928	65.904	0.493
565.000	349.493	80.003	19.995	101.035	18.924	66.189	0.504
565.500	349.757	80.004	19.996	101.034	18.916	66.653	0.519
566.000	350.011	80.014	19.993	101.035	18.912	66.902	0.520
566.500	350.243	80.004	19.996	101.038	18.910	67.027	0.502
567.000	350.452	80.000	20.000	101.039	18.904	67.411	0.464
567.500	350.699	80.002	19.996	101.036	18.904	67.408	0.448
568.000	350.927	79.999	19.994	101.036	18.899	67.733	0.465
568.500	351.211	80.013	19.996	101.034	18.897	67.894	0.493
569.000	351.426	79.999	19.996	101.032	18.895	68.003	0.505
569.500	351.669	79.996	19.994	101.032	18.891	68.248	0.478
570.000	351.943	80.004	19.995	101.033	18.884	68.660	0.487
570.500	352.190	80.004	20.002	101.034	18.886	68.551	0.519
571.000	352.419	80.004	19.997	101.034	18.879	68.979	0.499
571.500	352.710	80.005	19.996	101.033	18.874	69.293	0.499
572.000	352.994	80.009	19.996	101.032	18.875	69.258	0.547
572.500	353.224	80.006	19.996	101.033	18.871	69.477	0.544
573.000	353.479	80.003	19.995	101.032	18.870	69.564	0.500
573.500	353.722	80.001	19.996	101.032	18.866	69.808	0.491
574.000	353.950	80.000	19.997	101.033	18.863	69.982	0.484
574.500	354.228	80.002	19.995	101.032	18.861	70.118	0.489
575.000	354.514	80.003	19.996	101.032	18.860	70.198	0.535
575.500	354.755	80.006	19.995	101.034	18.854	70.531	0.545
576.000	355.017	80.001	19.996	101.034	18.854	70.542	0.515
576.500	355.266	80.002	19.996	101.034	18.852	70.687	0.508
577.000	355.514	80.012	19.992	101.033	18.850	70.787	0.504
577.500	355.761	80.005	19.995	101.033	18.849	70.883	0.496
578.000	356.018	80.003	19.996	101.033	18.849	70.888	0.499
578.500	356.235	80.011	19.995	101.034	18.847	70.972	0.489
579.000	356.470	80.006	19.996	101.035	18.844	71.189	0.464
579.500	356.732	80.002	19.996	101.036	18.846	71.061	0.475
580.000	356.969	80.008	19.995	101.036	18.844	71.166	0.498
580.500	357.248	80.003	19.996	101.037	18.844	71.189	0.508
581.000	357.490	80.004	19.997	101.036	18.841	71.356	0.518
581.500	357.728	80.003	19.996	101.034	18.842	71.309	0.500
582.000	357.986	80.006	19.996	101.031	18.841	71.379	0.488
582.500	358.239	80.002	19.996	101.030	18.841	71.324	0.504
583.000	358.474	80.005	19.995	101.021	18.844	71.175	0.500
583.500	358.751	80.002	19.996	101.017	18.841	71.370	0.499
584.000	358.973	80.003	19.995	101.010	18.841	71.357	0.505
584.500	359.237	80.003	19.996	101.007	18.842	71.289	0.493
585.000	359.521	80.011	19.992	101.002	18.843	71.245	0.517
585.500	359.749	79.994	19.997	101.006	18.845	71.087	0.530
586.000	360.035	80.005	19.999	101.001	18.846	70.998	0.513
586.500	360.276	79.999	20.000	101.001	18.848	70.863	0.521
587.000	360.528	80.005	19.993	100.997	18.851	70.730	0.510
587.500	360.769	80.000	19.996	100.995	18.852	70.631	0.493
588.000	361.021	80.004	19.997	100.990	18.854	70.477	0.493
588.500	361.279	80.004	19.995	100.990	18.855	70.424	0.501
589.000	361.551	80.006	19.996	100.989	18.854	70.501	0.520
589.500	361.808	80.006	19.996	100.986	18.859	70.160	0.529
590.000	362.048	80.009	19.997	100.984	18.860	70.120	0.512
590.500	362.274	80.003	19.996	100.981	18.867	69.691	0.482
591.000	362.547	80.004	19.997	100.979	18.867	69.673	0.483
591.500	362.796	80.004	19.995	100.975	18.872	69.342	0.510
592.000	363.063	80.007	19.996	100.971	18.875	69.172	0.519
592.500	363.313	80.005	19.996	100.965	18.877	69.053	0.516
593.000	363.552	80.001	19.994	100.960	18.881	68.779	0.503
593.501	363.828	80.000	19.996	100.955	18.884	68.590	0.502
594.001	364.082	80.000	20.000	100.951	18.888	68.361	0.522
594.500	364.312	80.011	19.994	100.950	18.894	67.961	0.507
595.000	364.597	80.003	19.992	100.954	18.895	67.893	0.500
595.500	364.865	80.010	19.994	100.953	18.902	67.437	0.534
596.000	365.078	80.002	19.999	100.952	18.907	67.151	0.517
596.500	365.324	80.003	19.997	100.952	18.911	66.875	0.470
597.000	365.621	80.000	19.994	100.950	18.919	66.382	0.502
597.500	365.878	80.001	19.996	100.940	18.921	66.238	0.549
598.000	366.126	80.003	19.996	100.933	18.928	65.808	0.529
598.500	366.413	80.007	19.996	100.927	18.931	65.639	0.520
599.000	366.653	80.005	19.996	100.921	18.938	65.155	0.531
599.500	366.894	80.004	19.997	100.916	18.941	64.978	0.504
600.000	367.159	80.002	19.995	100.915	18.950	64.410	0.493
600.500	367.422	80.006	19.997	100.915	18.957	63.980	0.517
601.000	367.687	80.006	19.996	100.914	18.961	63.716	0.528
601.500	367.954	80.009	19.995	100.912	18.969	63.212	0.530
602.000	368.197	80.004	19.997	100.912	18.974	62.917	0.521
602.500	368.437	80.001	19.997	100.911	18.980	62.544	0.496
603.000	368.694	79.998	19.994	100.907	18.985	62.181	0.490
603.500	368.927	80.004	19.999	100.903	18.991	61.837	0.494
604.000	369.238	80.005	19.998	100.897	19.001	61.213	0.517
604.500	369.475	80.006	19.996	100.889	19.006	60.882	0.546
605.000	369.719	80.005	19.996	100.883	19.014	60.402	0.514
605.500	370.022	80.006	19.995	100.880	19.020	59.985	0.515
606.000	370.266	80.002	19.995	100.878	19.025	59.705	0.547
606.500	370.520	80.005	19.996	100.875	19.034	59.093	0.522
607.000	370.770	80.008	19.995	100.874	19.042	58.635	0.501
607.500	371.032	80.004	19.998	100.874	19.047	58.273	0.508
608.000	371.282	80.000	19.998	100.873	19.052	57.961	0.512
608.500	371.553	80.003	19.995	100.871	19.061	57.433	0.516
609.000	371.826	80.007	19.991	100.871	19.067	57.031	0.532
609.500	372.049	80.004	19.994	100.873	19.076	56.501	0.520
610.000	372.351	80.003	19.997	100.870	19.081	56.133	0.511
610.500	372.625	80.005	19.994	100.865	19.087	55.770	0.551
611.000	372.853	80.007	19.995	100.862	19.099	55.043	0.539
611.500	373.094	79.999	19.997	100.855	19.100	54.971	0.485
612.000	373.387	80.015	19.992	100.845	19.106	54.597	0.502
612.500	373.634	80.009	19.995	100.843	19.115	53.996	0.537
613.000	373.879	80.006	19.999	100.842	19.123	53.485	0.516
613.500	374.159	80.004	19.995	100.838	19.127	53.283	0.509
614.000	374.387	80.004	19.999	100.837	19.134	52.846	0.516
614.501	374.661	80.005	20.004	100.837	19.140	52.472	0.505
615.001	374.947	80.011	19.994	100.832	19.147	51.997	0.531
615.500	375.218	80.004	19.992	100.830	19.151	51.767	0.559
616.000	375.486	80.006	19.994	100.831	19.156	51.412	0.548
616.501	375.727	80.005	19.996	100.832	19.164	50.964	0.524
617.001	375.999	80.011	19.994	100.833	19.167	50.766	0.511
617.500	376.288	80.003	19.994	100.836	19.172	50.420	0.537
618.000	376.487	80.008	20.000	100.836	19.181	49.851	0.524
618.500	376.772	80.009	19.995	100.835	19.185	49.608	0.486
619.000	377.012	80.004	19.999	100.835	19.189	49.353	0.505
619.500	377.307	80.009	19.992	100.834	19.196	48.932	0.530
620.000	377.572	80.004	19.992	100.834	19.200	48.685	0.547
620.500	377.830	80.008	19.990	100.834	19.204	48.396	0.542
621.000	378.046	80.001	19.991	100.834	19.210	48.021	0.499
621.500	378.349	80.010	19.995	100.833	19.214	47.788	0.496
622.000	378.583	80.007	19.994	100.829	19.217	47.573	0.528
622.500	378.848	80.006	19.990	100.827	19.221	47.317	0.518
623.000	379.129	80.006	19.993	100.828	19.228	46.917	0.522
623.500	379.394	80.007	19.990	100.827	19.227	46.963	0.546
624.000	379.658	80.006	19.999	100.829	19.235	46.445	0.538
624.500	379.872	80.000	20.001	100.832	19.234	46.510	0.504
625.000	380.172	80.007	19.998	100.830	19.243	45.945	0.496
625.500	380.398	80.002	19.996	100.827	19.243	45.941	0.520
626.000	380.652	79.999	19.995	100.829	19.243	45.946	0.503
626.500	380.966	80.005	19.995	100.828	19.249	45.569	0.524
627.000	381.224	80.007	19.994	100.829	19.252	45.389	0.570
627.500	381.440	80.013	19.994	100.833	19.253	45.318	0.524
628.000	381.692	80.003	19.996	100.832	19.257	45.085	0.471
628.500	381.980	80.006	19.993	100.831	19.261	44.837	0.503
629.000	382.227	80.008	19.995	100.831	19.264	44.630	0.538
629.500	382.512	80.005	19.995	100.833	19.265	44.573	0.534
630.000	382.751	80.003	20.000	100.833	19.264	44.671	0.528
630.500	383.059	80.003	19.992	100.834	19.269	44.352	0.536
631.000	383.285	80.002	19.995	100.837	19.271	44.193	0.541
631.500	383.518	80.002	19.995	100.835	19.272	44.128	0.496
632.000	383.771	80.000	19.993	100.832	19.271	44.179	0.473
632.500	384.029	80.012	19.990	100.829	19.276	43.876	0.499
633.000	384.253	80.006	19.993	100.827	19.274	43.984	0.496
633.500	384.549	80.006	19.995	100.823	19.277	43.831	0.501
634.000	384.820	80.006	19.993	100.819	19.279	43.669	0.544
634.500	385.064	80.011	19.995	100.820	19.282	43.475	0.541
635.000	385.292	80.002	19.996	100.823	19.282	43.473	0.493
635.500	385.583	80.013	19.991	100.824	19.280	43.606	0.496
636.000	385.839	80.003	19.994	100.826	19.278	43.773	0.533
636.500	386.085	80.003	19.995	100.828	19.281	43.568	0.524
637.000	386.334	80.013	19.995	100.828	19.279	43.672	0.498
637.500	386.553	80.007	19.995	100.827	19.278	43.727	0.482
638.000	386.845	80.005	19.993	100.827	19.282	43.534	0.490
638.500	387.105	80.007	19.996	100.828	19.280	43.655	0.532
639.000	387.370	80.014	19.996	100.829	19.280	43.615	0.539
639.500	387.585	79.999	19.995	100.831	19.279	43.729	0.502
640.000	387.846	80.003	19.996	100.832	19.280	43.640	0.477
640.500	388.100	80.013	19.994	100.831	19.280	43.651	0.496
641.000	388.369	80.010	19.990	100.830	19.280	43.634	0.520
641.500	388.665	80.008	19.993	100.829	19.280	43.646	0.544
642.000	388.918	80.006	19.997	100.827	19.279	43.687	0.557
642.500	389.158	80.000	19.999	100.827	19.278	43.735	0.521
643.000	389.418	80.004	19.997	100.825	19.280	43.643	0.496
643.500	389.632	80.007	19.993	100.823	19.278	43.763	0.487
644.000	389.899	80.003	19.995	100.824	19.278	43.783	0.477
644.500	390.155	80.008	19.995	100.821	19.277	43.836	0.502
645.000	390.421	80.005	19.994	100.817	19.278	43.740	0.523
645.500	390.664	80.004	20.005	100.817	19.273	44.053	0.516
646.000	390.922	79.999	19.994	100.818	19.273	44.056	0.505
646.500	391.174	80.013	19.993	100.817	19.273	44.044	0.505
647.000	391.414	80.003	19.996	100.817	19.272	44.162	0.500
647.500	391.681	80.000	19.998	100.819	19.269	44.295	0.499
648.000	391.951	80.007	19.998	100.816	19.269	44.313	0.522
648.500	392.190	80.017	19.994	100.818	19.269	44.297	0.523
649.000	392.464	80.010	19.997	100.823	19.271	44.175	0.511
649.501	392.727	80.005	19.995	100.827	19.269	44.309	0.525
650.001	392.961	80.002	19.994	100.829	19.267	44.454	0.517
650.500	393.223	80.001	19.995	100.834	19.267	44.462	0.496
651.000	393.420	79.996	19.995	100.831	19.263	44.716	0.478
651.500	393.694	80.002	19.992	100.825	19.262	44.747	0.465
652.000	393.955	80.004	19.992	100.822	19.261	44.828	0.503
652.500	394.218	79.999	19.993	100.820	19.260	44.877	0.530
653.000	394.489	80.002	19.995	100.814	19.258	45.042	0.530
653.500	394.704	80.006	19.997	100.812	19.258	44.990	0.510
654.000	394.974	80.004	19.995	100.811	19.256	45.120	0.485
654.500	395.234	80.005	19.996	100.813	19.256	45.150	0.508
655.000	395.451	80.000	19.998	100.816	19.255	45.173	0.504
655.500	395.732	80.006	19.996	100.821	19.254	45.247	0.487
656.000	395.967	80.005	20.002	100.827	19.251	45.466	0.507
656.500	396.222	80.003	19.997	100.831	19.251	45.477	0.503
657.000	396.501	80.002	20.001	100.832	19.248	45.659	0.512
657.500	396.722	79.996	19.997	100.826	19.244	45.910	0.517
658.000	396.996	80.002	19.993	100.818	19.246	45.741	0.498
658.500	397.247	80.007	19.994	100.815	19.240	46.137	0.510
659.000	397.482	80.010	19.994	100.812	19.242	46.009	0.506
659.500	397.741	80.004	19.999	100.809	19.239	46.210	0.490
660.000	397.954	79.994	19.998	100.809	19.238	46.254	0.483
660.500	398.209	79.998	19.995	100.811	19.236	46.393	0.470
661.000	398.446	79.999	19.997	100.809	19.236	46.382	0.480
661.500	398.734	80.005	19.992	100.808	19.233	46.569	0.508
662.000	398.948	80.009	19.996	100.807	19.231	46.741	0.514
662.500	399.196	80.006	19.993	100.809	19.234	46.519	0.482
663.000	399.461	80.006	19.996	100.810	19.227	46.951	0.487
663.500	399.685	80.012	20.001	100.813	19.232	46.662	0.501
664.000	399.916	80.002	19.998	100.812	19.225	47.070	0.472
664.501	400.187	80.008	19.993	100.812	19.227	46.973	0.478
665.000	400.418	80.000	20.001	100.817	19.223	47.240	0.502
665.500	400.672	80.006	19.997	100.819	19.221	47.315	0.493
666.000	400.905	80.007	19.995	100.817	19.216	47.639	0.486
666.500	401.142	80.001	19.996	100.818	19.216	47.655	0.478
667.000	401.432	80.006	19.994	100.820	19.217	47.591	0.499
667.500	401.644	80.009	19.997	100.815	19.213	47.847	0.515
668.000	401.879	80.008	19.995	100.815	19.209	48.090	0.474
668.500	402.135	80.005	19.995	100.817	19.208	48.154	0.469
669.000	402.351	80.006	19.995	100.818	19.204	48.384	0.482
669.500	402.637	80.008	19.999	100.817	19.206	48.297	0.487
670.000	402.858	80.000	20.005	100.821	19.206	48.309	0.504
670.500	403.080	79.998	20.005	100.821	19.205	48.371	0.475
671.000	403.349	80.007	19.995	100.822	19.199	48.710	0.467
671.500	403.588	79.989	20.000	100.825	19.200	48.664	0.500
672.000	403.841	79.999	20.003	100.823	19.198	48.759	0.500
672.500	404.098	80.006	19.996	100.820	19.197	48.862	0.501
673.000	404.311	80.004	19.998	100.820	19.191	49.242	0.490
673.500	404.573	80.009	19.991	100.818	19.193	49.126	0.473
674.000	404.783	80.003	19.998	100.817	19.188	49.430	0.474
674.500	405.075	80.006	19.990	100.820	19.186	49.514	0.487
675.000	405.270	80.003	19.996	100.823	19.184	49.671	0.495
675.500	405.523	80.005	19.995	100.823	19.184	49.692	0.468
676.000	405.771	80.006	19.996	100.825	19.178	50.060	0.475
676.500	406.060	80.008	19.990	100.825	19.177	50.127	0.519
677.000	406.304	80.006	19.999	100.827	19.178	50.069	0.535
677.500	406.555	80.008	19.995	100.825	19.173	50.350	0.514
678.000	406.788	80.002	19.997	100.825	19.174	50.301	0.489
678.500	407.009	80.003	19.992	100.823	19.172	50.450	0.469
679.001	407.249	80.005	19.994	100.819	19.166	50.799	0.458
679.501	407.510	80.006	19.995	100.813	19.167	50.715	0.481
680.001	407.783	80.004	19.995	100.817	19.166	50.818	0.518
680.501	408.006	80.004	19.996	100.818	19.164	50.949	0.515
681.000	408.279	80.004	19.993	100.817	19.165	50.885	0.496
681.500	408.486	80.004	19.995	100.820	19.159	51.255	0.488
682.000	408.759	80.003	19.997	100.821	19.156	51.413	0.480
682.500	408.997	80.003	19.996	100.816	19.155	51.478	0.495
683.000	409.234	80.005	19.996	100.812	19.153	51.609	0.493
683.500	409.461	80.002	19.999	100.809	19.149	51.841	0.470
684.000	409.707	80.004	19.997	100.806	19.148	51.954	0.469
684.500	409.967	80.002	20.001	100.803	19.146	52.052	0.490
685.000	410.223	80.005	19.996	100.803	19.146	52.080	0.511
685.500	410.488	80.007	19.991	100.802	19.142	52.279	0.519
686.001	410.721	80.004	19.999	100.805	19.142	52.300	0.509
686.500	410.925	80.003	19.999	100.803	19.139	52.500	0.468
687.000	411.216	80.000	20.000	100.804	19.138	52.577	0.466
687.500	411.429	80.008	19.998	100.807	19.135	52.766	0.500
688.000	411.682	80.001	19.997	100.812	19.132	52.910	0.485
688.500	411.914	80.002	19.997	100.812	19.132	52.926	0.475
689.000	412.172	80.007	19.997	100.815	19.132	52.917	0.487
689.500	412.413	80.008	19.995	100.818	19.127	53.231	0.494
690.000	412.671	80.004	19.996	100.814	19.128	53.213	0.499
690.500	412.884	80.003	20.001	100.809	19.121	53.605	0.485
691.000	413.123	80.006	19.998	100.806	19.119	53.759	0.462
691.500	413.359	79.997	19.997	100.803	19.118	53.828	0.463
692.000	413.648	80.003	19.995	100.798	19.117	53.880	0.500
692.500	413.873	80.005	19.997	100.800	19.118	53.826	0.520
693.000	414.101	80.003	20.001	100.802	19.110	54.327	0.484
693.500	414.345	80.007	19.996	100.806	19.111	54.284	0.463
694.000	414.571	80.007	19.994	100.808	19.108	54.424	0.471
694.500	414.892	80.004	19.992	100.808	19.106	54.569	0.509
695.000	415.105	80.008	19.993	100.806	19.104	54.713	0.540
695.500	415.328	80.011	19.995	100.809	19.101	54.869	0.485
696.000	415.563	80.009	19.996	100.810	19.100	54.965	0.447
696.500	415.827	80.006	19.993	100.813	19.097	55.122	0.479
697.000	416.082	80.004	19.995	100.814	19.095	55.272	0.509
697.500	416.330	80.008	19.999	100.815	19.094	55.316	0.511
698.000	416.552	80.010	19.997	100.814	19.090	55.567	0.486
698.500	416.828	80.007	19.991	100.813	19.089	55.663	0.484
699.000	417.020	80.009	19.995	100.811	19.088	55.710	0.483
699.500	417.320	80.006	19.997	100.810	19.082	56.073	0.480
700.000	417.573	80.006	19.998	100.811	19.085	55.926	0.523
700.500	417.807	80.008	19.996	100.812	19.078	56.352	0.520
701.000	418.063	80.006	19.996	100.811	19.078	56.339	0.489
701.500	418.300	80.006	19.998	100.812	19.075	56.548	0.492
702.000	418.590	80.004	19.992	100.817	19.074	56.560	0.510
702.500	418.831	80.005	19.998	100.818	19.068	56.938	0.529
703.000	419.088	80.008	19.998	100.812	19.070	56.833	0.515
703.500	419.357	80.009	19.994	100.811	19.065	57.177	0.512
704.000	419.593	80.000	19.993	100.814	19.062	57.348	0.516
704.500	419.840	80.004	19.996	100.811	19.060	57.458	0.494
705.000	420.074	80.006	19.996	100.815	19.056	57.710	0.482
705.500	420.352	80.003	19.994	100.818	19.052	57.964	0.496
706.000	420.580	80.006	19.989	100.823	19.048	58.201	0.509
706.500	420.865	80.004	19.995	100.822	19.046	58.358	0.510
707.000	421.138	80.005	19.994	100.825	19.048	58.213	0.535
707.500	421.388	80.010	19.991	100.823	19.045	58.431	0.540
708.000	421.650	80.002	19.996	100.827	19.042	58.613	0.518
708.500	421.904	80.007	19.995	100.822	19.037	58.892	0.514
709.000	422.172	80.008	20.000	100.821	19.038	58.880	0.519
709.500	422.373	80.002	19.996	100.818	19.036	58.971	0.496
710.000	422.666	80.005	19.998	100.820	19.028	59.478	0.482
710.500	422.957	80.006	19.995	100.821	19.026	59.630	0.539
711.000	423.219	80.002	19.998	100.824	19.025	59.687	0.568
711.500	423.452	80.005	20.003	100.823	19.020	59.994	0.524
712.000	423.722	80.010	19.993	100.824	19.020	60.006	0.499
712.500	424.012	80.009	19.994	100.820	19.016	60.234	0.531
713.001	424.258	80.007	19.997	100.815	19.016	60.226	0.548
713.501	424.496	80.007	19.992	100.812	19.012	60.485	0.510
714.000	424.782	80.004	19.994	100.815	19.009	60.654	0.504
714.500	425.033	80.009	19.991	100.815	19.006	60.825	0.531
715.000	425.289	80.007	19.998	100.813	19.005	60.934	0.522
715.500	425.558	80.006	19.995	100.812	19.001	61.166	0.516
716.000	425.753	80.007	19.995	100.815	18.996	61.456	0.494
716.500	426.051	80.010	19.991	100.812	18.997	61.434	0.479
717.000	426.346	80.010	19.992	100.810	18.989	61.910	0.543
717.500	426.628	80.008	19.993	100.810	18.989	61.915	0.585
718.000	426.881	80.009	19.994	100.810	18.988	62.008	0.556
718.500	427.136	80.008	19.996	100.808	18.986	62.108	0.522
719.000	427.421	80.006	19.999	100.807	18.982	62.363	0.524
719.500	427.659	80.007	19.995	100.811	18.977	62.660	0.532
720.000	427.866	80.001	19.997	100.812	18.975	62.830	0.484
720.500	428.202	80.007	19.993	100.813	18.972	63.011	0.494
721.000	428.479	80.012	19.993	100.810	18.968	63.255	0.578
721.500	428.746	80.011	19.995	100.809	18.970	63.130	0.579
722.000	428.971	80.001	19.998	100.805	18.964	63.507	0.518
722.500	429.255	80.009	19.993	100.804	18.958	63.855	0.500
723.000	429.537	80.005	19.996	100.807	18.958	63.901	0.538
723.500	429.813	80.007	19.994	100.807	18.954	64.125	0.562
724.000	430.060	80.009	19.993	100.804	18.954	64.153	0.541
724.501	430.328	80.005	19.994	100.804	18.951	64.335	0.519
725.001	430.636	80.003	19.995	100.802	18.947	64.594	0.545
725.500	430.850	80.003	19.993	100.797	18.944	64.782	0.549
726.000	431.100	80.010	19.994	100.797	18.945	64.723	0.493
726.500	431.372	80.006	19.996	100.796	18.941	64.969	0.493
727.000	431.652	80.008	19.992	100.796	18.940	65.030	0.537
727.500	431.918	80.006	19.990	100.796	18.932	65.486	0.549
728.000	432.203	80.006	19.995	100.798	18.930	65.627	0.548
728.500	432.508	80.007	19.996	100.797	18.929	65.674	0.570
729.000	432.713	80.005	19.996	100.799	18.924	66.033	0.549
729.500	432.918	80.004	19.997	100.799	18.925	65.966	0.460
730.000	433.225	80.003	19.995	100.797	18.919	66.315	0.462
730.500	433.517	80.003	20.001	100.796	18.916	66.523	0.556
731.000	433.756	80.006	19.994	100.795	18.915	66.576	0.565
731.500	433.992	80.006	19.991	100.795	18.913	66.703	0.502
732.000	434.288	80.004	19.992	100.795	18.911	66.812	0.504
732.500	434.567	80.009	19.993	100.797	18.904	67.257	0.554
733.000	434.792	80.008	19.994	100.798	18.905	67.187	0.540
733.500	435.125	80.008	19.996	100.799	18.901	67.470	0.530
734.000	435.354	80.001	19.997	100.798	18.897	67.707	0.560
734.500	435.571	80.001	20.000	100.797	18.895	67.844	0.505
735.000	435.838	80.008	19.993	100.796	18.895	67.827	0.465
735.500	436.108	80.007	19.996	100.796	18.893	67.979	0.510
736.000	436.402	80.007	19.994	100.796	18.888	68.291	0.550
736.501	436.611	80.003	19.990	100.796	18.885	68.436	0.534
737.000	436.872	80.002	20.004	100.798	18.884	68.530	0.486
737.500	437.185	80.001	19.999	100.796	18.882	68.668	0.522
738.000	437.402	80.002	20.000	100.796	18.881	68.703	0.553
738.500	437.680	80.006	19.997	100.796	18.878	68.908	0.513
739.000	437.956	80.006	20.000	100.795	18.878	68.919	0.524
739.500	438.190	80.008	19.991	100.794	18.872	69.276	0.532
740.000	438.447	80.007	19.996	100.795	18.869	69.451	0.500
740.500	438.723	80.006	19.996	100.795	18.869	69.445	0.512
741.000	439.000	80.004	19.995	100.795	18.868	69.526	0.543
741.500	439.267	80.005	19.994	100.796	18.866	69.658	0.548
742.000	439.508	80.005	19.995	100.796	18.864	69.766	0.526
742.500	439.746	80.005	19.994	100.794	18.864	69.790	0.494
743.000	440.040	80.005	19.995	100.795	18.857	70.207	0.505
743.500	440.281	80.007	19.994	100.795	18.859	70.121	0.534
744.000	440.545	80.007	19.993	100.795	18.857	70.201	0.520
744.500	440.790	80.007	19.995	100.795	18.858	70.162	0.507
745.000	441.050	80.007	19.995	100.795	18.855	70.373	0.507
745.500	441.320	80.006	19.991	100.794	18.850	70.696	0.518
746.000	441.587	80.008	19.996	100.794	18.851	70.582	0.534
746.500	441.850	80.004	20.000	100.790	18.853	70.501	0.534
747.000	442.080	80.005	19.996	100.788	18.848	70.800	0.511
747.500	442.327	80.004	19.991	100.788	18.847	70.831	0.485
748.000	442.592	80.007	19.996	100.788	18.844	71.024	0.494
748.500	442.857	80.008	19.994	100.788	18.843	71.124	0.521
749.000	443.081	80.002	19.998	100.790	18.841	71.222	0.509
749.500	443.359	80.008	19.995	100.792	18.841	71.206	0.496
750.000	443.620	80.004	19.994	100.793	18.841	71.258	0.521
750.500	443.854	80.003	19.998	100.792	18.841	71.236	0.517
751.000	444.106	80.005	19.995	100.788	18.838	71.399	0.490
751.500	444.390	80.008	19.992	100.787	18.838	71.429	0.511
752.000	444.647	80.003	19.992	100.789	18.835	71.589	0.539
752.500	444.849	80.001	19.996	100.789	18.839	71.350	0.500
753.000	445.120	80.006	19.994	100.789	18.837	71.509	0.466
753.500	445.379	80.003	19.995	100.794	18.832	71.798	0.501
754.000	445.639	80.004	19.995	100.798	18.835	71.583	0.524
754.500	445.882	80.005	19.996	100.796	18.839	71.379	0.511
755.000	446.127	80.004	19.997	100.794	18.836	71.545	0.496
755.500	446.353	80.004	19.999	100.797	18.838	71.419	0.479
756.000	446.649	80.003	19.997	100.795	18.837	71.473	0.496
756.500	446.893	80.004	20.001	100.794	18.836	71.505	0.531
757.000	447.134	80.001	19.997	100.794	18.836	71.523	0.513
757.500	447.400	80.007	19.992	100.795	18.841	71.215	0.496
758.000	447.649	80.006	19.995	100.796	18.836	71.540	0.511
758.500	447.903	80.004	19.995	100.797	18.837	71.466	0.509
759.000	448.172	80.004	19.996	100.798	18.838	71.419	0.513
759.500	448.406	80.005	19.996	100.798	18.838	71.415	0.513
760.000	448.678	80.005	19.997	100.796	18.839	71.345	0.504
760.500	448.928	80.003	19.997	100.795	18.841	71.237	0.514
761.000	449.143	80.002	19.996	100.794	18.839	71.333	0.494
761.500	449.382	80.005	19.995	100.795	18.844	71.043	0.459
762.000	449.645	80.003	19.996	100.795	18.843	71.122	0.478
762.500	449.921	79.999	19.995	100.797	18.844	71.035	0.521
763.000	450.142	80.007	19.996	100.797	18.843	71.082	0.518
763.500	450.401	80.004	19.997	100.799	18.842	71.140	0.488
764.001	450.665	80.006	19.995	100.798	18.849	70.707	0.502
764.501	450.890	80.006	19.994	100.799	18.849	70.754	0.506
765.000	451.141	80.001	19.993	100.796	18.850	70.654	0.483
765.500	451.407	80.002	19.994	100.793	18.853	70.496	0.496
766.000	451.651	80.005	19.996	100.790	18.853	70.469	0.513
766.500	451.879	80.005	19.998	100.790	18.854	70.412	0.491
767.000	452.192	80.006	19.997	100.783	18.856	70.291	0.507
767.500	452.390	80.004	19.995	100.780	18.856	70.279	0.526
768.000	452.633	80.004	19.993	100.779	18.858	70.190	0.476
768.500	452.930	80.005	19.993	100.779	18.861	69.946	0.490
769.000	453.170	80.007	19.995	100.781	18.866	69.648	0.538
769.500	453.418	80.004	19.995	100.787	18.864	69.802	0.513
770.000	453.643	80.005	19.997	100.793	18.868	69.504	0.481
770.500	453.895	80.003	19.997	100.792	18.872	69.294	0.475
771.000	454.173	80.002	19.993	100.794	18.874	69.176	0.503
771.500	454.378	80.007	19.996	100.793	18.878	68.873	0.507
772.000	454.649	80.005	19.997	100.791	18.879	68.822	0.479
772.500	454.869	80.005	19.996	100.789	18.883	68.570	0.483
773.000	455.136	80.006	19.996	100.792	18.886	68.383	0.489
773.500	455.387	80.005	19.994	100.789	18.886	68.375	0.503
774.000	455.624	80.004	19.996	100.787	18.894	67.917	0.503
774.500	455.902	80.001	19.997	100.789	18.894	67.881	0.501
775.000	456.156	80.003	19.998	100.790	18.898	67.659	0.523
775.500	456.401	80.003	19.993	100.789	18.896	67.801	0.515
776.000	456.618	80.004	19.994	100.790	18.903	67.314	0.481
776.500	456.860	80.005	19.996	100.791	18.907	67.048	0.461
777.000	457.095	80.007	19.992	100.791	18.913	66.689	0.468
777.500	457.312	80.004	19.994	100.792	18.916	66.483	0.464
778.000	457.587	80.004	19.997	100.792	18.922	66.092	0.472
778.501	457.777	80.008	19.994	100.792	18.925	65.948	0.478
779.001	458.048	80.007	19.994	100.793	18.932	65.502	0.463
779.500	458.270	80.003	19.998	100.793	18.931	65.584	0.478
780.000	458.543	80.006	19.997	100.792	18.937	65.174	0.494
780.500	458.764	80.002	19.992	100.794	18.942	64.888	0.494
781.000	459.018	80.007	19.996	100.794	18.945	64.682	0.484
781.500	459.304	80.011	19.987	100.791	18.950	64.397	0.508
782.000	459.517	80.004	19.995	100.790	18.957	63.911	0.519
782.500	459.790	80.006	19.997	100.792	18.962	63.606	0.492
783.000	460.016	80.003	19.996	100.792	18.965	63.421	0.492
783.500	460.281	80.007	19.994	100.792	18.973	62.954	0.495
784.000	460.496	80.006	19.993	100.795	18.976	62.766	0.486
784.500	460.729	80.004	19.997	100.796	18.981	62.444	0.464
785.000	460.990	80.006	19.994	100.793	18.986	62.082	0.471
785.500	461.251	80.003	19.998	100.793	18.991	61.786	0.508
786.000	461.521	80.008	20.000	100.798	18.998	61.362	0.527
786.500	461.750	80.004	19.998	100.799	19.002	61.110	0.515
787.000	462.016	80.005	19.998	100.794	19.008	60.723	0.497
787.500	462.224	80.006	19.993	100.790	19.008	60.757	0.485
788.000	462.468	80.002	20.003	100.783	19.016	60.212	0.463
788.500	462.741	80.007	19.997	100.771	19.025	59.644	0.484
789.000	462.965	80.005	19.995	100.764	19.027	59.543	0.507
789.500	463.229	80.006	19.994	100.770	19.029	59.430	0.492
790.000	463.473	80.009	19.995	100.777	19.039	58.771	0.498
790.500	463.734	80.006	19.994	100.784	19.053	57.894	0.507
791.000	463.991	80.007	19.994	100.792	19.056	57.720	0.512
791.500	464.203	80.005	19.999	100.800	19.054	57.811	0.493
792.001	464.458	80.006	19.996	100.797	19.062	57.358	0.468
792.500	464.714	80.006	19.998	100.796	19.067	57.039	0.489
793.000	464.975	80.005	19.997	100.795	19.077	56.361	0.514
793.500	465.193	80.004	19.997	100.795	19.078	56.310	0.497
794.001	465.431	80.005	19.997	100.793	19.087	55.781	0.468
794.500	465.682	80.005	19.996	100.795	19.096	55.172	0.473
795.000	465.951	80.004	19.996	100.794	19.099	54.989	0.504
795.500	466.163	80.011	19.994	100.795	19.106	54.560	0.500
796.000	466.451	80.010	19.995	100.795	19.115	54.002	0.490
796.500	466.686	80.007	19.996	100.796	19.119	53.756	0.512
797.000	466.925	80.003	19.997	100.795	19.127	53.238	0.499
797.500	467.201	80.009	19.990	100.795	19.135	52.741	0.494
798.000	467.427	80.009	19.994	100.796	19.143	52.219	0.509
798.500	467.693	80.011	19.995	100.796	19.152	51.671	0.498
799.000	467.950	80.005	20.002	100.795	19.161	51.133	0.508
799.500	468.188	80.007	19.998	100.794	19.169	50.616	0.509
800.000	468.485	80.005	19.992	100.793	19.170	50.572	0.515
800.500	468.719	80.006	19.997	100.794	19.175	50.220	0.533
801.000	468.922	80.008	19.993	100.794	19.183	49.725	0.484
801.500	469.202	80.006	19.993	100.794	19.191	49.249	0.460
802.000	469.450	80.007	19.995	100.796	19.195	48.981	0.506
802.500	469.726	80.009	19.993	100.798	19.203	48.492	0.526
803.000	469.953	80.002	19.998	100.797	19.210	48.043	0.513
803.500	470.262	80.008	19.994	100.797	19.216	47.641	0.520
804.000	470.499	80.002	19.993	100.797	19.222	47.259	0.541
804.500	470.686	80.004	19.995	100.797	19.230	46.759	0.485
805.000	470.886	80.013	19.993	100.796	19.237	46.307	0.406
805.500	471.236	80.008	19.994	100.796	19.246	45.766	0.468
806.000	471.487	80.009	19.994	100.795	19.251	45.460	0.575
806.500	471.729	80.008	19.993	100.796	19.258	45.039	0.547
807.000	471.957	80.008	19.994	100.796	19.266	44.513	0.481
807.500	472.223	80.006	19.995	100.800	19.275	43.939	0.482
808.000	472.505	80.010	19.995	100.800	19.280	43.626	0.522
808.500	472.734	80.008	20.000	100.801	19.283	43.419	0.530
809.000	473.033	80.007	19.993	100.800	19.295	42.675	0.519
809.500	473.250	80.006	19.995	100.800	19.300	42.344	0.522
810.000	473.529	80.005	19.999	100.800	19.310	41.768	0.506
810.500	473.770	80.009	19.993	100.802	19.310	41.726	0.508
811.000	474.008	80.003	19.996	100.810	19.325	40.820	0.499
811.500	474.333	80.001	19.997	100.815	19.326	40.749	0.521
812.000	474.552	80.006	19.994	100.819	19.330	40.468	0.554
812.500	474.811	80.004	19.998	100.824	19.340	39.847	0.511
813.000	475.074	80.005	19.995	100.826	19.350	39.226	0.500
813.500	475.317	80.005	19.995	100.822	19.351	39.131	0.514
814.000	475.635	80.005	19.996	100.824	19.361	38.510	0.534
814.500	475.867	80.004	19.994	100.821	19.374	37.696	0.556
815.000	476.122	80.003	19.995	100.816	19.372	37.874	0.519
815.500	476.386	80.005	19.992	100.813	19.377	37.528	0.503
816.000	476.677	80.005	19.994	100.812	19.384	37.082	0.537
816.500	476.883	80.006	19.997	100.809	19.390	36.699	0.526
817.000	477.177	80.005	19.995	100.808	19.404	35.832	0.498
817.500	477.387	80.007	19.996	100.806	19.407	35.621	0.501
818.000	477.676	80.006	19.997	100.808	19.412	35.296	0.501
818.500	477.931	80.007	19.994	100.807	19.417	34.994	0.522
819.000	478.161	80.002	19.996	100.807	19.427	34.386	0.514
819.500	478.448	80.004	19.996	100.810	19.429	34.288	0.501
820.000	478.677	80.004	19.996	100.814	19.437	33.732	0.517
820.500	478.969	80.005	19.995	100.817	19.442	33.429	0.519
821.000	479.211	80.005	19.996	100.821	19.453	32.747	0.527
821.500	479.457	80.004	19.994	100.821	19.455	32.636	0.511
822.000	479.710	80.005	19.996	100.822	19.461	32.276	0.493
822.500	480.018	80.004	19.994	100.819	19.469	31.726	0.530
823.000	480.227	80.006	19.996	100.816	19.477	31.221	0.539
823.500	480.510	80.005	19.995	100.812	19.483	30.843	0.504
824.000	480.714	80.006	19.993	100.811	19.489	30.474	0.489
824.500	480.989	80.004	19.996	100.812	19.492	30.295	0.483
825.000	481.210	80.004	19.995	100.816	19.498	29.905	0.488
825.500	481.495	80.003	19.992	100.817	19.508	29.274	0.501
826.000	481.738	80.005	19.995	100.820	19.514	28.943	0.517
826.500	482.028	80.003	19.997	100.824	19.516	28.790	0.531
827.000	482.229	80.005	19.997	100.820	19.521	28.446	0.512
827.500	482.563	80.004	19.988	100.816	19.525	28.220	0.513
828.000	482.752	80.004	19.999	100.816	19.532	27.787	0.529
828.500	482.964	80.004	19.994	100.816	19.539	27.363	0.462
829.000	483.231	80.005	19.997	100.818	19.544	27.017	0.440
829.500	483.551	80.004	19.996	100.822	19.549	26.742	0.533
830.000	483.818	80.006	19.994	100.828	19.551	26.576	0.587
830.500	484.043	80.005	19.996	100.830	19.561	25.968	0.540
831.000	484.249	80.006	19.995	100.832	19.563	25.813	0.462
831.500	484.467	80.007	19.994	100.832	19.568	25.506	0.427
832.000	484.744	80.004	19.996	100.831	19.576	24.985	0.459
832.500	484.977	80.007	19.995	100.830	19.578	24.865	0.503
833.000	485.224	80.005	19.995	100.830	19.584	24.509	0.495
833.500	485.497	80.006	19.996	100.831	19.588	24.289	0.499
834.000	485.762	80.006	19.993	100.831	19.594	23.911	0.529
834.500	486.002	80.005	19.996	100.834	19.599	23.587	0.522
835.000	486.262	80.003	19.996	100.835	19.602	23.407	0.503
835.500	486.532	80.006	19.996	100.836	19.607	23.055	0.515
836.000	486.770	80.004	19.993	100.836	19.614	22.620	0.519
836.500	487.008	80.005	19.993	100.837	19.619	22.337	0.492
837.000	487.314	80.007	19.994	100.837	19.621	22.163	0.510
837.500	487.497	80.002	19.997	100.838	19.627	21.805	0.516
838.000	487.794	80.005	19.988	100.839	19.628	21.753	0.484
838.500	488.028	80.000	19.994	100.841	19.635	21.322	0.505
839.000	488.303	80.003	19.992	100.841	19.635	21.273	0.520
839.500	488.560	80.006	19.993	100.842	19.643	20.828	0.521
840.000	488.832	80.007	19.992	100.841	19.645	20.697	0.530
840.500	489.079	80.003	19.995	100.842	19.649	20.437	0.524
841.000	489.320	80.005	19.994	100.841	19.654	20.080	0.504
841.500	489.574	80.007	19.992	100.841	19.657	19.888	0.492
842.000	489.860	80.007	19.993	100.842	19.659	19.786	0.518
842.500	490.090	80.001	19.995	100.842	19.663	19.562	0.528
843.000	490.369	80.005	19.995	100.840	19.667	19.264	0.512
843.500	490.600	80.003	19.999	100.840	19.673	18.925	0.510
844.000	490.907	80.002	19.997	100.838	19.673	18.896	0.524
844.500	491.159	80.004	19.997	100.837	19.680	18.496	0.548
845.000	491.378	80.001	19.988	100.838	19.679	18.532	0.515
845.500	491.670	80.005	19.996	100.840	19.683	18.262	0.491
846.000	491.912	80.003	19.995	100.840	19.687	18.019	0.523
846.500	492.146	80.004	19.998	100.842	19.688	17.941	0.505
847.000	492.413	80.000	19.996	100.841	19.690	17.833	0.488
847.500	492.728	80.003	19.998	100.839	19.698	17.308	0.542
848.000	492.980	80.004	19.998	100.837	19.698	17.317	0.574
848.500	493.218	80.004	19.996	100.836	19.701	17.138	0.528
849.000	493.487	80.004	19.997	100.835	19.706	16.848	0.499
849.500	493.766	80.000	19.998	100.836	19.709	16.671	0.528
850.000	494.060	80.002	19.997	100.836	19.711	16.533	0.561
850.500	494.291	80.002	19.993	100.835	19.712	16.461	0.549
851.000	494.605	80.005	19.995	100.837	19.716	16.185	0.535
851.500	494.822	80.004	19.997	100.836	19.722	15.846	0.538
852.000	495.083	80.005	19.997	100.836	19.719	16.027	0.504
852.500	495.367	80.006	19.996	100.835	19.721	15.869	0.511
853.000	495.655	80.006	19.993	100.836	19.725	15.634	0.558
853.500	495.884	80.005	19.996	100.835	19.727	15.494	0.545
854.000	496.125	80.005	19.995	100.835	19.729	15.382	0.494
854.500	496.400	80.005	19.997	100.835	19.733	15.104	0.493
855.000	496.666	80.005	19.998	100.835	19.738	14.801	0.528
855.500	496.919	80.006	19.997	100.835	19.739	14.741	0.530
856.000	497.159	80.006	19.998	100.835	19.741	14.608	0.506
856.500	497.417	80.007	19.996	100.834	19.741	14.612	0.496
857.000	497.714	80.008	19.995	100.834	19.744	14.421	0.527
857.500	497.977	80.006	19.996	100.835	19.749	14.100	0.558
858.000	498.202	80.005	19.997	100.834	19.752	13.911	0.524
858.500	498.461	80.005	19.996	100.834	19.754	13.834	0.485
859.000	498.758	80.005	19.995	100.833	19.757	13.623	0.520
859.500	498.965	80.007	19.998	100.834	19.760	13.407	0.530
860.000	499.261	80.008	19.996	100.832	19.761	13.359	0.503
860.500	499.500	80.005	19.996	100.831	19.764	13.195	0.519
861.000	499.793	80.004	19.993	100.830	19.763	13.251	0.534
861.500	500.043	80.005	19.996	100.831	19.764	13.173	0.538
862.000	500.271	80.006	19.995	100.830	19.767	12.996	0.511
862.500	500.503	80.008	19.995	100.832	19.769	12.849	0.469
863.000	500.799	80.007	19.995	100.833	19.772	12.688	0.494
863.500	501.090	80.006	19.995	100.834	19.773	12.599	0.558
864.000	501.320	80.005	19.997	100.834	19.779	12.228	0.554
864.500	501.561	80.008	19.994	100.834	19.774	12.563	0.496
865.000	501.834	80.005	19.995	100.833	19.780	12.177	0.492
865.501	502.089	80.006	19.995	100.833	19.781	12.139	0.521
866.001	502.329	80.005	19.996	100.833	19.780	12.187	0.511
866.500	502.598	80.007	19.997	100.833	19.784	11.932	0.502
867.000	502.834	80.007	19.995	100.833	19.785	11.855	0.507
867.500	503.126	80.007	19.995	100.833	19.788	11.668	0.517
868.000	503.340	80.006	19.996	100.833	19.789	11.630	0.517
868.500	503.576	80.006	19.997	100.833	19.790	11.535	0.478
869.000	503.882	80.006	19.998	100.831	19.793	11.352	0.496
869.500	504.149	80.004	19.999	100.830	19.793	11.332	0.557
870.000	504.419	80.005	19.996	100.830	19.796	11.148	0.555
870.500	504.659	80.005	19.996	100.829	19.797	11.115	0.524
871.000	504.909	80.004	19.994	100.828	19.798	11.035	0.500
871.500	505.159	80.004	19.996	100.829	19.802	10.788	0.495
872.000	505.434	80.009	19.998	100.826	19.801	10.834	0.512
872.500	505.650	80.005	19.997	100.825	19.803	10.740	0.508
873.000	505.907	80.006	19.995	100.825	19.802	10.785	0.482
873.500	506.179	80.005	19.998	100.827	19.806	10.558	0.501
874.000	506.425	80.006	19.998	100.829	19.807	10.484	0.524
874.500	506.692	80.006	19.997	100.831	19.806	10.538	0.515
875.000	506.910	80.009	19.995	100.832	19.810	10.320	0.499
875.500	507.198	80.003	20.002	100.830	19.809	10.374	0.495
876.000	507.439	80.005	19.994	100.829	19.808	10.420	0.518
876.501	507.676	80.005	19.996	100.830	19.811	10.212	0.503
877.000	507.985	80.005	19.994	100.830	19.812	10.132	0.512
877.500	508.191	80.005	19.995	100.831	19.812	10.132	0.531
878.000	508.444	80.005	19.997	100.833	19.815	9.989	0.487
878.500	508.680	80.005	19.996	100.834	19.819	9.716	0.474
879.000	508.974	80.006	19.995	100.833	19.818	9.807	0.510
879.500	509.202	80.005	19.997	100.833	19.823	9.493	0.526
880.000	509.494	80.006	19.996	100.832	19.821	9.617	0.521
880.500	509.704	80.005	19.996	100.831	19.822	9.518	0.511
881.000	509.941	80.007	19.995	100.828	19.823	9.493	0.474
881.500	510.170	80.003	19.997	100.827	19.822	9.534	0.456
882.000	510.484	80.005	19.995	100.826	19.824	9.416	0.504
882.500	510.694	80.006	19.996	100.825	19.828	9.148	0.534
883.000	510.960	80.006	19.997	100.826	19.828	9.130	0.500
883.500	511.207	80.006	19.997	100.828	19.829	9.123	0.495
884.000	511.451	80.007	19.996	100.829	19.831	8.973	0.502
884.500	511.696	80.007	19.996	100.830	19.834	8.753	0.490
885.000	511.921	80.008	19.995	100.832	19.834	8.751	0.480
885.500	512.193	80.003	19.997	100.832	19.838	8.555	0.484
886.000	512.439	80.008	19.993	100.831	19.835	8.712	0.507
886.500	512.661	80.007	19.992	100.830	19.839	8.496	0.493
887.000	512.909	80.005	19.997	100.830	19.835	8.695	0.469
887.500	513.136	80.002	20.006	100.829	19.840	8.377	0.473
888.000	513.392	80.006	19.997	100.825	19.842	8.261	0.479
888.500	513.656	80.006	19.993	100.824	19.839	8.441	0.501
889.000	513.914	80.010	19.995	100.823	19.841	8.339	0.521
889.500	514.184	80.013	19.994	100.823	19.842	8.301	0.525
890.000	514.445	80.002	19.998	100.824	19.837	8.562	0.530
890.500	514.716	80.004	19.992	100.828	19.840	8.426	0.531
891.000	514.914	80.006	19.996	100.833	19.840	8.405	0.500
891.500	515.161	80.001	19.998	100.836	19.842	8.273	0.457
892.000	515.402	80.008	19.990	100.836	19.845	8.088	0.467
892.500	515.699	80.009	19.999	100.837	19.843	8.214	0.513
893.000	515.932	80.006	19.994	100.837	19.844	8.141	0.534
893.500	516.201	80.005	19.992	100.836	19.844	8.178	0.516
894.000	516.428	80.002	20.001	100.837	19.848	7.890	0.499
894.500	516.678	80.006	19.995	100.834	19.848	7.887	0.486
895.000	516.951	80.005	19.993	100.832	19.845	8.114	0.500
895.500	517.194	80.004	19.994	100.833	19.847	7.935	0.519
896.000	517.476	80.006	19.994	100.832	19.846	8.010	0.520
896.500	517.732	80.005	19.992	100.832	19.848	7.888	0.532
897.000	517.971	80.002	19.998	100.834	19.849	7.842	0.517
897.500	518.237	80.004	19.998	100.834	19.851	7.741	0.500
898.000	518.500	80.006	19.996	100.833	19.853	7.583	0.516
898.500	518.764	80.001	20.002	100.834	19.847	7.952	0.528
899.000	519.035	80.006	19.993	100.834	19.851	7.712	0.532
899.500	519.248	80.006	19.995	100.834	19.853	7.603	0.510
900.000	519.540	80.004	19.995	100.832	19.850	7.775	0.494
900.500	519.812	80.004	19.993	100.831	19.853	7.557	0.534
901.000	519.996	80.003	19.992	100.831	19.851	7.722	0.510
901.500	520.286	80.009	19.992	100.831	19.855	7.469	0.466
902.000	520.516	80.005	19.997	100.834	19.852	7.629	0.497
902.500	520.790	80.006	19.994	100.835	19.855	7.486	0.512
903.000	521.052	80.005	19.995	100.828	19.855	7.443	0.519
903.500	521.288	80.006	19.993	100.824	19.853	7.560	0.517
904.000	521.523	80.005	19.994	100.825	19.854	7.512	0.485
904.500	521.792	80.005	19.994	100.823	19.854	7.496	0.488
905.000	522.002	80.004	19.994	100.826	19.857	7.358	0.492
905.500	522.302	80.003	19.996	100.832	19.858	7.288	0.495
906.000	522.524	80.002	19.998	100.830	19.856	7.373	0.516
906.500	522.829	80.007	19.995	100.825	19.855	7.482	0.524
907.000	523.061	80.005	19.994	100.825	19.856	7.387	0.532
907.500	523.317	80.004	19.996	100.824	19.861	7.054	0.512
908.000	523.576	80.003	19.998	100.821	19.857	7.343	0.501
908.500	523.883	80.006	19.996	100.828	19.860	7.139	0.540
909.000	524.109	80.004	19.993	100.832	19.857	7.323	0.549
909.500	524.375	80.005	19.996	100.833	19.859	7.174	0.512
910.000	524.628	80.005	19.996	100.834	19.861	7.067	0.506
910.500	524.865	80.004	19.995	100.838	19.858	7.266	0.505
911.000	525.104	80.005	19.998	100.836	19.859	7.222	0.484
911.500	525.380	80.004	19.998	100.833	19.861	7.062	0.495
912.000	525.641	80.003	19.997	100.827	19.860	7.145	0.526
912.500	525.903	80.006	19.994	100.820	19.861	7.071	0.530
913.000	526.151	80.005	19.997	100.821	19.865	6.802	0.517
913.500	526.408	80.007	19.994	100.818	19.864	6.868	0.507
914.000	526.642	80.005	19.997	100.807	19.864	6.887	0.498
914.500	526.914	80.003	19.999	100.800	19.864	6.873	0.499
915.001	527.143	79.996	20.004	100.797	19.866	6.788	0.504
915.501	527.468	80.009	19.999	100.788	19.865	6.805	0.528
916.000	527.692	80.008	19.990	100.791	19.866	6.795	0.551
916.500	527.952	80.006	19.995	100.806	19.868	6.662	0.517
917.000	528.236	80.006	19.990	100.811	19.866	6.752	0.514
917.500	528.464	80.002	19.991	100.809	19.870	6.490	0.528
918.000	528.714	80.005	19.996	100.811	19.870	6.533	0.495
918.500	528.990	80.006	19.997	100.804	19.869	6.550	0.502
919.000	529.240	80.004	19.993	100.793	19.870	6.541	0.527
919.500	529.489	80.006	19.995	100.794	19.872	6.375	0.512
920.000	529.738	80.008	19.997	100.796	19.871	6.476	0.498
920.500	529.998	80.005	19.994	100.794	19.872	6.356	0.504
921.000	530.255	80.005	19.995	100.795	19.870	6.509	0.513
921.500	530.509	80.006	19.995	100.795	19.872	6.409	0.514
922.001	530.791	80.004	19.994	100.795	19.871	6.419	0.524
922.501	531.029	80.005	19.995	100.794	19.871	6.428	0.528
923.001	531.263	80.005	19.995	100.795	19.868	6.661	0.495
923.500	531.567	80.008	19.994	100.797	19.870	6.489	0.505
924.000	531.835	80.007	19.994	100.799	19.872	6.366	0.556
924.500	532.082	80.005	19.996	100.800	19.871	6.419	0.543
925.000	532.338	80.006	19.994	100.800	19.871	6.419	0.508
925.500	532.607	80.007	19.995	100.802	19.870	6.490	0.514
926.000	532.881	80.005	19.994	100.802	19.870	6.502	0.534
926.500	533.124	80.007	19.995	100.801	19.869	6.584	0.530
927.000	533.407	80.004	19.996	100.800	19.868	6.610	0.521
927.500	533.665	80.007	19.995	100.800	19.870	6.518	0.534
928.000	533.935	80.004	19.995	100.800	19.870	6.530	0.535
928.500	534.207	80.005	19.996	100.801	19.870	6.521	0.535
929.000	534.485	80.005	19.997	100.804	19.870	6.502	0.546
929.501	534.766	80.007	19.996	100.810	19.869	6.548	0.554
930.000	535.000	80.007	19.996	100.816	19.869	6.562	0.537
930.500	535.320	80.004	19.996	100.816	19.870	6.531	0.534
931.000	535.596	80.005	19.995	100.814	19.872	6.357	0.575
931.500	535.842	80.006	19.997	100.813	19.873	6.337	0.559
932.000	536.118	80.007	19.995	100.808	19.873	6.318	0.522
932.500	536.429	80.006	19.995	100.804	19.875	6.223	0.554
933.000	536.706	80.006	19.995	100.807	19.873	6.340	0.588
933.500	536.989	80.005	19.995	100.808	19.874	6.264	0.574
934.000	537.287	80.005	19.996	100.806	19.871	6.424	0.570
934.500	537.525	80.005	19.995	100.805	19.874	6.270	0.559
935.000	537.798	80.006	19.996	100.804	19.872	6.386	0.524
935.500	538.045	80.007	19.995	100.800	19.872	6.371	0.515
936.000	538.345	80.005	19.996	100.800	19.873	6.344	0.533
936.500	538.646	80.006	19.995	100.801	19.872	6.381	0.574
937.000	538.922	80.006	19.995	100.802	19.871	6.461	0.589
937.500	539.196	80.005	19.996	100.803	19.869	6.555	0.564
938.000	539.471	80.007	19.996	100.803	19.870	6.543	0.550
938.500	539.756	80.007	19.996	100.804	19.869	6.546	0.554
939.000	540.042	80.006	19.997	100.803	19.871	6.424	0.566
939.500	540.300	80.004	19.996	100.802	19.870	6.499	0.558
940.000	540.565	80.010	19.992	100.799	19.869	6.574	0.534
940.500	540.847	80.007	19.997	100.800	19.873	6.332	0.535
941.000	541.143	80.007	19.996	100.800	19.875	6.202	0.562
941.500	541.419	80.007	19.995	100.799	19.872	6.366	0.575
942.000	541.695	80.006	19.995	100.802	19.873	6.347	0.562
942.500	542.012	80.007	19.993	100.803	19.872	6.388	0.573
943.000	542.291	80.007	19.996	100.800	19.872	6.408	0.595
943.500	542.533	80.006	19.995	100.800	19.875	6.177	0.558
944.000	542.843	80.007	19.994	100.800	19.872	6.400	0.536
944.500	543.123	80.006	19.996	100.799	19.872	6.383	0.571
945.000	543.432	80.006	19.995	100.799	19.874	6.245	0.589
945.500	543.733	80.006	19.996	100.799	19.872	6.383	0.600
946.000	543.992	80.007	19.996	100.799	19.876	6.105	0.586
946.500	544.282	80.006	19.994	100.801	19.876	6.161	0.554
947.000	544.562	80.006	19.997	100.800	19.874	6.274	0.559
947.500	544.881	80.006	19.996	100.799	19.875	6.197	0.584
948.000	545.108	80.007	19.995	100.799	19.875	6.168	0.573
948.500	545.416	80.008	19.997	100.799	19.876	6.155	0.540
949.000	545.732	80.005	19.996	100.797	19.874	6.262	0.579
949.500	545.970	80.006	19.996	100.798	19.876	6.156	0.589
950.000	546.252	80.005	19.995	100.798	19.875	6.218	0.537
950.500	546.542	80.008	19.995	100.798	19.872	6.357	0.547
951.000	546.838	80.006	19.996	100.798	19.876	6.127	0.579
951.500	547.128	80.006	19.996	100.799	19.876	6.110	0.586
952.000	547.385	80.007	19.995	100.800	19.874	6.259	0.567
952.500	547.681	80.006	19.993	100.801	19.877	6.104	0.550
953.000	548.004	80.005	19.997	100.801	19.873	6.354	0.586
953.500	548.250	80.005	19.995	100.800	19.876	6.116	0.594
954.000	548.541	80.007	19.995	100.800	19.876	6.158	0.553
954.500	548.805	80.006	19.996	100.801	19.877	6.058	0.546
955.000	549.128	80.008	19.996	100.801	19.876	6.136	0.571
955.500	549.425	80.008	19.996	100.801	19.877	6.051	0.603
956.000	549.701	80.007	19.996	100.802	19.879	5.933	0.597
956.500	550.016	80.008	19.996	100.802	19.879	5.978	0.582
957.000	550.314	80.006	19.996	100.801	19.878	6.008	0.602
957.500	550.576	80.008	19.995	100.800	19.877	6.042	0.586
958.000	550.871	80.006	19.994	100.800	19.879	5.925	0.558
958.500	551.165	80.006	19.995	100.800	19.881	5.840	0.573
959.000	551.434	80.006	19.997	100.800	19.882	5.754	0.576
959.500	551.741	80.007	19.995	100.800	19.882	5.741	0.569
960.000	552.024	80.005	19.995	100.800	19.878	6.024	0.583
960.500	552.301	80.007	19.996	100.800	19.881	5.801	0.575
961.000	552.572	80.008	19.997	100.800	19.882	5.772	0.554
961.500	552.875	80.006	19.997	100.799	19.881	5.814	0.561
962.000	553.153	80.007	19.997	100.800	19.881	5.811	0.577
962.500	553.474	80.007	19.996	100.800	19.880	5.857	0.590
963.000	553.764	80.007	19.994	100.803	19.883	5.686	0.605
963.500	554.013	80.007	19.996	100.802	19.881	5.829	0.576
964.000	554.359	80.007	19.996	100.802	19.877	6.078	0.567
964.500	554.620	80.008	19.996	100.802	19.878	6.017	0.601
965.000	554.895	80.007	19.996	100.801	19.878	6.035	0.572
965.500	555.183	80.007	19.994	100.799	19.878	6.012	0.550
966.000	555.486	80.008	19.995	100.799	19.880	5.884	0.577
966.500	555.751	80.008	19.995	100.800	19.880	5.877	0.579
967.000	556.046	80.009	19.995	100.801	19.879	5.976	0.564
967.500	556.329	80.007	19.994	100.801	19.878	5.984	0.569
968.000	556.627	80.007	19.994	100.801	19.884	5.645	0.580
968.500	556.918	80.007	19.996	100.801	19.880	5.915	0.585
969.000	557.205	80.008	19.996	100.800	19.877	6.068	0.583
969.500	557.478	80.008	19.996	100.799	19.881	5.824	0.569
970.000	557.753	80.006	19.995	100.799	19.881	5.824	0.554
970.501	558.050	80.007	19.995	100.800	19.878	6.028	0.561
971.000	558.341	80.006	19.996	100.802	19.883	5.700	0.580
971.500	558.637	80.007	19.995	100.804	19.881	5.836	0.587
972.000	558.914	80.006	19.995	100.805	19.882	5.770	0.580
972.500	559.178	80.006	19.996	100.806	19.880	5.865	0.557
973.000	559.487	80.006	19.996	100.804	19.881	5.792	0.557
973.500	559.759	80.007	19.996	100.802	19.881	5.810	0.577
974.000	560.028	80.005	19.996	100.799	19.882	5.768	0.561
974.500	560.323	80.006	19.995	100.798	19.882	5.766	0.552
975.000	560.613	80.005	19.996	100.799	19.881	5.846	0.574
975.500	560.881	80.006	19.996	100.799	19.882	5.753	0.572
976.000	561.214	80.005	19.996	100.799	19.881	5.807	0.580
976.500	561.450	80.005	19.997	100.800	19.881	5.811	0.585
977.000	561.756	80.005	19.997	100.800	19.881	5.826	0.555
977.500	562.024	80.006	19.996	100.798	19.881	5.822	0.558
978.000	562.315	80.005	19.996	100.798	19.883	5.705	0.567
978.500	562.605	80.004	19.996	100.798	19.883	5.669	0.570
979.000	562.814	80.004	19.996	100.800	19.882	5.778	0.540
979.500	563.147	80.005	19.996	100.801	19.880	5.904	0.521
980.000	563.424	80.005	19.997	100.800	19.881	5.807	0.576
980.500	563.694	80.006	19.996	100.799	19.884	5.633	0.578
981.001	564.006	80.005	19.996	100.799	19.883	5.708	0.564
981.501	564.284	80.004	19.996	100.796	19.882	5.744	0.586
982.000	564.500	80.006	19.996	100.795	19.882	5.741	0.542
982.500	564.814	80.003	19.996	100.795	19.881	5.795	0.512
983.000	565.079	80.004	19.996	100.795	19.883	5.707	0.554
983.500	565.354	80.006	19.996	100.795	19.880	5.889	0.559
984.000	565.623	80.006	19.996	100.796	19.882	5.747	0.542
984.500	565.923	80.005	19.995	100.796	19.883	5.708	0.556
985.000	566.179	80.005	19.997	100.798	19.883	5.690	0.562
985.500	566.471	80.006	19.997	100.798	19.880	5.858	0.552
986.000	566.738	80.005	19.996	100.798	19.881	5.836	0.554
986.500	567.009	80.006	19.995	100.798	19.882	5.742	0.548
987.000	567.329	80.005	19.995	100.798	19.881	5.829	0.565
987.500	567.582	80.005	19.995	100.797	19.880	5.856	0.582
988.000	567.846	80.006	19.996	100.799	19.878	6.005	0.545
988.500	568.146	80.005	19.993	100.798	19.880	5.858	0.540
989.000	568.402	80.007	19.996	100.798	19.879	5.957	0.560
989.500	568.627	80.006	19.996	100.798	19.882	5.749	0.519
990.000	568.996	80.005	19.996	100.798	19.881	5.845	0.537
990.500	569.243	80.005	19.996	100.797	19.880	5.853	0.604
991.000	569.479	80.005	19.995	100.798	19.882	5.778	0.549
991.500	569.791	80.006	19.996	100.798	19.880	5.870	0.516
992.000	570.049	80.006	19.995	100.799	19.881	5.814	0.559
992.500	570.310	80.006	19.994	100.798	19.881	5.834	0.545
993.000	570.566	80.005	19.996	100.797	19.881	5.812	0.518
993.500	570.830	80.006	19.995	100.797	19.880	5.868	0.518
994.000	571.117	80.007	19.995	100.796	19.882	5.739	0.536
994.500	571.386	80.007	19.995	100.796	19.881	5.795	0.554
995.000	571.635	80.007	19.996	100.796	19.881	5.812	0.538
995.500	571.924	80.007	19.995	100.796	19.882	5.775	0.528
996.000	572.199	80.007	19.997	100.796	19.882	5.768	0.551
996.500	572.434	80.006	19.996	100.797	19.882	5.759	0.537
997.000	572.699	80.006	19.996	100.796	19.883	5.695	0.505
997.500	572.998	80.007	19.995	100.796	19.883	5.713	0.532
998.000	573.227	80.005	19.995	100.796	19.883	5.708	0.546
998.500	573.541	80.005	19.994	100.797	19.883	5.717	0.535
999.000	573.786	80.005	19.995	100.797	19.881	5.809	0.551
999.500	574.066	80.007	19.995	100.797	19.883	5.722	0.542
1000.000	574.335	80.007	19.995	100.798	19.882	5.732	0.537
1000.500	574.610	80.006	19.995	100.798	19.882	5.741	0.547
1001.000	574.850	80.006	19.996	100.797	19.884	5.642	0.529
1001.500	575.169	80.007	19.994	100.797	19.883	5.725	0.537
1002.000	575.409	80.006	19.996	100.797	19.882	5.773	0.559
1002.500	575.692	80.006	19.995	100.796	19.881	5.795	0.541
1003.000	575.943	80.007	19.995	100.796	19.881	5.806	0.529
1003.500	576.182	80.007	19.996	100.796	19.884	5.649	0.512
1004.000	576.449	80.005	19.996	100.797	19.882	5.729	0.498
1004.500	576.706	80.006	19.997	100.797	19.883	5.683	0.515
1005.000	576.938	80.004	19.996	100.798	19.882	5.751	0.507
1005.500	577.215	80.004	19.996	100.798	19.883	5.691	0.499
1006.000	577.478	80.005	19.996	100.798	19.884	5.633	0.524
1006.500	577.737	80.005	19.996	100.798	19.884	5.630	0.531
1007.000	577.991	80.005	19.996	100.797	19.881	5.819	0.518
1007.500	578.216	80.006	19.995	100.796	19.883	5.668	0.496
1008.000	578.513	80.007	19.995	100.796	19.881	5.790	0.500
1008.500	578.746	80.003	19.996	100.796	19.884	5.635	0.526
1009.000	579.035	80.005	19.995	100.797	19.881	5.812	0.526
1009.500	579.250	80.006	19.995	100.797	19.881	5.829	0.513
1010.000	579.553	80.006	19.995	100.797	19.881	5.817	0.511
1010.500	579.763	80.004	19.996	100.798	19.882	5.770	0.515
1011.000	580.059	80.005	19.996	100.798	19.883	5.681	0.510
1011.500	580.312	80.005	19.995	100.798	19.884	5.647	0.528
1012.000	580.568	80.004	19.995	100.798	19.881	5.811	0.529
1012.500	580.823	80.006	19.995	100.799	19.884	5.611	0.510
1013.000	581.038	80.006	19.995	100.798	19.884	5.657	0.491
1013.500	581.330	80.006	19.994	100.798	19.884	5.645	0.488
1014.000	581.540	80.005	19.996	100.801	19.882	5.788	0.504
1014.500	581.844	80.006	19.996	100.800	19.885	5.565	0.508
1015.000	582.104	80.007	19.995	100.800	19.882	5.746	0.539
1015.500	582.348	80.005	19.996	100.800	19.882	5.787	0.534
1016.000	582.586	80.005	19.995	100.799	19.882	5.739	0.493
1016.500	582.852	80.005	19.996	100.797	19.883	5.664	0.493
1017.000	583.098	80.007	19.996	100.797	19.884	5.601	0.508
1017.500	583.355	80.006	19.995	100.797	19.882	5.736	0.508
1018.000	583.563	80.005	19.996	100.798	19.881	5.809	0.484
1018.500	583.842	80.006	19.995	100.798	19.885	5.567	0.476
1019.000	584.049	80.005	19.995	100.798	19.885	5.596	0.487
1019.500	584.390	80.006	19.995	100.799	19.883	5.713	0.517
1020.000	584.579	80.006	19.995	100.798	19.879	5.950	0.539
1020.500	584.855	80.006	19.995	100.798	19.882	5.756	0.498
1021.000	585.113	80.006	19.995	100.798	19.884	5.618	0.499
1021.500	585.313	80.007	19.994	100.799	19.885	5.543	0.496
1022.000	585.585	80.006	19.995	100.799	19.883	5.709	0.465
1022.500	585.820	80.007	19.995	100.800	19.885	5.577	0.490
1023.000	586.082	80.006	19.994	100.800	19.881	5.792	0.502
1023.500	586.332	80.006	19.994	100.800	19.884	5.608	0.504
1024.000	586.613	80.007	19.995	100.799	19.884	5.647	0.522
1024.499	586.834	80.007	19.995	100.799	19.884	5.654	0.517
1024.999	587.109	80.007	19.994	100.798	19.884	5.606	0.499
1025.499	587.331	80.007	19.995	100.799	19.885	5.576	0.497
1025.999	587.554	80.007	19.994	100.799	19.886	5.526	0.471
1026.499	587.823	80.007	19.995	100.799	19.882	5.727	0.468
1026.999	588.088	80.006	19.995	100.799	19.883	5.724	0.513
1027.499	588.298	80.006	19.995	100.799	19.883	5.714	0.504
1027.999	588.556	80.007	19.994	100.798	19.883	5.681	0.471
1028.499	588.823	80.007	19.994	100.797	19.882	5.780	0.497
1029.000	589.079	80.007	19.995	100.797	19.881	5.790	0.524
1029.500	589.318	80.007	19.994	100.796	19.880	5.877	0.509
1029.999	589.586	80.006	19.996	100.796	19.884	5.647	0.501
1030.499	589.819	80.006	19.994	100.796	19.882	5.772	0.504
1030.999	590.059	80.007	19.996	100.796	19.882	5.770	0.487
1031.499	590.293	80.006	19.995	100.797	19.882	5.766	0.474
1031.999	590.559	80.007	19.995	100.799	19.885	5.582	0.487
1032.499	590.824	80.007	19.995	100.800	19.883	5.669	0.515
1032.999	591.022	80.006	19.996	100.800	19.884	5.623	0.497
1033.500	591.261	80.006	19.995	100.801	19.884	5.622	0.450
1034.000	591.514	80.005	19.995	100.801	19.884	5.637	0.465
1034.500	591.781	80.007	19.996	100.800	19.886	5.535	0.506
1035.000	592.042	80.007	19.996	100.800	19.884	5.659	0.524
1035.499	592.292	80.007	19.995	100.800	19.882	5.754	0.519
1035.999	592.525	80.007	19.995	100.800	19.881	5.797	0.497
1036.499	592.794	80.007	19.995	100.800	19.882	5.756	0.492
1036.999	593.012	80.006	19.996	100.800	19.885	5.570	0.495
1037.499	593.318	80.006	19.994	100.800	19.881	5.800	0.506
1038.000	593.528	80.005	19.995	100.802	19.884	5.660	0.520
1038.500	593.804	80.005	19.994	100.802	19.885	5.584	0.501
1038.999	594.044	80.006	19.996	100.803	19.883	5.671	0.501
1039.499	594.279	80.006	19.995	100.803	19.885	5.580	0.496
1039.999	594.561	80.006	19.996	100.802	19.886	5.492	0.496
1040.499	594.804	80.006	19.995	100.801	19.889	5.345	0.521
1040.999	595.061	80.005	19.995	100.801	19.884	5.616	0.513
1041.499	595.291	80.006	19.996	100.800	19.883	5.671	0.494
1042.000	595.556	80.006	19.996	100.800	19.883	5.676	0.491
1042.500	595.781	80.006	19.995	100.800	19.881	5.839	0.492
1042.999	596.051	80.006	19.995	100.800	19.884	5.601	0.492
1043.499	596.278	80.006	19.996	100.800	19.886	5.478	0.496
1043.999	596.525	80.005	19.997	100.799	19.886	5.533	0.485
1044.499	596.791	80.007	19.997	100.799	19.884	5.643	0.493
1044.999	597.048	80.007	19.996	100.800	19.883	5.708	0.518
1045.499	597.299	80.008	19.996	100.801	19.883	5.664	0.516
1045.999	597.523	80.008	19.996	100.800	19.884	5.647	0.492
1046.499	597.799	80.008	19.996	100.800	19.887	5.451	0.487
1046.999	598.019	80.007	19.995	100.799	19.886	5.500	0.498
1047.499	598.294	80.009	19.995	100.798	19.886	5.521	0.495
1047.999	598.550	80.009	19.996	100.797	19.885	5.545	0.513
1048.499	598.775	80.008	19.995	100.795	19.882	5.741	0.507
1048.999	599.014	80.008	19.997	100.795	19.882	5.744	0.473
1049.499	599.261	80.007	19.996	100.794	19.883	5.715	0.475
1050.000	599.501	80.009	19.996	100.794	19.883	5.722	0.487
1050.500	599.744	80.007	19.997	100.794	19.884	5.659	0.485
1050.999	599.990	80.008	19.997	100.794	19.883	5.686	0.486
1051.499	600.239	80.009	19.994	100.795	19.883	5.720	0.491
1051.999	600.524	80.007	19.996	100.795	19.882	5.734	0.514
1052.499	600.707	80.008	19.995	100.795	19.882	5.766	0.501
1052.999	600.975	80.007	19.994	100.796	19.883	5.720	0.459
1053.499	601.250	80.008	19.995	100.796	19.883	5.690	0.498
1053.999	601.503	80.007	19.996	100.795	19.884	5.611	0.536
1054.499	601.747	80.007	19.996	100.795	19.884	5.630	0.513
1054.999	601.963	80.007	19.995	100.795	19.883	5.707	0.478
1055.499	602.219	80.008	19.994	100.795	19.884	5.652	0.466
1056.000	602.454	80.007	19.994	100.794	19.885	5.591	0.481
1056.500	602.729	80.007	19.996	100.795	19.879	5.933	0.501
1056.999	602.951	80.006	19.996	100.795	19.881	5.851	0.504
1057.499	603.199	80.007	19.995	100.795	19.880	5.897	0.483
1057.999	603.454	80.007	19.996	100.795	19.884	5.660	0.486
1058.499	603.690	80.005	19.995	100.796	19.885	5.540	0.497
1059.000	603.921	80.005	19.995	100.795	19.883	5.710	0.479
1059.501	604.153	80.005	19.996	100.795	19.885	5.586	0.465
1060.000	604.436	80.005	19.995	100.795	19.884	5.657	0.489
1060.499	604.690	80.007	19.996	100.796	19.884	5.661	0.526
1060.999	604.922	80.006	19.997	100.796	19.885	5.596	0.511
1061.499	605.193	80.006	19.997	100.796	19.884	5.652	0.495
1061.999	605.429	80.007	19.997	100.796	19.883	5.681	0.505
1062.499	605.660	80.005	19.995	100.796	19.883	5.725	0.487
1062.999	605.931	80.006	19.995	100.795	19.882	5.756	0.484
1063.500	606.172	80.004	19.996	100.795	19.882	5.749	0.507
1064.000	606.427	80.005	19.995	100.796	19.883	5.681	0.504
1064.499	606.688	80.005	19.995	100.796	19.882	5.730	0.506
1064.999	606.926	80.004	19.997	100.796	19.880	5.856	0.507
1065.499	607.155	80.005	19.996	100.796	19.883	5.718	0.484
1066.000	607.410	80.005	19.996	100.795	19.884	5.654	0.476
1066.500	607.667	80.005	19.996	100.795	19.881	5.827	0.498
1066.999	607.937	80.005	19.997	100.795	19.883	5.679	0.519
1067.500	608.163	80.005	19.998	100.795	19.883	5.722	0.511
1068.000	608.426	80.006	19.997	100.795	19.882	5.764	0.493
1068.499	608.685	80.004	19.997	100.794	19.882	5.730	0.506
1068.999	608.941	80.004	19.995	100.795	19.881	5.831	0.519
1069.499	609.231	80.004	19.996	100.795	19.884	5.657	0.530
1069.999	609.445	80.005	19.996	100.796	19.880	5.894	0.525
1070.499	609.708	80.005	19.997	100.797	19.880	5.887	0.491
1070.999	609.975	80.004	19.996	100.797	19.881	5.817	0.504
1071.499	610.194	80.003	19.997	100.797	19.882	5.758	0.508
1071.999	610.479	80.005	19.996	100.796	19.880	5.872	0.495
1072.499	610.716	80.005	19.996	100.796	19.879	5.969	0.513
1072.999	611.000	80.006	19.996	100.797	19.884	5.647	0.521
1073.499	611.278	80.005	19.997	100.799	19.879	5.947	0.541
1073.999	611.477	80.005	19.996	100.799	19.878	6.008	0.519
1074.499	611.753	80.006	19.995	100.799	19.881	5.797	0.475
1074.999	612.015	80.004	19.997	100.798	19.879	5.950	0.506
1075.499	612.277	80.006	19.997	100.796	19.879	5.918	0.531
1075.999	612.512	80.006	19.996	100.793	19.881	5.841	0.511
1076.499	612.776	80.006	19.996	100.793	19.878	6.015	0.498
1076.999	613.014	80.005	19.996	100.793	19.880	5.911	0.501
1077.499	613.256	80.004	19.997	100.794	19.880	5.874	0.491
1077.999	613.557	80.006	19.996	100.794	19.881	5.848	0.511
1078.499	613.775	80.006	19.996	100.795	19.876	6.107	0.531
1078.999	614.083	80.006	19.996	100.795	19.879	5.940	0.522
1079.499	614.336	80.005	19.995	100.795	19.880	5.915	0.543
1079.999	614.615	80.006	19.995	100.795	19.881	5.821	0.546
1080.499	614.840	80.006	19.995	100.795	19.881	5.823	0.518
1080.999	615.111	80.005	19.995	100.795	19.882	5.743	0.500
1081.500	615.376	80.006	19.995	100.795	19.877	6.070	0.515
1082.000	615.626	80.007	19.995	100.795	19.883	5.702	0.525
1082.499	615.896	80.006	19.995	100.796	19.881	5.826	0.518
1082.999	616.158	80.006	19.994	100.796	19.881	5.821	0.526
1083.499	616.390	80.004	19.995	100.797	19.879	5.962	0.513
1083.999	616.631	80.006	19.995	100.797	19.883	5.712	0.484
1084.499	616.876	80.005	19.997	100.798	19.882	5.738	0.480
1084.999	617.140	80.004	19.995	100.798	19.882	5.743	0.498
1085.499	617.434	80.005	19.995	100.799	19.882	5.731	0.533
1085.999	617.684	80.004	19.995	100.800	19.881	5.819	0.551
1086.499	617.921	80.004	19.994	100.800	19.881	5.802	0.516
1087.000	618.197	80.004	19.996	100.800	19.881	5.797	0.500
1087.500	618.412	80.003	19.995	100.800	19.885	5.569	0.502
1087.999	618.706	80.005	19.995	100.800	19.881	5.797	0.500
1088.499	618.916	80.005	19.995	100.799	19.880	5.884	0.506
1088.999	619.216	80.005	19.994	100.800	19.881	5.828	0.507
1089.499	619.429	80.004	19.996	100.800	19.879	5.935	0.512
1089.999	619.710	80.005	19.994	100.800	19.883	5.702	0.504
1090.499	619.941	80.005	19.996	100.801	19.886	5.480	0.503
1091.000	620.199	80.005	19.995	100.801	19.882	5.777	0.500
1091.500	620.444	80.005	19.996	100.801	19.883	5.681	0.496
1091.999	620.730	80.005	19.995	100.801	19.883	5.681	0.517
1092.499	620.977	80.004	19.996	100.802	19.881	5.840	0.533
1092.999	621.241	80.004	19.996	100.804	19.884	5.617	0.522
1093.499	621.511	80.004	19.995	100.804	19.883	5.719	0.522
1093.999	621.753	80.004	19.995	100.804	19.882	5.763	0.523
1094.499	622.012	80.005	19.995	100.804	19.885	5.538	0.506
1094.999	622.276	80.004	19.996	100.803	19.885	5.554	0.512
1095.499	622.555	80.005	19.995	100.801	19.883	5.717	0.533
1095.999	622.788	80.005	19.995	100.801	19.884	5.634	0.527
1096.499	623.075	80.005	19.996	100.800	19.885	5.564	0.516
1096.999	623.341	80.005	19.995	100.802	19.885	5.572	0.536
1097.499	623.580	80.005	19.996	100.802	19.884	5.601	0.529
1097.999	623.806	80.005	19.994	100.801	19.887	5.472	0.485
1098.499	624.077	80.004	19.996	100.804	19.884	5.612	0.481
1098.999	624.340	80.003	19.995	100.805	19.885	5.554	0.515
1099.500	624.589	80.005	19.996	100.804	19.885	5.559	0.523
1100.000	624.870	80.006	19.996	100.804	19.882	5.735	0.521
1100.499	625.127	80.005	19.995	100.804	19.882	5.779	0.534
1101.000	625.391	80.005	19.995	100.802	19.885	5.597	0.530
1101.501	625.628	80.005	19.996	100.802	19.882	5.753	0.511
1102.001	625.900	80.006	19.995	100.803	19.882	5.761	0.505
1102.501	626.174	80.005	19.994	100.804	19.880	5.872	0.527
1103.001	626.391	80.006	19.995	100.803	19.883	5.697	0.519
1103.500	626.622	80.006	19.996	100.803	19.880	5.903	0.470
1104.000	626.934	80.006	19.994	100.803	19.882	5.729	0.495
1104.500	627.193	80.007	19.995	100.801	19.883	5.724	0.556
1104.999	627.436	80.008	19.995	100.800	19.883	5.708	0.537
1105.499	627.705	80.006	19.995	100.801	19.883	5.688	0.507
1105.999	627.948	80.007	19.996	100.802	19.882	5.749	0.512
1106.499	628.210	80.006	19.996	100.802	19.884	5.647	0.508
1106.999	628.474	80.007	19.994	100.803	19.882	5.727	0.515
1107.499	628.721	80.007	19.996	100.803	19.881	5.804	0.519
1107.999	628.990	80.008	19.995	100.803	19.885	5.574	0.514
1108.500	629.255	80.007	19.994	100.802	19.886	5.504	0.525
1109.000	629.502	80.007	19.995	100.802	19.883	5.669	0.523
1109.499	629.754	80.008	19.995	100.804	19.884	5.621	0.505
1109.999	630.044	80.008	19.996	100.809	19.880	5.863	0.521
1110.499	630.290	80.007	19.994	100.814	19.884	5.604	0.539
1110.999	630.531	80.008	19.995	100.815	19.885	5.579	0.512
1111.499	630.814	80.006	19.995	100.815	19.885	5.564	0.505
1111.999	631.066	80.008	19.995	100.813	19.885	5.548	0.530
1112.499	631.313	80.007	19.995	100.808	19.885	5.547	0.517
1112.999	631.598	80.008	19.994	100.802	19.886	5.506	0.515
1113.499	631.838	80.007	19.995	100.801	19.885	5.574	0.528
1113.999	632.086	80.006	19.994	100.800	19.885	5.538	0.507
1114.499	632.368	80.006	19.995	100.799	19.886	5.513	0.509
1114.999	632.591	80.005	19.995	100.798	19.885	5.567	0.517
1115.499	632.876	80.006	19.994	100.796	19.886	5.523	0.506
1115.999	633.123	80.006	19.995	100.795	19.886	5.499	0.520
1116.499	633.386	80.007	19.994	100.795	19.883	5.686	0.521
1116.999	633.634	80.006	19.994	100.796	19.884	5.662	0.511
1117.499	633.930	80.007	19.995	100.796	19.885	5.591	0.528
1117.999	634.194	80.007	19.995	100.796	19.887	5.433	0.552
1118.499	634.430	80.007	19.994	100.796	19.886	5.502	0.530
1118.999	634.689	80.008	19.995	100.796	19.884	5.635	0.498
1119.500	634.937	80.008	19.994	100.796	19.883	5.708	0.501
1120.000	635.220	80.006	19.995	100.796	19.883	5.705	0.519
1120.499	635.502	80.006	19.995	100.797	19.885	5.538	0.548
1120.999	635.745	80.007	19.995	100.797	19.887	5.441	0.545
1121.499	636.033	80.007	19.995	100.797	19.889	5.346	0.528
1121.999	636.280	80.007	19.995	100.797	19.884	5.603	0.533
1122.499	636.524	80.006	19.996	100.797	19.882	5.730	0.513
1123.000	636.816	80.006	19.995	100.797	19.886	5.516	0.514
1123.500	637.060	80.007	19.995	100.797	19.885	5.558	0.536
1123.999	637.317	80.006	19.995	100.797	19.886	5.495	0.518
1124.499	637.596	80.006	19.996	100.798	19.884	5.623	0.518
1124.999	637.856	80.006	19.994	100.797	19.883	5.695	0.538
1125.500	638.164	80.006	19.994	100.800	19.882	5.759	0.554
1126.000	638.403	80.007	19.995	100.800	19.882	5.771	0.557
1126.499	638.659	80.007	19.995	100.802	19.885	5.592	0.521
1126.999	638.900	80.008	19.995	100.801	19.884	5.628	0.496
1127.499	639.159	80.008	19.994	100.803	19.881	5.790	0.498
1128.000	639.415	80.007	19.994	100.800	19.883	5.705	0.507
1128.501	639.670	80.009	19.995	100.799	19.883	5.683	0.513
1129.000	639.929	80.007	19.994	100.798	19.882	5.761	0.512
1129.499	640.210	80.008	19.996	100.801	19.884	5.637	0.527
1129.999	640.471	80.007	19.995	100.800	19.883	5.667	0.541
1130.499	640.726	80.008	19.994	100.800	19.884	5.621	0.528
1130.999	640.958	80.008	19.995	100.803	19.883	5.715	0.501
1131.499	641.244	80.009	19.995	100.804	19.884	5.642	0.503
1131.999	641.481	80.009	19.995	100.802	19.886	5.495	0.520
1132.499	641.728	80.008	19.995	100.801	19.887	5.444	0.504
1132.999	642.011	80.008	19.996	100.801	19.886	5.528	0.508
1133.499	642.260	80.008	19.995	100.797	19.884	5.644	0.531
1133.999	642.492	80.008	19.995	100.796	19.884	5.623	0.506
1134.499	642.778	80.008	19.995	100.796	19.885	5.572	0.499
1134.999	643.033	80.008	19.995	100.796	19.885	5.599	0.529
1135.499	643.321	80.008	19.996	100.795	19.886	5.529	0.542
1136.000	643.549	80.008	19.995	100.796	19.883	5.684	0.530
1136.500	643.794	80.009	19.995	100.794	19.880	5.882	0.495
1136.999	644.025	80.008	19.995	100.794	19.885	5.553	0.475
1137.499	644.300	80.008	19.995	100.794	19.884	5.640	0.491
1137.999	644.518	80.008	19.995	100.794	19.885	5.550	0.499
1138.499	644.798	80.007	19.996	100.794	19.885	5.577	0.496
1138.999	645.032	80.007	19.996	100.797	19.885	5.579	0.506
1139.499	645.270	80.007	19.995	100.797	19.888	5.382	0.493
1139.999	645.474	80.006	19.996	100.797	19.885	5.574	0.457
1140.499	645.804	80.007	19.995	100.796	19.885	5.545	0.488
1140.999	646.008	80.005	19.996	100.797	19.885	5.557	0.534
1141.499	646.270	80.006	19.996	100.795	19.889	5.312	0.500
1141.999	646.483	80.007	19.996	100.795	19.884	5.659	0.470
1142.500	646.752	80.005	19.996	100.795	19.889	5.291	0.478
1143.000	647.026	80.007	19.996	100.795	19.885	5.554	0.513
1143.500	647.290	80.006	19.995	100.796	19.890	5.256	0.540
1144.000	647.531	80.005	19.995	100.796	19.885	5.576	0.521
1144.499	647.783	80.005	19.996	100.796	19.884	5.654	0.499
1144.999	648.052	80.006	19.995	100.797	19.884	5.630	0.507
1145.499	648.268	80.006	19.995	100.797	19.887	5.469	0.503
1145.999	648.572	80.006	19.995	100.796	19.884	5.629	0.502
1146.499	648.818	80.006	19.995	100.796	19.888	5.387	0.535
1146.999	649.066	80.003	19.995	100.796	19.885	5.557	0.522
1147.499	649.274	80.004	19.994	100.797	19.883	5.700	0.475
1147.999	649.549	80.006	19.994	100.798	19.884	5.620	0.469
1148.499	649.810	80.004	19.995	100.798	19.884	5.634	0.510
1148.999	650.046	80.005	19.995	100.799	19.882	5.779	0.517
1149.499	650.318	80.005	19.995	100.799	19.882	5.757	0.502
1149.999	650.555	80.005	19.996	100.799	19.884	5.617	0.508
1150.499	650.797	80.004	19.995	100.800	19.884	5.619	0.494
1151.000	651.042	80.004	19.995	100.800	19.886	5.512	0.483
1151.500	651.305	80.005	19.995	100.801	19.884	5.644	0.498
1151.999	651.560	80.007	19.995	100.800	19.884	5.612	0.513
1152.499	651.809	80.005	19.995	100.800	19.885	5.547	0.511
1153.000	652.068	80.005	19.996	100.799	19.886	5.506	0.506
1153.501	652.283	80.005	19.995	100.800	19.882	5.753	0.491
1154.000	652.566	80.004	19.995	100.801	19.886	5.520	0.486
1154.500	652.804	80.005	19.995	100.801	19.887	5.453	0.509
1155.000	653.069	80.005	19.996	100.801	19.884	5.623	0.512
1155.500	653.318	80.005	19.995	100.801	19.886	5.492	0.509
1156.000	653.561	80.004	19.995	100.801	19.886	5.475	0.503
1156.499	653.820	80.004	19.996	100.803	19.887	5.417	0.497
1156.999	654.092	80.006	19.996	100.804	19.884	5.629	0.516
1157.499	654.321	80.005	19.996	100.806	19.885	5.591	0.516
1157.999	654.600	80.005	19.996	100.807	19.884	5.613	0.505
1158.499	654.808	80.005	19.997	100.809	19.886	5.489	0.498
1158.999	655.060	80.004	19.995	100.808	19.883	5.724	0.473
1159.499	655.289	80.005	19.996	100.808	19.885	5.571	0.471
1159.999	655.603	80.005	19.996	100.808	19.887	5.474	0.512
1160.499	655.861	80.006	19.996	100.810	19.883	5.692	0.557
1160.999	656.085	80.005	19.996	100.810	19.884	5.626	0.527
1161.499	656.340	80.005	19.995	100.813	19.883	5.719	0.481
1161.999	656.575	80.005	19.996	100.815	19.885	5.589	0.485
1162.499	656.832	80.006	19.995	100.813	19.885	5.557	0.491
1162.999	657.075	80.004	19.996	100.810	19.886	5.525	0.495
1163.499	657.331	80.006	19.996	100.810	19.888	5.380	0.499
1164.000	657.602	80.005	19.995	100.806	19.889	5.322	0.513
1164.500	657.862	80.003	19.996	100.806	19.887	5.426	0.529
1164.999	658.083	80.003	19.996	100.806	19.889	5.315	0.506
1165.499	658.392	80.005	19.996	100.805	19.887	5.463	0.506
1166.000	658.631	80.006	19.996	100.803	19.890	5.242	0.539
1166.501	658.882	80.005	19.995	100.803	19.887	5.431	0.519
1167.000	659.081	80.006	19.996	100.801	19.885	5.588	0.470
1167.499	659.368	80.005	19.996	100.802	19.887	5.429	0.468
1167.999	659.572	80.004	19.996	100.802	19.883	5.676	0.489
1168.499	659.843	80.005	19.995	100.803	19.886	5.513	0.483
1168.999	660.063	80.004	19.996	100.802	19.886	5.492	0.483
1169.499	660.317	80.005	19.996	100.805	19.887	5.434	0.482
1169.999	660.610	80.005	19.997	100.808	19.886	5.490	0.510
1170.499	660.813	80.003	19.996	100.813	19.885	5.599	0.521
1170.999	661.041	80.004	19.997	100.815	19.885	5.569	0.464
1171.500	661.325	80.006	19.995	100.814	19.885	5.562	0.471
1172.000	661.596	80.007	19.996	100.811	19.883	5.672	0.533
1172.499	661.789	80.006	19.995	100.808	19.886	5.536	0.510
1172.999	662.063	80.004	19.995	100.802	19.886	5.501	0.465
1173.499	662.263	80.004	19.996	100.801	19.887	5.427	0.471
1173.999	662.499	80.005	19.996	100.801	19.886	5.530	0.455
1174.499	662.791	80.005	19.994	100.801	19.883	5.720	0.482
1175.000	663.036	80.006	19.995	100.802	19.885	5.564	0.532
1175.500	663.256	80.005	19.995	100.802	19.884	5.651	0.502
1175.999	663.527	80.005	19.995	100.801	19.884	5.652	0.478
1176.499	663.766	80.005	19.995	100.801	19.886	5.484	0.500
1176.999	664.012	80.005	19.995	100.800	19.887	5.465	0.497
1177.499	664.241	80.003	19.994	100.799	19.887	5.463	0.480
1177.999	664.461	80.005	19.996	100.799	19.885	5.542	0.462
1178.499	664.746	80.005	19.995	100.799	19.886	5.501	0.477
1178.999	664.948	80.005	19.995	100.800	19.886	5.499	0.496
1179.500	665.203	80.006	19.995	100.801	19.886	5.492	0.472
1180.001	665.431	80.005	19.996	100.801	19.886	5.491	0.471
1180.500	665.664	80.006	19.994	100.800	19.887	5.460	0.472
1180.999	665.880	80.005	19.995	100.799	19.887	5.448	0.454
1181.499	666.107	80.006	19.995	100.798	19.887	5.441	0.446
1181.999	666.316	80.006	19.995	100.796	19.887	5.412	0.440
1182.499	666.604	80.007	19.995	100.796	19.888	5.356	0.466
1182.999	666.860	80.006	19.995	100.796	19.887	5.436	0.520
1183.499	667.077	80.006	19.995	100.796	19.886	5.516	0.509
1183.999	667.298	80.006	19.995	100.798	19.890	5.286	0.456
1184.499	667.499	80.008	19.995	100.799	19.884	5.623	0.430
1184.999	667.744	80.007	19.995	100.799	19.888	5.365	0.434
1185.500	667.982	80.006	19.995	100.801	19.887	5.458	0.465
1186.000	668.244	80.007	19.995	100.800	19.890	5.264	0.491
1186.500	668.465	80.007	19.996	100.800	19.890	5.269	0.491
1187.000	668.677	80.008	19.994	100.801	19.888	5.387	0.457
1187.499	668.947	80.006	19.995	100.801	19.887	5.450	0.457
1188.000	669.207	80.006	19.995	100.800	19.891	5.220	0.506
1188.501	669.400	80.009	19.995	100.799	19.890	5.286	0.492
1189.000	669.603	80.007	19.996	100.801	19.887	5.472	0.424
1189.499	669.863	80.008	19.996	100.800	19.888	5.387	0.429
1189.999	670.078	80.008	19.996	100.800	19.887	5.470	0.469
1190.499	670.324	80.007	19.995	100.800	19.888	5.393	0.468
1190.999	670.560	80.008	19.995	100.800	19.885	5.582	0.472
1191.499	670.770	80.007	19.995	100.798	19.884	5.620	0.464
1191.999	671.005	80.007	19.995	100.798	19.886	5.533	0.446
1192.500	671.260	80.007	19.994	100.797	19.887	5.416	0.467
1193.000	671.505	80.008	19.995	100.797	19.885	5.590	0.495
1193.499	671.721	80.006	19.995	100.799	19.886	5.510	0.481
1193.999	671.955	80.007	19.995	100.800	19.886	5.494	0.456
1194.499	672.199	80.008	19.994	100.802	19.885	5.568	0.464
1194.999	672.408	80.006	19.995	100.803	19.886	5.493	0.465
1195.499	672.630	80.008	19.995	100.803	19.884	5.617	0.442
1195.999	672.908	80.007	19.995	100.802	19.884	5.642	0.465
1196.499	673.148	80.006	19.995	100.803	19.883	5.716	0.509
1196.999	673.349	80.007	19.995	100.801	19.884	5.650	0.479
1197.499	673.605	80.006	19.996	100.800	19.884	5.633	0.449
1197.999	673.837	80.006	19.994	100.800	19.885	5.572	0.473
1198.499	674.083	80.008	19.994	100.800	19.887	5.472	0.483
1198.999	674.301	80.008	19.995	100.801	19.883	5.710	0.470
1199.499	674.568	80.007	19.995	100.801	19.887	5.441	0.474
1199.999	674.789	80.006	19.994	100.801	19.884	5.603	0.487
1200.499	675.007	80.006	19.996	100.800	19.886	5.519	0.464
1200.999	675.221	80.008	19.996	100.799	19.885	5.586	0.435
1201.499	675.480	80.007	19.995	100.796	19.887	5.461	0.452
1201.999	675.716	80.007	19.995	100.796	19.886	5.524	0.484
1202.499	675.968	80.006	19.995	100.798	19.886	5.513	0.491
1202.999	676.196	80.006	19.996	100.800	19.885	5.567	0.484
1203.499	676.426	80.006	19.994	100.803	19.886	5.513	0.469
1203.999	676.670	80.005	19.996	100.808	19.884	5.634	0.466
1204.499	676.890	80.006	19.995	100.811	19.882	5.728	0.469
1204.999	677.130	80.006	19.995	100.811	19.881	5.805	0.462
1205.500	677.361	80.007	19.995	100.810	19.884	5.659	0.465
1206.000	677.621	80.007	19.995	100.809	19.884	5.661	0.481
1206.500	677.853	80.007	19.995	100.805	19.886	5.487	0.492
1207.000	678.088	80.007	19.994	100.805	19.883	5.693	0.480
1207.500	678.374	80.006	19.995	100.809	19.884	5.664	0.494
1208.001	678.595	80.006	19.995	100.815	19.883	5.724	0.514
1208.500	678.836	80.007	19.995	100.820	19.884	5.664	0.484
1208.999	679.073	80.007	19.995	100.825	19.884	5.614	0.470
1209.499	679.349	80.009	19.995	100.829	19.885	5.601	0.496
1209.999	679.568	80.007	19.995	100.831	19.883	5.683	0.504
1210.500	679.847	80.007	19.995	100.830	19.886	5.490	0.496
1211.000	680.079	80.007	19.995	100.830	19.880	5.880	0.504
1211.499	680.312	80.008	19.995	100.831	19.883	5.667	0.488
1211.999	680.557	80.007	19.995	100.826	19.885	5.587	0.471
1212.499	680.852	80.008	19.994	100.819	19.884	5.628	0.509
1212.999	681.113	80.008	19.995	100.813	19.883	5.727	0.548
1213.500	681.373	80.008	19.995	100.809	19.882	5.764	0.539
1214.001	681.606	80.008	19.995	100.804	19.884	5.637	0.507
1214.500	681.892	80.009	19.995	100.804	19.883	5.667	0.506
1214.999	682.160	80.008	19.993	100.808	19.884	5.630	0.537
1215.499	682.432	80.009	19.994	100.815	19.884	5.661	0.547
1215.999	682.681	80.007	19.995	100.820	19.883	5.693	0.530
1216.499	682.972	80.008	19.994	100.826	19.885	5.574	0.530
1217.000	683.203	80.008	19.994	100.832	19.883	5.722	0.531
1217.501	683.470	80.009	19.995	100.833	19.881	5.839	0.510
1218.000	683.771	80.007	19.994	100.830	19.882	5.764	0.533
1218.499	684.049	80.008	19.994	100.828	19.881	5.810	0.573
1218.999	684.302	80.009	19.994	100.826	19.883	5.698	0.555
1219.499	684.590	80.007	19.994	100.823	19.883	5.710	0.536
1219.999	684.857	80.008	19.994	100.821	19.886	5.504	0.548
1220.499	685.108	80.007	19.996	100.824	19.885	5.558	0.536
1220.999	685.392	80.006	19.995	100.823	19.879	5.917	0.527
1221.499	685.687	80.006	19.995	100.824	19.883	5.706	0.557
1221.999	685.940	80.006	19.995	100.826	19.882	5.773	0.564
1222.499	686.195	80.006	19.995	100.827	19.880	5.889	0.529
1223.000	686.524	80.006	19.995	100.825	19.881	5.828	0.546
1223.501	686.790	80.006	19.995	100.825	19.882	5.756	0.589
1224.000	687.051	80.005	19.994	100.823	19.884	5.654	0.560
1224.499	687.338	80.005	19.994	100.824	19.881	5.834	0.538
1224.999	687.601	80.006	19.994	100.824	19.883	5.708	0.550
1225.499	687.887	80.005	19.996	100.826	19.879	5.930	0.550
1225.999	688.164	80.005	19.995	100.827	19.881	5.834	0.556
1226.499	688.487	80.004	19.995	100.830	19.877	6.081	0.581
1226.999	688.737	80.005	19.995	100.828	19.879	5.941	0.586
1227.499	689.061	80.006	19.996	100.827	19.877	6.064	0.574
1228.000	689.315	80.004	19.996	100.824	19.879	5.919	0.576
1228.500	689.611	80.004	19.996	100.824	19.879	5.974	0.564
1228.999	689.898	80.005	19.996	100.824	19.878	6.013	0.566
1229.500	690.186	80.004	19.996	100.824	19.876	6.116	0.579
1230.000	690.459	80.004	19.995	100.823	19.878	6.013	0.568
1230.499	690.762	80.005	19.996	100.823	19.878	6.001	0.569
1231.000	691.030	80.005	19.996	100.824	19.874	6.271	0.574
1231.500	691.301	80.005	19.995	100.820	19.880	5.914	0.555
1231.999	691.618	80.005	19.995	100.821	19.880	5.883	0.563
1232.499	691.902	80.005	19.995	100.824	19.879	5.941	0.594
1232.999	692.165	80.004	19.996	100.826	19.878	6.010	0.574
1233.499	692.502	80.005	19.996	100.827	19.881	5.843	0.574
1233.999	692.769	80.006	19.995	100.831	19.881	5.805	0.602
1234.499	693.048	80.004	19.996	100.832	19.877	6.072	0.575
1234.999	693.356	80.004	19.995	100.830	19.878	6.002	0.566
1235.499	693.641	80.004	19.995	100.829	19.878	6.028	0.590
1235.999	693.890	80.005	19.995	100.827	19.879	5.931	0.563
1236.499	694.172	80.005	19.996	100.828	19.879	5.919	0.532
1236.999	694.475	80.005	19.995	100.826	19.880	5.916	0.558
1237.499	694.738	80.005	19.995	100.823	19.878	6.015	0.576
1237.999	695.068	80.004	19.995	100.822	19.878	5.994	0.580
1238.499	695.344	80.004	19.995	100.824	19.881	5.820	0.600
1238.999	695.638	80.005	19.995	100.824	19.879	5.961	0.588
1239.499	695.887	80.005	19.995	100.827	19.883	5.706	0.556
1239.999	696.217	80.005	19.996	100.831	19.882	5.774	0.561
1240.499	696.495	80.005	19.996	100.830	19.881	5.820	0.593
1241.000	696.792	80.006	19.994	100.824	19.878	6.005	0.592
1241.500	697.053	80.006	19.995	100.817	19.877	6.088	0.567
1241.999	697.370	80.006	19.995	100.812	19.880	5.903	0.568
1242.499	697.651	80.006	19.994	100.814	19.877	6.094	0.588
1243.000	697.927	80.005	19.996	100.818	19.880	5.881	0.578
1243.500	698.170	80.005	19.995	100.820	19.880	5.885	0.538
1244.000	698.465	80.007	19.995	100.822	19.874	6.288	0.528
1244.501	698.773	80.006	19.996	100.824	19.878	6.003	0.571
1245.000	699.049	80.005	19.996	100.818	19.878	6.003	0.593
1245.499	699.287	80.006	19.996	100.812	19.879	5.946	0.549
1245.999	699.620	80.005	19.995	100.816	19.876	6.118	0.543
1246.499	699.913	80.006	19.994	100.821	19.877	6.061	0.599
1246.999	700.245	80.006	19.996	100.822	19.877	6.059	0.625
1247.499	700.490	80.005	19.996	100.825	19.877	6.047	0.601
1247.999	700.787	80.006	19.995	100.827	19.878	6.003	0.559
1248.499	701.049	80.005	19.996	100.824	19.875	6.177	0.550
1248.999	701.352	80.005	19.996	100.816	19.876	6.117	0.562
1249.499	701.626	80.005	19.996	100.811	19.881	5.815	0.571
1249.999	701.918	80.005	19.996	100.811	19.881	5.849	0.572
1250.499	702.208	80.005	19.996	100.809	19.881	5.800	0.574
1250.999	702.461	80.006	19.995	100.809	19.881	5.821	0.562
1251.499	702.784	80.006	19.996	100.811	19.880	5.911	0.560
1252.000	703.066	80.005	19.996	100.809	19.882	5.770	0.591
1252.501	703.371	80.005	19.996	100.803	19.880	5.911	0.596
1253.001	703.625	80.005	19.996	100.808	19.880	5.858	0.573
1253.500	703.958	80.005	19.996	100.810	19.878	5.998	0.573
1253.999	704.186	80.006	19.996	100.812	19.877	6.069	0.574
1254.499	704.459	80.003	19.996	100.812	19.879	5.940	0.531
1254.999	704.749	80.005	19.996	100.807	19.877	6.081	0.532
1255.499	705.080	80.004	19.995	100.800	19.881	5.816	0.592
1255.999	705.324	80.004	19.997	100.793	19.881	5.809	0.598
1256.500	705.632	80.004	19.996	100.789	19.881	5.838	0.564
1257.001	705.900	80.003	19.997	100.790	19.881	5.823	0.564
1257.500	706.134	80.004	19.996	100.796	19.880	5.853	0.539
1257.999	706.480	80.004	19.997	100.798	19.882	5.758	0.541
1258.499	706.713	80.006	19.997	100.798	19.882	5.788	0.580
1258.999	706.999	80.003	19.997	100.798	19.882	5.788	0.549
1259.499	707.291	80.005	19.997	100.797	19.883	5.707	0.548
1259.999	707.571	80.005	19.996	100.796	19.880	5.853	0.575
1260.500	707.870	80.004	19.997	100.794	19.882	5.767	0.576
1261.000	708.140	80.004	19.995	100.794	19.881	5.811	0.574
1261.499	708.453	80.005	19.996	100.794	19.887	5.416	0.576
1261.999	708.678	80.004	19.997	100.794	19.883	5.695	0.561
1262.499	708.974	80.005	19.996	100.795	19.883	5.693	0.529
1262.999	709.261	80.005	19.997	100.796	19.885	5.582	0.552
1263.499	709.528	80.005	19.997	100.796	19.882	5.762	0.569
1263.999	709.821	80.005	19.997	100.796	19.882	5.746	0.557
1264.499	710.103	80.006	19.997	100.795	19.884	5.620	0.567
1264.999	710.387	80.004	19.996	100.793	19.881	5.805	0.570
1265.499	710.669	80.007	19.996	100.793	19.884	5.655	0.566
1265.999	710.947	80.005	19.996	100.799	19.881	5.836	0.563
1266.499	711.220	80.006	19.996	100.806	19.881	5.843	0.556
1266.999	711.475	80.006	19.996	100.807	19.881	5.836	0.540
1267.499	711.740	80.007	19.997	100.808	19.885	5.584	0.524
1267.999	711.993	80.006	19.996	100.808	19.877	6.057	0.519
1268.499	712.324	80.007	19.995	100.803	19.882	5.749	0.551
1268.999	712.568	80.007	19.996	100.797	19.880	5.875	0.579
1269.499	712.834	80.006	19.995	100.797	19.879	5.967	0.542
1269.999	713.114	80.007	19.996	100.798	19.881	5.819	0.528
1270.499	713.397	80.008	19.995	100.799	19.878	5.984	0.554
1270.999	713.700	80.006	19.995	100.804	19.880	5.879	0.574
1271.499	713.915	80.009	19.995	100.808	19.878	6.013	0.552
1271.999	714.211	80.007	19.995	100.808	19.877	6.073	0.515
1272.499	714.511	80.007	19.996	100.799	19.880	5.853	0.554
1272.999	714.777	80.009	19.995	100.796	19.880	5.880	0.580
1273.499	715.015	80.008	19.995	100.791	19.879	5.933	0.535
1273.999	715.269	80.006	19.995	100.786	19.879	5.957	0.498
1274.499	715.566	80.008	19.995	100.786	19.882	5.739	0.521
1274.999	715.881	80.007	19.995	100.795	19.878	5.996	0.581
1275.499	716.156	80.007	19.995	100.796	19.877	6.074	0.601
1275.999	716.418	80.007	19.997	100.797	19.881	5.799	0.563
1276.499	716.651	80.007	19.996	100.796	19.885	5.564	0.516
1276.999	716.974	80.006	19.995	100.797	19.879	5.925	0.526
1277.499	717.193	80.009	19.995	100.796	19.881	5.817	0.549
1277.999	717.492	80.007	19.994	100.796	19.880	5.885	0.530
1278.499	717.761	80.007	19.995	100.796	19.880	5.897	0.543
1278.999	718.024	80.006	19.996	100.796	19.879	5.976	0.550
1279.499	718.283	80.007	19.995	100.796	19.877	6.063	0.527
1279.999	718.533	80.007	19.994	100.796	19.879	5.938	0.515
1280.500	718.832	80.007	19.995	100.797	19.880	5.877	0.530
1281.000	719.105	80.006	19.996	100.797	19.881	5.851	0.561
1281.499	719.334	80.007	19.994	100.799	19.878	5.984	0.536
1282.000	719.609	80.007	19.996	100.800	19.881	5.831	0.503
1282.500	719.878	80.006	19.996	100.800	19.884	5.644	0.525
1282.999	720.154	80.005	19.995	100.800	19.883	5.678	0.545
1283.499	720.381	80.006	19.995	100.801	19.881	5.841	0.523
1283.999	720.663	80.006	19.995	100.799	19.882	5.787	0.506
1284.499	720.928	80.007	19.995	100.798	19.884	5.652	0.528
1284.999	721.174	80.007	19.997	100.797	19.885	5.557	0.529
1285.500	721.432	80.006	19.996	100.797	19.883	5.671	0.508
1286.000	721.690	80.005	19.996	100.797	19.881	5.807	0.510
1286.500	721.959	80.007	19.995	100.797	19.880	5.889	0.521
1287.000	722.245	80.007	19.996	100.799	19.884	5.647	0.541
1287.499	722.485	80.006	19.995	100.798	19.882	5.785	0.540
1287.999	722.739	80.007	19.995	100.798	19.885	5.543	0.510
1288.499	723.024	80.006	19.995	100.796	19.880	5.883	0.517
1288.999	723.222	80.007	19.996	100.796	19.883	5.705	0.511
1289.499	723.503	80.007	19.996	100.796	19.882	5.754	0.481
1289.999	723.838	80.006	19.995	100.796	19.884	5.613	0.548
1290.499	724.077	80.006	19.995	100.797	19.881	5.816	0.595
1290.999	724.353	80.008	19.995	100.799	19.885	5.589	0.544
1291.499	724.600	80.007	19.995	100.799	19.880	5.913	0.519
1291.999	724.830	80.009	19.995	100.799	19.881	5.834	0.500
1292.499	725.068	80.006	19.995	100.799	19.882	5.734	0.473
1292.999	725.350	80.008	19.995	100.798	19.884	5.647	0.494
1293.499	725.591	80.007	19.996	100.797	19.886	5.487	0.522
1293.999	725.870	80.009	19.995	100.798	19.881	5.831	0.521
1294.499	726.122	80.008	19.994	100.797	19.882	5.788	0.525
1294.999	726.385	80.008	19.996	100.797	19.883	5.719	0.523
1295.499	726.619	80.009	19.995	100.796	19.884	5.613	0.506
1295.999	726.878	80.008	19.994	100.796	19.884	5.637	0.495
1296.499	727.170	80.009	19.994	100.795	19.884	5.613	0.522
1296.999	727.402	80.008	19.994	100.795	19.881	5.829	0.538
1297.499	727.716	80.009	19.995	100.795	19.884	5.605	0.535
1297.999	727.899	80.008	19.993	100.794	19.882	5.766	0.522
1298.499	728.199	80.008	19.994	100.791	19.883	5.705	0.490
1298.999	728.479	80.010	19.994	100.790	19.882	5.768	0.531
1299.499	728.731	80.008	19.994	100.791	19.882	5.780	0.556
1299.999	728.993	80.007	19.995	100.791	19.883	5.684	0.524
1300.499	729.159	80.010	19.994	100.793	19.884	5.654	0.471
1301.000	729.474	80.009	19.995	100.795	19.884	5.642	0.454
1301.500	729.736	80.008	19.995	100.797	19.883	5.667	0.529
1301.999	729.965	80.008	19.995	100.797	19.883	5.710	0.533
1302.499	730.206	80.007	19.994	100.797	19.881	5.836	0.481
1302.999	730.462	80.007	19.995	100.797	19.884	5.652	0.484
1303.499	730.745	80.008	19.994	100.798	19.886	5.524	0.518
1303.999	731.003	80.007	19.994	100.798	19.882	5.728	0.540
1304.499	731.284	80.008	19.995	100.797	19.887	5.413	0.539
1304.999	731.539	80.006	19.995	100.798	19.884	5.658	0.537
1305.499	731.780	80.006	19.994	100.798	19.883	5.679	0.516
1305.999	732.006	80.006	19.996	100.797	19.884	5.653	0.482
1306.499	732.283	80.005	19.995	100.797	19.882	5.769	0.485
1306.999	732.525	80.006	19.996	100.798	19.882	5.737	0.511
1307.499	732.798	80.006	19.995	100.798	19.884	5.637	0.517
1307.999	733.012	80.005	19.995	100.797	19.883	5.681	0.501
1308.499	733.276	80.005	19.995	100.798	19.885	5.577	0.483
1308.999	733.532	80.006	19.995	100.798	19.881	5.805	0.499
1309.499	733.799	80.004	19.995	100.797	19.885	5.591	0.521
1309.999	734.021	80.005	19.994	100.797	19.882	5.758	0.506
1310.500	734.319	80.008	19.995	100.797	19.883	5.708	0.504
1311.001	734.559	80.006	19.995	100.796	19.884	5.601	0.529
1311.500	734.832	80.006	19.995	100.794	19.883	5.701	0.525
1311.999	735.071	80.005	19.995	100.793	19.882	5.757	0.513
1312.499	735.321	80.006	19.995	100.792	19.886	5.534	0.501
1312.999	735.581	80.006	19.995	100.792	19.886	5.488	0.500
1313.499	735.805	80.007	19.995	100.791	19.883	5.723	0.497
1313.999	736.072	80.006	19.995	100.791	19.880	5.906	0.488
1314.499	736.340	80.005	19.995	100.791	19.881	5.802	0.513
1314.999	736.565	80.005	19.994	100.791	19.882	5.746	0.514
1315.499	736.843	80.007	19.995	100.791	19.883	5.707	0.498
1316.000	737.083	80.006	19.995	100.789	19.885	5.599	0.510
1316.500	737.342	80.006	19.996	100.787	19.883	5.720	0.508
1316.999	737.603	80.007	19.996	100.789	19.883	5.684	0.510
1317.499	737.892	80.006	19.996	100.790	19.881	5.793	0.535
1317.999	738.129	80.006	19.996	100.790	19.880	5.889	0.537
1318.499	738.399	80.006	19.995	100.794	19.881	5.850	0.516
1318.999	738.626	80.006	19.995	100.795	19.882	5.766	0.502
1319.499	738.891	80.006	19.997	100.796	19.881	5.831	0.495
1319.999	739.135	80.007	19.995	100.795	19.883	5.700	0.501
1320.499	739.367	80.005	19.995	100.795	19.881	5.848	0.493
1320.999	739.638	80.005	19.995	100.795	19.883	5.679	0.489
1321.499	739.891	80.005	19.996	100.795	19.881	5.792	0.513
1322.000	740.162	80.007	19.996	100.795	19.879	5.931	0.524
1322.500	740.384	80.005	19.997	100.793	19.883	5.693	0.508
1323.000	740.646	80.006	19.996	100.792	19.883	5.718	0.489
1323.500	740.934	80.006	19.996	100.792	19.883	5.701	0.517
1323.999	741.168	80.006	19.996	100.791	19.877	6.049	0.536
1324.500	741.424	80.007	19.996	100.791	19.880	5.880	0.506
1325.000	741.694	80.006	19.995	100.794	19.883	5.708	0.508
1325.499	741.955	80.007	19.996	100.794	19.879	5.916	0.529
1325.999	742.209	80.005	19.996	100.795	19.881	5.846	0.523
1326.499	742.458	80.006	19.996	100.795	19.881	5.815	0.509
1326.999	742.701	80.005	19.995	100.796	19.879	5.962	0.498
1327.499	742.952	80.006	19.995	100.796	19.881	5.819	0.493
1327.999	743.204	80.006	19.995	100.796	19.882	5.780	0.499
1328.499	743.445	80.006	19.995	100.795	19.881	5.798	0.498
