Sample ID:	C:\MCC\MCC Cal\Test\Roof_Felt_MCC_30K_min_210930_R3.txt
Sample Weight (mg):	4.89
Heating Rate (C/s):	0.5
Combustor Temp (C):	900
N2 Flow Rate (cc/min):	80
O2 Flow Rate (cc/min):	20
Calibration File:	C:\MCC\MCC Cal\Coeff1 JN10440_30_210304.txt.txt
T Correction Coefficients:	0	1.024463	0
Time Shift (s):	14
*
Time (s)	Temperature (C)	N2 flow rate (cc/min)	O2 flow rate (cc/min)	Flow Rate (cc/min)	Oxygen (%)	HRR (W/g)	Heating rate (C/s)
0.000	107.025	80.000	19.995	100.573	20.195	0.108	-0.010
0.500	107.030	80.000	19.997	100.575	20.192	0.311	0.003
1.000	107.042	80.001	19.998	100.578	20.194	0.196	0.013
1.500	107.018	79.999	19.997	100.581	20.191	0.358	0.002
2.000	107.050	80.000	19.997	100.586	20.193	0.240	-0.002
2.500	107.027	80.001	19.995	100.589	20.192	0.334	0.009
3.000	107.045	80.000	19.996	100.594	20.193	0.265	0.002
3.500	107.054	79.999	19.995	100.599	20.189	0.493	0.011
4.000	107.028	80.000	19.996	100.598	20.191	0.380	0.005
4.500	107.022	80.000	19.996	100.594	20.194	0.201	-0.025
5.000	107.030	80.001	19.995	100.595	20.196	0.039	-0.015
5.500	107.045	80.000	19.996	100.588	20.193	0.244	0.013
6.000	107.054	80.000	19.996	100.583	20.193	0.258	0.024
6.500	107.018	80.001	19.995	100.585	20.197	-0.007	-0.001
7.000	107.039	80.001	19.995	100.584	20.194	0.182	-0.021
7.500	107.024	80.000	19.995	100.582	20.195	0.125	-0.004
8.000	107.034	80.000	19.995	100.584	20.194	0.196	0.000
8.500	107.013	80.000	19.995	100.589	20.192	0.321	-0.008
9.000	107.040	80.001	19.994	100.590	20.194	0.185	-0.002
9.500	107.042	80.001	19.995	100.598	20.190	0.450	0.017
10.000	107.009	80.001	19.995	100.605	20.193	0.235	-0.001
10.500	107.038	80.001	19.994	100.611	20.193	0.238	-0.017
11.000	107.018	80.001	19.994	100.612	20.191	0.376	0.002
11.500	107.043	80.001	19.995	100.614	20.190	0.458	0.007
12.000	107.045	80.000	19.996	100.614	20.192	0.307	0.016
12.500	107.036	80.000	19.995	100.614	20.188	0.580	0.010
13.000	107.017	80.001	19.995	100.615	20.193	0.237	-0.018
13.500	106.993	80.001	19.996	100.615	20.192	0.330	-0.035
14.001	107.031	80.001	19.995	100.615	20.193	0.265	-0.014
14.501	107.030	80.002	19.995	100.615	20.188	0.539	0.025
15.000	107.054	80.001	19.995	100.616	20.190	0.412	0.029
15.500	107.022	80.000	19.995	100.619	20.189	0.525	0.007
16.000	107.041	80.002	19.995	100.622	20.187	0.619	-0.010
16.500	107.011	80.000	19.995	100.626	20.187	0.642	-0.012
17.000	107.027	80.000	19.994	100.627	20.185	0.741	-0.013
17.500	107.030	80.001	19.996	100.630	20.184	0.806	0.003
18.000	107.059	80.001	19.996	100.633	20.185	0.750	0.025
18.500	107.061	80.001	19.995	100.638	20.185	0.730	0.031
19.000	107.082	80.001	19.995	100.642	20.184	0.817	0.027
19.500	107.069	80.001	19.995	100.649	20.185	0.762	0.015
20.000	107.103	80.001	19.996	100.653	20.182	0.921	0.014
20.500	107.138	80.001	19.995	100.653	20.181	1.035	0.045
21.000	107.135	80.000	19.994	100.656	20.182	0.937	0.051
21.500	107.155	80.001	19.996	100.664	20.180	1.074	0.024
22.000	107.131	80.001	19.996	100.672	20.178	1.173	0.006
22.500	107.182	80.001	19.995	100.680	20.179	1.130	0.012
23.000	107.232	79.999	19.995	100.689	20.178	1.220	0.064
23.500	107.190	79.999	19.996	100.696	20.176	1.332	0.054
24.000	107.224	80.002	19.996	100.698	20.176	1.357	0.000
24.500	107.238	79.999	19.996	100.706	20.178	1.217	0.021
25.000	107.281	80.001	19.996	100.714	20.175	1.387	0.053
25.500	107.286	80.000	19.996	100.721	20.171	1.686	0.052
26.000	107.321	79.999	19.996	100.729	20.172	1.617	0.044
26.500	107.344	79.999	19.996	100.739	20.169	1.772	0.049
27.000	107.396	80.000	19.996	100.745	20.167	1.891	0.067
27.500	107.416	80.000	19.995	100.753	20.168	1.825	0.074
28.000	107.449	80.000	19.996	100.760	20.166	1.949	0.063
28.500	107.488	80.001	19.997	100.766	20.168	1.822	0.062
29.000	107.504	80.000	19.996	100.769	20.165	2.030	0.064
29.500	107.589	80.000	19.996	100.770	20.164	2.101	0.078
30.000	107.603	80.000	19.996	100.770	20.165	2.037	0.100
30.500	107.655	80.000	19.997	100.771	20.163	2.175	0.083
31.000	107.709	80.001	19.997	100.778	20.161	2.274	0.086
31.500	107.743	79.999	19.997	100.786	20.162	2.264	0.097
32.000	107.844	80.000	19.997	100.793	20.161	2.303	0.112
32.500	107.852	80.000	19.997	100.796	20.161	2.317	0.122
33.000	107.939	80.000	19.996	100.797	20.158	2.472	0.102
33.500	107.972	80.000	19.997	100.791	20.159	2.423	0.108
34.000	108.041	80.001	19.996	100.790	20.158	2.497	0.111
34.500	108.107	80.001	19.996	100.789	20.162	2.232	0.119
35.000	108.186	80.001	19.997	100.792	20.158	2.505	0.140
35.501	108.249	80.000	19.996	100.796	20.160	2.367	0.143
36.001	108.317	80.001	19.997	100.801	20.155	2.668	0.136
36.500	108.343	80.002	19.996	100.798	20.159	2.399	0.113
37.000	108.475	80.001	19.997	100.793	20.161	2.307	0.126
37.500	108.527	80.002	19.997	100.788	20.157	2.549	0.172
38.000	108.582	80.002	19.995	100.783	20.156	2.650	0.146
38.500	108.683	79.999	19.996	100.780	20.158	2.499	0.131
39.000	108.739	80.001	19.997	100.783	20.156	2.625	0.156
39.500	108.839	80.002	19.996	100.788	20.157	2.541	0.157
40.001	108.886	80.001	19.996	100.788	20.154	2.775	0.151
40.501	108.971	80.000	19.996	100.788	20.155	2.653	0.139
41.000	109.083	80.001	19.996	100.784	20.155	2.681	0.165
41.500	109.130	80.000	19.996	100.778	20.158	2.520	0.178
42.000	109.229	80.001	19.996	100.774	20.156	2.649	0.153
42.500	109.383	80.001	19.997	100.777	20.156	2.615	0.199
43.000	109.412	80.002	19.996	100.782	20.158	2.497	0.218
43.500	109.537	80.001	19.996	100.783	20.155	2.651	0.169
44.001	109.651	80.001	19.995	100.782	20.155	2.711	0.196
44.501	109.717	80.000	19.995	100.782	20.156	2.617	0.209
45.000	109.799	80.002	19.996	100.782	20.153	2.801	0.164
45.500	109.897	80.002	19.995	100.783	20.155	2.661	0.164
46.000	110.000	80.001	19.995	100.789	20.153	2.789	0.191
46.500	110.091	80.002	19.996	100.796	20.156	2.631	0.197
47.000	110.168	80.002	19.997	100.802	20.154	2.759	0.181
47.500	110.300	80.002	19.996	100.805	20.157	2.566	0.189
48.000	110.389	80.001	19.996	100.802	20.154	2.750	0.215
48.500	110.458	80.002	19.997	100.801	20.157	2.545	0.190
49.000	110.580	80.003	19.997	100.799	20.157	2.542	0.174
49.500	110.740	80.001	19.997	100.791	20.160	2.393	0.236
50.001	110.820	80.000	19.996	100.786	20.156	2.599	0.261
50.501	110.946	80.002	19.996	100.783	20.157	2.567	0.223
51.000	111.046	80.001	19.998	100.777	20.155	2.671	0.216
51.500	111.117	80.002	19.997	100.774	20.158	2.500	0.199
52.000	111.267	80.002	19.998	100.773	20.155	2.677	0.196
52.500	111.332	80.002	19.997	100.770	20.155	2.664	0.218
53.000	111.467	80.002	19.998	100.769	20.157	2.525	0.207
53.500	111.556	80.001	19.997	100.768	20.157	2.574	0.212
54.000	111.658	80.002	19.997	100.766	20.159	2.433	0.208
54.500	111.779	80.002	19.997	100.766	20.157	2.534	0.207
55.001	111.907	80.002	19.997	100.766	20.158	2.500	0.236
55.501	112.022	80.003	19.997	100.765	20.157	2.578	0.246
56.001	112.136	80.002	19.996	100.765	20.154	2.731	0.236
56.500	112.271	80.001	19.997	100.765	20.157	2.581	0.239
57.000	112.375	80.001	19.997	100.765	20.154	2.725	0.244
57.500	112.528	80.001	19.996	100.765	20.155	2.691	0.247
58.000	112.607	80.001	19.997	100.768	20.156	2.612	0.244
58.500	112.737	80.001	19.996	100.772	20.154	2.752	0.221
59.000	112.831	79.999	19.996	100.778	20.154	2.773	0.216
59.500	112.975	80.001	19.997	100.786	20.156	2.630	0.231
60.000	113.061	80.002	19.996	100.793	20.157	2.580	0.234
60.500	113.192	80.002	19.996	100.800	20.155	2.653	0.224
61.000	113.366	80.000	19.996	100.803	20.153	2.785	0.261
61.500	113.479	80.001	19.997	100.805	20.154	2.757	0.296
62.000	113.621	80.000	19.997	100.806	20.153	2.830	0.271
62.500	113.756	80.001	19.996	100.807	20.153	2.787	0.267
63.001	113.904	80.001	19.996	100.807	20.151	2.973	0.280
63.501	114.005	80.002	19.997	100.808	20.150	2.989	0.265
64.001	114.154	80.002	19.997	100.815	20.151	2.962	0.249
64.500	114.279	80.002	19.997	100.819	20.151	2.913	0.262
65.000	114.414	80.002	19.997	100.819	20.151	2.971	0.267
65.501	114.516	80.002	19.996	100.820	20.151	2.911	0.249
66.001	114.657	80.003	19.996	100.819	20.151	2.957	0.240
66.500	114.813	80.002	19.995	100.813	20.150	3.023	0.270
67.000	114.951	80.002	19.995	100.811	20.152	2.847	0.296
67.501	115.090	80.003	19.996	100.813	20.147	3.198	0.285
68.001	115.259	80.002	19.995	100.819	20.150	3.024	0.292
68.501	115.396	80.003	19.996	100.825	20.151	2.962	0.307
69.001	115.555	80.002	19.995	100.830	20.152	2.902	0.301
69.500	115.715	80.003	19.995	100.836	20.151	2.969	0.307
70.000	115.815	80.004	19.995	100.840	20.148	3.113	0.289
70.501	115.984	80.002	19.995	100.842	20.150	3.030	0.264
71.001	116.101	80.003	19.994	100.843	20.152	2.899	0.277
71.500	116.225	80.003	19.994	100.844	20.148	3.109	0.264
72.001	116.440	80.002	19.995	100.843	20.150	3.016	0.290
72.501	116.584	80.004	19.994	100.840	20.149	3.090	0.349
73.001	116.744	80.003	19.996	100.840	20.151	2.973	0.331
73.501	116.837	80.003	19.995	100.841	20.145	3.352	0.279
74.000	117.052	80.003	19.994	100.838	20.145	3.341	0.281
74.500	117.207	80.003	19.995	100.838	20.146	3.274	0.339
75.000	117.366	80.003	19.994	100.840	20.148	3.146	0.342
75.500	117.506	80.002	19.995	100.840	20.147	3.221	0.307
76.001	117.680	80.001	19.995	100.840	20.146	3.253	0.306
76.501	117.858	80.001	19.994	100.843	20.144	3.403	0.333
77.000	118.012	80.003	19.995	100.846	20.146	3.239	0.342
77.501	118.141	80.003	19.994	100.843	20.145	3.311	0.308
78.001	118.336	80.002	19.996	100.839	20.146	3.283	0.304
78.501	118.470	80.001	19.995	100.837	20.145	3.313	0.326
79.000	118.623	80.000	19.995	100.837	20.144	3.400	0.308
79.500	118.831	80.001	19.996	100.834	20.144	3.403	0.325
80.000	118.975	80.001	19.994	100.837	20.142	3.524	0.357
80.500	119.175	80.000	19.996	100.841	20.146	3.269	0.348
81.000	119.340	80.000	19.996	100.842	20.146	3.295	0.354
81.500	119.519	79.998	19.996	100.843	20.143	3.430	0.354
82.000	119.670	79.999	19.996	100.846	20.145	3.338	0.338
82.500	119.865	80.001	19.995	100.848	20.145	3.308	0.338
83.000	120.062	80.000	19.994	100.848	20.143	3.455	0.369
83.500	120.228	80.001	19.996	100.849	20.144	3.407	0.378
84.000	120.409	80.000	19.995	100.848	20.144	3.396	0.355
84.500	120.603	80.001	19.996	100.846	20.144	3.410	0.361
85.000	120.794	80.000	19.994	100.845	20.143	3.460	0.380
85.500	120.987	80.000	19.995	100.844	20.144	3.378	0.384
86.000	121.119	80.000	19.996	100.844	20.143	3.474	0.354
86.500	121.303	80.001	19.995	100.845	20.146	3.279	0.321
87.000	121.493	79.999	19.996	100.846	20.146	3.288	0.345
87.500	121.671	80.000	19.996	100.848	20.146	3.286	0.371
88.000	121.864	79.999	19.995	100.848	20.143	3.463	0.369
88.500	122.031	80.000	19.996	100.847	20.144	3.403	0.366
89.000	122.206	80.000	19.997	100.847	20.145	3.352	0.351
89.500	122.405	80.000	19.995	100.848	20.145	3.325	0.359
90.000	122.585	80.000	19.995	100.847	20.143	3.451	0.377
90.500	122.775	80.000	19.996	100.848	20.144	3.370	0.374
91.000	122.981	79.999	19.996	100.848	20.147	3.226	0.383
91.500	123.150	80.000	19.995	100.847	20.145	3.306	0.386
92.000	123.346	80.001	19.995	100.846	20.143	3.462	0.370
92.501	123.501	79.999	19.997	100.847	20.145	3.352	0.358
93.001	123.720	79.999	19.997	100.847	20.145	3.308	0.363
93.500	123.926	79.999	19.996	100.847	20.144	3.409	0.399
94.000	124.114	80.000	19.996	100.848	20.142	3.538	0.409
94.500	124.280	80.000	19.997	100.848	20.142	3.502	0.374
95.000	124.505	80.002	19.996	100.847	20.145	3.347	0.373
95.500	124.697	80.002	19.995	100.848	20.142	3.552	0.404
96.000	124.893	80.001	19.996	100.849	20.143	3.483	0.402
96.500	125.069	80.001	19.996	100.848	20.142	3.502	0.380
97.000	125.289	80.003	19.996	100.848	20.143	3.458	0.384
97.500	125.526	80.002	19.996	100.848	20.142	3.531	0.426
98.000	125.696	80.001	19.997	100.847	20.143	3.446	0.432
98.500	125.909	80.001	19.996	100.846	20.142	3.543	0.395
99.000	126.073	80.001	19.996	100.847	20.141	3.554	0.380
99.500	126.272	80.001	19.995	100.846	20.142	3.502	0.370
100.000	126.483	80.001	19.995	100.846	20.141	3.566	0.386
100.500	126.750	80.000	19.996	100.847	20.144	3.396	0.444
101.000	126.910	80.002	19.995	100.847	20.142	3.531	0.453
101.500	127.112	80.001	19.996	100.847	20.140	3.648	0.395
102.000	127.296	80.000	19.995	100.850	20.139	3.688	0.374
102.500	127.507	80.001	19.996	100.852	20.142	3.510	0.390
103.000	127.722	80.001	19.995	100.852	20.143	3.463	0.410
103.500	127.946	80.001	19.996	100.853	20.139	3.743	0.432
104.000	128.148	80.000	19.996	100.853	20.141	3.559	0.433
104.500	128.377	80.001	19.997	100.851	20.141	3.570	0.429
105.000	128.579	80.001	19.996	100.848	20.141	3.585	0.431
105.500	128.789	80.001	19.995	100.847	20.144	3.396	0.421
106.000	128.981	80.001	19.996	100.847	20.143	3.454	0.407
106.500	129.202	80.001	19.996	100.846	20.141	3.600	0.408
107.000	129.401	80.001	19.996	100.846	20.140	3.642	0.416
107.500	129.593	80.001	19.997	100.846	20.140	3.661	0.405
108.000	129.829	80.001	19.997	100.847	20.140	3.654	0.409
108.500	130.024	80.001	19.997	100.848	20.139	3.713	0.429
109.000	130.218	80.001	19.996	100.847	20.141	3.571	0.410
109.500	130.430	80.000	19.996	100.848	20.139	3.716	0.398
110.000	130.649	80.000	19.997	100.849	20.137	3.874	0.419
110.500	130.870	80.001	19.996	100.849	20.140	3.623	0.435
111.000	131.090	80.000	19.998	100.848	20.142	3.518	0.440
111.500	131.337	79.999	19.996	100.854	20.139	3.690	0.454
112.000	131.503	79.999	19.997	100.854	20.144	3.384	0.440
112.500	131.730	79.999	19.998	100.852	20.143	3.463	0.403
113.000	131.945	80.000	19.996	100.853	20.143	3.454	0.417
113.500	132.165	79.999	19.997	100.852	20.139	3.707	0.438
114.000	132.387	79.999	19.997	100.847	20.140	3.647	0.439
114.500	132.616	80.000	19.997	100.847	20.140	3.628	0.447
115.000	132.814	79.999	19.996	100.847	20.140	3.667	0.439
115.500	133.014	80.001	19.997	100.847	20.140	3.651	0.412
116.000	133.244	79.999	19.996	100.847	20.141	3.614	0.414
116.500	133.518	80.000	19.997	100.846	20.138	3.771	0.467
117.001	133.721	79.999	19.996	100.845	20.140	3.647	0.491
117.501	133.935	80.000	19.996	100.844	20.145	3.338	0.447
118.001	134.184	80.000	19.996	100.842	20.142	3.546	0.440
118.501	134.368	80.000	19.996	100.841	20.147	3.208	0.448
119.000	134.610	79.999	19.997	100.840	20.142	3.511	0.430
119.500	134.795	80.000	19.997	100.840	20.145	3.318	0.427
120.000	135.055	80.000	19.998	100.841	20.142	3.500	0.436
120.500	135.264	80.000	19.996	100.844	20.143	3.472	0.457
121.000	135.491	79.999	19.996	100.845	20.142	3.515	0.452
121.500	135.711	80.000	19.997	100.846	20.142	3.548	0.441
122.000	135.943	80.001	19.997	100.846	20.141	3.607	0.450
122.500	136.156	80.001	19.997	100.841	20.143	3.442	0.449
123.000	136.344	80.002	19.996	100.840	20.143	3.463	0.423
123.500	136.586	80.001	19.997	100.840	20.144	3.393	0.416
124.000	136.792	80.002	19.997	100.840	20.143	3.430	0.439
124.500	137.064	80.001	19.996	100.840	20.140	3.660	0.462
125.000	137.260	80.001	19.996	100.844	20.142	3.522	0.473
125.501	137.546	80.003	19.996	100.844	20.143	3.483	0.476
126.001	137.749	80.003	19.996	100.844	20.143	3.430	0.485
126.500	138.009	80.002	19.997	100.844	20.143	3.444	0.476
127.000	138.242	80.002	19.997	100.844	20.145	3.311	0.478
127.500	138.453	80.003	19.996	100.845	20.143	3.481	0.469
128.000	138.697	80.002	19.996	100.844	20.142	3.527	0.449
128.500	138.906	80.002	19.995	100.845	20.145	3.357	0.454
129.000	139.144	80.001	19.995	100.845	20.145	3.348	0.450
129.500	139.374	80.003	19.995	100.845	20.143	3.439	0.457
130.000	139.563	80.002	19.995	100.845	20.143	3.462	0.443
130.500	139.861	80.003	19.995	100.845	20.143	3.465	0.453
131.000	140.060	80.002	19.996	100.845	20.142	3.539	0.492
131.500	140.294	80.003	19.997	100.845	20.141	3.589	0.465
132.000	140.513	80.003	19.995	100.845	20.139	3.683	0.443
132.500	140.790	80.001	19.996	100.846	20.143	3.437	0.475
133.000	141.011	80.001	19.995	100.847	20.143	3.424	0.497
133.500	141.232	80.003	19.996	100.847	20.141	3.577	0.470
134.000	141.487	80.000	19.996	100.847	20.141	3.600	0.459
134.500	141.731	80.000	19.995	100.846	20.142	3.522	0.488
135.000	141.911	80.001	19.996	100.846	20.143	3.442	0.462
135.500	142.139	80.001	19.996	100.845	20.143	3.431	0.416
136.000	142.406	80.000	19.996	100.845	20.144	3.393	0.452
136.500	142.620	80.000	19.996	100.845	20.146	3.255	0.488
137.000	142.838	80.000	19.997	100.846	20.145	3.325	0.456
137.500	143.110	80.002	19.995	100.846	20.145	3.357	0.461
138.000	143.349	80.000	19.996	100.848	20.145	3.306	0.500
138.500	143.579	80.001	19.995	100.848	20.145	3.338	0.490
139.000	143.824	79.999	19.996	100.848	20.146	3.272	0.472
139.500	144.066	80.001	19.997	100.849	20.140	3.621	0.481
140.000	144.311	80.000	19.996	100.850	20.146	3.233	0.487
140.500	144.556	80.001	19.996	100.850	20.143	3.458	0.489
141.000	144.798	80.001	19.997	100.849	20.142	3.495	0.489
141.500	145.068	80.001	19.996	100.847	20.144	3.410	0.499
142.000	145.252	80.001	19.996	100.847	20.141	3.570	0.483
142.500	145.480	80.000	19.996	100.844	20.145	3.324	0.433
143.000	145.711	80.000	19.995	100.844	20.140	3.628	0.436
143.500	145.944	80.001	19.995	100.844	20.144	3.368	0.462
144.000	146.234	80.001	19.997	100.846	20.142	3.495	0.493
144.500	146.464	80.001	19.996	100.845	20.145	3.309	0.521
145.000	146.675	80.000	19.996	100.845	20.143	3.454	0.481
145.500	146.921	80.000	19.997	100.846	20.143	3.470	0.449
146.000	147.161	80.001	19.996	100.846	20.143	3.440	0.471
146.500	147.377	80.000	19.996	100.846	20.145	3.320	0.471
147.000	147.649	80.001	19.996	100.847	20.145	3.311	0.472
147.500	147.874	80.001	19.997	100.847	20.147	3.216	0.493
148.000	148.138	80.001	19.997	100.847	20.144	3.389	0.493
148.500	148.356	80.001	19.996	100.847	20.145	3.341	0.485
149.000	148.632	80.000	19.997	100.846	20.143	3.440	0.488
149.500	148.848	80.001	19.997	100.846	20.145	3.329	0.493
150.000	149.075	80.000	19.996	100.846	20.144	3.375	0.468
150.500	149.356	80.002	19.996	100.846	20.143	3.437	0.476
151.000	149.577	80.002	19.997	100.846	20.147	3.175	0.504
151.500	149.872	80.001	19.996	100.846	20.144	3.400	0.508
152.000	150.100	80.001	19.996	100.846	20.145	3.332	0.520
152.500	150.331	80.001	19.997	100.847	20.144	3.394	0.492
153.000	150.579	80.001	19.996	100.846	20.145	3.309	0.469
153.500	150.794	80.003	19.996	100.847	20.144	3.371	0.471
154.000	151.059	80.003	19.996	100.846	20.141	3.564	0.471
154.500	151.309	80.002	19.996	100.847	20.147	3.228	0.498
155.000	151.529	80.002	19.996	100.846	20.143	3.431	0.493
155.500	151.775	80.003	19.996	100.846	20.143	3.456	0.468
156.000	152.069	80.003	19.996	100.846	20.144	3.406	0.503
156.500	152.299	80.003	19.996	100.846	20.146	3.236	0.532
157.000	152.514	80.004	19.996	100.846	20.145	3.321	0.484
157.500	152.752	80.002	19.996	100.847	20.144	3.376	0.449
158.000	153.036	80.003	19.995	100.847	20.144	3.376	0.488
158.500	153.258	80.003	19.996	100.847	20.144	3.376	0.514
159.000	153.490	80.003	19.995	100.847	20.142	3.509	0.480
159.500	153.733	80.002	19.995	100.846	20.140	3.644	0.464
160.000	154.007	80.002	19.996	100.846	20.142	3.534	0.496
160.500	154.223	80.001	19.995	100.846	20.147	3.212	0.503
161.000	154.478	80.003	19.995	100.846	20.144	3.408	0.481
161.500	154.752	80.002	19.996	100.846	20.142	3.504	0.500
162.000	154.962	80.002	19.996	100.845	20.140	3.617	0.506
162.500	155.207	80.000	19.996	100.845	20.144	3.369	0.470
163.000	155.435	80.002	19.997	100.844	20.144	3.378	0.464
163.500	155.683	80.001	19.996	100.843	20.144	3.375	0.475
164.000	155.935	80.001	19.996	100.842	20.143	3.468	0.488
164.500	156.184	80.002	19.995	100.841	20.143	3.465	0.500
165.000	156.455	80.001	19.996	100.841	20.144	3.403	0.510
165.500	156.657	80.000	19.996	100.841	20.141	3.583	0.497
166.001	156.897	80.001	19.995	100.842	20.142	3.516	0.458
166.500	157.174	80.000	19.994	100.840	20.142	3.544	0.480
167.000	157.430	80.003	19.995	100.838	20.143	3.440	0.525
167.500	157.686	80.000	19.995	100.835	20.142	3.530	0.523
168.000	157.929	80.001	19.996	100.835	20.141	3.557	0.506
168.500	158.182	79.999	19.997	100.835	20.144	3.371	0.498
169.000	158.389	80.001	19.995	100.836	20.145	3.353	0.478
169.500	158.629	80.000	19.995	100.837	20.146	3.279	0.453
170.000	158.900	80.001	19.995	100.839	20.139	3.728	0.479
170.500	159.145	79.999	19.995	100.839	20.144	3.369	0.514
171.000	159.397	80.001	19.996	100.839	20.141	3.586	0.506
171.500	159.652	80.001	19.996	100.838	20.140	3.652	0.502
172.000	159.853	80.001	19.996	100.837	20.140	3.631	0.481
172.501	160.109	80.000	19.996	100.835	20.140	3.626	0.456
173.001	160.337	80.001	19.995	100.836	20.142	3.527	0.471
173.500	160.617	80.001	19.996	100.834	20.146	3.289	0.497
174.000	160.821	79.999	19.996	100.835	20.143	3.445	0.496
174.500	161.113	80.000	19.997	100.836	20.144	3.381	0.489
175.000	161.357	80.000	19.995	100.837	20.142	3.493	0.516
175.500	161.587	80.000	19.995	100.835	20.143	3.454	0.505
176.000	161.844	79.999	19.997	100.834	20.145	3.358	0.481
176.500	162.124	80.001	19.996	100.836	20.140	3.641	0.512
177.000	162.342	80.000	19.996	100.837	20.142	3.528	0.517
177.500	162.607	80.000	19.995	100.833	20.139	3.706	0.490
178.000	162.872	80.000	19.996	100.836	20.142	3.533	0.506
178.500	163.090	80.001	19.996	100.837	20.144	3.406	0.507
179.000	163.324	80.000	19.997	100.837	20.146	3.273	0.468
179.500	163.591	80.001	19.996	100.834	20.146	3.282	0.477
180.000	163.827	79.999	19.997	100.832	20.144	3.365	0.502
180.500	164.083	80.000	19.995	100.828	20.142	3.538	0.497
181.001	164.316	80.000	19.996	100.823	20.143	3.434	0.490
181.500	164.583	80.001	19.995	100.820	20.143	3.423	0.494
182.000	164.846	80.000	19.996	100.823	20.145	3.296	0.515
182.500	165.097	80.001	19.996	100.823	20.143	3.452	0.522
183.000	165.360	80.001	19.996	100.823	20.141	3.613	0.514
183.500	165.585	80.000	19.996	100.829	20.143	3.459	0.501
184.000	165.833	80.000	19.995	100.831	20.145	3.301	0.480
184.500	166.048	80.001	19.996	100.825	20.143	3.452	0.467
185.000	166.322	80.001	19.996	100.822	20.145	3.312	0.476
185.501	166.612	80.001	19.996	100.823	20.144	3.413	0.527
186.000	166.815	80.001	19.995	100.823	20.142	3.514	0.529
186.500	167.066	80.000	19.995	100.823	20.144	3.411	0.474
187.000	167.348	80.000	19.996	100.824	20.144	3.407	0.494
187.500	167.581	80.001	19.996	100.824	20.144	3.400	0.524
188.000	167.834	80.002	19.996	100.821	20.141	3.615	0.500
188.500	168.082	80.001	19.996	100.817	20.141	3.574	0.494
189.000	168.327	80.001	19.996	100.814	20.142	3.540	0.497
189.500	168.559	80.001	19.996	100.815	20.140	3.634	0.485
190.000	168.818	80.002	19.995	100.819	20.145	3.321	0.484
190.500	169.056	80.001	19.996	100.821	20.146	3.261	0.494
191.000	169.284	80.001	19.995	100.819	20.148	3.146	0.481
191.500	169.542	80.000	19.996	100.817	20.145	3.314	0.476
192.000	169.775	80.001	19.996	100.818	20.144	3.370	0.488
192.500	170.055	80.001	19.997	100.819	20.142	3.515	0.502
193.000	170.300	80.001	19.996	100.821	20.147	3.195	0.520
193.500	170.568	80.001	19.996	100.822	20.143	3.469	0.519
194.000	170.765	80.000	19.996	100.821	20.145	3.303	0.488
194.500	171.051	80.000	19.996	100.820	20.146	3.234	0.474
195.000	171.296	80.000	19.996	100.819	20.144	3.370	0.507
195.500	171.540	79.999	19.995	100.815	20.144	3.381	0.510
196.000	171.797	80.001	19.997	100.816	20.141	3.604	0.495
196.500	172.020	80.000	19.995	100.818	20.143	3.427	0.490
197.000	172.281	80.001	19.995	100.817	20.142	3.489	0.481
197.500	172.501	80.000	19.996	100.815	20.143	3.438	0.483
198.000	172.759	79.999	19.996	100.816	20.146	3.291	0.480
198.500	173.059	80.000	19.996	100.817	20.146	3.271	0.518
199.000	173.272	79.999	19.996	100.818	20.146	3.250	0.536
199.500	173.469	79.999	19.995	100.821	20.145	3.300	0.462
200.000	173.765	80.000	19.996	100.823	20.144	3.372	0.451
200.500	173.997	79.999	19.998	100.823	20.147	3.225	0.510
201.000	174.259	79.999	19.996	100.822	20.143	3.434	0.511
201.500	174.508	80.001	19.995	100.820	20.148	3.162	0.503
202.000	174.771	80.001	19.995	100.818	20.147	3.204	0.512
202.500	174.985	80.001	19.996	100.815	20.144	3.397	0.494
203.000	175.224	80.000	19.998	100.815	20.147	3.186	0.465
203.500	175.478	80.001	19.996	100.815	20.146	3.264	0.473
204.000	175.720	80.001	19.995	100.814	20.146	3.292	0.494
204.500	175.995	80.000	19.995	100.814	20.146	3.294	0.506
205.000	176.236	80.001	19.995	100.815	20.143	3.476	0.516
205.500	176.516	80.001	19.996	100.816	20.145	3.299	0.519
206.000	176.780	80.002	19.996	100.817	20.146	3.237	0.533
206.500	176.980	80.000	19.995	100.819	20.145	3.303	0.504
207.000	177.237	80.001	19.997	100.821	20.146	3.273	0.460
207.500	177.467	80.002	19.994	100.820	20.145	3.329	0.472
208.000	177.764	80.000	19.995	100.821	20.145	3.299	0.507
208.500	177.960	80.001	19.996	100.824	20.143	3.480	0.510
209.000	178.199	80.002	19.996	100.826	20.147	3.227	0.464
209.500	178.448	80.002	19.996	100.822	20.147	3.195	0.461
210.000	178.695	80.002	19.997	100.822	20.149	3.059	0.492
210.500	178.962	80.002	19.996	100.820	20.149	3.098	0.506
211.000	179.200	80.001	19.996	100.819	20.147	3.192	0.510
211.500	179.420	80.001	19.998	100.819	20.147	3.183	0.481
212.000	179.702	80.001	19.995	100.820	20.148	3.158	0.480
212.500	179.937	80.002	19.997	100.820	20.146	3.248	0.509
213.000	180.221	80.002	19.996	100.819	20.146	3.271	0.518
213.500	180.464	80.001	19.995	100.814	20.144	3.368	0.523
214.000	180.710	80.002	19.996	100.811	20.147	3.206	0.508
214.500	180.954	80.001	19.996	100.811	20.147	3.181	0.489
215.000	181.217	80.002	19.997	100.811	20.144	3.391	0.499
215.500	181.459	80.003	19.997	100.811	20.146	3.234	0.507
216.000	181.725	80.001	19.995	100.811	20.143	3.474	0.507
216.500	181.958	80.001	19.996	100.811	20.145	3.310	0.503
217.000	182.204	80.002	19.997	100.809	20.142	3.533	0.489
217.500	182.454	80.000	19.995	100.809	20.144	3.381	0.488
218.000	182.691	80.002	19.996	100.810	20.142	3.542	0.491
218.500	182.991	80.002	19.996	100.811	20.141	3.586	0.512
219.000	183.195	80.001	19.995	100.811	20.140	3.676	0.521
219.500	183.464	80.001	19.997	100.810	20.145	3.352	0.488
220.000	183.677	80.002	19.996	100.810	20.144	3.389	0.477
220.500	183.968	80.002	19.995	100.811	20.141	3.572	0.493
221.000	184.162	80.001	19.997	100.812	20.143	3.473	0.495
221.500	184.466	79.999	19.996	100.813	20.140	3.642	0.491
222.000	184.729	80.000	19.997	100.814	20.142	3.545	0.533
222.500	184.959	80.000	19.996	100.814	20.141	3.557	0.530
223.000	185.206	79.998	19.996	100.813	20.141	3.563	0.485
223.500	185.478	80.000	19.995	100.812	20.140	3.657	0.498
224.000	185.710	80.000	19.996	100.811	20.142	3.526	0.511
224.500	185.985	80.002	19.995	100.810	20.139	3.724	0.505
225.000	186.265	80.001	19.996	100.810	20.140	3.649	0.531
225.500	186.530	80.000	19.995	100.809	20.141	3.575	0.550
226.000	186.745	80.001	19.997	100.809	20.140	3.656	0.512
226.500	187.003	80.000	19.995	100.809	20.140	3.678	0.476
227.000	187.237	80.002	19.996	100.809	20.140	3.641	0.482
227.500	187.496	80.001	19.996	100.809	20.141	3.582	0.492
228.000	187.728	80.000	19.995	100.809	20.142	3.545	0.493
228.500	188.016	80.002	19.996	100.809	20.138	3.798	0.506
229.000	188.242	80.001	19.996	100.808	20.140	3.660	0.517
229.500	188.487	80.002	19.995	100.807	20.139	3.738	0.493
230.000	188.734	80.002	19.996	100.807	20.136	3.908	0.481
230.500	188.963	80.001	19.996	100.806	20.137	3.844	0.484
231.000	189.218	80.002	19.997	100.806	20.137	3.825	0.480
231.500	189.451	80.002	19.995	100.806	20.136	3.936	0.486
232.000	189.698	80.002	19.997	100.806	20.136	3.886	0.484
232.500	189.965	80.002	19.996	100.805	20.138	3.780	0.497
233.000	190.246	80.002	19.996	100.805	20.137	3.835	0.531
233.500	190.446	80.002	19.996	100.805	20.138	3.800	0.514
234.000	190.703	80.003	19.996	100.805	20.137	3.837	0.469
234.500	190.913	80.002	19.997	100.805	20.136	3.883	0.462
235.000	191.219	80.001	19.997	100.804	20.137	3.816	0.491
235.500	191.434	80.003	19.997	100.804	20.138	3.750	0.519
236.000	191.652	80.003	19.995	100.804	20.140	3.623	0.477
236.500	191.931	80.003	19.997	100.804	20.138	3.775	0.465
237.000	192.160	80.002	19.998	100.804	20.138	3.745	0.502
237.500	192.430	80.002	19.995	100.804	20.135	3.996	0.504
238.000	192.678	80.003	19.997	100.804	20.138	3.803	0.509
238.500	192.956	80.002	19.997	100.804	20.139	3.711	0.522
239.000	193.153	80.002	19.997	100.804	20.142	3.527	0.500
239.500	193.436	80.003	19.997	100.804	20.139	3.697	0.477
240.000	193.692	80.002	19.997	100.804	20.139	3.706	0.509
240.500	193.946	80.002	19.996	100.804	20.141	3.600	0.525
241.000	194.172	80.002	19.996	100.804	20.137	3.821	0.495
241.500	194.405	80.002	19.997	100.804	20.138	3.796	0.469
242.000	194.649	80.002	19.996	100.804	20.137	3.854	0.468
242.500	194.902	80.002	19.996	100.804	20.138	3.798	0.487
243.000	195.182	80.001	19.997	100.803	20.138	3.803	0.515
243.500	195.418	80.000	19.997	100.803	20.139	3.720	0.524
244.000	195.690	80.000	19.996	100.801	20.137	3.851	0.512
244.500	195.881	80.001	19.997	100.801	20.139	3.734	0.486
245.000	196.124	80.000	19.998	100.800	20.137	3.846	0.449
245.500	196.376	80.000	19.996	100.801	20.138	3.773	0.464
246.000	196.649	80.000	19.998	100.801	20.139	3.715	0.510
246.500	196.868	79.998	19.997	100.801	20.141	3.598	0.509
247.000	197.119	79.999	19.997	100.800	20.138	3.773	0.481
247.500	197.372	80.000	19.996	100.801	20.138	3.791	0.487
248.000	197.663	80.000	19.997	100.799	20.136	3.918	0.524
248.500	197.897	80.000	19.996	100.799	20.138	3.769	0.534
249.000	198.124	80.000	19.996	100.800	20.135	3.948	0.493
249.500	198.435	80.000	19.997	100.800	20.137	3.845	0.500
250.000	198.673	79.998	19.996	100.800	20.139	3.709	0.543
250.500	198.881	80.000	19.996	100.803	20.136	3.909	0.497
251.000	199.136	80.000	19.997	100.801	20.133	4.087	0.455
251.500	199.414	80.001	19.997	100.801	20.136	3.882	0.498
252.000	199.643	80.001	19.996	100.802	20.137	3.847	0.520
252.500	199.909	80.001	19.997	100.802	20.133	4.077	0.501
253.000	200.125	80.000	19.995	100.800	20.133	4.111	0.488
253.500	200.387	80.000	19.995	100.802	20.136	3.907	0.480
254.000	200.634	80.002	19.997	100.803	20.138	3.760	0.494
254.500	200.887	80.001	19.996	100.803	20.138	3.746	0.505
255.000	201.128	80.000	19.995	100.803	20.135	3.981	0.497
255.500	201.376	80.001	19.995	100.801	20.136	3.893	0.491
256.000	201.600	80.000	19.996	100.798	20.136	3.925	0.480
256.500	201.875	80.000	19.996	100.795	20.135	3.990	0.486
257.000	202.112	80.001	19.997	100.795	20.136	3.914	0.506
257.500	202.364	80.002	19.995	100.794	20.137	3.871	0.500
258.000	202.642	79.999	19.994	100.795	20.135	3.971	0.509
258.500	202.869	80.000	19.995	100.793	20.136	3.928	0.517
259.000	203.113	80.000	19.996	100.792	20.133	4.082	0.488
259.500	203.366	80.000	19.994	100.790	20.133	4.088	0.484
260.000	203.629	80.002	19.996	100.786	20.137	3.840	0.507
260.500	203.886	80.000	19.996	100.789	20.137	3.838	0.518
261.000	204.112	80.002	19.996	100.790	20.136	3.886	0.501
261.500	204.337	80.001	19.995	100.787	20.138	3.792	0.467
262.000	204.587	80.001	19.995	100.785	20.134	4.001	0.463
262.500	204.879	80.000	19.997	100.788	20.136	3.893	0.508
263.000	205.120	80.001	19.996	100.786	20.135	3.987	0.537
263.500	205.352	80.001	19.996	100.791	20.137	3.861	0.503
264.000	205.605	80.000	19.996	100.795	20.135	3.946	0.479
264.500	205.824	80.001	19.995	100.794	20.135	3.981	0.478
265.000	206.070	80.001	19.995	100.792	20.134	4.006	0.469
265.500	206.312	80.000	19.996	100.789	20.134	4.029	0.477
266.000	206.580	80.000	19.996	100.786	20.137	3.849	0.499
266.500	206.814	80.000	19.995	100.784	20.136	3.923	0.506
267.000	207.074	80.001	19.995	100.787	20.136	3.877	0.498
267.500	207.320	80.000	19.997	100.785	20.135	3.990	0.500
268.000	207.608	80.000	19.995	100.784	20.135	3.967	0.520
268.500	207.831	80.001	19.995	100.781	20.132	4.151	0.522
269.000	208.082	80.001	19.995	100.784	20.133	4.114	0.492
269.500	208.323	80.002	19.996	100.788	20.134	4.059	0.483
270.000	208.590	80.000	19.996	100.789	20.133	4.100	0.500
270.500	208.777	79.999	19.997	100.790	20.133	4.077	0.481
271.000	209.084	80.000	19.996	100.789	20.134	4.019	0.474
271.500	209.304	80.002	19.997	100.783	20.135	3.968	0.510
272.000	209.564	80.000	19.998	100.781	20.131	4.206	0.503
272.500	209.802	80.000	19.995	100.784	20.130	4.275	0.489
273.000	210.081	80.000	19.996	100.788	20.134	4.015	0.508
273.500	210.295	80.000	19.997	100.792	20.131	4.197	0.505
274.000	210.541	80.000	19.996	100.793	20.132	4.169	0.476
274.500	210.798	80.000	19.995	100.793	20.131	4.253	0.481
275.000	211.065	80.001	19.995	100.793	20.130	4.280	0.513
275.500	211.299	80.000	19.995	100.791	20.132	4.185	0.513
276.000	211.539	80.000	19.994	100.789	20.131	4.239	0.488
276.500	211.785	80.000	19.996	100.789	20.129	4.374	0.480
277.000	212.048	80.000	19.996	100.785	20.131	4.213	0.497
277.500	212.259	79.998	19.996	100.780	20.129	4.356	0.491
278.000	212.536	79.999	19.996	100.779	20.129	4.351	0.481
278.500	212.771	79.999	19.996	100.780	20.130	4.287	0.500
279.000	213.004	79.998	19.997	100.779	20.128	4.436	0.490
279.500	213.279	79.998	19.996	100.779	20.125	4.625	0.489
280.000	213.532	79.998	19.996	100.779	20.127	4.480	0.518
280.500	213.819	79.999	19.996	100.780	20.129	4.347	0.534
281.000	214.026	79.998	19.995	100.782	20.127	4.500	0.516
281.500	214.291	79.998	19.995	100.784	20.131	4.215	0.483
282.000	214.491	80.000	19.995	100.792	20.128	4.430	0.469
282.500	214.735	79.999	19.995	100.796	20.128	4.416	0.455
283.000	215.006	79.999	19.996	100.793	20.127	4.497	0.480
283.500	215.225	80.000	19.995	100.789	20.125	4.600	0.502
284.000	215.489	79.999	19.995	100.788	20.125	4.643	0.486
284.500	215.727	80.000	19.996	100.785	20.128	4.446	0.492
285.000	215.950	79.999	19.995	100.781	20.128	4.402	0.482
285.500	216.207	80.000	19.995	100.781	20.124	4.668	0.470
286.000	216.451	80.001	19.996	100.782	20.127	4.498	0.490
286.500	216.734	80.001	19.996	100.786	20.126	4.535	0.514
287.000	216.935	80.001	19.995	100.784	20.126	4.523	0.506
287.500	217.204	80.002	19.995	100.784	20.125	4.606	0.477
288.000	217.435	80.001	19.995	100.789	20.127	4.494	0.485
288.500	217.653	80.001	19.994	100.792	20.127	4.462	0.474
289.000	217.959	80.001	19.995	100.792	20.125	4.613	0.486
289.500	218.158	80.003	19.995	100.790	20.125	4.581	0.515
290.000	218.403	80.001	19.994	100.790	20.125	4.630	0.475
290.500	218.653	80.002	19.994	100.787	20.124	4.651	0.469
291.000	218.919	80.002	19.995	100.787	20.123	4.720	0.505
291.500	219.176	80.004	19.996	100.785	20.126	4.563	0.520
292.000	219.415	80.003	19.995	100.788	20.124	4.661	0.510
292.500	219.656	80.002	19.996	100.786	20.125	4.642	0.488
293.000	219.864	80.001	19.996	100.785	20.122	4.778	0.464
293.500	220.123	80.002	19.994	100.778	20.124	4.676	0.458
294.000	220.356	80.002	19.996	100.780	20.120	4.918	0.480
294.500	220.605	80.003	19.996	100.778	20.124	4.698	0.487
295.000	220.861	80.001	19.995	100.782	20.122	4.791	0.493
295.500	221.104	80.003	19.996	100.782	20.122	4.819	0.502
296.000	221.368	80.002	19.997	100.789	20.119	5.001	0.503
296.500	221.615	80.002	19.995	100.790	20.120	4.927	0.509
297.000	221.862	80.001	19.995	100.792	20.117	5.116	0.503
297.500	222.105	80.002	19.995	100.787	20.123	4.708	0.492
298.000	222.342	80.002	19.996	100.788	20.120	4.943	0.485
298.500	222.617	80.003	19.996	100.787	20.123	4.766	0.496
299.000	222.868	80.002	19.997	100.786	20.120	4.939	0.519
299.500	223.115	80.002	19.996	100.786	20.115	5.229	0.512
300.000	223.359	80.002	19.996	100.790	20.121	4.899	0.495
300.500	223.633	80.002	19.996	100.791	20.118	5.067	0.504
301.000	223.843	80.002	19.997	100.787	20.115	5.256	0.500
301.500	224.071	80.002	19.996	100.782	20.114	5.343	0.461
302.000	224.326	80.003	19.997	100.778	20.118	5.042	0.461
302.500	224.587	80.001	19.997	100.774	20.118	5.088	0.500
303.000	224.834	80.000	19.996	100.770	20.118	5.051	0.512
303.500	225.137	80.001	19.996	100.771	20.116	5.197	0.529
304.000	225.334	80.000	19.995	100.773	20.114	5.289	0.525
304.500	225.587	80.000	19.996	100.780	20.114	5.289	0.475
305.000	225.842	80.000	19.997	100.782	20.113	5.373	0.478
305.500	226.111	80.001	19.997	100.785	20.114	5.346	0.516
306.000	226.371	80.000	19.996	100.783	20.112	5.421	0.527
306.500	226.595	79.999	19.996	100.781	20.114	5.341	0.506
307.000	226.863	80.001	19.997	100.777	20.114	5.330	0.488
307.500	227.056	80.001	19.995	100.777	20.115	5.263	0.476
308.000	227.304	80.001	19.996	100.775	20.114	5.330	0.451
308.500	227.582	80.001	19.996	100.775	20.115	5.248	0.484
309.000	227.807	80.001	19.995	100.774	20.114	5.298	0.515
309.500	228.062	80.001	19.996	100.770	20.114	5.294	0.492
310.000	228.303	80.002	19.996	100.769	20.116	5.217	0.488
310.500	228.567	80.002	19.996	100.769	20.112	5.434	0.500
311.000	228.805	80.003	19.998	100.773	20.114	5.297	0.504
311.500	229.121	80.003	19.994	100.778	20.112	5.430	0.528
312.000	229.307	80.003	19.996	100.780	20.112	5.451	0.528
312.500	229.577	80.004	19.995	100.781	20.110	5.585	0.479
313.000	229.797	80.003	19.996	100.782	20.111	5.530	0.473
313.500	230.054	80.002	19.995	100.779	20.112	5.477	0.483
314.000	230.302	80.003	19.995	100.774	20.113	5.366	0.491
314.500	230.563	80.004	19.995	100.772	20.111	5.505	0.507
315.000	230.806	80.004	19.996	100.771	20.112	5.465	0.507
315.500	231.072	80.005	19.996	100.772	20.110	5.603	0.507
316.000	231.321	80.002	19.995	100.774	20.111	5.507	0.512
316.500	231.556	80.005	19.995	100.776	20.108	5.691	0.499
317.000	231.792	80.003	19.996	100.780	20.109	5.670	0.477
317.500	232.070	80.004	19.995	100.780	20.106	5.844	0.493
318.000	232.297	80.003	19.995	100.777	20.110	5.579	0.510
318.500	232.546	80.005	19.995	100.773	20.109	5.634	0.491
319.000	232.772	80.003	19.995	100.771	20.108	5.710	0.475
319.500	233.015	80.005	19.996	100.767	20.107	5.788	0.472
320.000	233.282	80.001	19.995	100.766	20.105	5.923	0.489
320.500	233.542	80.002	19.996	100.767	20.103	5.997	0.518
321.000	233.805	80.004	19.995	100.770	20.101	6.126	0.525
321.500	234.039	80.004	19.995	100.774	20.104	5.962	0.510
322.000	234.302	80.003	19.996	100.780	20.103	6.003	0.497
322.500	234.541	80.003	19.995	100.782	20.101	6.178	0.500
323.000	234.830	80.003	19.996	100.782	20.102	6.102	0.516
323.500	235.053	80.002	19.995	100.779	20.104	5.994	0.520
324.000	235.284	80.002	19.995	100.775	20.103	6.037	0.483
324.500	235.524	80.002	19.995	100.773	20.104	5.945	0.462
325.000	235.778	80.003	19.996	100.774	20.099	6.258	0.482
325.500	236.057	80.001	19.996	100.778	20.100	6.190	0.514
326.000	236.254	80.001	19.997	100.781	20.100	6.240	0.505
326.500	236.524	80.000	19.995	100.781	20.102	6.101	0.472
327.000	236.758	80.000	19.996	100.777	20.099	6.262	0.485
327.500	237.065	80.000	19.996	100.775	20.101	6.158	0.522
328.000	237.295	80.000	19.996	100.771	20.098	6.356	0.539
328.500	237.527	80.000	19.997	100.768	20.101	6.154	0.500
329.000	237.758	80.001	19.997	100.769	20.099	6.262	0.463
329.500	238.078	79.999	19.994	100.774	20.099	6.306	0.507
330.000	238.295	80.000	19.997	100.776	20.097	6.442	0.544
330.500	238.521	80.000	19.997	100.778	20.097	6.411	0.490
331.000	238.796	79.999	19.997	100.779	20.095	6.526	0.471
331.500	239.004	79.999	19.995	100.780	20.095	6.523	0.492
332.000	239.288	80.000	19.995	100.779	20.095	6.546	0.488
332.500	239.530	80.001	19.997	100.781	20.092	6.705	0.510
333.000	239.736	79.999	19.996	100.785	20.094	6.575	0.487
333.500	239.999	79.999	19.997	100.787	20.091	6.812	0.458
334.000	240.233	79.998	19.996	100.787	20.096	6.474	0.483
334.500	240.498	79.999	19.997	100.790	20.091	6.768	0.498
335.000	240.716	79.999	19.996	100.793	20.096	6.490	0.491
335.500	241.008	80.000	19.997	100.788	20.092	6.714	0.496
336.000	241.241	79.999	19.997	100.788	20.090	6.857	0.517
336.500	241.478	80.000	19.996	100.787	20.093	6.640	0.498
337.000	241.732	80.000	19.996	100.781	20.089	6.904	0.481
337.500	241.970	80.001	19.997	100.777	20.092	6.716	0.492
338.000	242.265	79.999	19.996	100.776	20.088	6.976	0.512
338.500	242.490	80.000	19.997	100.775	20.091	6.820	0.526
339.000	242.725	80.001	19.996	100.774	20.088	6.959	0.490
339.500	242.993	79.999	19.996	100.775	20.089	6.933	0.482
340.000	243.259	80.000	19.997	100.772	20.090	6.830	0.519
340.500	243.478	80.000	19.998	100.772	20.090	6.883	0.510
341.000	243.725	79.999	19.996	100.774	20.087	7.078	0.475
341.500	243.982	79.999	19.995	100.782	20.086	7.109	0.485
342.000	244.219	80.002	19.997	100.785	20.085	7.202	0.499
342.500	244.502	80.002	19.996	100.786	20.086	7.138	0.507
343.000	244.752	80.000	19.996	100.786	20.085	7.181	0.526
343.500	244.976	80.000	19.996	100.782	20.082	7.367	0.503
344.000	245.224	80.001	19.996	100.775	20.082	7.399	0.473
344.500	245.461	80.000	19.996	100.771	20.082	7.356	0.479
345.000	245.710	79.999	19.996	100.773	20.085	7.202	0.485
345.500	245.985	80.001	19.994	100.774	20.079	7.579	0.505
346.000	246.204	79.999	19.994	100.778	20.082	7.377	0.509
346.500	246.494	80.000	19.996	100.782	20.080	7.498	0.502
347.000	246.710	79.999	19.995	100.789	20.081	7.466	0.508
347.500	246.968	80.001	19.995	100.794	20.081	7.426	0.490
348.000	247.210	80.001	19.995	100.793	20.081	7.433	0.487
348.500	247.505	80.000	19.994	100.791	20.078	7.603	0.519
349.000	247.736	80.001	19.995	100.786	20.077	7.682	0.532
349.500	247.959	80.000	19.995	100.785	20.077	7.678	0.490
350.000	248.202	79.999	19.996	100.779	20.076	7.726	0.460
350.500	248.465	80.000	19.995	100.780	20.074	7.910	0.486
351.000	248.730	80.000	19.995	100.781	20.074	7.893	0.517
351.500	248.991	79.999	19.996	100.783	20.076	7.750	0.527
352.000	249.246	80.000	19.996	100.778	20.076	7.779	0.521
352.500	249.520	80.001	19.995	100.778	20.072	8.033	0.523
353.000	249.714	80.000	19.995	100.780	20.073	7.945	0.499
353.500	250.017	80.001	19.996	100.782	20.070	8.152	0.482
354.000	250.279	80.000	19.996	100.785	20.070	8.167	0.531
354.500	250.531	80.000	19.996	100.789	20.073	7.973	0.539
355.000	250.754	80.001	19.996	100.794	20.066	8.399	0.494
355.500	251.018	80.003	19.994	100.794	20.067	8.372	0.481
356.000	251.262	79.998	19.996	100.790	20.066	8.384	0.498
356.500	251.521	80.000	19.996	100.784	20.066	8.416	0.506
357.000	251.769	80.000	19.996	100.781	20.069	8.180	0.505
357.500	251.997	80.000	19.996	100.775	20.064	8.516	0.491
358.000	252.237	80.000	19.996	100.772	20.062	8.637	0.472
358.500	252.542	80.000	19.996	100.772	20.063	8.576	0.507
359.000	252.779	80.000	19.996	100.772	20.064	8.547	0.544
359.500	252.997	80.000	19.996	100.785	20.062	8.685	0.499
360.000	253.251	80.000	19.995	100.771	20.061	8.744	0.463
360.500	253.520	80.000	19.996	100.743	20.058	8.905	0.498
361.000	253.754	79.999	19.996	100.728	20.060	8.766	0.513
361.500	254.001	80.001	19.996	100.722	20.062	8.681	0.491
362.000	254.276	79.999	19.996	100.707	20.058	8.917	0.501
362.500	254.547	79.999	19.997	100.737	20.057	8.998	0.534
363.000	254.769	79.999	19.995	100.796	20.055	9.119	0.520
363.501	255.004	80.001	19.997	100.823	20.058	8.930	0.475
364.000	255.306	80.000	19.995	100.836	20.057	8.980	0.497
364.500	255.540	80.001	19.996	100.837	20.054	9.181	0.536
365.000	255.793	80.000	19.996	100.821	20.054	9.199	0.511
365.500	256.013	79.998	19.996	100.789	20.053	9.236	0.480
366.000	256.268	80.001	19.996	100.777	20.054	9.162	0.474
366.500	256.519	80.000	19.996	100.771	20.052	9.300	0.490
367.000	256.790	80.001	19.997	100.769	20.051	9.364	0.514
367.500	257.009	80.000	19.996	100.768	20.050	9.436	0.506
368.000	257.247	80.000	19.996	100.768	20.050	9.422	0.473
368.500	257.547	80.001	19.997	100.768	20.051	9.346	0.498
369.000	257.786	80.001	19.996	100.772	20.049	9.520	0.539
369.500	258.003	80.002	19.997	100.778	20.049	9.470	0.498
370.000	258.281	80.002	19.996	100.778	20.047	9.635	0.475
370.500	258.507	80.000	19.995	100.778	20.046	9.714	0.500
371.000	258.797	80.002	19.994	100.782	20.040	10.093	0.510
371.500	259.043	80.001	19.994	100.778	20.045	9.772	0.525
372.000	259.310	80.002	19.995	100.774	20.045	9.747	0.524
372.500	259.566	80.003	19.995	100.774	20.043	9.891	0.518
373.000	259.798	80.002	19.996	100.774	20.040	10.096	0.506
373.500	260.056	80.003	19.995	100.770	20.042	9.918	0.489
374.000	260.318	80.005	19.996	100.769	20.039	10.130	0.505
374.500	260.526	80.003	19.995	100.767	20.037	10.240	0.495
375.000	260.786	80.001	19.995	100.767	20.037	10.259	0.469
375.500	260.998	80.001	19.996	100.767	20.035	10.383	0.470
376.000	261.313	80.004	19.995	100.767	20.037	10.300	0.499
376.500	261.534	80.002	19.996	100.768	20.036	10.305	0.532
377.000	261.753	80.002	19.996	100.768	20.033	10.514	0.488
377.500	262.068	80.002	19.994	100.770	20.032	10.601	0.487
378.000	262.296	80.001	19.994	100.770	20.032	10.618	0.539
378.500	262.557	80.002	19.996	100.771	20.029	10.791	0.516
379.000	262.784	80.002	19.994	100.770	20.028	10.816	0.488
379.500	263.042	80.002	19.995	100.770	20.033	10.537	0.486
380.000	263.297	80.005	19.995	100.773	20.029	10.803	0.499
380.500	263.543	80.004	19.995	100.775	20.025	11.068	0.507
381.000	263.780	80.004	19.994	100.775	20.026	10.994	0.492
381.500	264.065	80.003	19.995	100.776	20.024	11.109	0.503
382.000	264.286	80.001	19.994	100.776	20.023	11.173	0.514
382.500	264.548	80.004	19.995	100.770	20.021	11.327	0.494
383.000	264.801	80.001	19.995	100.770	20.025	11.026	0.499
383.500	265.068	80.003	19.996	100.772	20.020	11.374	0.518
384.000	265.352	80.003	19.996	100.773	20.020	11.376	0.535
384.500	265.551	80.004	19.996	100.775	20.018	11.480	0.517
385.000	265.784	80.003	19.996	100.776	20.017	11.580	0.457
385.500	266.027	80.002	19.997	100.776	20.019	11.424	0.454
386.000	266.264	80.002	19.997	100.775	20.015	11.665	0.478
386.500	266.540	80.004	19.996	100.776	20.013	11.813	0.497
387.000	266.808	80.002	19.995	100.776	20.013	11.792	0.529
387.500	267.061	80.002	19.995	100.776	20.014	11.723	0.532
388.000	267.274	80.002	19.994	100.778	20.012	11.877	0.493
388.500	267.531	80.004	19.994	100.778	20.013	11.835	0.468
389.000	267.792	80.003	19.996	100.776	20.010	12.021	0.494
389.500	268.045	80.001	19.995	100.774	20.011	11.947	0.516
390.000	268.282	80.001	19.997	100.777	20.006	12.248	0.502
390.500	268.511	80.002	19.997	100.779	20.007	12.223	0.478
391.000	268.777	80.001	19.996	100.781	20.004	12.377	0.480
391.500	268.987	80.002	19.996	100.786	20.003	12.440	0.486
392.000	269.268	80.002	19.996	100.787	20.006	12.293	0.484
392.500	269.514	80.002	19.997	100.783	20.004	12.393	0.509
393.000	269.802	80.001	19.995	100.777	20.001	12.558	0.530
393.500	270.049	80.002	19.995	100.773	20.001	12.573	0.534
394.000	270.269	80.002	19.994	100.770	19.999	12.727	0.501
394.500	270.546	80.001	19.996	100.771	19.997	12.871	0.482
395.000	270.845	80.003	19.996	100.771	19.998	12.798	0.536
395.500	271.073	80.003	19.996	100.771	19.996	12.927	0.551
396.000	271.317	80.002	19.996	100.772	19.994	13.031	0.500
396.500	271.566	80.001	19.994	100.774	19.990	13.308	0.482
397.000	271.821	80.005	19.995	100.774	19.989	13.341	0.498
397.500	272.072	80.003	19.996	100.774	19.988	13.441	0.505
398.000	272.340	80.003	19.996	100.776	19.985	13.637	0.513
398.500	272.579	80.003	19.994	100.775	19.986	13.525	0.513
399.000	272.797	80.004	19.996	100.773	19.986	13.553	0.482
399.500	273.070	80.001	19.995	100.776	19.984	13.661	0.474
400.001	273.335	80.004	19.997	100.779	19.983	13.732	0.515
400.500	273.608	80.003	19.996	100.780	19.982	13.812	0.539
401.000	273.806	80.003	19.996	100.785	19.981	13.886	0.505
401.500	274.075	80.003	19.994	100.785	19.979	14.012	0.469
402.000	274.318	80.002	19.996	100.782	19.980	13.958	0.489
402.500	274.566	80.002	19.996	100.778	19.980	13.964	0.501
403.000	274.848	80.003	19.997	100.777	19.976	14.183	0.511
403.500	275.091	80.005	19.995	100.773	19.973	14.362	0.527
404.000	275.326	80.000	19.995	100.773	19.975	14.245	0.501
404.500	275.578	80.001	19.995	100.780	19.974	14.330	0.482
405.000	275.840	80.004	19.997	100.786	19.973	14.415	0.501
405.501	276.066	80.002	19.994	100.788	19.972	14.476	0.501
406.000	276.333	80.002	19.995	100.788	19.968	14.704	0.490
406.500	276.572	80.001	19.996	100.787	19.964	14.944	0.499
407.000	276.830	80.000	19.997	100.782	19.965	14.915	0.502
407.500	277.071	80.001	19.996	100.776	19.964	14.942	0.498
408.000	277.307	80.000	19.995	100.773	19.963	15.024	0.488
408.500	277.569	79.998	19.995	100.778	19.962	15.067	0.487
409.000	277.822	80.002	19.998	100.779	19.959	15.277	0.506
409.500	278.032	80.001	19.995	100.783	19.957	15.401	0.489
410.000	278.307	80.001	19.996	100.785	19.958	15.364	0.474
410.500	278.585	79.998	19.994	100.786	19.955	15.576	0.519
411.000	278.821	80.001	19.996	100.784	19.954	15.626	0.534
411.500	279.066	80.000	19.996	100.788	19.950	15.850	0.498
412.000	279.289	80.000	19.996	100.787	19.950	15.849	0.474
412.500	279.534	79.999	19.994	100.792	19.951	15.828	0.468
413.000	279.819	80.000	19.996	100.799	19.948	15.966	0.499
413.500	280.060	80.002	19.997	100.799	19.947	16.058	0.528
414.000	280.304	79.999	19.997	100.800	19.944	16.257	0.506
414.500	280.540	80.000	19.995	100.800	19.945	16.165	0.483
415.000	280.803	79.999	19.995	100.796	19.942	16.378	0.490
415.500	281.071	79.999	19.997	100.790	19.940	16.480	0.515
416.000	281.324	80.000	19.996	100.789	19.937	16.721	0.525
416.500	281.564	80.001	19.996	100.783	19.935	16.822	0.507
417.000	281.825	80.001	19.996	100.779	19.935	16.816	0.497
417.500	282.063	80.000	19.996	100.776	19.935	16.840	0.500
418.000	282.286	80.001	19.997	100.776	19.936	16.773	0.480
418.500	282.558	80.000	19.997	100.777	19.929	17.214	0.478
419.000	282.814	80.001	19.996	100.782	19.934	16.911	0.512
419.500	283.045	80.001	19.997	100.786	19.930	17.169	0.508
420.000	283.297	80.000	19.997	100.791	19.925	17.484	0.485
420.500	283.565	79.999	19.996	100.795	19.931	17.119	0.502
421.000	283.790	80.001	19.997	100.796	19.924	17.542	0.506
421.500	284.044	80.001	19.996	100.796	19.922	17.648	0.486
422.000	284.303	80.002	19.997	100.795	19.925	17.503	0.496
422.501	284.535	80.002	19.995	100.792	19.922	17.657	0.502
423.001	284.772	80.001	19.996	100.795	19.921	17.750	0.480
423.500	285.032	80.001	19.997	100.798	19.918	17.905	0.482
424.000	285.280	80.001	19.997	100.799	19.919	17.884	0.502
424.500	285.544	80.000	19.997	100.800	19.915	18.110	0.510
425.000	285.765	80.002	19.996	100.804	19.910	18.439	0.499
425.500	286.022	80.002	19.997	100.802	19.913	18.274	0.482
426.000	286.261	80.001	19.997	100.799	19.913	18.274	0.487
426.500	286.507	80.002	19.997	100.795	19.909	18.483	0.490
427.000	286.747	80.002	19.997	100.795	19.907	18.624	0.486
427.500	287.021	80.001	19.997	100.795	19.906	18.695	0.500
428.000	287.270	80.002	19.999	100.795	19.903	18.897	0.518
428.501	287.492	80.000	19.997	100.798	19.902	18.957	0.497
429.000	287.749	80.000	19.997	100.801	19.900	19.109	0.475
429.500	288.055	80.002	19.997	100.803	19.894	19.468	0.521
430.000	288.243	80.002	19.996	100.801	19.893	19.543	0.528
430.500	288.495	80.002	19.996	100.801	19.891	19.646	0.467
431.000	288.720	80.003	19.998	100.799	19.889	19.783	0.458
431.500	288.993	80.000	19.996	100.796	19.889	19.813	0.487
432.000	289.232	80.003	19.998	100.795	19.889	19.776	0.505
432.500	289.482	80.002	19.996	100.795	19.886	19.956	0.501
433.000	289.719	80.002	19.998	100.797	19.885	20.074	0.488
433.500	289.997	80.003	19.997	100.798	19.882	20.237	0.501
434.000	290.231	80.003	19.998	100.801	19.880	20.395	0.514
434.500	290.531	79.999	19.997	100.801	19.883	20.207	0.523
435.000	290.735	80.000	19.995	100.801	19.879	20.444	0.519
435.500	290.978	80.001	19.996	100.800	19.874	20.784	0.476
436.000	291.261	80.002	19.997	100.797	19.877	20.584	0.486
436.500	291.502	80.002	19.997	100.797	19.872	20.893	0.525
437.000	291.817	80.001	19.998	100.798	19.869	21.056	0.540
437.500	292.038	80.001	19.997	100.800	19.872	20.877	0.546
438.000	292.267	79.999	19.996	100.803	19.867	21.197	0.493
438.500	292.496	80.003	19.996	100.806	19.865	21.316	0.455
439.000	292.765	80.002	19.997	100.806	19.866	21.287	0.478
439.500	293.004	80.001	19.996	100.805	19.867	21.228	0.502
440.000	293.283	80.000	19.995	100.805	19.861	21.597	0.513
440.500	293.502	80.001	19.995	100.803	19.858	21.792	0.508
441.000	293.746	80.002	19.995	100.803	19.858	21.789	0.481
441.500	294.020	80.001	19.996	100.801	19.856	21.930	0.491
442.000	294.250	79.999	19.996	100.800	19.852	22.146	0.511
442.500	294.524	80.001	19.996	100.797	19.851	22.245	0.504
443.000	294.768	79.999	19.995	100.797	19.850	22.279	0.511
443.500	295.025	80.000	19.996	100.798	19.847	22.463	0.509
444.000	295.231	80.000	19.995	100.801	19.843	22.719	0.482
444.500	295.496	79.999	19.995	100.803	19.844	22.656	0.467
445.000	295.761	80.000	19.996	100.805	19.841	22.875	0.501
445.500	296.002	80.002	19.996	100.804	19.840	22.971	0.518
446.000	296.252	79.998	19.996	100.803	19.837	23.113	0.498
446.500	296.516	79.999	19.995	100.803	19.836	23.185	0.502
447.000	296.729	80.000	19.996	100.803	19.836	23.190	0.495
447.500	296.988	80.001	19.995	100.804	19.832	23.447	0.475
448.000	297.251	80.002	19.996	100.802	19.830	23.557	0.497
448.500	297.514	80.001	19.996	100.795	19.829	23.678	0.524
449.000	297.751	80.000	19.995	100.794	19.825	23.908	0.513
449.500	297.972	80.000	19.995	100.793	19.826	23.874	0.479
450.000	298.257	80.002	19.995	100.792	19.824	23.942	0.483
450.500	298.520	80.001	19.995	100.796	19.822	24.113	0.527
451.000	298.759	80.002	19.995	100.803	19.818	24.377	0.525
451.500	299.003	80.001	19.995	100.804	19.819	24.297	0.492
452.000	299.252	80.001	19.995	100.804	19.815	24.529	0.488
452.500	299.501	80.003	19.995	100.804	19.814	24.619	0.495
453.000	299.756	80.001	19.996	100.804	19.814	24.603	0.501
453.500	300.000	80.000	19.995	100.805	19.809	24.928	0.501
454.000	300.247	80.003	19.996	100.805	19.804	25.279	0.495
454.500	300.484	80.002	19.996	100.806	19.804	25.284	0.488
455.000	300.743	80.003	19.996	100.806	19.804	25.238	0.490
455.500	301.002	80.002	19.995	100.807	19.801	25.475	0.507
456.000	301.250	80.003	19.996	100.807	19.800	25.520	0.513
456.500	301.484	80.001	19.996	100.807	19.798	25.667	0.494
457.000	301.752	80.001	19.995	100.807	19.796	25.778	0.492
457.500	301.971	80.002	19.995	100.808	19.796	25.771	0.495
458.000	302.236	80.002	19.995	100.808	19.793	25.957	0.486
458.501	302.489	80.001	19.996	100.808	19.791	26.115	0.501
459.000	302.720	80.002	19.995	100.810	19.791	26.108	0.500
459.500	302.969	80.003	19.995	100.811	19.790	26.143	0.482
460.000	303.244	80.002	19.996	100.811	19.786	26.406	0.502
460.500	303.493	80.001	19.995	100.812	19.784	26.569	0.524
461.000	303.736	80.004	19.995	100.812	19.782	26.700	0.508
461.500	303.968	80.001	19.995	100.812	19.780	26.808	0.484
462.000	304.204	80.001	19.995	100.812	19.777	27.000	0.472
462.500	304.452	80.003	19.995	100.812	19.776	27.060	0.476
463.000	304.719	80.003	19.995	100.813	19.776	27.084	0.499
463.500	304.968	80.002	19.995	100.812	19.774	27.216	0.516
464.000	305.224	80.001	19.996	100.811	19.774	27.163	0.510
464.500	305.471	80.002	19.995	100.809	19.771	27.356	0.503
465.000	305.732	80.003	19.996	100.814	19.769	27.541	0.505
465.500	305.942	80.002	19.997	100.818	19.767	27.649	0.490
466.000	306.229	80.000	19.996	100.818	19.764	27.814	0.484
466.500	306.480	80.002	19.995	100.818	19.763	27.921	0.518
467.000	306.718	80.001	19.997	100.819	19.762	27.954	0.513
467.500	306.970	80.002	19.995	100.815	19.757	28.279	0.489
468.000	307.245	80.001	19.995	100.812	19.755	28.399	0.508
468.500	307.460	80.003	19.996	100.813	19.754	28.485	0.508
469.000	307.758	80.002	19.996	100.815	19.754	28.461	0.502
469.500	307.962	79.999	19.994	100.814	19.751	28.676	0.508
470.000	308.247	80.003	19.996	100.814	19.746	28.996	0.496
470.501	308.465	80.002	19.995	100.813	19.746	28.983	0.496
471.001	308.741	80.002	19.996	100.812	19.744	29.125	0.498
471.500	308.976	80.003	19.994	100.813	19.745	29.086	0.502
472.000	309.237	80.002	19.997	100.815	19.737	29.586	0.503
472.500	309.479	80.003	19.995	100.815	19.732	29.892	0.500
473.000	309.726	80.001	19.995	100.816	19.736	29.651	0.496
473.500	310.017	80.002	19.995	100.816	19.733	29.859	0.514
474.000	310.200	80.000	19.995	100.813	19.734	29.787	0.506
474.500	310.489	80.002	19.996	100.812	19.727	30.223	0.473
475.000	310.769	80.003	19.995	100.816	19.726	30.277	0.521
475.500	310.973	80.002	19.995	100.817	19.722	30.536	0.526
476.000	311.259	80.004	19.995	100.817	19.725	30.365	0.487
476.500	311.503	80.003	19.995	100.817	19.721	30.610	0.510
477.000	311.761	80.004	19.996	100.818	19.719	30.713	0.516
477.500	312.036	80.003	19.995	100.813	19.718	30.789	0.517
478.000	312.272	80.003	19.995	100.813	19.716	30.940	0.522
478.500	312.508	80.002	19.996	100.815	19.713	31.145	0.492
479.000	312.761	80.003	19.994	100.815	19.710	31.340	0.480
479.500	313.040	80.003	19.994	100.814	19.711	31.256	0.510
480.000	313.294	80.004	19.996	100.814	19.707	31.475	0.533
480.500	313.546	80.004	19.995	100.814	19.706	31.568	0.520
481.000	313.826	80.005	19.996	100.811	19.704	31.701	0.519
481.500	314.058	80.002	19.996	100.811	19.701	31.862	0.522
482.000	314.281	80.002	19.995	100.813	19.697	32.162	0.484
482.500	314.541	80.003	19.996	100.817	19.694	32.342	0.469
483.000	314.808	80.002	19.996	100.816	19.693	32.387	0.505
483.500	315.015	80.001	19.997	100.821	19.692	32.493	0.501
484.000	315.307	80.002	19.995	100.827	19.692	32.496	0.486
484.500	315.536	80.003	19.995	100.830	19.688	32.745	0.509
485.000	315.756	80.004	19.994	100.831	19.686	32.882	0.485
485.500	316.047	80.003	19.996	100.834	19.684	32.969	0.480
486.000	316.289	80.003	19.995	100.831	19.679	33.329	0.522
486.500	316.492	80.003	19.996	100.827	19.679	33.326	0.489
487.000	316.770	80.002	19.995	100.829	19.674	33.645	0.463
487.500	317.012	80.002	19.996	100.825	19.671	33.832	0.501
488.000	317.260	80.001	19.996	100.822	19.669	33.961	0.505
488.500	317.528	80.001	19.996	100.827	19.668	34.033	0.503
489.000	317.783	80.003	19.996	100.830	19.667	34.100	0.520
489.500	318.050	80.001	19.995	100.829	19.665	34.208	0.523
490.000	318.286	80.001	19.997	100.834	19.662	34.392	0.512
490.500	318.568	80.001	19.997	100.839	19.656	34.768	0.510
491.000	318.811	80.004	19.996	100.836	19.658	34.641	0.521
491.500	319.020	80.000	19.997	100.835	19.653	34.973	0.488
492.000	319.307	80.001	19.998	100.836	19.654	34.918	0.474
492.500	319.534	80.001	19.997	100.834	19.648	35.280	0.505
493.000	319.797	79.999	19.996	100.833	19.650	35.181	0.502
493.500	320.059	80.001	19.997	100.835	19.645	35.502	0.508
494.000	320.316	80.002	19.996	100.838	19.641	35.750	0.522
494.500	320.528	80.001	19.998	100.837	19.641	35.754	0.494
495.000	320.767	80.000	19.996	100.836	19.640	35.846	0.460
495.500	321.031	80.000	19.996	100.835	19.632	36.332	0.477
496.000	321.310	79.998	19.996	100.836	19.634	36.233	0.523
496.500	321.552	80.001	19.996	100.837	19.629	36.514	0.532
497.000	321.781	80.001	19.996	100.839	19.631	36.374	0.496
497.500	322.028	80.002	19.998	100.841	19.629	36.532	0.473
498.000	322.311	80.001	19.997	100.844	19.625	36.814	0.503
498.500	322.545	80.000	19.995	100.846	19.623	36.910	0.524
499.000	322.775	80.000	19.994	100.845	19.619	37.186	0.490
499.500	323.063	80.000	19.996	100.845	19.617	37.296	0.491
500.000	323.308	80.001	19.995	100.845	19.613	37.531	0.525
500.500	323.538	80.000	19.996	100.845	19.609	37.786	0.504
501.000	323.810	79.998	19.996	100.843	19.609	37.837	0.489
501.500	324.063	80.000	19.997	100.842	19.603	38.170	0.514
502.000	324.268	80.002	19.996	100.841	19.604	38.129	0.491
502.500	324.532	79.998	19.996	100.841	19.598	38.493	0.463
503.000	324.790	80.003	19.997	100.841	19.599	38.452	0.495
503.500	325.061	80.001	19.996	100.843	19.593	38.853	0.526
504.000	325.348	80.004	19.996	100.844	19.590	39.069	0.544
504.500	325.570	79.999	19.996	100.845	19.585	39.338	0.534
505.000	325.853	79.999	19.997	100.845	19.583	39.506	0.507
505.500	326.107	79.999	19.996	100.846	19.579	39.731	0.521
506.000	326.370	80.000	19.997	100.846	19.582	39.552	0.527
506.500	326.593	80.003	19.997	100.846	19.574	40.037	0.501
507.000	326.824	80.000	19.997	100.846	19.579	39.734	0.470
507.500	327.077	80.000	19.997	100.845	19.566	40.569	0.469
508.000	327.341	80.002	19.996	100.845	19.567	40.545	0.500
508.500	327.615	80.002	19.997	100.846	19.570	40.298	0.527
509.000	327.809	80.002	19.996	100.847	19.561	40.906	0.502
509.500	328.152	80.001	19.998	100.847	19.556	41.254	0.502
510.000	328.373	80.000	19.996	100.847	19.562	40.842	0.551
510.500	328.615	80.002	19.996	100.847	19.549	41.656	0.514
511.000	328.907	80.002	19.997	100.847	19.550	41.612	0.499
511.500	329.168	80.001	19.997	100.847	19.545	41.949	0.543
512.000	329.383	80.001	19.996	100.846	19.548	41.732	0.514
512.500	329.722	80.001	19.997	100.847	19.544	42.005	0.515
513.000	329.894	80.003	19.997	100.847	19.540	42.282	0.533
513.500	330.186	80.000	19.996	100.846	19.536	42.498	0.487
514.000	330.414	80.001	19.997	100.846	19.532	42.803	0.491
514.500	330.655	80.001	19.997	100.846	19.529	42.947	0.495
515.000	330.936	80.000	19.996	100.847	19.527	43.133	0.496
515.500	331.175	80.000	19.997	100.848	19.523	43.361	0.521
516.000	331.435	80.000	19.997	100.848	19.518	43.666	0.510
516.500	331.699	80.000	19.997	100.849	19.516	43.815	0.511
517.000	332.005	80.001	19.997	100.848	19.517	43.740	0.547
517.500	332.152	79.999	19.998	100.848	19.511	44.143	0.512
518.000	332.428	79.999	19.996	100.847	19.503	44.649	0.438
518.500	332.708	80.000	19.997	100.850	19.502	44.713	0.489
519.000	332.959	80.001	19.997	100.853	19.500	44.868	0.543
519.501	333.204	80.000	19.997	100.853	19.491	45.414	0.514
520.000	333.533	79.998	19.997	100.853	19.492	45.350	0.535
520.500	333.816	79.999	19.997	100.855	19.486	45.725	0.593
521.000	334.210	79.999	19.998	100.856	19.481	46.039	0.644
521.500	334.022	79.998	19.997	100.855	19.479	46.219	0.442
522.000	334.597	80.000	19.997	100.855	19.478	46.279	0.296
522.500	335.089	79.998	19.998	100.857	19.474	46.534	0.727
523.000	335.202	80.000	19.996	100.856	19.468	46.879	0.836
523.500	335.060	80.000	19.996	100.852	19.467	46.976	0.288
524.000	335.662	79.998	19.998	100.853	19.461	47.346	0.215
524.500	335.998	79.999	19.996	100.859	19.457	47.635	0.699
525.000	335.912	79.999	19.999	100.863	19.455	47.747	0.594
525.500	336.334	79.999	19.998	100.870	19.452	47.914	0.293
526.000	336.573	79.999	19.996	100.875	19.448	48.199	0.498
526.500	336.879	79.997	19.996	100.874	19.442	48.592	0.603
527.000	337.070	79.999	19.997	100.869	19.435	49.021	0.521
527.500	337.372	80.000	19.997	100.870	19.437	48.930	0.494
528.000	337.530	79.999	19.996	100.870	19.430	49.350	0.476
528.500	337.884	79.999	19.997	100.872	19.428	49.483	0.486
529.000	338.160	80.000	19.995	100.875	19.426	49.640	0.571
529.500	338.388	80.000	19.996	100.881	19.418	50.125	0.567
530.000	338.584	79.997	19.996	100.879	19.415	50.311	0.464
530.500	338.828	80.002	19.993	100.876	19.412	50.493	0.432
531.000	339.149	80.003	19.997	100.877	19.408	50.742	0.502
531.500	339.421	80.002	19.996	100.879	19.404	51.003	0.579
532.000	339.576	79.999	19.995	100.880	19.400	51.290	0.510
532.500	339.874	80.000	19.997	100.884	19.394	51.663	0.440
533.000	340.165	80.001	19.995	100.886	19.392	51.805	0.521
533.500	340.358	79.999	19.995	100.887	19.387	52.115	0.537
534.000	340.616	80.002	19.996	100.886	19.385	52.286	0.468
534.500	340.841	80.002	19.996	100.886	19.381	52.492	0.467
535.000	341.124	80.004	19.996	100.886	19.376	52.821	0.495
535.500	341.385	80.002	19.998	100.886	19.372	53.098	0.526
536.000	341.672	80.002	19.997	100.887	19.368	53.354	0.547
536.500	341.885	80.002	19.997	100.888	19.365	53.564	0.524
537.000	342.150	80.002	19.997	100.889	19.360	53.850	0.488
537.500	342.388	80.001	19.995	100.889	19.356	54.145	0.490
538.000	342.643	80.003	19.995	100.888	19.350	54.515	0.498
538.500	342.880	80.001	19.996	100.888	19.346	54.798	0.493
539.000	343.161	80.004	19.996	100.888	19.344	54.922	0.505
539.500	343.410	80.001	19.996	100.890	19.336	55.422	0.524
540.000	343.655	80.002	19.994	100.892	19.334	55.529	0.512
540.501	343.892	80.001	19.994	100.894	19.327	55.987	0.488
541.000	344.140	80.002	19.995	100.895	19.325	56.124	0.484
541.500	344.442	80.004	19.995	100.895	19.320	56.414	0.518
542.000	344.674	80.003	19.995	100.893	19.314	56.842	0.542
542.500	344.936	80.003	19.995	100.894	19.309	57.168	0.514
543.000	345.146	80.004	19.996	100.895	19.306	57.338	0.482
543.500	345.437	80.002	19.995	100.897	19.303	57.532	0.486
544.000	345.678	79.999	19.994	100.898	19.297	57.950	0.517
544.500	345.944	80.001	19.995	100.898	19.293	58.173	0.520
545.000	346.215	80.002	19.995	100.896	19.288	58.494	0.522
545.500	346.463	80.002	19.996	100.895	19.287	58.585	0.528
546.000	346.698	80.003	19.996	100.893	19.279	59.106	0.501
546.500	346.967	80.002	19.995	100.893	19.275	59.329	0.494
547.000	347.245	80.001	19.996	100.894	19.269	59.709	0.525
547.500	347.441	80.000	19.995	100.895	19.264	60.027	0.511
548.000	347.729	80.003	19.996	100.894	19.261	60.271	0.479
548.500	348.043	80.002	19.995	100.896	19.258	60.431	0.543
549.000	348.243	80.002	19.995	100.899	19.251	60.869	0.558
549.500	348.515	80.001	19.996	100.899	19.243	61.420	0.493
550.000	348.781	80.000	19.996	100.901	19.240	61.577	0.505
550.500	348.985	80.001	19.996	100.904	19.237	61.778	0.504
551.000	349.321	80.003	19.995	100.902	19.233	62.076	0.505
551.500	349.540	80.004	19.996	100.903	19.228	62.335	0.547
552.000	349.783	80.001	19.996	100.905	19.223	62.674	0.509
552.500	350.056	80.002	19.997	100.905	19.222	62.763	0.489
553.000	350.291	80.003	19.997	100.906	19.213	63.322	0.512
553.500	350.563	80.002	19.996	100.906	19.214	63.237	0.507
554.000	350.842	80.002	19.995	100.903	19.208	63.633	0.529
554.500	351.106	80.002	19.995	100.902	19.204	63.889	0.547
555.000	351.279	80.002	19.995	100.899	19.197	64.328	0.490
555.500	351.555	80.003	19.997	100.895	19.194	64.548	0.443
556.000	351.831	80.002	19.995	100.897	19.189	64.869	0.500
556.500	352.058	80.003	19.996	100.898	19.187	65.002	0.528
557.000	352.340	80.002	19.996	100.900	19.183	65.224	0.507
557.500	352.565	80.002	19.995	100.899	19.178	65.604	0.508
558.000	352.846	80.003	19.997	100.901	19.175	65.750	0.506
558.500	353.114	80.003	19.995	100.902	19.168	66.192	0.527
559.000	353.383	80.003	19.996	100.904	19.164	66.469	0.543
559.500	353.632	80.006	19.997	100.905	19.160	66.733	0.527
560.000	353.911	80.006	19.997	100.910	19.158	66.890	0.523
560.500	354.117	80.005	19.996	100.913	19.154	67.090	0.507
561.000	354.388	80.003	19.996	100.914	19.152	67.263	0.481
561.500	354.652	80.005	19.994	100.911	19.148	67.524	0.506
562.000	354.893	80.003	19.995	100.905	19.141	67.934	0.520
562.500	355.137	80.005	19.995	100.900	19.141	67.952	0.495
563.000	355.377	80.004	19.995	100.899	19.138	68.122	0.484
563.500	355.585	80.006	19.995	100.894	19.135	68.311	0.466
564.000	355.855	80.004	19.995	100.893	19.133	68.457	0.464
564.500	356.163	80.004	19.995	100.895	19.132	68.545	0.529
565.000	356.381	80.004	19.995	100.895	19.129	68.738	0.552
565.500	356.624	80.003	19.995	100.891	19.126	68.880	0.494
566.000	356.877	80.005	19.994	100.889	19.124	69.012	0.479
566.500	357.139	80.004	19.994	100.886	19.118	69.381	0.505
567.000	357.378	80.004	19.995	100.885	19.122	69.123	0.508
567.500	357.679	80.005	19.994	100.885	19.121	69.230	0.520
568.000	357.911	80.005	19.995	100.885	19.117	69.451	0.537
568.500	358.161	80.005	19.996	100.885	19.111	69.849	0.508
569.000	358.391	80.004	19.995	100.886	19.114	69.676	0.481
569.500	358.651	80.002	19.995	100.885	19.113	69.762	0.485
570.000	358.889	80.004	19.995	100.886	19.111	69.843	0.494
570.500	359.153	80.004	19.996	100.886	19.110	69.902	0.500
571.000	359.387	80.003	19.995	100.886	19.106	70.168	0.500
571.500	359.686	80.003	19.996	100.886	19.111	69.841	0.516
572.000	359.917	80.002	19.994	100.885	19.107	70.140	0.532
572.500	360.125	80.001	19.995	100.884	19.107	70.077	0.484
573.000	360.392	80.002	19.996	100.883	19.104	70.297	0.457
573.500	360.622	80.002	19.995	100.882	19.107	70.084	0.486
574.000	360.872	80.003	19.995	100.882	19.108	70.001	0.489
574.500	361.136	80.003	19.995	100.883	19.105	70.205	0.497
575.000	361.368	80.001	19.996	100.881	19.108	70.055	0.505
575.500	361.606	80.001	19.996	100.878	19.107	70.090	0.484
576.000	361.894	80.003	19.994	100.873	19.110	69.927	0.498
576.500	362.113	80.002	19.996	100.866	19.110	69.917	0.516
577.000	362.368	80.003	19.996	100.858	19.115	69.564	0.490
577.500	362.641	80.002	19.996	100.853	19.113	69.717	0.501
578.000	362.894	80.002	19.996	100.850	19.117	69.410	0.527
578.500	363.137	80.002	19.996	100.849	19.117	69.458	0.511
579.000	363.389	80.001	19.995	100.849	19.120	69.265	0.496
579.500	363.637	80.001	19.995	100.849	19.125	68.938	0.498
580.000	363.910	80.001	19.997	100.848	19.127	68.798	0.510
580.500	364.157	80.001	19.996	100.848	19.127	68.782	0.521
581.000	364.394	80.002	19.997	100.848	19.129	68.652	0.502
581.500	364.668	80.002	19.996	100.846	19.134	68.346	0.497
582.000	364.909	80.001	19.995	100.844	19.138	68.088	0.513
582.500	365.140	80.000	19.996	100.844	19.139	67.991	0.493
583.000	365.395	79.999	19.996	100.842	19.146	67.580	0.479
583.500	365.659	80.002	19.996	100.835	19.147	67.484	0.503
584.000	365.926	80.001	19.996	100.828	19.150	67.282	0.525
584.500	366.181	80.000	19.997	100.823	19.158	66.786	0.526
585.000	366.404	80.001	19.997	100.815	19.163	66.452	0.500
585.500	366.629	80.002	19.997	100.810	19.165	66.308	0.463
586.000	366.920	80.001	19.996	100.809	19.171	65.965	0.482
586.500	367.165	80.000	19.998	100.811	19.177	65.580	0.526
587.000	367.420	80.003	19.996	100.811	19.181	65.295	0.518
587.500	367.641	80.001	19.998	100.811	19.186	64.973	0.489
588.000	367.922	80.004	19.997	100.810	19.190	64.692	0.489
588.500	368.186	80.002	19.997	100.809	19.201	63.972	0.523
589.000	368.419	80.000	19.996	100.800	19.201	64.019	0.520
589.500	368.668	80.002	19.996	100.792	19.206	63.668	0.489
590.000	368.900	80.000	19.996	100.789	19.215	63.097	0.482
590.500	369.169	80.000	19.995	100.784	19.221	62.695	0.492
591.000	369.403	80.002	19.996	100.777	19.225	62.470	0.502
591.500	369.654	80.002	19.998	100.776	19.238	61.639	0.494
592.000	369.915	80.004	19.996	100.777	19.239	61.521	0.498
592.500	370.206	80.002	19.995	100.772	19.245	61.143	0.532
593.000	370.396	80.001	19.997	100.769	19.251	60.759	0.516
593.500	370.698	80.003	19.996	100.770	19.256	60.436	0.487
594.001	370.941	80.001	19.996	100.769	19.267	59.730	0.519
594.500	371.210	80.001	19.996	100.769	19.270	59.522	0.528
595.000	371.450	80.002	19.996	100.770	19.277	59.101	0.510
595.501	371.683	80.002	19.997	100.770	19.285	58.563	0.491
596.000	371.975	80.000	19.996	100.769	19.291	58.215	0.499
596.500	372.235	80.001	19.996	100.769	19.300	57.636	0.539
597.000	372.516	80.003	19.997	100.768	19.308	57.093	0.547
597.500	372.762	80.001	19.995	100.767	19.314	56.712	0.534
598.000	373.014	80.003	19.995	100.766	19.322	56.223	0.512
598.500	373.272	80.002	19.996	100.760	19.331	55.634	0.504
599.000	373.528	80.002	19.996	100.752	19.334	55.425	0.512
599.500	373.779	80.000	19.996	100.746	19.343	54.851	0.511
600.000	374.056	80.002	19.997	100.739	19.347	54.559	0.518
600.500	374.316	80.002	19.996	100.733	19.356	53.994	0.532
601.000	374.556	80.001	19.996	100.732	19.363	53.588	0.518
601.500	374.816	80.001	19.997	100.731	19.370	53.130	0.500
602.000	375.090	80.000	19.996	100.730	19.372	53.001	0.517
602.500	375.330	80.000	19.996	100.727	19.380	52.479	0.524
603.000	375.614	80.002	19.996	100.724	19.389	51.864	0.519
603.500	375.837	80.000	19.995	100.722	19.395	51.537	0.516
604.000	376.115	79.998	19.996	100.718	19.402	51.073	0.504
604.500	376.327	80.002	19.995	100.713	19.405	50.887	0.495
605.000	376.607	80.002	19.996	100.710	19.413	50.350	0.491
605.500	376.849	80.003	19.997	100.707	19.417	50.085	0.508
606.000	377.133	80.002	19.998	100.704	19.429	49.350	0.524
606.500	377.379	80.001	19.997	100.707	19.434	49.016	0.528
607.000	377.619	79.998	19.996	100.705	19.440	48.626	0.508
607.500	377.874	79.998	19.997	100.704	19.446	48.259	0.490
608.000	378.140	80.003	19.998	100.703	19.448	48.071	0.507
608.500	378.371	80.002	19.997	100.700	19.455	47.622	0.509
609.000	378.626	80.000	19.998	100.695	19.459	47.374	0.492
609.500	378.888	79.999	19.998	100.695	19.467	46.900	0.501
610.000	379.159	80.001	19.997	100.694	19.471	46.645	0.525
610.500	379.434	79.998	19.997	100.693	19.476	46.301	0.540
611.000	379.719	80.002	19.999	100.692	19.481	45.963	0.553
611.500	379.960	80.001	19.998	100.691	19.486	45.648	0.543
612.000	380.213	80.001	19.998	100.691	19.492	45.255	0.510
612.501	380.478	80.000	19.998	100.691	19.497	44.954	0.506
613.000	380.748	80.000	19.998	100.691	19.498	44.908	0.527
613.500	381.017	80.001	19.997	100.692	19.505	44.451	0.537
614.000	381.240	80.000	19.997	100.693	19.510	44.138	0.516
614.500	381.499	80.000	19.998	100.693	19.512	43.984	0.487
615.000	381.751	80.002	19.998	100.693	19.518	43.612	0.496
615.500	382.024	80.000	19.998	100.693	19.520	43.475	0.518
616.000	382.293	80.001	19.997	100.694	19.522	43.354	0.534
616.500	382.550	80.002	19.997	100.694	19.526	43.057	0.534
617.000	382.804	80.003	19.997	100.694	19.532	42.681	0.518
617.500	383.070	80.002	19.997	100.694	19.531	42.766	0.516
618.000	383.314	80.002	19.997	100.694	19.534	42.561	0.515
618.500	383.538	80.004	19.997	100.692	19.535	42.539	0.489
619.000	383.815	80.001	19.996	100.691	19.539	42.268	0.485
619.500	384.058	80.004	19.997	100.690	19.544	41.921	0.510
620.000	384.346	80.007	19.997	100.689	19.546	41.773	0.526
620.500	384.591	80.004	19.995	100.688	19.547	41.718	0.532
621.000	384.867	80.004	19.997	100.687	19.547	41.723	0.526
621.500	385.130	80.003	19.997	100.687	19.552	41.430	0.530
622.000	385.350	80.001	19.997	100.686	19.551	41.452	0.512
622.500	385.621	80.004	19.996	100.687	19.555	41.238	0.487
623.000	385.898	80.002	19.996	100.687	19.560	40.881	0.519
623.500	386.162	80.002	19.996	100.687	19.557	41.128	0.545
624.000	386.417	80.002	19.996	100.687	19.562	40.780	0.530
624.500	386.642	80.005	19.996	100.688	19.560	40.881	0.500
625.000	386.927	80.003	19.996	100.688	19.563	40.711	0.495
625.500	387.178	80.003	19.997	100.688	19.563	40.685	0.523
626.000	387.412	80.002	19.995	100.688	19.564	40.648	0.511
626.500	387.685	80.003	19.995	100.687	19.565	40.609	0.496
627.000	387.923	80.003	19.996	100.687	19.565	40.594	0.509
627.500	388.196	80.002	19.996	100.688	19.563	40.707	0.511
628.000	388.461	80.006	19.996	100.689	19.561	40.856	0.524
628.500	388.683	80.002	19.996	100.689	19.565	40.603	0.512
629.000	388.956	80.003	19.996	100.690	19.565	40.607	0.491
629.500	389.190	80.003	19.996	100.691	19.567	40.473	0.501
630.000	389.452	80.004	19.996	100.690	19.566	40.510	0.501
630.500	389.740	80.002	19.996	100.689	19.563	40.685	0.523
631.000	390.010	80.003	19.997	100.690	19.564	40.615	0.554
631.500	390.252	80.003	19.996	100.690	19.563	40.680	0.535
632.001	390.522	80.002	19.995	100.689	19.566	40.542	0.512
632.501	390.787	80.000	19.996	100.689	19.565	40.599	0.524
633.000	391.012	80.002	19.997	100.690	19.563	40.734	0.512
633.500	391.275	80.001	19.994	100.690	19.561	40.824	0.489
634.000	391.536	80.001	19.995	100.689	19.564	40.632	0.506
634.500	391.789	80.002	19.996	100.689	19.564	40.679	0.519
635.000	392.014	80.001	19.997	100.689	19.562	40.785	0.496
635.500	392.279	80.000	19.996	100.689	19.563	40.702	0.484
636.000	392.563	80.001	19.996	100.690	19.559	40.957	0.520
636.500	392.821	80.004	19.996	100.690	19.558	41.033	0.545
637.000	393.088	80.003	19.996	100.690	19.558	41.054	0.534
637.500	393.324	80.002	19.995	100.690	19.554	41.316	0.514
638.000	393.606	80.003	19.996	100.689	19.553	41.388	0.510
638.500	393.867	80.004	19.995	100.689	19.558	41.037	0.530
639.000	394.142	80.000	19.995	100.689	19.556	41.185	0.540
639.500	394.394	80.003	19.996	100.689	19.554	41.297	0.532
640.000	394.663	80.004	19.995	100.690	19.551	41.500	0.524
640.500	394.886	80.002	19.995	100.690	19.552	41.432	0.506
641.000	395.148	80.003	19.996	100.690	19.553	41.342	0.488
641.500	395.427	80.005	19.995	100.689	19.550	41.554	0.513
642.000	395.694	80.003	19.995	100.688	19.554	41.320	0.544
642.500	395.900	80.004	19.995	100.687	19.547	41.748	0.510
643.000	396.182	80.004	19.996	100.687	19.548	41.681	0.481
643.500	396.445	80.003	19.995	100.688	19.546	41.810	0.517
644.000	396.705	80.006	19.996	100.689	19.543	41.990	0.534
644.500	396.916	80.004	19.995	100.689	19.543	42.001	0.497
645.000	397.183	80.005	19.996	100.690	19.542	42.074	0.474
645.500	397.463	80.005	19.996	100.690	19.540	42.221	0.512
646.000	397.682	80.004	19.996	100.689	19.538	42.325	0.523
646.500	397.966	80.005	19.995	100.688	19.541	42.149	0.501
647.000	398.226	80.003	19.995	100.687	19.537	42.361	0.524
647.500	398.456	80.005	19.995	100.687	19.531	42.737	0.517
648.000	398.717	80.005	19.995	100.687	19.533	42.642	0.490
648.500	398.990	80.004	19.996	100.691	19.533	42.667	0.513
649.000	399.208	80.003	19.998	100.693	19.530	42.838	0.513
649.500	399.464	80.004	19.996	100.695	19.529	42.914	0.482
650.000	399.758	80.003	19.995	100.696	19.530	42.803	0.512
650.500	399.993	80.003	19.995	100.696	19.526	43.066	0.539
651.000	400.238	80.003	19.995	100.692	19.525	43.142	0.504
651.500	400.524	80.004	19.995	100.689	19.522	43.319	0.506
652.000	400.775	80.003	19.995	100.689	19.520	43.488	0.534
652.500	401.026	80.003	19.995	100.689	19.517	43.677	0.520
653.000	401.272	80.002	19.995	100.689	19.513	43.914	0.500
653.500	401.529	80.001	19.996	100.689	19.517	43.658	0.500
654.000	401.777	80.001	19.996	100.689	19.514	43.847	0.503
654.500	402.066	80.001	19.996	100.689	19.511	44.031	0.520
655.000	402.304	80.002	19.996	100.690	19.506	44.359	0.532
655.500	402.554	80.004	19.995	100.690	19.504	44.489	0.508
656.000	402.792	80.002	19.996	100.690	19.509	44.211	0.488
656.500	403.059	80.001	19.995	100.691	19.499	44.818	0.497
657.000	403.306	80.000	19.995	100.691	19.501	44.701	0.510
657.500	403.571	80.002	19.996	100.692	19.497	44.923	0.513
658.000	403.837	80.001	19.995	100.692	19.497	44.924	0.522
658.500	404.055	80.001	19.996	100.693	19.497	44.959	0.507
659.000	404.322	80.001	19.995	100.693	19.494	45.122	0.484
659.500	404.610	80.002	19.994	100.693	19.493	45.230	0.520
660.000	404.829	80.001	19.996	100.693	19.494	45.139	0.531
660.500	405.100	80.002	19.994	100.693	19.490	45.398	0.498
661.000	405.362	80.003	19.995	100.692	19.485	45.704	0.511
661.500	405.616	80.001	19.995	100.692	19.481	45.950	0.525
662.000	405.851	80.001	19.995	100.693	19.483	45.826	0.503
662.500	406.129	80.001	19.994	100.692	19.481	45.997	0.501
663.000	406.355	80.001	19.995	100.692	19.481	45.967	0.508
663.500	406.615	80.004	19.995	100.692	19.478	46.152	0.494
664.000	406.853	80.003	19.995	100.692	19.480	46.058	0.492
664.500	407.122	80.002	19.996	100.692	19.476	46.296	0.503
665.000	407.380	80.002	19.996	100.692	19.473	46.471	0.517
665.500	407.629	80.001	19.995	100.692	19.468	46.842	0.517
666.000	407.887	80.002	19.996	100.693	19.469	46.774	0.507
666.500	408.117	80.002	19.996	100.693	19.466	46.939	0.497
667.000	408.367	80.000	19.995	100.692	19.465	47.006	0.484
667.500	408.607	80.000	19.995	100.691	19.463	47.122	0.485
668.000	408.850	80.002	19.996	100.685	19.460	47.296	0.486
668.500	409.080	80.002	19.997	100.683	19.460	47.336	0.478
669.000	409.361	80.002	19.996	100.682	19.455	47.614	0.492
669.501	409.607	80.002	19.995	100.682	19.456	47.598	0.519
670.000	409.878	80.000	19.996	100.683	19.454	47.710	0.522
670.500	410.095	80.002	19.997	100.688	19.451	47.885	0.503
671.000	410.414	80.000	19.996	100.686	19.451	47.912	0.512
671.500	410.653	80.001	19.997	100.688	19.449	48.013	0.547
672.000	410.884	80.001	19.995	100.688	19.444	48.350	0.514
672.500	411.111	80.000	19.996	100.689	19.443	48.389	0.464
673.000	411.389	80.002	19.996	100.689	19.441	48.521	0.481
673.500	411.617	80.003	19.996	100.692	19.438	48.756	0.506
674.000	411.878	80.002	19.996	100.692	19.438	48.713	0.498
674.500	412.150	80.002	19.997	100.691	19.434	48.979	0.511
675.000	412.398	80.001	19.995	100.689	19.431	49.156	0.526
675.500	412.655	80.003	19.997	100.689	19.432	49.136	0.512
676.000	412.895	80.003	19.996	100.688	19.429	49.327	0.501
676.500	413.127	80.003	19.995	100.688	19.424	49.621	0.484
677.000	413.415	80.001	19.997	100.686	19.422	49.781	0.496
677.500	413.676	80.000	19.996	100.681	19.421	49.847	0.535
678.000	413.919	80.001	19.997	100.676	19.419	49.974	0.527
678.500	414.173	80.001	19.995	100.671	19.416	50.125	0.500
679.000	414.380	80.001	19.996	100.670	19.412	50.391	0.478
679.500	414.649	80.001	19.995	100.672	19.408	50.674	0.468
680.000	414.879	80.001	19.996	100.677	19.405	50.833	0.487
680.500	415.144	80.001	19.996	100.681	19.407	50.714	0.497
681.000	415.372	80.000	19.996	100.682	19.402	51.061	0.495
681.500	415.617	80.002	19.996	100.676	19.402	51.045	0.483
682.000	415.857	80.001	19.996	100.673	19.405	50.855	0.479
682.500	416.098	80.003	19.996	100.672	19.396	51.458	0.483
683.000	416.343	80.001	19.997	100.669	19.394	51.588	0.484
683.500	416.577	80.002	19.996	100.671	19.396	51.411	0.482
684.000	416.862	80.000	19.998	100.676	19.395	51.491	0.499
684.500	417.137	80.003	19.996	100.672	19.386	52.044	0.539
685.000	417.366	80.000	19.996	100.671	19.385	52.159	0.532
685.500	417.610	80.003	19.996	100.675	19.383	52.264	0.488
686.000	417.887	80.002	19.996	100.677	19.377	52.667	0.497
686.500	418.092	80.001	19.996	100.679	19.381	52.373	0.502
687.000	418.350	80.000	19.995	100.682	19.379	52.529	0.472
687.500	418.596	80.000	19.996	100.683	19.372	52.972	0.483
688.000	418.819	80.001	19.996	100.683	19.378	52.565	0.487
688.500	419.056	80.001	19.995	100.681	19.374	52.854	0.465
689.000	419.303	80.000	19.996	100.680	19.371	53.022	0.472
689.500	419.578	80.002	19.997	100.681	19.368	53.243	0.503
690.000	419.854	80.002	19.997	100.679	19.364	53.474	0.536
690.500	420.077	80.001	19.995	100.677	19.363	53.560	0.525
691.000	420.320	80.001	19.996	100.673	19.358	53.850	0.483
691.500	420.601	80.002	19.996	100.672	19.363	53.551	0.495
692.000	420.807	80.001	19.996	100.671	19.357	53.921	0.505
692.500	421.051	80.002	19.996	100.672	19.352	54.230	0.469
693.000	421.325	80.001	19.996	100.672	19.352	54.234	0.485
693.500	421.557	80.001	19.996	100.673	19.350	54.387	0.512
694.000	421.836	80.001	19.995	100.674	19.347	54.565	0.508
694.500	422.016	80.002	19.996	100.674	19.347	54.549	0.484
695.000	422.285	80.002	19.996	100.669	19.344	54.788	0.454
695.500	422.531	80.002	19.997	100.665	19.338	55.133	0.482
696.000	422.795	80.002	19.996	100.664	19.339	55.098	0.512
696.500	422.979	80.002	19.995	100.659	19.335	55.351	0.479
697.000	423.241	80.001	19.997	100.656	19.334	55.402	0.447
697.500	423.496	80.002	19.997	100.655	19.335	55.355	0.482
698.000	423.732	80.001	19.997	100.656	19.328	55.815	0.504
698.500	423.949	80.002	19.996	100.655	19.326	55.897	0.472
699.000	424.211	80.003	19.997	100.654	19.324	56.065	0.466
699.500	424.451	80.003	19.996	100.660	19.321	56.244	0.490
700.000	424.677	80.002	19.996	100.663	19.321	56.208	0.484
700.500	424.951	80.003	19.998	100.663	19.317	56.521	0.484
701.000	425.197	80.001	19.997	100.662	19.315	56.621	0.510
701.500	425.457	80.001	19.997	100.662	19.307	57.114	0.512
702.000	425.705	80.003	19.998	100.655	19.308	57.085	0.507
702.500	425.961	80.003	19.997	100.651	19.310	56.968	0.506
703.000	426.226	80.002	19.997	100.650	19.307	57.133	0.513
703.500	426.437	80.002	19.997	100.650	19.304	57.309	0.498
704.000	426.680	80.003	19.996	100.654	19.300	57.598	0.465
704.500	426.885	80.003	19.998	100.657	19.297	57.804	0.451
705.000	427.166	80.002	19.997	100.662	19.297	57.809	0.467
705.500	427.444	80.003	19.998	100.668	19.291	58.146	0.523
706.000	427.664	80.003	19.998	100.675	19.295	57.935	0.529
706.500	427.933	80.003	19.997	100.677	19.293	58.031	0.493
707.000	428.151	80.000	19.997	100.673	19.286	58.503	0.488
707.500	428.412	80.002	19.998	100.667	19.288	58.364	0.483
708.000	428.647	80.003	19.998	100.664	19.282	58.755	0.487
708.500	428.925	80.002	19.996	100.658	19.282	58.743	0.504
709.000	429.146	80.002	19.997	100.655	19.277	59.092	0.505
709.500	429.394	80.001	19.996	100.655	19.276	59.152	0.484
710.000	429.642	80.004	19.998	100.657	19.273	59.311	0.483
710.500	429.890	80.002	19.997	100.654	19.272	59.413	0.496
711.000	430.148	80.001	19.998	100.656	19.267	59.714	0.501
711.500	430.414	80.002	19.998	100.659	19.264	59.928	0.515
712.000	430.636	80.002	19.997	100.664	19.267	59.687	0.506
712.500	430.911	80.001	19.997	100.661	19.263	59.938	0.492
713.000	431.146	80.002	19.997	100.661	19.254	60.521	0.503
713.500	431.355	80.001	19.997	100.659	19.259	60.233	0.477
714.000	431.644	80.000	19.996	100.659	19.255	60.473	0.471
714.500	431.885	80.001	19.997	100.659	19.252	60.667	0.515
715.000	432.102	80.002	19.997	100.665	19.247	60.966	0.495
715.500	432.371	80.003	19.996	100.667	19.249	60.865	0.472
716.000	432.634	80.001	19.998	100.667	19.245	61.116	0.508
716.500	432.895	80.003	19.996	100.663	19.244	61.164	0.528
717.000	433.124	80.005	19.996	100.658	19.238	61.556	0.507
717.500	433.383	80.002	19.995	100.653	19.239	61.529	0.489
718.000	433.643	80.001	19.995	100.651	19.236	61.686	0.503
718.500	433.904	80.001	19.995	100.651	19.231	62.039	0.520
719.000	434.157	80.003	19.997	100.653	19.229	62.144	0.518
719.500	434.421	80.001	19.994	100.654	19.231	62.027	0.515
720.000	434.666	80.003	19.997	100.654	19.225	62.427	0.512
720.500	434.938	80.005	19.995	100.654	19.220	62.697	0.513
721.000	435.161	80.003	19.995	100.656	19.222	62.611	0.507
721.500	435.430	80.003	19.995	100.654	19.225	62.388	0.493
722.000	435.634	80.002	19.996	100.653	19.223	62.555	0.483
722.500	435.865	80.002	19.997	100.653	19.220	62.722	0.455
723.000	436.139	80.003	19.995	100.654	19.219	62.812	0.470
723.500	436.420	80.001	19.996	100.655	19.216	62.957	0.530
724.000	436.664	80.003	19.994	100.655	19.213	63.147	0.540
724.500	436.948	80.003	19.995	100.655	19.211	63.313	0.526
725.000	437.167	80.003	19.996	100.655	19.213	63.149	0.515
725.500	437.461	80.003	19.996	100.654	19.212	63.232	0.508
726.000	437.662	80.004	19.996	100.653	19.208	63.485	0.504
726.500	437.923	80.004	19.995	100.652	19.205	63.676	0.479
727.000	438.148	80.005	19.996	100.655	19.203	63.808	0.474
727.500	438.436	80.003	19.995	100.655	19.203	63.795	0.499
728.000	438.694	80.005	19.996	100.655	19.200	64.005	0.529
728.500	438.920	80.005	19.995	100.655	19.196	64.262	0.516
729.000	439.177	80.004	19.995	100.654	19.194	64.404	0.483
729.500	439.439	80.003	19.995	100.651	19.193	64.472	0.500
730.000	439.691	80.005	19.995	100.652	19.191	64.615	0.517
730.500	439.952	80.004	19.995	100.654	19.189	64.703	0.514
731.000	440.165	80.003	19.995	100.657	19.188	64.785	0.494
731.500	440.464	80.004	19.994	100.657	19.188	64.789	0.493
732.000	440.704	80.004	19.996	100.658	19.182	65.182	0.525
732.500	440.984	80.002	19.996	100.657	19.186	64.878	0.529
733.000	441.179	80.002	19.996	100.656	19.181	65.199	0.498
733.500	441.440	80.002	19.995	100.652	19.178	65.399	0.465
734.000	441.718	80.002	19.995	100.652	19.178	65.436	0.497
734.500	441.956	80.003	19.994	100.652	19.178	65.398	0.527
735.000	442.233	80.002	19.995	100.651	19.178	65.448	0.516
735.500	442.497	80.002	19.996	100.651	19.176	65.562	0.528
736.000	442.711	80.000	19.996	100.651	19.176	65.581	0.510
736.500	442.993	80.000	19.996	100.651	19.174	65.670	0.487
737.000	443.240	80.001	19.997	100.650	19.173	65.710	0.512
737.500	443.475	80.001	19.997	100.650	19.171	65.849	0.505
738.000	443.761	79.999	19.996	100.650	19.170	65.940	0.502
738.500	444.040	79.999	19.996	100.650	19.173	65.750	0.543
739.000	444.293	80.001	19.995	100.651	19.170	65.933	0.549
739.500	444.539	80.002	19.996	100.652	19.166	66.190	0.515
740.000	444.795	80.000	19.996	100.653	19.169	65.995	0.500
740.500	445.042	80.000	19.996	100.655	19.165	66.242	0.503
741.000	445.315	80.000	19.996	100.655	19.170	65.918	0.512
741.500	445.542	80.000	19.997	100.654	19.166	66.180	0.510
742.000	445.818	80.001	19.996	100.654	19.160	66.541	0.501
742.500	446.054	80.000	19.995	100.653	19.159	66.608	0.507
743.000	446.310	80.001	19.995	100.651	19.163	66.356	0.502
743.500	446.529	80.000	19.995	100.649	19.163	66.351	0.483
744.000	446.827	80.001	19.995	100.648	19.164	66.337	0.496
744.500	447.059	80.001	19.996	100.648	19.161	66.500	0.523
745.000	447.291	80.001	19.996	100.648	19.161	66.512	0.497
745.500	447.537	80.002	19.995	100.649	19.163	66.403	0.471
746.000	447.824	80.002	19.995	100.651	19.161	66.481	0.505
746.500	448.086	80.002	19.996	100.652	19.160	66.555	0.540
747.000	448.339	79.999	19.996	100.651	19.158	66.683	0.532
747.500	448.551	80.000	19.995	100.650	19.164	66.344	0.490
748.000	448.847	80.002	19.996	100.649	19.162	66.413	0.487
748.500	449.090	80.002	19.995	100.648	19.161	66.488	0.524
749.000	449.361	80.002	19.995	100.648	19.161	66.517	0.526
749.500	449.624	80.001	19.995	100.648	19.165	66.272	0.524
750.000	449.879	80.002	19.997	100.646	19.164	66.315	0.525
750.500	450.141	80.000	19.995	100.640	19.162	66.461	0.517
751.000	450.388	80.002	19.995	100.640	19.166	66.187	0.513
751.500	450.629	80.001	19.995	100.638	19.164	66.289	0.498
752.000	450.889	80.001	19.994	100.637	19.165	66.270	0.495
752.500	451.126	80.002	19.995	100.639	19.168	66.060	0.500
753.000	451.381	80.002	19.996	100.642	19.167	66.099	0.495
753.500	451.638	80.002	19.995	100.642	19.167	66.114	0.502
754.000	451.928	80.004	19.996	100.643	19.169	66.012	0.529
754.500	452.159	80.001	19.995	100.646	19.168	66.031	0.534
755.000	452.428	80.001	19.996	100.646	19.171	65.890	0.511
755.500	452.691	80.002	19.996	100.649	19.169	65.972	0.516
756.000	452.920	80.000	19.995	100.649	19.169	65.990	0.512
756.500	453.183	80.002	19.994	100.649	19.171	65.879	0.492
757.000	453.405	80.002	19.997	100.648	19.176	65.545	0.488
757.500	453.675	80.000	19.996	100.646	19.177	65.449	0.489
758.000	453.930	80.002	19.994	100.643	19.179	65.320	0.508
758.500	454.200	80.002	19.996	100.643	19.183	65.070	0.525
759.000	454.472	80.002	19.996	100.643	19.181	65.206	0.534
759.500	454.705	80.000	19.995	100.642	19.186	64.878	0.524
760.000	454.957	80.002	19.995	100.643	19.183	65.079	0.495
760.500	455.210	80.001	19.995	100.644	19.188	64.761	0.495
761.000	455.474	80.001	19.996	100.641	19.188	64.762	0.510
761.500	455.726	80.002	19.997	100.641	19.193	64.455	0.517
762.000	455.976	80.001	19.996	100.641	19.192	64.494	0.510
762.500	456.194	80.002	19.996	100.638	19.193	64.475	0.485
763.000	456.462	79.999	19.995	100.637	19.197	64.210	0.477
763.500	456.746	80.001	19.996	100.633	19.198	64.125	0.519
764.000	456.972	80.001	19.997	100.633	19.204	63.737	0.531
764.500	457.180	80.001	19.996	100.634	19.207	63.542	0.472
765.000	457.464	80.000	19.997	100.634	19.210	63.356	0.463
765.500	457.708	80.001	19.997	100.635	19.214	63.097	0.510
766.000	457.950	80.001	19.996	100.637	19.218	62.850	0.507
766.500	458.226	80.001	19.995	100.635	19.220	62.713	0.502
767.000	458.473	80.001	19.997	100.633	19.225	62.400	0.521
767.500	458.705	80.001	19.996	100.631	19.230	62.081	0.501
768.000	458.958	80.000	19.997	100.631	19.231	62.044	0.482
768.500	459.186	79.999	19.996	100.635	19.235	61.765	0.483
769.000	459.458	80.000	19.996	100.633	19.240	61.410	0.491
769.500	459.690	80.001	19.997	100.634	19.240	61.460	0.502
770.000	459.932	79.999	19.996	100.636	19.248	60.906	0.489
770.500	460.216	80.000	19.995	100.635	19.251	60.727	0.500
771.000	460.450	80.000	19.997	100.634	19.252	60.660	0.522
771.500	460.681	80.000	19.998	100.640	19.259	60.218	0.491
772.000	460.937	80.000	19.998	100.641	19.262	60.027	0.476
772.500	461.190	80.000	19.997	100.644	19.268	59.661	0.498
773.000	461.445	80.000	19.997	100.648	19.271	59.439	0.509
773.500	461.673	79.999	19.998	100.648	19.276	59.096	0.496
774.000	461.896	80.000	19.997	100.648	19.286	58.510	0.467
774.500	462.171	80.000	19.997	100.648	19.289	58.295	0.475
775.000	462.435	80.001	19.997	100.649	19.294	57.977	0.518
775.500	462.679	80.001	19.997	100.650	19.299	57.633	0.523
776.000	462.914	80.000	19.995	100.650	19.306	57.189	0.493
776.500	463.156	80.001	19.997	100.650	19.307	57.163	0.478
777.000	463.423	80.001	19.996	100.650	19.309	56.996	0.493
777.500	463.638	80.002	19.997	100.649	19.317	56.483	0.496
778.000	463.923	80.001	19.997	100.649	19.322	56.165	0.492
778.500	464.167	80.000	19.996	100.649	19.326	55.926	0.514
779.000	464.399	80.002	19.997	100.650	19.331	55.605	0.502
779.500	464.671	80.003	19.996	100.650	19.336	55.307	0.490
780.000	464.886	80.001	19.997	100.650	19.341	54.929	0.496
780.500	465.152	80.003	19.996	100.654	19.346	54.647	0.484
781.000	465.411	80.002	19.997	100.654	19.351	54.320	0.503
781.500	465.655	80.003	19.996	100.654	19.357	53.900	0.514
782.000	465.931	80.003	19.995	100.654	19.362	53.599	0.511
782.500	466.176	80.002	19.996	100.654	19.372	52.969	0.521
783.000	466.459	80.002	19.996	100.650	19.375	52.805	0.524
783.500	466.674	80.003	19.995	100.650	19.376	52.695	0.513
784.000	466.949	80.002	19.996	100.649	19.390	51.820	0.494
784.500	467.210	80.003	19.995	100.650	19.394	51.571	0.513
785.000	467.489	80.002	19.995	100.650	19.398	51.317	0.538
785.500	467.713	80.003	19.995	100.650	19.404	50.928	0.522
786.000	467.979	80.003	19.995	100.651	19.411	50.467	0.497
786.500	468.193	80.004	19.996	100.651	19.418	50.032	0.485
787.000	468.491	80.001	19.996	100.651	19.419	49.943	0.495
787.500	468.753	80.002	19.995	100.651	19.428	49.393	0.536
788.000	468.950	80.001	19.997	100.652	19.436	48.886	0.510
788.500	469.277	80.002	19.995	100.652	19.442	48.501	0.492
789.000	469.477	80.004	19.995	100.652	19.449	48.007	0.526
789.500	469.749	80.003	19.997	100.654	19.458	47.473	0.500
790.000	470.018	80.002	19.997	100.654	19.461	47.250	0.506
790.500	470.263	80.001	19.996	100.656	19.473	46.495	0.527
791.000	470.521	80.002	19.996	100.660	19.474	46.417	0.509
791.500	470.775	80.001	19.995	100.662	19.480	46.026	0.508
792.000	470.999	80.002	19.997	100.663	19.485	45.699	0.495
792.500	471.239	80.002	19.996	100.664	19.496	45.018	0.471
793.000	471.511	80.001	19.997	100.663	19.505	44.412	0.488
793.500	471.732	80.001	19.996	100.663	19.509	44.160	0.503
794.000	471.995	80.001	19.997	100.660	19.518	43.629	0.489
794.500	472.236	80.001	19.996	100.660	19.524	43.195	0.494
795.000	472.505	80.000	19.997	100.665	19.529	42.923	0.507
795.500	472.742	80.002	19.996	100.668	19.536	42.424	0.508
796.000	472.999	80.001	19.997	100.671	19.549	41.608	0.500
796.500	473.222	80.001	19.995	100.676	19.552	41.431	0.487
797.000	473.510	80.002	19.998	100.680	19.559	40.977	0.496
797.500	473.758	79.999	19.997	100.679	19.568	40.401	0.524
798.000	473.986	80.000	19.997	100.681	19.576	39.878	0.506
798.500	474.275	80.000	19.996	100.679	19.579	39.709	0.496
799.000	474.519	80.000	19.995	100.677	19.584	39.331	0.525
799.500	474.761	80.000	19.997	100.670	19.586	39.215	0.510
800.000	475.077	80.002	19.997	100.664	19.598	38.493	0.522
800.500	475.286	80.001	19.997	100.658	19.602	38.226	0.541
801.001	475.518	80.001	19.997	100.654	19.611	37.650	0.483
801.500	475.776	80.002	19.997	100.653	19.617	37.252	0.466
802.000	476.042	80.001	19.997	100.656	19.624	36.774	0.507
802.500	476.287	80.002	19.996	100.662	19.628	36.526	0.517
803.000	476.514	80.001	19.997	100.665	19.640	35.763	0.491
803.500	476.781	80.002	19.997	100.671	19.646	35.372	0.483
804.000	477.025	80.002	19.996	100.676	19.651	35.072	0.503
804.500	477.267	80.002	19.996	100.681	19.654	34.834	0.499
805.000	477.551	80.002	19.996	100.682	19.666	34.061	0.506
805.500	477.792	80.002	19.997	100.684	19.670	33.805	0.526
806.000	478.040	80.003	19.995	100.684	19.675	33.507	0.507
806.501	478.272	80.002	19.996	100.682	19.685	32.874	0.484
807.000	478.578	80.003	19.995	100.674	19.690	32.520	0.509
807.500	478.812	80.003	19.996	100.670	19.697	32.075	0.539
808.000	479.052	80.004	19.996	100.671	19.698	32.035	0.507
808.500	479.365	80.004	19.994	100.670	19.709	31.307	0.514
809.000	479.592	80.003	19.995	100.669	19.716	30.867	0.546
809.500	479.844	80.003	19.994	100.675	19.719	30.675	0.509
810.000	480.086	80.003	19.995	100.681	19.728	30.121	0.487
810.500	480.331	80.004	19.995	100.681	19.737	29.556	0.491
811.000	480.603	80.002	19.995	100.683	19.740	29.333	0.502
811.500	480.881	80.003	19.994	100.687	19.747	28.877	0.533
812.000	481.128	80.004	19.996	100.687	19.751	28.640	0.537
812.500	481.389	80.003	19.995	100.686	19.756	28.320	0.516
813.000	481.635	80.004	19.995	100.685	19.760	28.038	0.507
813.500	481.868	80.003	19.995	100.684	19.771	27.331	0.493
814.000	482.116	80.002	19.995	100.677	19.776	27.056	0.480
814.500	482.378	80.004	19.995	100.676	19.781	26.694	0.495
815.000	482.675	80.003	19.996	100.674	19.785	26.478	0.534
815.500	482.864	80.003	19.995	100.669	19.794	25.866	0.523
816.000	483.171	80.002	19.996	100.671	19.800	25.476	0.492
816.500	483.403	80.002	19.995	100.677	19.802	25.366	0.517
817.000	483.666	80.002	19.995	100.679	19.813	24.668	0.517
817.500	483.930	80.001	19.995	100.682	19.818	24.361	0.511
818.000	484.173	80.001	19.995	100.687	19.819	24.249	0.517
818.500	484.447	80.001	19.996	100.688	19.825	23.859	0.512
819.000	484.675	80.002	19.996	100.688	19.828	23.688	0.510
819.500	484.949	80.001	19.996	100.688	19.839	22.975	0.502
820.000	485.209	80.001	19.996	100.689	19.841	22.859	0.518
820.500	485.477	80.003	19.996	100.689	19.846	22.557	0.531
821.000	485.702	80.001	19.997	100.688	19.856	21.901	0.511
821.500	485.992	80.003	19.996	100.687	19.859	21.727	0.504
822.000	486.241	80.001	19.995	100.687	19.865	21.311	0.527
822.500	486.488	80.002	19.995	100.686	19.868	21.119	0.517
823.000	486.779	80.001	19.995	100.686	19.877	20.538	0.517
823.500	487.037	80.003	19.995	100.687	19.879	20.419	0.544
824.001	487.297	80.001	19.997	100.687	19.881	20.288	0.533
824.500	487.560	80.001	19.995	100.688	19.887	19.907	0.520
825.000	487.789	80.002	19.996	100.689	19.891	19.661	0.507
825.500	488.067	80.001	19.996	100.689	19.894	19.451	0.500
826.000	488.292	80.001	19.995	100.689	19.902	18.961	0.506
826.500	488.560	80.003	19.996	100.688	19.907	18.631	0.498
827.000	488.831	80.001	19.996	100.688	19.910	18.411	0.516
827.500	489.095	80.001	19.996	100.687	19.914	18.192	0.537
828.000	489.343	80.001	19.996	100.687	19.916	18.003	0.524
828.500	489.620	80.001	19.995	100.687	19.919	17.862	0.519
829.000	489.849	80.002	19.996	100.687	19.923	17.563	0.515
829.500	490.146	80.002	19.995	100.687	19.931	17.044	0.516
830.000	490.406	80.001	19.996	100.688	19.936	16.757	0.542
830.500	490.679	80.001	19.996	100.687	19.937	16.683	0.545
831.000	490.952	80.001	19.996	100.687	19.940	16.480	0.539
831.500	491.225	80.001	19.997	100.687	19.948	15.959	0.546
832.000	491.467	80.001	19.996	100.688	19.953	15.671	0.530
832.500	491.693	80.002	19.996	100.689	19.952	15.719	0.492
833.000	491.971	80.002	19.996	100.689	19.955	15.549	0.486
833.500	492.237	80.002	19.996	100.690	19.962	15.065	0.524
834.000	492.487	79.999	19.996	100.690	19.962	15.056	0.530
834.500	492.758	80.001	19.995	100.689	19.967	14.744	0.518
835.000	493.045	80.001	19.997	100.689	19.969	14.604	0.540
835.500	493.278	80.002	19.996	100.689	19.971	14.470	0.539
836.000	493.567	80.001	19.997	100.689	19.983	13.746	0.520
836.500	493.848	80.002	19.997	100.689	19.980	13.924	0.546
837.000	494.115	80.002	19.997	100.688	19.982	13.765	0.559
837.500	494.377	80.002	19.996	100.687	19.992	13.166	0.539
838.000	494.631	80.001	19.997	100.687	19.988	13.433	0.523
838.500	494.900	80.002	19.996	100.686	19.996	12.906	0.519
839.000	495.182	80.002	19.996	100.685	19.999	12.727	0.537
839.500	495.443	80.003	19.996	100.686	20.002	12.534	0.547
840.000	495.686	80.001	19.997	100.686	20.005	12.349	0.523
840.500	495.946	80.001	19.996	100.686	20.003	12.429	0.503
841.000	496.204	80.002	19.996	100.686	20.007	12.203	0.511
841.500	496.443	80.002	19.997	100.688	20.013	11.835	0.508
842.000	496.750	80.003	19.996	100.688	20.016	11.639	0.521
842.500	496.989	80.002	19.995	100.689	20.020	11.367	0.546
843.000	497.278	80.001	19.994	100.689	20.019	11.393	0.537
843.500	497.538	80.002	19.996	100.689	20.022	11.257	0.539
844.000	497.782	80.000	19.995	100.689	20.027	10.907	0.527
844.500	498.039	80.003	19.996	100.688	20.030	10.714	0.503
845.000	498.301	80.002	19.995	100.689	20.030	10.730	0.510
845.500	498.568	80.002	19.996	100.690	20.030	10.703	0.523
846.000	498.820	80.002	19.996	100.690	20.035	10.399	0.524
846.500	499.081	80.001	19.994	100.691	20.040	10.064	0.516
847.000	499.350	80.000	19.994	100.691	20.042	9.943	0.522
847.500	499.615	80.000	19.995	100.691	20.039	10.102	0.532
848.000	499.883	80.001	19.995	100.691	20.044	9.790	0.534
848.500	500.101	80.001	19.995	100.691	20.048	9.572	0.509
849.000	500.374	80.000	19.996	100.690	20.051	9.349	0.488
849.500	500.627	80.000	19.994	100.694	20.056	9.054	0.508
850.000	500.870	80.001	19.997	100.698	20.052	9.270	0.511
850.500	501.186	80.001	19.996	100.700	20.053	9.231	0.528
851.000	501.453	80.001	19.995	100.703	20.056	9.019	0.571
851.500	501.686	80.001	19.996	100.705	20.063	8.592	0.541
852.000	501.917	80.001	19.996	100.705	20.066	8.413	0.481
852.500	502.190	80.000	19.995	100.704	20.066	8.389	0.484
853.000	502.442	80.000	19.997	100.704	20.068	8.242	0.515
853.500	502.685	80.002	19.997	100.704	20.071	8.063	0.510
854.000	502.943	80.001	19.996	100.704	20.071	8.069	0.498
854.500	503.192	80.000	19.995	100.702	20.072	7.995	0.504
855.000	503.413	80.001	19.996	100.698	20.074	7.874	0.489
855.500	503.707	80.000	19.996	100.700	20.075	7.846	0.492
856.000	503.955	80.002	19.996	100.703	20.079	7.583	0.528
856.500	504.218	80.002	19.996	100.707	20.080	7.496	0.526
857.000	504.496	80.001	19.996	100.712	20.081	7.404	0.526
857.500	504.715	80.001	19.995	100.713	20.081	7.459	0.519
858.000	504.983	80.002	19.996	100.711	20.081	7.415	0.492
858.500	505.252	80.002	19.997	100.706	20.084	7.272	0.512
859.000	505.480	80.002	19.996	100.700	20.087	7.069	0.517
859.500	505.722	80.002	19.995	100.695	20.081	7.440	0.483
860.000	505.979	80.003	19.996	100.693	20.088	7.016	0.484
860.500	506.195	80.002	19.997	100.691	20.087	7.078	0.486
861.000	506.475	80.003	19.998	100.692	20.090	6.884	0.485
861.500	506.732	80.003	19.997	100.695	20.089	6.944	0.517
862.000	506.997	80.001	19.997	100.697	20.097	6.402	0.530
862.500	507.214	80.004	19.997	100.697	20.094	6.589	0.502
863.000	507.495	80.003	19.997	100.698	20.095	6.566	0.490
863.500	507.708	80.002	19.996	100.699	20.099	6.302	0.496
864.000	507.995	80.003	19.996	100.696	20.098	6.355	0.497
864.500	508.217	80.002	19.995	100.696	20.098	6.323	0.504
865.000	508.462	80.004	19.996	100.697	20.102	6.073	0.488
865.500	508.723	80.003	19.996	100.699	20.105	5.875	0.487
866.000	508.975	80.003	19.995	100.698	20.100	6.220	0.509
866.500	509.200	80.003	19.996	100.699	20.104	5.943	0.495
867.000	509.472	80.003	19.996	100.699	20.104	5.976	0.487
867.500	509.711	80.001	19.997	100.698	20.109	5.665	0.504
868.000	509.949	80.001	19.996	100.696	20.105	5.865	0.494
868.500	510.189	80.003	19.995	100.698	20.107	5.752	0.477
869.000	510.471	80.004	19.995	100.696	20.112	5.436	0.500
869.500	510.709	80.004	19.995	100.698	20.109	5.649	0.521
870.000	510.954	80.004	19.996	100.699	20.110	5.571	0.502
870.500	511.206	80.004	19.995	100.704	20.112	5.437	0.490
871.000	511.448	80.003	19.996	100.706	20.114	5.320	0.496
871.500	511.687	80.003	19.995	100.710	20.116	5.162	0.488
872.000	511.929	80.003	19.995	100.716	20.115	5.252	0.481
872.500	512.137	80.002	19.996	100.718	20.113	5.379	0.465
873.000	512.393	80.002	19.996	100.714	20.116	5.160	0.457
873.500	512.682	80.001	19.994	100.712	20.121	4.849	0.504
874.000	512.926	80.001	19.995	100.709	20.122	4.787	0.539
874.500	513.150	80.002	19.995	100.704	20.123	4.743	0.501
875.000	513.415	80.001	19.995	100.699	20.119	4.992	0.479
875.500	513.672	80.000	19.995	100.697	20.120	4.956	0.505
876.000	513.943	80.003	19.997	100.696	20.123	4.739	0.524
876.500	514.177	80.002	19.996	100.694	20.121	4.891	0.517
877.000	514.450	80.002	19.996	100.692	20.122	4.827	0.506
877.500	514.719	80.002	19.995	100.693	20.122	4.817	0.524
878.000	514.972	80.002	19.996	100.697	20.122	4.785	0.532
878.500	515.247	80.002	19.998	100.697	20.128	4.439	0.525
879.000	515.509	80.002	19.995	100.697	20.126	4.527	0.533
879.500	515.728	80.004	19.997	100.697	20.129	4.340	0.509
880.000	516.012	80.001	19.995	100.695	20.127	4.453	0.492
880.500	516.263	80.002	19.997	100.691	20.127	4.499	0.519
881.000	516.529	80.000	19.996	100.690	20.130	4.298	0.526
881.500	516.751	80.002	19.996	100.689	20.128	4.401	0.503
882.000	517.056	80.002	19.996	100.690	20.131	4.229	0.507
882.500	517.291	80.002	19.994	100.697	20.128	4.386	0.533
883.000	517.556	80.003	19.997	100.701	20.134	4.026	0.520
883.500	517.787	80.002	19.995	100.702	20.129	4.361	0.498
884.000	518.055	80.003	19.997	100.702	20.136	3.886	0.498
884.500	518.346	80.005	19.997	100.701	20.132	4.131	0.529
885.000	518.581	80.003	19.996	100.694	20.136	3.930	0.542
885.500	518.836	80.003	19.996	100.690	20.138	3.764	0.508
886.000	519.100	80.003	19.995	100.689	20.136	3.895	0.504
886.500	519.368	80.003	19.996	100.689	20.139	3.715	0.526
887.000	519.655	80.003	19.997	100.688	20.138	3.761	0.544
887.501	519.879	80.004	19.997	100.688	20.139	3.716	0.533
888.000	520.171	80.004	19.996	100.687	20.139	3.738	0.513
888.500	520.454	80.004	19.996	100.687	20.134	4.004	0.546
889.000	520.675	80.003	19.996	100.688	20.136	3.926	0.539
889.500	520.923	80.006	19.996	100.688	20.137	3.850	0.486
890.000	521.215	80.003	19.996	100.688	20.140	3.624	0.504
890.500	521.438	80.003	19.995	100.690	20.140	3.654	0.528
891.000	521.706	80.004	19.997	100.695	20.142	3.513	0.504
891.500	521.962	80.003	19.997	100.701	20.143	3.460	0.507
892.000	522.251	80.003	19.997	100.708	20.142	3.490	0.534
892.500	522.503	80.004	19.998	100.713	20.144	3.381	0.543
893.000	522.782	80.003	19.997	100.713	20.144	3.412	0.536
893.500	523.004	80.004	19.997	100.707	20.144	3.402	0.516
894.000	523.267	80.004	19.997	100.700	20.142	3.499	0.493
894.500	523.595	80.002	19.997	100.696	20.143	3.439	0.538
895.000	523.816	80.004	19.996	100.692	20.146	3.253	0.570
895.500	524.079	80.003	19.997	100.691	20.145	3.349	0.516
896.000	524.345	80.002	19.996	100.692	20.148	3.130	0.507
896.500	524.629	80.002	19.997	100.697	20.147	3.209	0.539
897.000	524.864	80.004	19.997	100.700	20.147	3.204	0.534
897.500	525.124	80.002	19.996	100.704	20.148	3.115	0.507
898.000	525.399	80.003	19.996	100.705	20.149	3.039	0.515
898.500	525.665	80.001	19.996	100.704	20.142	3.545	0.538
899.000	525.956	80.002	19.997	100.699	20.147	3.198	0.549
899.500	526.206	80.002	19.997	100.695	20.144	3.364	0.550
900.000	526.450	80.001	19.995	100.692	20.144	3.361	0.517
900.500	526.742	80.002	19.998	100.696	20.144	3.368	0.514
901.000	526.954	80.002	19.997	100.697	20.145	3.338	0.520
901.500	527.242	80.003	19.997	100.698	20.150	2.972	0.502
902.000	527.529	80.003	19.996	100.701	20.149	3.069	0.537
902.500	527.778	80.001	19.996	100.699	20.149	3.084	0.555
903.000	528.021	80.002	19.995	100.697	20.146	3.245	0.514
903.500	528.322	80.001	19.995	100.700	20.150	3.002	0.518
904.000	528.591	80.002	19.996	100.700	20.149	3.040	0.557
904.500	528.870	80.003	19.996	100.697	20.151	2.926	0.559
905.000	529.112	80.001	19.997	100.696	20.151	2.911	0.534
905.500	529.386	80.002	19.996	100.695	20.153	2.792	0.519
906.000	529.626	80.001	19.996	100.695	20.150	2.971	0.515
906.500	529.909	80.002	19.998	100.697	20.150	3.017	0.518
907.000	530.141	80.003	19.996	100.701	20.153	2.833	0.519
907.500	530.435	80.002	19.995	100.702	20.158	2.464	0.521
908.000	530.706	80.001	19.996	100.702	20.151	2.953	0.546
908.500	530.950	80.002	19.996	100.699	20.156	2.646	0.540
909.000	531.200	80.002	19.998	100.697	20.148	3.140	0.504
909.500	531.490	80.001	19.996	100.693	20.151	2.912	0.517
910.000	531.737	80.002	19.997	100.691	20.152	2.889	0.539
910.500	531.991	80.000	19.997	100.689	20.154	2.764	0.519
911.000	532.276	80.003	19.997	100.689	20.149	3.057	0.520
911.500	532.547	80.003	19.996	100.690	20.154	2.743	0.548
912.000	532.790	80.002	19.995	100.690	20.152	2.870	0.535
912.500	533.054	80.002	19.994	100.691	20.152	2.852	0.510
913.000	533.303	80.002	19.995	100.697	20.152	2.843	0.510
913.500	533.563	80.003	19.995	100.701	20.156	2.626	0.511
914.000	533.845	80.001	19.995	100.700	20.155	2.683	0.526
914.500	534.086	80.003	19.996	100.701	20.156	2.638	0.532
915.000	534.396	80.002	19.996	100.705	20.156	2.642	0.537
915.500	534.666	80.002	19.996	100.701	20.152	2.843	0.566
916.000	534.927	80.003	19.996	100.701	20.156	2.629	0.556
916.500	535.172	80.001	19.996	100.708	20.158	2.486	0.518
917.000	535.446	80.002	19.996	100.711	20.155	2.705	0.512
917.500	535.709	80.003	19.996	100.712	20.158	2.499	0.528
918.000	535.994	80.002	19.996	100.718	20.155	2.683	0.542
918.500	536.241	80.002	19.997	100.716	20.156	2.593	0.540
919.000	536.513	80.001	19.995	100.711	20.156	2.646	0.525
919.500	536.765	80.002	19.996	100.710	20.154	2.736	0.521
920.000	537.040	80.004	19.996	100.706	20.158	2.517	0.526
920.500	537.308	80.003	19.996	100.704	20.156	2.593	0.536
921.000	537.549	80.004	19.996	100.703	20.159	2.437	0.526
921.500	537.846	80.003	19.996	100.702	20.157	2.529	0.523
922.000	538.117	80.001	19.996	100.701	20.157	2.531	0.553
922.500	538.355	80.002	19.996	100.703	20.157	2.579	0.539
923.000	538.643	80.002	19.995	100.700	20.153	2.794	0.518
923.500	538.898	80.002	19.996	100.700	20.154	2.720	0.535
924.000	539.144	80.003	19.995	100.703	20.156	2.591	0.521
924.500	539.433	80.001	19.996	100.702	20.158	2.517	0.518
925.000	539.675	80.001	19.997	100.700	20.159	2.407	0.533
925.500	539.963	80.002	19.996	100.700	20.156	2.596	0.530
926.000	540.219	80.001	19.996	100.699	20.159	2.435	0.537
926.500	540.452	80.002	19.996	100.696	20.161	2.317	0.517
927.000	540.777	80.002	19.996	100.696	20.156	2.617	0.523
927.500	540.999	80.002	19.996	100.695	20.156	2.615	0.553
928.000	541.287	80.002	19.997	100.695	20.155	2.693	0.529
928.500	541.562	80.002	19.996	100.698	20.157	2.564	0.537
929.000	541.820	80.003	19.996	100.699	20.157	2.539	0.548
929.501	542.047	80.001	19.997	100.704	20.155	2.672	0.509
930.000	542.359	80.001	19.995	100.703	20.155	2.658	0.512
930.500	542.588	80.001	19.996	100.706	20.156	2.596	0.539
931.000	542.842	80.002	19.995	100.706	20.156	2.633	0.512
931.500	543.092	80.000	19.995	100.707	20.160	2.377	0.494
932.000	543.386	80.000	19.996	100.704	20.155	2.661	0.524
932.500	543.645	80.000	19.995	100.709	20.162	2.230	0.548
933.000	543.892	80.001	19.996	100.711	20.162	2.241	0.529
933.500	544.169	80.001	19.995	100.715	20.154	2.721	0.515
934.001	544.428	80.000	19.995	100.717	20.160	2.340	0.531
934.500	544.664	80.000	19.996	100.719	20.161	2.302	0.516
935.000	544.955	80.002	19.995	100.721	20.159	2.394	0.510
935.500	545.204	80.001	19.997	100.716	20.160	2.380	0.533
936.000	545.450	80.001	19.995	100.709	20.161	2.269	0.518
936.500	545.713	80.002	19.996	100.705	20.160	2.387	0.502
937.000	545.993	80.000	19.995	100.701	20.160	2.350	0.526
937.500	546.233	80.000	19.995	100.694	20.155	2.667	0.531
938.000	546.470	80.001	19.996	100.694	20.161	2.304	0.498
938.500	546.783	80.001	19.995	100.695	20.158	2.493	0.513
939.000	547.019	80.002	19.996	100.698	20.161	2.313	0.550
939.500	547.267	80.001	19.997	100.699	20.162	2.237	0.517
940.000	547.534	80.002	19.995	100.701	20.158	2.502	0.500
940.501	547.803	80.001	19.996	100.703	20.161	2.302	0.526
941.001	548.081	80.002	19.996	100.703	20.162	2.246	0.542
941.501	548.330	80.001	19.995	100.701	20.161	2.299	0.537
942.001	548.558	80.004	19.997	100.700	20.160	2.368	0.502
942.500	548.829	80.002	19.995	100.699	20.160	2.380	0.488
943.000	549.091	80.003	19.995	100.699	20.155	2.695	0.516
943.500	549.343	80.003	19.996	100.697	20.157	2.530	0.523
944.000	549.591	80.004	19.996	100.698	20.165	2.043	0.507
944.500	549.875	80.004	19.997	100.698	20.159	2.403	0.516
945.000	550.146	80.003	19.995	100.697	20.155	2.681	0.543
945.500	550.405	80.003	19.996	100.694	20.156	2.598	0.543
946.000	550.688	80.003	19.996	100.694	20.160	2.348	0.536
946.500	550.962	80.004	19.996	100.695	20.158	2.460	0.549
947.001	551.188	80.004	19.997	100.699	20.160	2.341	0.528
947.500	551.475	80.002	19.996	100.700	20.162	2.211	0.507
948.001	551.705	80.004	19.996	100.701	20.161	2.269	0.515
948.501	551.952	80.003	19.996	100.701	20.157	2.548	0.497
949.000	552.206	80.003	19.996	100.702	20.164	2.104	0.489
949.500	552.457	80.003	19.995	100.697	20.162	2.248	0.503
950.000	552.745	80.003	19.996	100.695	20.159	2.421	0.522
950.500	552.985	80.004	19.995	100.696	20.159	2.446	0.533
951.000	553.235	80.002	19.997	100.696	20.160	2.375	0.509
951.500	553.493	80.002	19.997	100.694	20.158	2.492	0.499
952.000	553.757	80.002	19.997	100.697	20.160	2.338	0.515
952.500	554.017	80.002	19.996	100.699	20.163	2.175	0.523
953.000	554.291	80.002	19.997	100.699	20.160	2.338	0.528
953.500	554.549	80.003	19.997	100.699	20.158	2.513	0.533
954.000	554.807	80.003	19.996	100.697	20.164	2.075	0.524
954.500	555.053	80.003	19.997	100.695	20.162	2.200	0.510
955.000	555.300	80.002	19.998	100.694	20.159	2.440	0.499
955.500	555.567	80.002	19.997	100.692	20.163	2.172	0.504
956.000	555.855	80.002	19.997	100.691	20.159	2.431	0.534
956.500	556.071	80.002	19.996	100.693	20.159	2.428	0.529
957.000	556.338	80.003	19.998	100.693	20.162	2.234	0.494
957.500	556.593	80.003	19.997	100.692	20.159	2.412	0.503
958.000	556.860	80.004	19.997	100.692	20.161	2.273	0.522
958.500	557.119	80.003	19.997	100.692	20.159	2.421	0.524
959.000	557.374	80.003	19.996	100.689	20.157	2.550	0.520
959.500	557.634	80.002	19.998	100.690	20.161	2.306	0.514
960.000	557.902	80.002	19.996	100.690	20.166	1.944	0.521
960.500	558.149	80.001	19.996	100.690	20.159	2.410	0.522
961.000	558.377	80.003	19.996	100.693	20.159	2.403	0.495
961.500	558.690	80.003	19.997	100.694	20.162	2.239	0.508
962.000	558.923	80.002	19.996	100.693	20.161	2.324	0.544
962.500	559.154	80.003	19.997	100.695	20.162	2.209	0.505
963.000	559.410	80.003	19.997	100.696	20.161	2.295	0.475
963.500	559.677	80.003	19.996	100.694	20.161	2.294	0.505
964.000	559.893	80.003	19.998	100.694	20.160	2.340	0.503
964.500	560.156	80.002	19.995	100.696	20.160	2.362	0.481
965.000	560.407	80.003	19.997	100.697	20.167	1.910	0.497
965.500	560.663	80.003	19.997	100.697	20.160	2.327	0.511
966.000	560.935	80.003	19.996	100.697	20.167	1.884	0.518
966.500	561.153	80.003	19.996	100.694	20.167	1.896	0.509
967.000	561.429	80.003	19.997	100.694	20.160	2.336	0.492
967.500	561.701	80.001	19.995	100.692	20.165	2.028	0.521
968.000	561.944	80.004	19.998	100.696	20.164	2.119	0.531
968.500	562.218	80.004	19.995	100.697	20.164	2.108	0.516
969.000	562.448	80.004	19.997	100.698	20.166	1.958	0.511
969.500	562.725	80.004	19.996	100.698	20.160	2.327	0.506
970.000	562.951	80.003	19.996	100.697	20.158	2.463	0.505
970.500	563.209	80.003	19.995	100.690	20.161	2.304	0.493
971.000	563.493	80.004	19.995	100.689	20.167	1.889	0.513
971.500	563.726	80.005	19.995	100.690	20.166	1.991	0.530
972.000	563.953	80.005	19.996	100.691	20.164	2.106	0.488
972.500	564.217	80.004	19.996	100.693	20.165	2.067	0.475
973.000	564.439	80.004	19.996	100.695	20.163	2.182	0.488
973.500	564.729	80.004	19.997	100.695	20.163	2.161	0.499
974.000	564.998	80.004	19.995	100.695	20.165	2.011	0.535
974.501	565.233	80.004	19.997	100.695	20.161	2.304	0.531
975.000	565.482	80.003	19.996	100.693	20.164	2.085	0.494
975.500	565.730	80.003	19.996	100.691	20.166	1.961	0.491
976.000	566.033	80.005	19.996	100.691	20.165	2.037	0.524
976.500	566.174	80.002	19.997	100.690	20.163	2.184	0.497
977.000	566.428	80.003	19.997	100.688	20.167	1.898	0.420
977.500	566.739	80.002	19.997	100.688	20.166	1.993	0.481
978.000	566.944	80.001	19.995	100.687	20.165	2.009	0.540
978.500	567.248	80.002	19.996	100.687	20.165	2.018	0.512
979.000	567.503	80.003	19.996	100.688	20.162	2.251	0.534
979.500	567.735	80.002	19.997	100.688	20.166	1.998	0.523
980.000	568.003	80.003	19.997	100.688	20.164	2.087	0.493
980.500	568.318	80.001	19.996	100.689	20.167	1.917	0.541
981.000	568.527	80.001	19.997	100.690	20.158	2.486	0.554
981.500	568.769	80.001	19.997	100.691	20.164	2.110	0.488
982.000	569.026	80.000	19.996	100.691	20.166	1.972	0.475
982.500	569.298	80.000	19.998	100.691	20.166	1.944	0.514
983.000	569.549	80.001	19.998	100.692	20.161	2.322	0.525
983.500	569.763	80.001	19.998	100.691	20.166	1.951	0.494
984.000	570.024	80.000	19.997	100.691	20.162	2.253	0.470
984.500	570.286	80.001	19.998	100.692	20.168	1.854	0.499
985.000	570.540	80.001	19.997	100.692	20.166	1.988	0.520
985.500	570.797	80.002	19.996	100.693	20.161	2.324	0.513
986.000	571.029	80.000	19.996	100.693	20.168	1.820	0.500
986.500	571.314	80.002	19.998	100.694	20.166	1.981	0.503
987.000	571.544	80.001	19.998	100.693	20.163	2.161	0.516
987.500	571.807	80.000	19.998	100.692	20.162	2.202	0.503
988.000	572.047	80.000	19.996	100.692	20.168	1.870	0.498
988.500	572.285	80.000	19.996	100.691	20.165	2.064	0.491
989.000	572.536	80.001	19.997	100.690	20.168	1.827	0.484
989.500	572.797	80.001	19.997	100.690	20.166	2.002	0.500
990.000	573.080	80.002	19.997	100.690	20.164	2.101	0.528
990.500	573.320	80.001	19.997	100.692	20.163	2.191	0.534
991.000	573.599	80.002	19.998	100.694	20.165	2.052	0.521
991.500	573.836	80.002	19.998	100.697	20.164	2.128	0.517
992.000	574.095	80.001	19.997	100.700	20.164	2.075	0.506
992.500	574.355	80.001	19.997	100.701	20.166	1.979	0.508
993.000	574.634	80.002	19.997	100.701	20.170	1.702	0.529
993.500	574.879	80.000	19.996	100.701	20.167	1.878	0.532
994.000	575.128	80.000	19.996	100.698	20.162	2.209	0.509
994.500	575.357	80.001	19.998	100.697	20.168	1.873	0.486
995.000	575.640	80.001	19.995	100.696	20.168	1.815	0.495
995.500	575.853	80.003	19.997	100.697	20.167	1.882	0.504
996.000	576.078	80.003	19.997	100.696	20.168	1.875	0.467
996.500	576.378	80.002	19.997	100.701	20.171	1.684	0.482
997.000	576.631	80.001	19.996	100.700	20.165	2.016	0.539
997.500	576.857	80.002	19.998	100.700	20.166	1.988	0.516
998.000	577.130	80.002	19.996	100.699	20.167	1.923	0.489
998.500	577.369	80.003	19.996	100.698	20.166	1.946	0.506
999.000	577.596	80.002	19.998	100.694	20.168	1.827	0.488
999.500	577.843	80.000	19.995	100.693	20.170	1.739	0.470
1000.000	578.119	80.001	19.996	100.693	20.170	1.696	0.499
1000.500	578.367	80.002	19.996	100.693	20.166	2.002	0.523
1001.000	578.600	80.001	19.996	100.694	20.170	1.744	0.503
1001.500	578.845	80.001	19.997	100.695	20.166	1.942	0.480
1002.001	579.084	80.000	19.996	100.694	20.173	1.551	0.481
1002.500	579.358	80.000	19.997	100.695	20.170	1.716	0.498
1003.000	579.583	80.001	19.997	100.695	20.173	1.525	0.505
1003.500	579.842	80.000	19.998	100.694	20.167	1.921	0.491
1004.000	580.087	80.002	19.996	100.694	20.173	1.506	0.495
1004.500	580.315	80.001	19.997	100.694	20.172	1.610	0.489
1005.000	580.585	80.001	19.996	100.693	20.167	1.909	0.485
1005.500	580.835	80.001	19.996	100.693	20.168	1.838	0.509
1006.000	581.081	80.003	19.996	100.693	20.171	1.635	0.508
1006.500	581.305	80.001	19.996	100.692	20.167	1.914	0.483
1007.000	581.584	80.002	19.996	100.695	20.171	1.631	0.487
1007.500	581.863	80.000	19.996	100.699	20.173	1.500	0.531
1008.000	582.075	80.001	19.996	100.700	20.167	1.889	0.524
1008.500	582.336	80.002	19.995	100.701	20.171	1.682	0.482
1009.000	582.574	80.003	19.997	100.701	20.169	1.787	0.486
1009.500	582.821	80.002	19.995	100.698	20.167	1.908	0.492
1010.000	583.085	80.001	19.997	100.694	20.170	1.728	0.498
1010.500	583.339	80.000	19.997	100.692	20.168	1.854	0.514
1011.000	583.554	80.001	19.998	100.690	20.169	1.772	0.494
1011.500	583.842	80.001	19.997	100.690	20.167	1.914	0.486
1012.000	584.088	80.001	19.997	100.690	20.169	1.811	0.519
1012.500	584.312	80.000	19.997	100.691	20.166	1.970	0.502
1013.000	584.560	80.002	19.997	100.691	20.169	1.772	0.471
1013.500	584.811	80.001	19.997	100.690	20.168	1.877	0.486
1014.000	585.069	80.001	19.998	100.690	20.169	1.787	0.504
1014.500	585.310	79.999	19.996	100.691	20.169	1.774	0.504
1015.000	585.555	79.999	19.996	100.693	20.169	1.756	0.493
1015.500	585.826	80.000	19.996	100.699	20.164	2.099	0.501
1016.000	586.068	80.000	19.996	100.700	20.170	1.744	0.514
1016.500	586.297	80.001	19.997	100.700	20.166	1.993	0.492
1017.000	586.540	80.002	19.997	100.700	20.173	1.507	0.471
1017.500	586.798	80.001	19.996	100.697	20.164	2.133	0.487
1018.000	587.059	80.003	19.998	100.691	20.166	2.002	0.510
1018.500	587.319	80.001	19.997	100.691	20.169	1.797	0.520
1019.000	587.514	80.001	19.996	100.693	20.168	1.839	0.488
1019.500	587.761	80.001	19.997	100.694	20.167	1.938	0.449
1020.000	588.042	80.001	19.996	100.695	20.171	1.640	0.485
1020.500	588.270	80.001	19.996	100.697	20.165	2.021	0.518
1021.000	588.526	80.001	19.997	100.698	20.167	1.910	0.497
1021.500	588.792	80.001	19.997	100.697	20.171	1.670	0.503
1022.000	589.019	80.002	19.996	100.695	20.170	1.695	0.508
1022.500	589.281	80.001	19.996	100.696	20.171	1.633	0.491
1023.000	589.504	80.002	19.996	100.695	20.173	1.537	0.487
1023.500	589.745	80.003	19.997	100.698	20.167	1.896	0.474
1024.000	589.985	80.003	19.997	100.699	20.170	1.686	0.472
1024.500	590.281	80.003	19.996	100.699	20.171	1.650	0.509
1025.000	590.497	80.004	19.997	100.697	20.172	1.587	0.524
1025.500	590.729	80.002	19.996	100.695	20.167	1.898	0.480
1026.001	591.002	80.003	19.996	100.690	20.171	1.661	0.477
1026.501	591.221	80.003	19.996	100.689	20.170	1.689	0.498
1027.001	591.475	80.004	19.995	100.689	20.166	1.947	0.482
1027.500	591.712	80.004	19.996	100.689	20.165	2.021	0.482
1028.000	591.964	80.003	19.996	100.690	20.168	1.866	0.490
1028.500	592.239	80.004	19.996	100.691	20.162	2.221	0.508
1029.000	592.493	80.004	19.997	100.691	20.176	1.345	0.528
1029.501	592.727	80.004	19.995	100.691	20.171	1.622	0.508
1030.001	592.960	80.003	19.997	100.691	20.166	1.951	0.478
1030.501	593.189	80.003	19.995	100.691	20.168	1.841	0.464
1031.000	593.479	80.003	19.996	100.691	20.169	1.808	0.490
1031.500	593.690	80.002	19.994	100.691	20.171	1.666	0.510
1032.001	593.954	80.004	19.996	100.690	20.168	1.854	0.488
1032.501	594.195	80.004	19.995	100.691	20.168	1.824	0.490
1033.000	594.416	80.004	19.996	100.690	20.176	1.318	0.484
1033.500	594.709	80.003	19.996	100.691	20.179	1.161	0.488
1034.000	594.959	80.004	19.996	100.691	20.168	1.875	0.528
1034.501	595.179	80.003	19.998	100.691	20.174	1.433	0.506
1035.001	595.432	80.003	19.995	100.689	20.168	1.818	0.472
1035.501	595.696	80.003	19.996	100.684	20.171	1.626	0.496
1036.000	595.889	80.004	19.996	100.683	20.172	1.604	0.487
1036.500	596.170	80.003	19.997	100.683	20.173	1.537	0.465
1037.000	596.428	80.003	19.996	100.684	20.173	1.498	0.506
1037.500	596.659	80.003	19.996	100.685	20.171	1.633	0.514
1038.000	596.915	80.003	19.995	100.687	20.170	1.730	0.488
1038.500	597.133	80.003	19.996	100.687	20.169	1.776	0.481
1039.000	597.369	80.003	19.996	100.687	20.171	1.642	0.464
1039.500	597.661	80.002	19.995	100.687	20.170	1.712	0.491
1040.000	597.890	80.004	19.997	100.687	20.169	1.749	0.525
1040.500	598.161	80.004	19.997	100.688	20.170	1.718	0.511
1041.001	598.404	80.004	19.997	100.689	20.172	1.594	0.507
1041.501	598.618	80.003	19.996	100.690	20.173	1.500	0.486
1042.000	598.876	80.003	19.996	100.691	20.171	1.672	0.464
1042.500	599.097	80.003	19.996	100.691	20.169	1.788	0.475
1043.000	599.333	80.003	19.996	100.693	20.168	1.829	0.468
1043.501	599.592	80.002	19.997	100.696	20.170	1.712	0.476
1044.001	599.832	80.002	19.996	100.696	20.170	1.687	0.497
1044.500	600.084	80.001	19.995	100.696	20.172	1.587	0.495
1045.000	600.325	80.003	19.996	100.696	20.170	1.693	0.492
1045.500	600.541	80.002	19.996	100.695	20.173	1.495	0.475
1046.000	600.839	80.004	19.996	100.694	20.168	1.827	0.486
1046.500	601.058	80.002	19.995	100.694	20.171	1.627	0.515
1047.000	601.351	80.003	19.996	100.694	20.171	1.634	0.514
1047.500	601.613	80.004	19.996	100.694	20.173	1.532	0.533
1048.000	601.826	80.004	19.997	100.694	20.174	1.475	0.516
1048.501	602.112	80.002	19.996	100.692	20.177	1.242	0.487
1049.001	602.323	80.003	19.996	100.692	20.172	1.560	0.498
1049.500	602.545	80.003	19.999	100.691	20.175	1.401	0.465
1050.000	602.809	80.003	19.997	100.691	20.172	1.611	0.460
1050.500	603.066	80.003	19.996	100.690	20.176	1.352	0.503
1051.000	603.344	80.004	19.996	100.690	20.175	1.405	0.528
1051.500	603.566	80.003	19.997	100.690	20.173	1.525	0.518
1052.000	603.782	80.003	19.996	100.691	20.173	1.548	0.469
1052.500	604.022	80.003	19.996	100.691	20.172	1.601	0.447
1053.000	604.264	80.003	19.996	100.691	20.175	1.364	0.469
1053.501	604.538	80.004	19.995	100.690	20.170	1.696	0.499
1054.001	604.774	80.005	19.995	100.690	20.167	1.930	0.513
1054.500	605.055	80.004	19.995	100.689	20.171	1.670	0.514
1055.000	605.285	80.004	19.996	100.689	20.171	1.663	0.514
1055.500	605.556	80.003	19.996	100.689	20.173	1.523	0.506
1056.000	605.794	80.005	19.997	100.689	20.176	1.301	0.505
1056.500	606.047	80.003	19.995	100.689	20.175	1.426	0.501
1057.000	606.300	80.004	19.996	100.689	20.175	1.394	0.499
1057.500	606.517	80.002	19.996	100.689	20.172	1.557	0.488
1058.000	606.761	80.003	19.995	100.688	20.173	1.507	0.465
1058.500	606.983	80.004	19.997	100.689	20.176	1.334	0.463
1059.000	607.251	80.003	19.998	100.690	20.166	1.974	0.478
1059.500	607.470	80.001	19.996	100.690	20.171	1.679	0.488
1060.000	607.757	80.002	19.995	100.688	20.173	1.539	0.497
1060.500	607.990	80.003	19.996	100.688	20.174	1.456	0.514
1061.000	608.231	80.003	19.998	100.688	20.177	1.278	0.497
1061.500	608.512	80.003	19.995	100.687	20.174	1.460	0.498
1062.000	608.741	80.000	19.995	100.688	20.171	1.661	0.516
1062.500	609.023	80.002	19.996	100.690	20.169	1.809	0.511
1063.001	609.256	80.002	19.997	100.691	20.173	1.525	0.513
1063.501	609.516	80.002	19.997	100.690	20.174	1.465	0.503
1064.000	609.748	80.001	19.995	100.689	20.170	1.746	0.492
1064.500	609.995	80.000	19.995	100.689	20.172	1.613	0.485
1065.000	610.229	80.000	19.996	100.689	20.168	1.832	0.480
1065.500	610.483	80.003	19.998	100.692	20.174	1.481	0.484
1066.001	610.745	80.000	19.996	100.696	20.169	1.785	0.502
1066.501	610.954	80.001	19.996	100.698	20.170	1.707	0.494
1067.001	611.206	80.001	19.996	100.699	20.174	1.458	0.467
1067.501	611.476	80.001	19.996	100.701	20.171	1.631	0.492
1068.000	611.755	80.000	19.996	100.701	20.169	1.809	0.535
1068.500	611.979	80.001	19.997	100.697	20.173	1.544	0.526
1069.000	612.244	80.000	19.996	100.697	20.171	1.624	0.496
1069.500	612.504	80.001	19.996	100.696	20.173	1.555	0.507
1070.000	612.753	80.001	19.997	100.695	20.169	1.749	0.517
1070.500	612.984	80.000	19.996	100.698	20.167	1.893	0.495
1071.000	613.236	80.001	19.997	100.703	20.174	1.463	0.482
1071.500	613.523	80.000	19.997	100.706	20.175	1.373	0.511
1072.000	613.784	80.000	19.998	100.707	20.174	1.458	0.544
1072.500	614.033	80.000	19.996	100.706	20.176	1.334	0.529
1073.000	614.289	80.000	19.995	100.701	20.173	1.539	0.507
1073.500	614.519	80.002	19.998	100.696	20.174	1.430	0.495
1074.000	614.795	79.999	19.997	100.692	20.171	1.654	0.496
1074.500	615.049	80.000	19.997	100.693	20.175	1.375	0.518
1075.000	615.326	80.001	19.998	100.693	20.171	1.624	0.530
1075.500	615.609	80.002	19.997	100.694	20.172	1.576	0.545
1076.000	615.831	80.002	19.997	100.694	20.177	1.260	0.533
1076.500	616.114	80.000	19.997	100.695	20.178	1.193	0.506
1077.000	616.369	80.002	19.997	100.694	20.177	1.283	0.522
1077.501	616.627	80.001	19.998	100.694	20.175	1.403	0.525
1078.001	616.873	80.001	19.997	100.692	20.171	1.666	0.508
1078.501	617.111	80.001	19.997	100.691	20.175	1.421	0.495
1079.001	617.410	80.002	19.997	100.690	20.176	1.327	0.511
1079.500	617.670	80.001	19.996	100.691	20.176	1.327	0.548
1080.000	617.870	80.001	19.998	100.690	20.174	1.461	0.510
1080.501	618.139	80.000	19.998	100.691	20.176	1.334	0.464
1081.001	618.419	80.003	19.998	100.694	20.176	1.329	0.509
1081.501	618.701	80.000	19.997	100.697	20.177	1.272	0.555
1082.000	618.918	80.001	19.997	100.696	20.173	1.495	0.530
1082.500	619.209	80.001	19.998	100.695	20.175	1.364	0.503
1083.000	619.457	80.002	19.997	100.698	20.177	1.270	0.524
1083.500	619.703	80.002	19.996	100.697	20.179	1.168	0.517
1084.001	619.974	80.001	19.997	100.694	20.171	1.634	0.506
1084.501	620.246	80.004	19.998	100.693	20.173	1.546	0.530
1085.000	620.501	80.002	19.996	100.693	20.177	1.292	0.535
1085.501	620.724	80.001	19.997	100.689	20.179	1.170	0.503
1086.001	621.012	80.002	19.996	100.687	20.176	1.316	0.495
1086.500	621.235	80.002	19.996	100.688	20.176	1.308	0.511
1087.000	621.493	80.002	19.997	100.689	20.176	1.362	0.496
1087.500	621.803	80.001	19.996	100.689	20.176	1.332	0.524
1088.000	622.025	80.002	19.996	100.689	20.177	1.244	0.550
1088.500	622.260	80.002	19.996	100.690	20.175	1.403	0.495
1089.000	622.530	80.002	19.996	100.689	20.176	1.309	0.481
1089.500	622.782	80.003	19.996	100.688	20.179	1.152	0.513
1090.001	623.045	80.002	19.997	100.688	20.173	1.502	0.518
1090.501	623.286	80.002	19.997	100.689	20.177	1.248	0.510
1091.001	623.518	80.002	19.996	100.689	20.174	1.446	0.489
1091.500	623.812	80.001	19.996	100.689	20.175	1.373	0.499
1092.000	624.073	80.001	19.996	100.690	20.176	1.347	0.541
1092.500	624.318	80.002	19.996	100.692	20.179	1.168	0.531
1093.000	624.576	80.001	19.996	100.691	20.179	1.166	0.505
1093.500	624.822	80.001	19.995	100.691	20.174	1.484	0.503
1094.000	625.064	80.000	19.994	100.691	20.179	1.170	0.496
1094.500	625.332	80.001	19.996	100.691	20.177	1.290	0.499
1095.000	625.576	80.001	19.996	100.689	20.178	1.198	0.511
1095.500	625.843	80.001	19.996	100.690	20.174	1.428	0.512
1096.001	626.110	80.002	19.996	100.689	20.179	1.168	0.522
1096.501	626.381	80.002	19.996	100.689	20.174	1.440	0.536
1097.000	626.644	80.000	19.996	100.689	20.175	1.416	0.536
1097.500	626.915	80.001	19.996	100.689	20.171	1.626	0.534
1098.000	627.151	80.000	19.997	100.690	20.173	1.545	0.520
1098.500	627.437	80.000	19.995	100.689	20.175	1.424	0.515
1099.000	627.674	80.000	19.997	100.690	20.177	1.290	0.522
1099.500	627.967	80.001	19.997	100.689	20.176	1.362	0.526
1100.001	628.229	80.002	19.997	100.689	20.175	1.368	0.543
1100.501	628.486	80.001	19.995	100.689	20.180	1.094	0.537
1101.001	628.792	80.003	19.998	100.690	20.172	1.562	0.541
1101.501	629.047	80.003	19.996	100.695	20.178	1.219	0.563
1102.001	629.317	80.002	19.997	100.700	20.173	1.537	0.543
1102.500	629.595	80.001	19.995	100.704	20.174	1.438	0.536
1103.000	629.852	80.000	19.996	100.704	20.170	1.712	0.542
1103.500	630.139	80.001	19.996	100.703	20.173	1.546	0.540
1104.000	630.417	80.002	19.996	100.699	20.173	1.506	0.554
1104.500	630.701	80.002	19.996	100.694	20.176	1.359	0.563
1105.000	630.942	80.001	19.995	100.690	20.169	1.792	0.543
1105.500	631.195	80.001	19.995	100.690	20.172	1.571	0.510
1106.000	631.476	80.001	19.997	100.693	20.173	1.543	0.514
1106.500	631.767	80.003	19.995	100.696	20.168	1.848	0.553
1107.001	632.046	80.003	19.996	100.696	20.170	1.702	0.571
1107.501	632.354	80.004	19.996	100.701	20.169	1.758	0.579
1108.000	632.619	80.004	19.996	100.705	20.170	1.726	0.581
1108.500	632.919	80.003	19.996	100.706	20.174	1.479	0.569
1109.000	633.199	80.004	19.995	100.703	20.170	1.700	0.572
1109.500	633.443	80.002	19.996	100.702	20.173	1.518	0.551
1110.000	633.732	80.004	19.996	100.699	20.174	1.440	0.529
1110.500	633.987	80.003	19.995	100.694	20.173	1.497	0.539
1111.000	634.271	80.003	19.996	100.692	20.173	1.523	0.542
1111.500	634.554	80.002	19.995	100.693	20.172	1.603	0.553
1112.001	634.797	80.003	19.995	100.694	20.175	1.373	0.546
1112.501	635.124	80.004	19.995	100.695	20.173	1.529	0.548
1113.000	635.418	80.003	19.996	100.698	20.172	1.605	0.595
1113.500	635.682	80.004	19.996	100.702	20.174	1.468	0.590
1114.000	636.017	80.004	19.996	100.702	20.173	1.555	0.579
1114.500	636.264	80.002	19.996	100.702	20.175	1.392	0.591
1115.000	636.567	80.002	19.995	100.701	20.173	1.534	0.566
1115.500	636.818	80.004	19.995	100.698	20.175	1.421	0.552
1116.000	637.067	80.002	19.995	100.694	20.172	1.590	0.527
1116.500	637.388	80.003	19.996	100.694	20.176	1.359	0.535
1117.000	637.640	80.003	19.996	100.693	20.177	1.235	0.572
1117.500	637.928	80.003	19.997	100.692	20.174	1.437	0.556
1118.000	638.247	80.003	19.995	100.692	20.175	1.392	0.573
1118.500	638.488	80.003	19.996	100.692	20.176	1.354	0.583
1119.000	638.758	80.003	19.996	100.691	20.176	1.311	0.535
1119.500	639.051	80.002	19.996	100.691	20.176	1.343	0.537
1120.001	639.338	80.002	19.997	100.691	20.177	1.255	0.572
1120.501	639.607	80.001	19.995	100.692	20.175	1.368	0.568
1121.000	639.904	80.002	19.995	100.694	20.175	1.391	0.561
1121.500	640.173	80.002	19.996	100.694	20.174	1.445	0.566
1122.001	640.437	80.003	19.996	100.694	20.174	1.428	0.549
1122.501	640.737	80.003	19.996	100.697	20.172	1.617	0.549
1123.000	641.033	80.001	19.995	100.699	20.172	1.592	0.581
1123.500	641.316	80.001	19.995	100.697	20.180	1.073	0.588
1124.000	641.598	80.003	19.996	100.697	20.177	1.285	0.572
1124.500	641.879	80.001	19.995	100.697	20.174	1.449	0.564
1125.000	642.150	80.003	19.997	100.696	20.176	1.346	0.557
1125.500	642.423	80.003	19.995	100.694	20.173	1.532	0.548
1126.000	642.725	80.002	19.996	100.694	20.176	1.348	0.560
1126.500	643.026	80.003	19.996	100.694	20.172	1.594	0.589
1127.001	643.272	80.003	19.996	100.694	20.171	1.670	0.575
1127.501	643.571	80.001	19.994	100.692	20.174	1.472	0.546
1128.001	643.853	80.003	19.996	100.692	20.173	1.555	0.562
1128.500	644.139	80.004	19.996	100.692	20.173	1.525	0.574
1129.000	644.396	80.002	19.995	100.692	20.176	1.338	0.556
1129.500	644.680	80.003	19.994	100.693	20.177	1.242	0.542
1130.000	644.946	80.003	19.996	100.693	20.178	1.203	0.546
1130.500	645.248	80.002	19.995	100.692	20.177	1.295	0.559
1131.000	645.538	80.002	19.994	100.693	20.174	1.470	0.580
1131.500	645.792	80.002	19.996	100.692	20.177	1.247	0.568
1132.000	646.079	80.003	19.996	100.693	20.175	1.399	0.542
1132.501	646.343	80.003	19.996	100.696	20.176	1.346	0.546
1133.001	646.632	80.003	19.995	100.698	20.176	1.359	0.553
1133.500	646.899	80.003	19.995	100.698	20.181	0.998	0.555
1134.000	647.178	80.002	19.995	100.698	20.178	1.180	0.551
1134.500	647.475	80.004	19.997	100.697	20.174	1.454	0.561
1135.000	647.729	80.004	19.996	100.694	20.177	1.258	0.563
1135.500	648.018	80.002	19.996	100.693	20.176	1.341	0.547
1136.001	648.256	80.003	19.996	100.694	20.178	1.202	0.535
1136.501	648.582	80.004	19.995	100.693	20.182	0.942	0.545
1137.000	648.841	80.004	19.996	100.693	20.179	1.164	0.574
1137.500	649.146	80.004	19.995	100.692	20.185	0.744	0.574
1138.000	649.395	80.004	19.996	100.691	20.177	1.244	0.559
1138.500	649.689	80.002	19.997	100.690	20.176	1.308	0.549
1139.001	649.993	80.003	19.995	100.691	20.182	0.970	0.570
1139.501	650.235	80.003	19.995	100.693	20.182	0.975	0.572
1140.001	650.529	80.003	19.996	100.694	20.182	0.921	0.541
1140.501	650.807	80.002	19.996	100.695	20.183	0.882	0.554
1141.001	651.087	80.004	19.996	100.694	20.179	1.124	0.565
1141.500	651.358	80.002	19.996	100.692	20.175	1.424	0.555
1142.000	651.655	80.002	19.995	100.689	20.177	1.240	0.560
1142.500	651.945	80.002	19.996	100.688	20.185	0.776	0.577
1143.000	652.253	80.002	19.997	100.687	20.181	1.009	0.592
1143.500	652.508	80.002	19.997	100.687	20.175	1.420	0.580
1144.000	652.792	80.001	19.995	100.687	20.173	1.526	0.551
1144.500	653.062	80.003	19.996	100.688	20.184	0.816	0.547
1145.000	653.346	80.002	19.996	100.689	20.177	1.235	0.554
1145.500	653.593	80.001	19.996	100.688	20.178	1.191	0.542
1146.000	653.873	80.002	19.997	100.688	20.179	1.147	0.529
1146.500	654.152	80.001	19.997	100.689	20.182	0.968	0.543
1147.000	654.435	80.000	19.996	100.689	20.173	1.527	0.561
1147.501	654.735	80.001	19.997	100.688	20.177	1.265	0.573
1148.001	655.022	80.002	19.996	100.688	20.178	1.230	0.585
1148.500	655.318	80.000	19.996	100.688	20.172	1.564	0.585
1149.000	655.555	80.000	19.996	100.687	20.174	1.479	0.558
1149.500	655.865	80.000	19.996	100.686	20.184	0.829	0.540
1150.000	656.114	80.001	19.996	100.686	20.176	1.329	0.553
1150.501	656.417	80.002	19.998	100.686	20.179	1.113	0.555
1151.001	656.695	80.001	19.996	100.686	20.180	1.085	0.566
1151.500	656.929	80.002	19.997	100.687	20.179	1.148	0.546
1152.000	657.225	80.000	19.996	100.688	20.179	1.110	0.521
1152.500	657.503	80.002	19.996	100.688	20.181	1.012	0.553
1153.000	657.742	80.002	19.996	100.681	20.179	1.133	0.546
1153.500	658.049	80.001	19.996	100.678	20.182	0.913	0.532
1154.000	658.318	80.001	19.996	100.678	20.177	1.285	0.561
1154.500	658.613	80.001	19.996	100.678	20.180	1.053	0.570
1155.001	658.847	80.001	19.996	100.678	20.178	1.179	0.546
1155.501	659.100	80.001	19.995	100.686	20.179	1.133	0.508
1156.000	659.386	80.001	19.996	100.689	20.176	1.323	0.513
1156.500	659.625	80.003	19.996	100.689	20.182	0.936	0.532
1157.000	659.907	80.001	19.996	100.690	20.178	1.200	0.523
1157.500	660.154	80.002	19.997	100.692	20.178	1.224	0.525
1158.000	660.425	80.002	19.997	100.692	20.174	1.433	0.524
1158.500	660.744	80.002	19.996	100.692	20.181	1.012	0.553
1159.001	661.001	80.002	19.997	100.692	20.180	1.085	0.583
1159.501	661.199	80.002	19.997	100.690	20.173	1.525	0.516
1160.000	661.471	80.001	19.996	100.689	20.181	1.037	0.462
1160.500	661.786	80.002	19.998	100.686	20.178	1.191	0.528
1161.000	662.016	80.002	19.995	100.687	20.180	1.099	0.567
1161.500	662.300	80.002	19.997	100.685	20.176	1.316	0.530
1162.000	662.521	80.003	19.996	100.685	20.180	1.074	0.509
1162.500	662.796	80.002	19.996	100.682	20.181	1.007	0.500
1163.000	663.096	80.002	19.996	100.683	20.179	1.118	0.536
1163.500	663.369	80.001	19.998	100.682	20.184	0.786	0.574
1164.000	663.635	80.002	19.996	100.685	20.179	1.115	0.556
1164.500	663.882	80.002	19.997	100.684	20.183	0.882	0.526
1165.000	664.144	80.001	19.996	100.686	20.179	1.148	0.511
1165.500	664.392	80.001	19.997	100.688	20.181	1.030	0.510
1166.000	664.652	80.002	19.997	100.688	20.178	1.219	0.509
1166.500	664.922	80.001	19.997	100.687	20.178	1.209	0.519
1167.000	665.165	80.002	19.997	100.687	20.179	1.124	0.522
1167.500	665.442	80.001	19.996	100.686	20.179	1.110	0.516
1168.000	665.708	80.001	19.997	100.681	20.176	1.327	0.532
1168.500	666.000	80.000	19.997	100.677	20.177	1.272	0.551
1169.001	666.218	80.001	19.997	100.674	20.177	1.263	0.534
1169.501	666.502	80.002	19.998	100.674	20.174	1.444	0.506
1170.001	666.723	80.001	19.996	100.676	20.178	1.232	0.504
1170.500	667.000	80.002	19.997	100.681	20.182	0.963	0.502
1171.000	667.233	80.001	19.997	100.685	20.178	1.196	0.504
1171.500	667.494	80.000	19.996	100.685	20.181	1.014	0.502
1172.000	667.765	80.001	19.995	100.682	20.179	1.156	0.513
1172.500	668.005	80.000	19.998	100.679	20.178	1.225	0.521
1173.001	668.269	80.002	19.997	100.678	20.181	0.990	0.508
1173.501	668.545	80.000	19.996	100.678	20.179	1.166	0.522
1174.000	668.794	80.001	19.997	100.677	20.177	1.267	0.533
1174.500	669.026	80.001	19.997	100.678	20.179	1.138	0.503
1175.000	669.289	80.001	19.997	100.680	20.180	1.064	0.488
1175.500	669.517	80.000	19.996	100.681	20.179	1.145	0.493
1176.000	669.874	80.000	19.997	100.681	20.178	1.189	0.538
1176.500	670.057	79.999	19.997	100.684	20.178	1.186	0.563
1177.000	670.343	80.000	19.996	100.687	20.186	0.696	0.504
1177.500	670.603	80.000	19.997	100.686	20.182	0.951	0.507
1178.000	670.874	80.000	19.997	100.684	20.182	0.936	0.538
1178.500	671.093	79.999	19.996	100.684	20.176	1.336	0.511
1179.000	671.382	80.000	19.996	100.684	20.183	0.899	0.499
1179.500	671.617	80.000	19.997	100.684	20.182	0.921	0.516
1180.000	671.888	80.001	19.995	100.687	20.175	1.369	0.515
1180.500	672.160	80.000	19.997	100.689	20.178	1.189	0.525
1181.000	672.390	80.001	19.996	100.689	20.178	1.180	0.523
1181.501	672.637	80.000	19.996	100.689	20.186	0.666	0.490
1182.001	672.914	80.001	19.994	100.689	20.181	0.991	0.501
1182.500	673.171	80.001	19.995	100.689	20.179	1.134	0.529
1183.000	673.417	80.001	19.997	100.689	20.183	0.912	0.518
1183.500	673.677	79.999	19.995	100.691	20.188	0.562	0.505
1184.000	673.908	80.001	19.995	100.691	20.184	0.841	0.499
1184.500	674.208	80.002	19.997	100.691	20.187	0.650	0.511
1185.000	674.476	80.001	19.996	100.691	20.185	0.781	0.549
1185.500	674.717	80.001	19.996	100.691	20.179	1.131	0.538
1186.001	674.978	80.003	19.997	100.690	20.179	1.152	0.506
1186.501	675.241	80.001	19.996	100.691	20.175	1.376	0.513
1187.000	675.510	80.002	19.996	100.691	20.175	1.417	0.528
1187.501	675.770	80.001	19.996	100.691	20.180	1.092	0.530
1188.001	676.049	80.000	19.995	100.687	20.181	1.011	0.534
1188.500	676.270	80.003	19.997	100.687	20.182	0.974	0.520
1189.000	676.559	80.001	19.994	100.686	20.182	0.968	0.505
1189.500	676.815	80.002	19.996	100.686	20.186	0.698	0.527
1190.000	677.062	80.002	19.994	100.687	20.176	1.338	0.524
1190.500	677.304	80.001	19.995	100.691	20.186	0.682	0.496
1191.000	677.578	80.002	19.997	100.691	20.183	0.868	0.503
1191.500	677.835	80.003	19.996	100.689	20.176	1.313	0.524
1192.000	678.047	80.003	19.995	100.688	20.187	0.656	0.500
1192.500	678.333	80.004	19.996	100.688	20.177	1.281	0.484
1193.001	678.601	80.002	19.996	100.684	20.177	1.251	0.526
1193.501	678.857	80.003	19.996	100.685	20.178	1.196	0.539
1194.000	679.117	80.003	19.995	100.686	20.179	1.120	0.520
1194.500	679.368	80.002	19.995	100.686	20.181	1.032	0.514
1195.000	679.612	80.001	19.995	100.686	20.181	0.995	0.503
1195.501	679.878	80.003	19.997	100.686	20.181	0.981	0.502
1196.001	680.144	80.001	19.994	100.687	20.181	0.986	0.521
1196.501	680.394	80.001	19.996	100.687	20.184	0.809	0.524
1197.001	680.624	80.003	19.995	100.687	20.176	1.306	0.498
1197.501	680.925	80.002	19.997	100.689	20.181	1.016	0.505
1198.000	681.157	80.001	19.995	100.693	20.174	1.458	0.532
1198.500	681.379	80.003	19.997	100.693	20.179	1.150	0.494
1199.000	681.652	80.003	19.996	100.694	20.177	1.292	0.475
1199.500	681.875	80.002	19.995	100.694	20.181	0.979	0.496
1200.000	682.152	80.002	19.997	100.694	20.175	1.369	0.498
1200.500	682.313	80.002	19.996	100.692	20.182	0.972	0.469
1201.000	682.617	80.002	19.995	100.691	20.178	1.205	0.451
1201.500	682.852	80.003	19.996	100.690	20.182	0.974	0.502
1202.000	683.147	80.002	19.995	100.689	20.179	1.147	0.534
1202.500	683.422	80.002	19.995	100.689	20.180	1.104	0.550
1203.000	683.624	80.002	19.997	100.689	20.182	0.959	0.524
1203.500	683.906	80.003	19.996	100.689	20.180	1.048	0.480
1204.000	684.159	80.001	19.994	100.689	20.179	1.170	0.510
1204.500	684.419	80.002	19.995	100.689	20.172	1.578	0.524
1205.000	684.668	80.002	19.996	100.686	20.184	0.834	0.511
1205.500	684.917	80.002	19.996	100.687	20.185	0.760	0.504
1206.000	685.184	80.003	19.995	100.685	20.182	0.929	0.507
1206.500	685.421	80.001	19.995	100.685	20.180	1.048	0.510
1207.000	685.668	80.002	19.995	100.685	20.177	1.251	0.494
1207.500	685.893	80.004	19.995	100.686	20.182	0.924	0.478
1208.000	686.191	80.002	19.995	100.684	20.182	0.967	0.497
1208.501	686.447	80.002	19.995	100.685	20.181	0.986	0.538
1209.001	686.665	80.003	19.997	100.685	20.182	0.968	0.514
1209.500	686.941	80.003	19.995	100.685	20.179	1.122	0.484
1210.000	687.195	80.003	19.996	100.685	20.180	1.087	0.512
1210.500	687.406	80.003	19.995	100.687	20.180	1.051	0.498
1211.000	687.686	80.003	19.994	100.685	20.185	0.758	0.478
1211.500	687.941	80.004	19.995	100.683	20.182	0.970	0.513
1212.000	688.166	80.004	19.996	100.683	20.181	1.009	0.507
1212.500	688.397	80.005	19.994	100.684	20.176	1.332	0.468
1213.000	688.641	80.003	19.994	100.683	20.180	1.057	0.466
1213.500	688.950	80.005	19.995	100.684	20.180	1.074	0.514
1214.000	689.211	80.004	19.993	100.684	20.182	0.924	0.561
1214.500	689.434	80.005	19.996	100.682	20.177	1.254	0.527
1215.001	689.693	80.006	19.995	100.681	20.184	0.848	0.483
1215.501	689.925	80.004	19.995	100.682	20.180	1.104	0.487
1216.000	690.167	80.006	19.995	100.683	20.176	1.300	0.482
1216.500	690.451	80.003	19.994	100.685	20.177	1.237	0.500
1217.000	690.702	80.005	19.997	100.687	20.180	1.046	0.531
1217.500	690.952	80.007	19.996	100.688	20.176	1.315	0.518
1218.000	691.169	80.006	19.994	100.688	20.184	0.800	0.484
1218.500	691.444	80.005	19.993	100.688	20.184	0.809	0.480
1219.000	691.710	80.007	19.995	100.688	20.178	1.175	0.516
1219.500	691.969	80.006	19.995	100.688	20.181	1.041	0.533
1220.000	692.210	80.005	19.996	100.687	20.181	1.014	0.513
1220.500	692.462	80.005	19.996	100.688	20.180	1.044	0.497
1221.000	692.705	80.004	19.995	100.687	20.182	0.935	0.494
1221.500	692.946	80.006	19.995	100.687	20.181	0.998	0.490
1222.000	693.219	80.004	19.995	100.687	20.178	1.196	0.499
1222.500	693.455	80.003	19.994	100.688	20.183	0.908	0.512
1223.000	693.686	80.004	19.995	100.688	20.181	0.995	0.488
1223.501	693.969	80.003	19.996	100.687	20.181	1.021	0.491
1224.001	694.202	80.004	19.997	100.686	20.183	0.869	0.515
1224.501	694.477	80.002	19.995	100.686	20.179	1.156	0.512
1225.000	694.727	80.004	19.997	100.685	20.177	1.292	0.516
1225.500	694.976	80.002	19.995	100.685	20.185	0.774	0.512
1226.000	695.200	80.003	19.997	100.687	20.182	0.933	0.486
1226.500	695.441	80.002	19.996	100.688	20.180	1.044	0.469
1227.000	695.722	80.003	19.996	100.688	20.184	0.809	0.494
1227.500	695.979	80.002	19.995	100.688	20.183	0.885	0.530
1228.000	696.216	80.001	19.997	100.687	20.186	0.680	0.515
1228.500	696.437	80.003	19.996	100.687	20.178	1.180	0.475
1229.000	696.710	80.001	19.997	100.687	20.183	0.852	0.476
1229.500	696.965	80.004	19.997	100.688	20.183	0.873	0.511
1230.000	697.173	80.002	19.997	100.689	20.187	0.652	0.496
1230.501	697.431	80.001	19.996	100.689	20.187	0.643	0.464
1231.001	697.706	80.001	19.996	100.688	20.185	0.772	0.499
1231.500	697.955	80.002	19.995	100.689	20.180	1.065	0.528
1232.000	698.203	80.001	19.997	100.688	20.179	1.141	0.511
1232.501	698.450	80.002	19.997	100.687	20.178	1.217	0.497
1233.001	698.697	80.001	19.996	100.688	20.181	0.981	0.495
1233.500	698.925	80.002	19.996	100.687	20.179	1.156	0.484
1234.000	699.169	80.001	19.996	100.686	20.181	0.991	0.473
1234.500	699.459	80.002	19.995	100.686	20.179	1.111	0.503
1235.000	699.706	80.002	19.997	100.686	20.179	1.140	0.535
1235.500	699.959	80.002	19.996	100.686	20.181	0.990	0.518
1236.001	700.218	80.001	19.996	100.687	20.179	1.133	0.506
1236.501	700.445	80.001	19.997	100.687	20.179	1.141	0.499
1237.000	700.717	80.001	19.996	100.687	20.181	1.027	0.493
1237.500	700.934	80.001	19.995	100.688	20.178	1.214	0.494
1238.001	701.192	80.002	19.995	100.688	20.179	1.157	0.482
1238.501	701.441	80.003	19.995	100.688	20.177	1.288	0.491
1239.001	701.720	80.002	19.996	100.688	20.185	0.758	0.518
1239.500	701.970	80.003	19.995	100.688	20.183	0.875	0.528
1240.001	702.210	80.001	19.996	100.688	20.185	0.724	0.509
1240.501	702.485	80.001	19.996	100.688	20.182	0.968	0.503
1241.000	702.705	80.001	19.996	100.688	20.183	0.878	0.505
1241.500	702.964	80.002	19.996	100.689	20.183	0.884	0.487
1242.000	703.205	80.001	19.996	100.689	20.181	0.990	0.489
1242.500	703.454	80.002	19.996	100.689	20.185	0.728	0.495
1243.000	703.700	80.002	19.995	100.688	20.184	0.845	0.493
1243.501	703.972	80.002	19.996	100.689	20.184	0.811	0.507
1244.001	704.189	80.002	19.996	100.689	20.184	0.811	0.504
1244.500	704.439	80.000	19.995	100.690	20.184	0.834	0.478
1245.000	704.722	80.002	19.997	100.691	20.182	0.922	0.500
1245.500	704.953	80.002	19.996	100.692	20.181	0.979	0.523
1246.000	705.263	80.002	19.996	100.692	20.185	0.783	0.528
1246.500	705.470	80.001	19.996	100.691	20.185	0.763	0.529
1247.000	705.732	80.001	19.996	100.690	20.186	0.666	0.493
1247.501	705.952	80.002	19.996	100.690	20.183	0.891	0.475
1248.001	706.198	80.002	19.995	100.690	20.184	0.827	0.474
1248.500	706.473	80.003	19.997	100.689	20.182	0.924	0.494
1249.000	706.686	80.002	19.996	100.690	20.185	0.733	0.504
1249.500	706.984	80.002	19.997	100.690	20.185	0.774	0.500
1250.000	707.223	80.000	19.996	100.689	20.180	1.050	0.524
1250.500	707.455	80.001	19.995	100.688	20.182	0.956	0.504
1251.000	707.662	79.999	19.997	100.689	20.187	0.617	0.455
1251.500	707.939	80.000	19.997	100.689	20.183	0.898	0.461
1252.000	708.180	80.001	19.997	100.691	20.185	0.732	0.501
1252.500	708.433	80.002	19.996	100.691	20.181	0.981	0.506
1253.001	708.724	80.002	19.997	100.692	20.188	0.551	0.519
1253.501	708.938	80.001	19.996	100.688	20.183	0.871	0.524
1254.000	709.216	80.001	19.996	100.688	20.179	1.108	0.498
1254.500	709.502	80.001	19.997	100.686	20.184	0.834	0.528
1255.000	709.716	80.000	19.997	100.687	20.185	0.733	0.532
1255.500	709.984	80.001	19.995	100.688	20.184	0.809	0.491
1256.000	710.220	80.000	19.997	100.689	20.181	1.014	0.493
1256.500	710.498	80.002	19.998	100.689	20.181	0.995	0.510
1257.000	710.742	80.000	19.996	100.687	20.184	0.799	0.518
1257.500	710.996	80.002	19.997	100.686	20.184	0.792	0.510
1258.000	711.248	80.002	19.996	100.686	20.183	0.891	0.502
1258.500	711.500	80.001	19.997	100.689	20.188	0.562	0.505
1259.000	711.748	80.000	19.996	100.688	20.185	0.732	0.502
1259.500	711.998	80.001	19.997	100.688	20.183	0.878	0.499
1260.000	712.243	80.000	19.997	100.690	20.186	0.682	0.497
1260.500	712.492	80.000	19.997	100.690	20.183	0.862	0.495
1261.000	712.747	80.000	19.997	100.690	20.184	0.792	0.499
1261.500	712.992	80.001	19.996	100.690	20.183	0.882	0.502
1262.000	713.278	80.000	19.996	100.690	20.182	0.972	0.516
1262.500	713.528	80.000	19.995	100.689	20.182	0.936	0.533
1263.000	713.780	80.000	19.997	100.688	20.181	1.005	0.519
1263.500	714.034	79.999	19.997	100.685	20.183	0.878	0.504
1264.000	714.277	80.001	19.997	100.684	20.186	0.694	0.502
1264.500	714.557	80.002	19.996	100.684	20.184	0.837	0.510
1265.000	714.782	80.001	19.996	100.685	20.184	0.829	0.514
1265.500	715.002	80.000	19.996	100.686	20.182	0.958	0.474
1266.000	715.267	80.001	19.997	100.689	20.179	1.164	0.465
1266.501	715.527	80.001	19.997	100.690	20.182	0.931	0.505
1267.001	715.791	80.000	19.997	100.689	20.185	0.777	0.524
1267.500	716.036	80.001	19.998	100.688	20.183	0.857	0.517
1268.000	716.303	80.003	19.997	100.687	20.184	0.813	0.511
1268.500	716.548	80.002	19.996	100.687	20.185	0.762	0.512
1269.000	716.813	80.003	19.998	100.687	20.183	0.908	0.510
1269.500	717.071	80.001	19.995	100.688	20.184	0.839	0.516
1270.000	717.318	80.002	19.996	100.688	20.182	0.926	0.514
1270.500	717.576	80.003	19.997	100.683	20.177	1.253	0.505
1271.000	717.828	80.004	19.996	100.682	20.184	0.843	0.508
1271.500	718.053	80.005	19.997	100.678	20.183	0.905	0.493
1272.000	718.306	80.006	19.995	100.677	20.184	0.837	0.478
1272.500	718.563	80.003	19.996	100.677	20.185	0.760	0.494
1273.000	718.799	80.005	19.994	100.680	20.186	0.708	0.501
1273.500	719.064	80.002	19.996	100.681	20.182	0.975	0.497
1274.001	719.284	80.002	19.995	100.679	20.182	0.963	0.493
1274.501	719.566	80.003	19.994	100.677	20.183	0.882	0.493
1275.000	719.802	80.004	19.995	100.677	20.186	0.678	0.510
1275.501	720.046	80.004	19.995	100.678	20.181	1.003	0.499
1276.001	720.315	80.003	19.995	100.678	20.186	0.710	0.496
1276.500	720.564	80.004	19.995	100.682	20.187	0.638	0.516
1277.000	720.814	80.003	19.996	100.686	20.185	0.763	0.509
1277.500	721.083	80.003	19.996	100.684	20.185	0.776	0.509
1278.001	721.313	80.004	19.995	100.682	20.185	0.767	0.509
1278.501	721.577	80.002	19.997	100.682	20.185	0.753	0.496
1279.000	721.791	80.003	19.996	100.683	20.178	1.205	0.486
1279.500	722.059	80.002	19.995	100.682	20.182	0.965	0.480
1280.000	722.330	80.003	19.995	100.684	20.179	1.111	0.511
1280.501	722.606	80.005	19.997	100.686	20.181	1.004	0.543
1281.001	722.821	80.003	19.996	100.685	20.180	1.057	0.519
1281.500	723.092	80.004	19.996	100.680	20.182	0.952	0.489
1282.001	723.327	80.001	19.995	100.675	20.181	0.982	0.496
1282.501	723.585	80.003	19.995	100.675	20.186	0.693	0.499
1283.000	723.865	80.003	19.995	100.674	20.180	1.088	0.515
1283.500	724.109	80.004	19.996	100.674	20.182	0.972	0.531
1284.000	724.379	80.003	19.996	100.678	20.183	0.860	0.519
1284.500	724.610	80.003	19.996	100.679	20.182	0.968	0.508
1285.001	724.855	80.003	19.996	100.673	20.182	0.940	0.489
1285.501	725.103	80.002	19.996	100.672	20.184	0.843	0.484
1286.000	725.355	80.003	19.996	100.672	20.177	1.288	0.496
1286.501	725.636	80.002	19.997	100.673	20.180	1.087	0.517
1287.001	725.881	80.003	19.997	100.675	20.187	0.633	0.530
1287.500	726.120	80.005	19.997	100.679	20.182	0.947	0.505
1288.000	726.370	80.001	19.995	100.682	20.185	0.767	0.486
1288.500	726.602	80.002	19.996	100.676	20.182	0.952	0.486
1289.001	726.904	80.004	19.997	100.671	20.181	1.037	0.508
1289.501	727.144	80.005	19.995	100.670	20.179	1.120	0.538
1290.000	727.385	80.003	19.995	100.669	20.176	1.346	0.512
1290.500	727.640	80.003	19.996	100.671	20.184	0.843	0.489
1291.001	727.883	80.004	19.996	100.676	20.182	0.968	0.497
1291.501	728.145	80.003	19.996	100.681	20.183	0.890	0.501
1292.000	728.406	80.003	19.996	100.682	20.181	0.995	0.514
1292.500	728.643	80.005	19.996	100.683	20.185	0.776	0.511
1293.000	728.896	80.004	19.995	100.680	20.187	0.594	0.494
1293.501	729.168	80.003	19.994	100.680	20.182	0.913	0.508
1294.001	729.409	80.003	19.995	100.681	20.182	0.935	0.519
1294.500	729.652	80.005	19.995	100.682	20.183	0.891	0.498
1295.000	729.892	80.005	19.997	100.682	20.183	0.901	0.484
1295.500	730.201	80.005	19.995	100.686	20.184	0.845	0.516
1296.000	730.418	80.005	19.996	100.686	20.178	1.217	0.538
1296.500	730.638	80.004	19.995	100.686	20.178	1.196	0.481
1297.000	730.926	80.007	19.995	100.685	20.184	0.848	0.472
1297.500	731.224	80.004	19.995	100.686	20.184	0.834	0.547
1298.000	731.453	80.005	19.996	100.685	20.182	0.956	0.557
1298.500	731.739	80.006	19.996	100.682	20.180	1.048	0.522
1299.000	731.937	80.005	19.996	100.677	20.183	0.857	0.500
1299.500	732.179	80.004	19.997	100.673	20.180	1.087	0.462
1300.000	732.471	80.003	19.995	100.671	20.186	0.719	0.487
1300.501	732.704	80.003	19.997	100.668	20.182	0.977	0.530
1301.001	732.996	80.006	19.994	100.669	20.185	0.763	0.525
1301.500	733.230	80.005	19.995	100.674	20.183	0.866	0.525
1302.000	733.497	80.004	19.994	100.678	20.184	0.843	0.514
1302.500	733.739	80.003	19.996	100.678	20.178	1.233	0.505
1303.000	733.999	80.003	19.996	100.682	20.178	1.219	0.505
1303.500	734.266	80.003	19.995	100.684	20.182	0.942	0.515
1304.000	734.500	80.002	19.995	100.684	20.183	0.864	0.514
1304.500	734.783	80.003	19.997	100.684	20.183	0.906	0.509
1305.001	735.022	80.005	19.996	100.687	20.180	1.060	0.519
1305.501	735.274	80.003	19.996	100.687	20.187	0.597	0.507
1306.000	735.532	80.001	19.995	100.687	20.185	0.724	0.500
1306.500	735.768	80.002	19.994	100.688	20.179	1.113	0.502
1307.000	736.058	80.003	19.995	100.689	20.183	0.889	0.510
1307.500	736.293	80.003	19.995	100.690	20.178	1.203	0.526
1308.000	736.517	80.001	19.994	100.690	20.186	0.693	0.492
1308.500	736.781	80.002	19.995	100.690	20.182	0.963	0.473
1309.000	737.015	80.003	19.995	100.689	20.177	1.279	0.493
1309.500	737.321	80.001	19.997	100.690	20.183	0.885	0.520
1310.000	737.546	80.001	19.996	100.690	20.176	1.314	0.535
1310.501	737.784	79.998	19.995	100.690	20.179	1.120	0.496
1311.001	738.081	80.001	19.996	100.689	20.180	1.079	0.499
1311.500	738.331	80.004	19.995	100.689	20.182	0.952	0.541
1312.000	738.598	80.002	19.996	100.689	20.182	0.949	0.532
1312.500	738.841	80.002	19.997	100.686	20.181	1.004	0.514
1313.000	739.107	80.001	19.996	100.680	20.182	0.977	0.510
1313.500	739.364	80.000	19.995	100.680	20.183	0.883	0.516
1314.000	739.616	80.003	19.996	100.680	20.182	0.965	0.516
1314.500	739.843	80.000	19.996	100.680	20.184	0.825	0.494
1315.000	740.125	80.002	19.995	100.682	20.182	0.949	0.494
1315.500	740.382	80.002	19.995	100.688	20.179	1.143	0.524
1316.000	740.612	80.002	19.997	100.689	20.183	0.885	0.513
1316.500	740.870	79.999	19.996	100.684	20.180	1.057	0.488
1317.000	741.093	79.999	19.997	100.681	20.183	0.866	0.485
1317.500	741.378	80.001	19.996	100.679	20.184	0.822	0.495
1318.001	741.666	80.004	19.996	100.677	20.178	1.196	0.540
1318.501	741.892	80.002	19.995	100.674	20.180	1.051	0.544
1319.000	742.118	80.001	19.995	100.676	20.177	1.293	0.483
1319.500	742.399	80.001	19.997	100.677	20.183	0.910	0.479
1320.000	742.621	79.999	19.997	100.677	20.177	1.238	0.505
1320.500	742.851	80.001	19.997	100.675	20.180	1.067	0.478
1321.000	743.145	79.999	19.996	100.676	20.181	0.993	0.488
1321.500	743.389	80.001	19.996	100.676	20.179	1.120	0.531
1322.000	743.598	80.001	19.996	100.672	20.178	1.189	0.496
