Sample ID:	C:\MCC\MCC Cal\Test\Fiberglas_Insulation3A_MCC_30K_min_220217_R1.txt
Sample Weight (mg):	4.8
Heating Rate (C/s):	0.5
Combustor Temp (C):	900
N2 Flow Rate (cc/min):	80
O2 Flow Rate (cc/min):	20
Calibration File:	C:\MCC\MCC Cal\Coeff1 JN10440_30_210304.txt.txt
T Correction Coefficients:	0	1.024463	0
Time Shift (s):	14
*
Time (s)	Temperature (C)	N2 flow rate (cc/min)	O2 flow rate (cc/min)	Flow Rate (cc/min)	Oxygen (%)	HRR (W/g)	Heating rate (C/s)
0.000	116.726	80.006	19.995	103.704	19.928	-0.065	0.005
0.500	116.672	80.000	19.996	103.705	19.928	-0.054	0.006
1.000	116.702	80.001	19.996	103.711	19.932	-0.361	-0.016
1.500	116.733	80.001	19.995	103.710	19.927	0.022	0.018
2.000	116.694	80.002	19.994	103.688	19.928	-0.048	0.027
2.500	116.697	80.003	19.995	103.671	19.928	-0.039	-0.022
3.000	116.683	80.003	19.996	103.655	19.930	-0.170	-0.024
3.500	116.689	80.000	19.995	103.641	19.931	-0.246	-0.010
4.000	116.718	80.004	19.995	103.640	19.927	-0.007	0.014
4.500	116.665	80.004	19.995	103.659	19.930	-0.203	0.006
5.000	116.711	80.003	19.995	103.678	19.932	-0.315	-0.016
5.500	116.707	80.004	19.994	103.693	19.929	-0.147	0.017
6.000	116.696	80.002	19.995	103.703	19.930	-0.177	0.014
6.500	116.675	80.003	19.995	103.707	19.930	-0.220	-0.024
7.000	116.701	80.000	19.995	103.704	19.928	-0.080	-0.014
7.500	116.666	80.003	19.996	103.699	19.925	0.158	-0.002
8.000	116.652	80.005	19.995	103.693	19.929	-0.116	-0.028
8.500	116.720	80.005	19.996	103.689	19.928	-0.080	0.003
9.000	116.665	80.005	19.994	103.690	19.929	-0.157	0.033
9.500	116.694	80.005	19.995	103.692	19.928	-0.048	-0.007
10.000	116.666	80.003	19.995	103.697	19.928	-0.080	-0.012
10.500	116.664	80.006	19.994	103.704	19.928	-0.035	-0.014
11.000	116.647	80.004	19.994	103.711	19.927	-0.009	-0.025
11.500	116.684	80.004	19.994	103.714	19.928	-0.032	0.000
12.000	116.639	80.005	19.995	103.715	19.927	-0.013	0.006
12.500	116.607	80.006	19.994	103.715	19.924	0.205	-0.042
13.000	116.651	80.007	19.994	103.720	19.925	0.123	-0.032
13.500	116.681	80.006	19.994	103.726	19.923	0.254	0.043
14.000	116.670	80.006	19.995	103.734	19.923	0.263	0.047
14.500	116.656	80.004	19.993	103.743	19.923	0.299	-0.003
15.000	116.658	80.006	19.994	103.751	19.924	0.229	-0.019
15.500	116.655	80.005	19.995	103.755	19.921	0.442	-0.006
16.000	116.684	80.006	19.993	103.758	19.924	0.233	0.012
16.500	116.672	80.009	19.993	103.760	19.920	0.494	0.021
17.000	116.705	79.999	19.995	103.765	19.916	0.716	0.019
17.500	116.690	79.992	19.994	103.772	19.914	0.897	0.020
18.000	116.725	80.005	19.993	103.778	19.915	0.800	0.019
18.500	116.727	80.008	19.993	103.788	19.920	0.511	0.028
19.000	116.742	80.007	19.993	103.799	19.914	0.862	0.027
19.500	116.788	80.006	19.994	103.806	19.913	0.976	0.039
20.000	116.758	80.004	19.993	103.814	19.909	1.215	0.038
20.500	116.792	80.007	19.994	103.822	19.908	1.260	0.010
21.000	116.810	80.005	19.994	103.825	19.911	1.103	0.028
21.500	116.841	80.006	19.993	103.833	19.912	0.989	0.050
22.000	116.806	80.009	19.994	103.844	19.907	1.331	0.022
22.500	116.881	80.005	19.993	103.853	19.908	1.260	0.018
23.000	116.893	80.005	19.994	103.867	19.904	1.574	0.063
23.500	116.949	80.004	19.994	103.878	19.904	1.529	0.077
24.000	116.976	80.007	19.993	103.887	19.899	1.913	0.076
24.500	117.020	80.006	19.992	103.895	19.903	1.654	0.077
25.000	117.083	80.004	19.994	103.896	19.897	2.018	0.089
25.500	117.110	80.008	19.993	103.894	19.898	1.968	0.099
26.000	117.161	80.008	19.993	103.895	19.899	1.865	0.084
26.500	117.199	80.012	19.993	103.890	19.894	2.225	0.083
27.000	117.236	80.004	19.993	103.888	19.897	2.024	0.082
27.500	117.273	80.009	19.992	103.893	19.898	1.992	0.075
28.000	117.335	80.004	19.992	103.896	19.895	2.201	0.086
28.500	117.375	79.990	19.995	103.900	19.893	2.308	0.100
29.000	117.447	80.003	19.994	103.904	19.895	2.172	0.107
29.500	117.509	80.015	19.992	103.906	19.892	2.342	0.123
30.000	117.576	80.009	19.993	103.911	19.893	2.327	0.132
30.500	117.588	80.005	19.993	103.917	19.888	2.641	0.104
31.000	117.702	80.006	19.993	103.924	19.890	2.510	0.103
31.500	117.755	80.007	19.992	103.931	19.891	2.460	0.146
32.001	117.798	80.005	19.993	103.938	19.890	2.525	0.131
32.500	117.899	80.007	19.994	103.940	19.889	2.605	0.121
33.000	117.972	80.009	19.993	103.943	19.886	2.790	0.159
33.500	118.038	80.005	19.993	103.945	19.886	2.794	0.156
34.000	118.136	80.001	19.995	103.946	19.888	2.657	0.152
34.500	118.171	80.001	19.993	103.948	19.888	2.652	0.149
35.000	118.277	80.017	19.991	103.953	19.884	2.921	0.137
35.500	118.384	80.013	19.992	103.956	19.886	2.771	0.177
36.000	118.474	80.006	19.993	103.956	19.887	2.739	0.205
36.500	118.554	80.005	19.992	103.958	19.886	2.803	0.183
37.000	118.629	80.006	19.993	103.960	19.885	2.818	0.162
37.500	118.709	80.008	19.993	103.963	19.883	2.993	0.155
38.000	118.818	80.002	19.994	103.966	19.885	2.870	0.172
38.500	118.926	80.007	19.993	103.971	19.883	2.954	0.203
39.000	119.007	80.008	19.993	103.978	19.882	3.079	0.203
39.501	119.142	80.005	19.992	103.982	19.882	3.068	0.202
40.001	119.227	80.013	19.993	103.985	19.881	3.128	0.218
40.500	119.312	80.009	19.992	103.987	19.882	3.072	0.195
41.000	119.406	80.007	19.994	103.989	19.880	3.188	0.175
41.500	119.537	80.011	19.994	103.994	19.882	3.068	0.202
42.000	119.697	80.006	19.994	104.003	19.878	3.343	0.258
42.500	119.765	80.009	19.994	104.003	19.880	3.195	0.260
43.000	119.880	80.008	19.994	104.005	19.879	3.225	0.206
43.500	120.029	80.005	19.993	104.007	19.879	3.270	0.223
44.000	120.151	80.006	19.993	104.002	19.877	3.376	0.267
44.500	120.276	80.006	19.993	103.995	19.878	3.313	0.259
45.000	120.424	80.005	19.993	103.993	19.881	3.134	0.260
45.500	120.515	80.005	19.994	103.991	19.876	3.460	0.256
46.000	120.652	80.009	19.992	103.991	19.875	3.518	0.234
46.500	120.788	80.002	19.994	103.991	19.878	3.348	0.251
47.000	120.965	80.004	19.993	103.991	19.879	3.283	0.293
47.500	121.068	80.004	19.993	103.989	19.876	3.451	0.296
48.000	121.230	80.008	19.992	103.987	19.873	3.673	0.272
48.500	121.357	80.006	19.993	103.988	19.873	3.667	0.277
49.000	121.482	80.004	19.992	103.989	19.876	3.419	0.270
49.500	121.628	80.002	19.994	103.990	19.875	3.531	0.261
50.000	121.810	80.006	19.993	103.994	19.878	3.313	0.300
50.500	121.946	80.007	19.993	103.997	19.875	3.486	0.323
51.000	122.116	80.002	19.993	103.998	19.880	3.158	0.312
51.500	122.246	80.005	19.993	103.996	19.878	3.343	0.303
52.000	122.431	80.004	19.992	103.998	19.876	3.475	0.308
52.500	122.585	80.007	19.991	103.997	19.873	3.632	0.327
53.000	122.773	80.006	19.992	103.997	19.877	3.374	0.340
53.500	122.902	80.006	19.994	103.997	19.874	3.609	0.329
54.000	123.092	80.003	19.993	103.998	19.874	3.579	0.318
54.500	123.232	80.003	19.993	103.997	19.874	3.588	0.325
55.000	123.401	80.004	19.993	103.996	19.874	3.575	0.320
55.500	123.576	80.005	19.993	103.995	19.875	3.534	0.326
56.000	123.722	80.010	19.992	103.993	19.877	3.364	0.332
56.500	123.917	80.019	19.991	103.994	19.875	3.491	0.331
57.000	124.051	80.001	19.993	103.994	19.879	3.254	0.335
57.500	124.230	80.003	19.993	103.992	19.879	3.275	0.321
58.000	124.418	80.002	19.993	103.990	19.874	3.575	0.340
58.500	124.588	80.006	19.993	103.988	19.878	3.297	0.362
59.000	124.702	79.995	19.995	103.983	19.875	3.504	0.321
59.500	124.910	79.998	19.994	103.978	19.875	3.519	0.303
60.000	125.104	79.997	19.993	103.981	19.878	3.297	0.362
60.500	125.264	80.005	19.995	103.985	19.875	3.495	0.378
61.000	125.477	80.006	19.993	103.986	19.877	3.413	0.364
61.500	125.658	80.007	19.994	103.989	19.876	3.448	0.383
62.000	125.819	80.008	19.992	103.993	19.877	3.364	0.368
62.500	126.007	80.002	19.993	103.993	19.879	3.265	0.346
63.000	126.234	80.001	19.994	103.988	19.878	3.313	0.382
63.500	126.391	80.001	19.993	103.983	19.878	3.297	0.400
64.000	126.595	80.004	19.993	103.976	19.876	3.446	0.372
64.500	126.805	80.005	19.994	103.970	19.875	3.505	0.387
65.000	126.981	80.007	19.993	103.960	19.876	3.418	0.400
65.500	127.166	80.012	19.994	103.960	19.877	3.375	0.374
66.000	127.328	79.990	19.996	103.968	19.876	3.449	0.354
66.500	127.550	79.986	19.996	103.966	19.876	3.431	0.365
67.000	127.773	80.012	19.993	103.962	19.873	3.644	0.415
67.501	127.976	80.005	19.993	103.966	19.879	3.235	0.436
68.001	128.155	79.992	19.993	103.972	19.882	3.046	0.404
68.501	128.325	80.001	19.994	103.966	19.877	3.414	0.365
69.000	128.578	80.008	19.993	103.967	19.880	3.158	0.386
69.500	128.768	79.995	19.995	103.974	19.878	3.285	0.433
70.000	128.984	80.006	19.993	103.972	19.879	3.229	0.425
70.500	129.176	80.005	19.993	103.961	19.879	3.215	0.407
71.000	129.386	80.016	19.993	103.962	19.877	3.370	0.405
71.500	129.604	80.012	19.994	103.964	19.876	3.440	0.415
72.000	129.816	79.996	19.994	103.958	19.876	3.440	0.429
72.500	130.024	80.007	19.993	103.957	19.876	3.481	0.425
73.000	130.203	80.005	19.995	103.960	19.877	3.355	0.403
73.500	130.452	79.996	19.995	103.958	19.876	3.445	0.407
74.000	130.656	80.005	19.993	103.955	19.876	3.432	0.441
74.500	130.847	80.003	19.995	103.956	19.876	3.474	0.424
75.000	131.078	80.015	19.994	103.951	19.874	3.589	0.408
75.500	131.264	80.008	19.993	103.945	19.876	3.471	0.419
76.000	131.521	80.005	19.993	103.945	19.874	3.589	0.430
76.500	131.758	80.003	19.995	103.945	19.873	3.639	0.469
77.000	131.950	80.005	19.994	103.943	19.874	3.576	0.462
77.500	132.178	80.002	19.995	103.947	19.875	3.506	0.425
78.000	132.376	80.002	19.995	103.948	19.871	3.762	0.423
78.500	132.603	80.006	19.995	103.947	19.870	3.842	0.425
79.000	132.842	80.014	19.993	103.946	19.876	3.439	0.446
79.500	133.027	80.006	19.994	103.947	19.873	3.661	0.446
80.000	133.250	80.002	19.995	103.940	19.874	3.611	0.416
80.500	133.511	80.008	19.995	103.930	19.873	3.630	0.445
81.000	133.711	79.999	19.994	103.923	19.873	3.669	0.472
81.500	133.948	80.006	19.994	103.915	19.877	3.365	0.449
82.000	134.152	80.004	19.993	103.905	19.872	3.720	0.439
82.500	134.417	80.004	19.995	103.895	19.873	3.682	0.455
83.000	134.626	80.007	19.994	103.887	19.871	3.811	0.471
83.500	134.853	80.011	19.994	103.887	19.871	3.760	0.455
84.000	135.081	79.996	19.993	103.898	19.875	3.497	0.446
84.500	135.300	80.003	19.993	103.912	19.874	3.564	0.451
85.000	135.517	80.004	19.993	103.937	19.876	3.484	0.441
85.500	135.756	80.001	19.994	103.964	19.878	3.348	0.446
86.000	135.959	80.010	19.994	103.979	19.876	3.426	0.450
86.500	136.193	79.996	19.995	103.985	19.878	3.312	0.440
87.000	136.457	80.001	19.995	103.984	19.880	3.207	0.467
87.500	136.680	80.003	19.994	103.981	19.876	3.459	0.492
88.000	136.943	80.003	19.995	103.977	19.879	3.228	0.487
88.500	137.155	80.006	19.994	103.972	19.877	3.404	0.480
89.000	137.378	80.005	19.994	103.967	19.873	3.639	0.455
89.500	137.639	80.002	19.995	103.964	19.877	3.398	0.460
90.000	137.846	80.006	19.994	103.964	19.874	3.596	0.476
90.500	138.136	80.010	19.993	103.966	19.877	3.392	0.483
91.000	138.320	80.002	19.994	103.969	19.877	3.385	0.486
91.500	138.570	80.003	19.993	103.972	19.877	3.400	0.454
92.000	138.824	80.004	19.994	103.980	19.874	3.583	0.469
92.500	139.044	80.005	19.994	103.983	19.877	3.376	0.489
93.000	139.325	80.003	19.995	103.982	19.877	3.365	0.488
93.500	139.521	79.998	19.995	103.976	19.877	3.399	0.490
94.000	139.808	80.008	19.994	103.972	19.876	3.434	0.480
94.500	140.071	80.008	19.994	103.969	19.882	3.038	0.516
95.000	140.271	79.998	19.995	103.968	19.876	3.419	0.506
95.500	140.566	80.007	19.994	103.965	19.877	3.393	0.479
96.000	140.822	80.006	19.995	103.970	19.876	3.437	0.523
96.500	141.014	80.002	19.995	103.971	19.875	3.551	0.499
97.000	141.284	80.003	19.996	103.968	19.879	3.282	0.455
97.500	141.516	80.000	19.995	103.966	19.879	3.256	0.482
98.000	141.787	80.009	19.993	103.967	19.878	3.317	0.502
98.500	142.022	80.002	19.996	103.965	19.881	3.097	0.505
99.000	142.280	80.007	19.994	103.966	19.882	3.060	0.500
99.500	142.514	80.004	19.995	103.972	19.878	3.338	0.493
100.001	142.782	80.004	19.995	103.970	19.878	3.323	0.497
100.501	143.023	80.004	19.994	103.970	19.879	3.265	0.505
101.000	143.269	80.004	19.995	103.967	19.881	3.112	0.498
101.500	143.527	80.002	19.996	103.963	19.879	3.250	0.496
102.000	143.760	80.005	19.996	103.960	19.876	3.466	0.498
102.500	144.006	80.004	19.997	103.964	19.877	3.360	0.485
103.000	144.316	80.007	19.996	103.970	19.879	3.233	0.517
103.500	144.505	80.004	19.997	103.978	19.880	3.196	0.527
104.000	144.798	80.004	19.996	103.986	19.879	3.235	0.491
104.500	145.039	80.004	19.995	103.987	19.881	3.129	0.508
105.001	145.303	80.004	19.995	103.987	19.884	2.933	0.519
105.501	145.530	80.002	19.995	103.984	19.882	3.048	0.498
106.000	145.818	80.006	19.996	103.982	19.878	3.299	0.503
106.500	146.022	80.004	19.996	103.975	19.884	2.923	0.504
107.000	146.318	80.004	19.996	103.969	19.879	3.230	0.496
107.500	146.553	80.012	19.993	103.962	19.880	3.190	0.516
108.000	146.838	80.004	19.995	103.960	19.877	3.383	0.526
108.500	147.077	80.010	19.993	103.955	19.879	3.226	0.522
109.000	147.310	79.999	19.996	103.956	19.880	3.157	0.498
109.500	147.546	80.001	19.995	103.956	19.882	3.071	0.471
110.000	147.833	80.014	19.994	103.958	19.880	3.211	0.496
110.500	148.079	80.003	19.996	103.955	19.882	3.071	0.528
111.000	148.328	79.978	19.997	103.951	19.884	2.912	0.514
111.500	148.568	79.993	19.995	103.946	19.881	3.117	0.492
112.000	148.841	79.998	19.994	103.943	19.882	3.018	0.501
112.500	149.096	80.010	19.993	103.943	19.882	3.076	0.520
113.000	149.370	80.002	19.995	103.944	19.879	3.263	0.528
113.500	149.604	80.002	19.994	103.951	19.880	3.166	0.519
114.000	149.882	79.999	19.994	103.954	19.883	3.011	0.510
114.500	150.125	80.004	19.993	103.957	19.880	3.213	0.516
115.000	150.398	80.012	19.995	103.956	19.881	3.104	0.519
115.500	150.645	80.009	19.995	103.956	19.881	3.110	0.518
116.000	150.913	80.005	19.993	103.953	19.881	3.091	0.518
116.500	151.169	80.008	19.994	103.955	19.884	2.927	0.520
117.000	151.385	80.009	19.994	103.956	19.882	3.037	0.498
117.501	151.650	80.005	19.994	103.957	19.879	3.250	0.477
118.001	151.910	79.999	19.995	103.957	19.884	2.906	0.503
118.500	152.186	80.005	19.995	103.957	19.883	3.003	0.531
119.000	152.456	80.009	19.994	103.953	19.880	3.160	0.541
119.500	152.700	80.007	19.993	103.951	19.884	2.938	0.529
120.000	152.939	79.987	19.996	103.952	19.883	2.988	0.498
120.500	153.268	80.013	19.994	103.948	19.883	2.983	0.526
121.000	153.488	80.008	19.993	103.947	19.881	3.127	0.559
121.500	153.711	80.018	19.992	103.948	19.882	3.058	0.496
122.000	153.932	79.991	19.995	103.950	19.881	3.145	0.443
122.500	154.220	80.009	19.992	103.945	19.879	3.280	0.476
123.001	154.463	80.004	19.993	103.951	19.884	2.895	0.520
123.501	154.736	80.005	19.993	103.951	19.880	3.177	0.523
124.000	154.984	80.005	19.994	103.952	19.881	3.102	0.519
124.500	155.259	80.007	19.992	103.952	19.886	2.781	0.523
125.000	155.500	80.002	19.994	103.956	19.883	2.996	0.520
125.500	155.734	80.001	19.994	103.953	19.885	2.869	0.496
126.000	155.999	80.008	19.994	103.952	19.884	2.906	0.487
126.500	156.265	80.007	19.993	103.951	19.883	2.986	0.515
127.000	156.538	80.003	19.995	103.952	19.882	3.018	0.535
127.500	156.801	80.006	19.993	103.948	19.881	3.102	0.537
128.000	157.068	80.005	19.994	103.947	19.885	2.854	0.533
128.500	157.309	79.995	19.995	103.948	19.882	3.063	0.519
129.000	157.558	79.998	19.993	103.945	19.882	3.046	0.499
129.500	157.813	80.004	19.994	103.944	19.885	2.815	0.497
130.000	158.053	79.997	19.994	103.947	19.880	3.160	0.500
130.500	158.318	80.008	19.993	103.945	19.879	3.224	0.500
131.000	158.588	80.002	19.993	103.946	19.885	2.843	0.521
131.500	158.802	79.995	19.995	103.950	19.883	2.994	0.509
132.000	159.084	79.997	19.995	103.948	19.887	2.718	0.489
132.500	159.352	79.994	19.997	103.947	19.884	2.912	0.523
133.000	159.627	80.013	19.991	103.945	19.885	2.856	0.547
133.500	159.846	79.989	19.995	103.948	19.886	2.786	0.518
134.000	160.138	79.987	19.996	103.944	19.888	2.631	0.502
134.500	160.376	80.024	19.990	103.942	19.882	3.057	0.521
135.000	160.621	80.016	19.993	103.949	19.882	3.028	0.506
135.500	160.888	80.001	19.996	103.952	19.881	3.112	0.497
136.000	161.193	80.007	19.994	103.943	19.882	3.075	0.542
136.500	161.399	80.002	19.995	103.943	19.885	2.812	0.541
137.000	161.627	80.003	19.994	103.938	19.884	2.926	0.473
137.500	161.920	80.005	19.994	103.927	19.885	2.844	0.478
138.000	162.159	79.991	19.995	103.929	19.884	2.916	0.527
138.500	162.413	80.022	19.993	103.930	19.880	3.167	0.513
139.000	162.661	80.003	19.995	103.933	19.884	2.877	0.497
139.500	162.968	80.013	19.993	103.937	19.887	2.736	0.528
140.000	163.178	80.009	19.992	103.944	19.884	2.935	0.536
140.500	163.465	80.010	19.992	103.946	19.885	2.814	0.507
141.000	163.672	79.996	19.995	103.951	19.883	2.950	0.496
141.500	163.923	80.001	19.995	103.946	19.886	2.775	0.476
142.000	164.190	80.012	19.993	103.946	19.884	2.941	0.488
142.500	164.479	80.004	19.994	103.945	19.887	2.709	0.537
143.000	164.723	80.003	19.993	103.941	19.884	2.905	0.545
143.500	164.976	80.004	19.993	103.936	19.881	3.079	0.515
144.000	165.255	80.005	19.994	103.935	19.885	2.819	0.515
144.500	165.452	79.994	19.995	103.930	19.884	2.875	0.504
145.000	165.743	80.002	19.994	103.921	19.884	2.881	0.482
145.500	166.017	79.994	19.994	103.916	19.883	2.963	0.526
146.000	166.236	80.005	19.995	103.911	19.888	2.616	0.529
146.500	166.441	79.983	19.997	103.910	19.882	3.055	0.459
147.000	166.770	80.002	19.995	103.904	19.886	2.784	0.479
147.500	167.030	80.018	19.992	103.905	19.882	3.025	0.561
148.000	167.287	80.015	19.993	103.905	19.885	2.812	0.553
148.500	167.560	80.012	19.991	103.907	19.886	2.751	0.524
149.000	167.742	80.004	19.995	103.910	19.885	2.868	0.492
149.500	167.990	80.009	19.995	103.915	19.884	2.893	0.442
150.000	168.266	79.977	19.995	103.917	19.884	2.926	0.478
150.500	168.539	80.002	19.994	103.914	19.885	2.812	0.536
151.000	168.779	80.010	19.993	103.913	19.885	2.868	0.530
151.500	169.034	79.994	19.994	103.910	19.884	2.915	0.504
152.000	169.308	79.992	19.994	103.910	19.885	2.833	0.512
152.500	169.523	79.981	19.995	103.907	19.885	2.868	0.509
153.000	169.769	80.025	19.992	103.906	19.885	2.818	0.475
153.500	170.025	80.018	19.993	103.907	19.883	2.956	0.481
154.000	170.267	79.999	19.995	103.907	19.885	2.833	0.500
154.500	170.561	80.007	19.992	103.906	19.887	2.685	0.517
155.000	170.788	80.006	19.994	103.909	19.882	3.012	0.528
155.500	171.072	80.005	19.994	103.912	19.883	2.976	0.516
156.000	171.305	80.003	19.994	103.911	19.886	2.752	0.514
156.500	171.573	80.016	19.993	103.911	19.884	2.911	0.509
157.000	171.786	80.002	19.994	103.913	19.885	2.821	0.491
157.500	172.042	80.005	19.994	103.912	19.886	2.762	0.475
158.000	172.261	80.005	19.995	103.915	19.885	2.866	0.472
158.500	172.532	80.004	19.994	103.914	19.887	2.687	0.482
159.000	172.772	80.010	19.995	103.916	19.888	2.662	0.501
159.500	173.026	80.017	19.993	103.917	19.884	2.884	0.503
160.000	173.346	80.006	19.994	103.920	19.887	2.679	0.534
160.500	173.567	80.002	19.994	103.923	19.885	2.813	0.557
161.000	173.811	80.005	19.996	103.924	19.889	2.586	0.503
161.500	174.084	79.998	19.996	103.926	19.884	2.918	0.491
162.000	174.328	80.010	19.997	103.926	19.884	2.883	0.517
162.500	174.579	80.009	19.994	103.921	19.882	3.019	0.506
163.000	174.814	80.001	19.996	103.919	19.885	2.834	0.490
163.500	175.072	79.996	19.996	103.917	19.889	2.560	0.489
164.000	175.336	80.005	19.997	103.914	19.883	2.946	0.508
164.500	175.519	80.002	19.996	103.911	19.885	2.834	0.485
165.000	175.846	80.004	19.995	103.913	19.886	2.802	0.479
165.500	176.043	80.007	19.996	103.910	19.886	2.756	0.517
166.000	176.282	79.999	19.996	103.910	19.883	2.995	0.480
166.500	176.535	80.011	19.994	103.908	19.886	2.754	0.464
167.000	176.804	80.001	19.995	103.909	19.885	2.853	0.507
167.500	177.047	80.005	19.994	103.910	19.887	2.721	0.517
168.000	177.317	80.004	19.995	103.910	19.882	3.075	0.512
168.500	177.562	80.002	19.996	103.910	19.885	2.831	0.513
169.000	177.802	80.004	19.995	103.908	19.883	2.965	0.500
169.500	178.064	79.999	19.996	103.902	19.883	2.974	0.494
170.000	178.313	80.002	19.994	103.896	19.885	2.872	0.507
170.500	178.536	80.004	19.995	103.896	19.884	2.928	0.492
171.000	178.801	80.014	19.995	103.895	19.885	2.820	0.480
171.500	179.055	80.012	19.995	103.896	19.885	2.857	0.503
172.000	179.291	80.004	19.995	103.898	19.884	2.885	0.504
172.500	179.519	80.000	19.996	103.903	19.888	2.642	0.477
173.000	179.783	80.009	19.995	103.903	19.885	2.809	0.478
173.500	180.031	79.997	19.996	103.904	19.886	2.803	0.502
174.000	180.294	80.001	19.997	103.906	19.880	3.157	0.511
174.500	180.516	80.007	19.995	103.906	19.888	2.661	0.497
175.000	180.763	80.007	19.995	103.906	19.884	2.881	0.477
175.500	181.006	79.997	19.995	103.906	19.886	2.763	0.480
176.000	181.257	79.995	19.996	103.904	19.886	2.780	0.493
176.500	181.483	80.009	19.995	103.902	19.887	2.721	0.486
177.000	181.736	79.997	19.996	103.905	19.888	2.640	0.478
177.500	182.027	80.030	19.992	103.903	19.885	2.844	0.511
178.000	182.263	80.000	19.994	103.907	19.885	2.830	0.536
178.500	182.506	80.003	19.996	103.909	19.885	2.832	0.503
179.000	182.740	80.004	19.995	103.909	19.884	2.924	0.478
179.500	182.967	80.008	19.996	103.910	19.885	2.844	0.469
180.000	183.209	80.001	19.996	103.912	19.883	2.974	0.465
180.500	183.484	80.000	19.994	103.909	19.886	2.752	0.493
181.000	183.715	80.003	19.997	103.911	19.883	2.944	0.512
181.500	183.987	80.017	19.993	103.912	19.887	2.717	0.504
182.000	184.189	80.004	19.994	103.914	19.883	2.961	0.488
182.500	184.446	80.006	19.994	103.916	19.886	2.789	0.467
183.000	184.685	80.004	19.994	103.917	19.884	2.875	0.477
183.500	184.949	80.005	19.995	103.917	19.885	2.845	0.499
184.000	185.229	79.998	19.998	103.920	19.887	2.702	0.524
184.500	185.465	80.003	19.995	103.912	19.883	2.955	0.530
185.000	185.713	80.004	19.995	103.910	19.883	2.998	0.500
185.500	185.963	80.013	19.993	103.909	19.883	2.948	0.491
186.000	186.229	80.014	19.994	103.910	19.886	2.795	0.507
186.500	186.489	80.011	19.994	103.910	19.884	2.940	0.522
187.000	186.733	79.996	19.995	103.915	19.887	2.739	0.515
187.500	187.001	79.997	19.997	103.914	19.885	2.810	0.508
188.000	187.234	80.005	19.995	103.910	19.884	2.935	0.506
188.500	187.481	80.008	19.995	103.905	19.883	2.957	0.491
189.000	187.686	80.014	19.994	103.905	19.881	3.142	0.467
189.500	187.973	80.008	19.994	103.903	19.882	3.036	0.472
190.000	188.211	80.014	19.994	103.902	19.883	2.978	0.508
190.500	188.433	80.010	19.996	103.905	19.884	2.907	0.493
191.000	188.720	80.011	19.994	103.905	19.884	2.879	0.485
191.500	188.884	79.997	19.997	103.904	19.881	3.079	0.480
192.000	189.183	79.990	19.996	103.902	19.881	3.103	0.457
192.500	189.418	79.998	19.993	103.901	19.880	3.176	0.499
193.000	189.712	79.997	19.995	103.902	19.881	3.135	0.531
193.500	189.927	80.020	19.997	103.903	19.883	2.986	0.518
194.000	190.150	79.996	19.996	103.901	19.881	3.086	0.473
194.500	190.421	80.009	19.994	103.900	19.886	2.743	0.466
195.000	190.669	79.993	19.995	103.898	19.878	3.299	0.507
195.500	190.902	80.008	19.994	103.896	19.884	2.933	0.500
196.000	191.149	80.005	19.997	103.897	19.883	2.995	0.480
196.500	191.397	80.005	19.995	103.894	19.884	2.931	0.487
197.000	191.641	79.998	19.995	103.893	19.879	3.235	0.494
197.500	191.873	80.003	19.995	103.891	19.882	3.041	0.484
198.000	192.102	80.005	19.996	103.890	19.880	3.200	0.468
198.500	192.342	80.006	19.995	103.889	19.882	3.043	0.465
199.000	192.610	80.016	19.995	103.892	19.879	3.237	0.488
199.500	192.850	80.002	19.995	103.898	19.880	3.207	0.508
200.000	193.126	80.008	19.995	103.900	19.881	3.097	0.512
200.500	193.364	80.003	19.994	103.904	19.879	3.254	0.515
201.000	193.590	80.024	19.992	103.905	19.880	3.159	0.489
201.500	193.867	80.017	19.994	103.911	19.879	3.233	0.483
202.000	194.082	80.014	19.992	103.912	19.879	3.270	0.498
202.500	194.320	80.010	19.994	103.918	19.877	3.381	0.473
203.000	194.575	80.008	19.994	103.920	19.880	3.149	0.472
203.500	194.770	79.997	19.996	103.920	19.879	3.257	0.471
204.000	195.094	80.016	19.993	103.913	19.881	3.136	0.485
204.500	195.330	80.012	19.992	103.911	19.878	3.336	0.539
205.000	195.515	79.993	19.994	103.909	19.879	3.237	0.490
205.500	195.769	80.017	19.992	103.907	19.877	3.389	0.430
206.000	196.054	79.995	19.993	103.907	19.875	3.500	0.489
206.500	196.278	80.006	19.993	103.909	19.879	3.263	0.524
207.000	196.523	80.005	19.994	103.911	19.880	3.203	0.489
207.500	196.772	79.997	19.994	103.909	19.877	3.410	0.481
208.000	197.013	80.004	19.995	103.908	19.876	3.449	0.492
208.500	197.247	80.006	19.994	103.905	19.878	3.343	0.483
209.000	197.492	79.995	19.995	103.902	19.879	3.259	0.477
209.500	197.716	80.018	19.992	103.896	19.875	3.488	0.474
210.000	197.976	79.998	19.994	103.897	19.879	3.244	0.477
210.500	198.294	80.004	19.994	103.895	19.875	3.498	0.531
211.000	198.478	80.002	19.996	103.897	19.877	3.410	0.540
211.500	198.745	80.007	19.993	103.899	19.876	3.466	0.476
212.000	198.928	79.991	19.996	103.904	19.878	3.328	0.451
212.500	199.249	79.985	19.994	103.895	19.878	3.295	0.477
213.000	199.469	79.995	19.993	103.893	19.878	3.291	0.522
213.500	199.723	80.020	19.992	103.892	19.880	3.147	0.507
214.000	199.939	80.014	19.993	103.891	19.877	3.402	0.472
214.500	200.169	80.020	19.992	103.885	19.875	3.522	0.458
215.000	200.496	80.009	19.992	103.889	19.875	3.488	0.501
215.500	200.638	79.994	19.993	103.890	19.876	3.442	0.513
216.000	200.890	80.013	19.993	103.883	19.874	3.567	0.432
216.500	201.128	80.005	19.993	103.880	19.874	3.588	0.442
217.000	201.388	80.006	19.994	103.880	19.871	3.754	0.494
217.500	201.649	80.007	19.992	103.878	19.873	3.651	0.509
218.000	201.863	80.012	19.994	103.877	19.874	3.606	0.498
218.500	202.133	80.016	19.992	103.878	19.874	3.614	0.479
219.000	202.356	79.993	19.994	103.879	19.874	3.613	0.489
219.500	202.635	79.989	19.996	103.877	19.873	3.640	0.498
220.000	202.901	80.002	19.994	103.879	19.872	3.720	0.523
220.500	203.146	80.004	19.993	103.876	19.872	3.693	0.528
221.000	203.373	80.003	19.994	103.877	19.872	3.699	0.492
221.500	203.623	80.006	19.993	103.878	19.875	3.501	0.475
222.000	203.836	79.999	19.996	103.885	19.872	3.686	0.470
222.500	204.091	80.004	19.995	103.884	19.873	3.662	0.466
223.000	204.365	79.997	19.994	103.888	19.872	3.697	0.498
223.500	204.578	79.995	19.996	103.888	19.870	3.839	0.508
224.000	204.848	79.995	19.996	103.883	19.871	3.763	0.485
224.500	205.116	79.999	19.995	103.874	19.871	3.753	0.511
225.000	205.323	80.006	19.994	103.875	19.872	3.720	0.506
225.501	205.583	80.014	19.993	103.873	19.875	3.503	0.471
226.000	205.855	80.008	19.994	103.878	19.874	3.559	0.499
226.500	206.077	80.014	19.993	103.883	19.875	3.490	0.513
227.000	206.322	80.010	19.993	103.890	19.873	3.634	0.481
227.500	206.585	80.009	19.994	103.891	19.875	3.501	0.487
228.000	206.804	79.988	19.995	103.891	19.874	3.563	0.495
228.500	207.095	79.996	19.997	103.890	19.872	3.735	0.496
229.000	207.330	80.003	19.994	103.888	19.871	3.783	0.518
229.500	207.589	79.998	19.994	103.886	19.872	3.723	0.510
230.000	207.776	80.014	19.995	103.885	19.870	3.843	0.470
230.500	208.070	80.014	19.993	103.883	19.870	3.839	0.463
231.000	208.346	80.000	19.993	103.880	19.870	3.850	0.525
231.500	208.551	80.008	19.993	103.879	19.871	3.802	0.526
232.000	208.786	80.006	19.994	103.878	19.870	3.832	0.461
232.500	209.036	80.007	19.994	103.876	19.869	3.903	0.462
233.000	209.305	80.010	19.995	103.874	19.872	3.689	0.502
233.500	209.593	80.013	19.993	103.873	19.871	3.812	0.538
234.000	209.823	80.012	19.993	103.873	19.872	3.715	0.537
234.500	210.068	79.999	19.994	103.876	19.873	3.633	0.497
235.000	210.353	79.999	19.994	103.881	19.869	3.925	0.503
235.500	210.616	80.018	19.991	103.884	19.870	3.868	0.539
236.000	210.847	80.011	19.994	103.889	19.869	3.916	0.521
236.500	211.062	80.004	19.994	103.886	19.868	4.013	0.470
237.000	211.317	79.990	19.993	103.881	19.871	3.780	0.458
237.500	211.568	80.002	19.993	103.880	19.871	3.802	0.488
238.000	211.832	80.001	19.994	103.878	19.871	3.811	0.511
238.500	212.072	80.007	19.993	103.876	19.869	3.925	0.510
239.000	212.317	80.001	19.993	103.878	19.869	3.904	0.495
239.500	212.556	80.004	19.996	103.880	19.866	4.108	0.484
240.000	212.844	79.994	19.996	103.874	19.869	3.927	0.505
240.500	213.090	79.992	19.993	103.874	19.870	3.880	0.530
241.000	213.340	80.006	19.994	103.875	19.871	3.818	0.515
241.500	213.591	80.011	19.995	103.877	19.869	3.929	0.498
242.000	213.805	80.017	19.992	103.877	19.870	3.884	0.482
242.500	214.060	80.002	19.994	103.883	19.869	3.915	0.467
243.000	214.378	80.000	19.992	103.887	19.870	3.863	0.521
243.500	214.611	80.012	19.992	103.893	19.871	3.807	0.563
244.000	214.839	80.020	19.991	103.897	19.869	3.923	0.506
244.500	215.058	79.995	19.995	103.902	19.872	3.715	0.454
245.000	215.325	80.000	19.993	103.901	19.867	4.038	0.466
245.500	215.595	80.002	19.992	103.900	19.868	3.993	0.512
246.000	215.805	80.006	19.993	103.896	19.869	3.896	0.509
246.500	216.058	80.004	19.993	103.894	19.867	4.059	0.472
247.000	216.330	80.008	19.993	103.891	19.871	3.809	0.494
247.500	216.600	79.992	19.994	103.892	19.871	3.800	0.533
248.000	216.820	80.012	19.992	103.891	19.867	4.035	0.516
248.500	217.133	79.996	19.994	103.889	19.868	3.990	0.512
249.000	217.345	79.994	19.995	103.885	19.868	4.022	0.529
249.500	217.608	80.003	19.994	103.881	19.871	3.764	0.500
250.000	217.841	80.006	19.993	103.878	19.871	3.774	0.486
250.500	218.094	80.010	19.992	103.879	19.870	3.860	0.491
251.000	218.346	80.001	19.994	103.881	19.866	4.117	0.495
251.500	218.577	79.993	19.996	103.880	19.865	4.206	0.494
252.000	218.885	80.023	19.991	103.878	19.866	4.115	0.511
252.500	219.066	79.989	19.997	103.880	19.865	4.163	0.514
253.000	219.377	80.006	19.997	103.874	19.866	4.126	0.490
253.500	219.636	80.008	19.993	103.868	19.864	4.229	0.531
254.000	219.872	80.001	19.994	103.870	19.865	4.208	0.533
254.500	220.144	80.007	19.994	103.872	19.865	4.208	0.501
255.000	220.364	79.983	19.997	103.870	19.864	4.238	0.500
255.500	220.640	80.004	19.994	103.868	19.863	4.305	0.495
256.000	220.901	80.007	19.994	103.870	19.862	4.426	0.516
256.500	221.149	80.005	19.994	103.869	19.866	4.131	0.522
257.000	221.386	80.000	19.994	103.869	19.863	4.327	0.497
257.500	221.658	80.005	19.993	103.871	19.863	4.301	0.497
258.000	221.869	79.998	19.997	103.877	19.863	4.310	0.497
258.500	222.173	80.015	19.994	103.873	19.862	4.363	0.499
259.000	222.445	80.006	19.995	103.873	19.866	4.150	0.545
259.500	222.675	80.002	19.995	103.875	19.862	4.404	0.539
260.000	222.922	80.001	19.996	103.877	19.864	4.245	0.490
260.500	223.172	80.006	19.994	103.877	19.856	4.803	0.487
261.000	223.425	80.000	19.995	103.884	19.861	4.441	0.500
261.500	223.639	80.011	19.996	103.884	19.858	4.656	0.485
262.000	223.911	80.005	19.994	103.880	19.863	4.327	0.476
262.500	224.199	80.015	19.993	103.877	19.862	4.378	0.523
263.000	224.465	80.005	19.994	103.880	19.859	4.603	0.557
263.500	224.658	80.018	19.996	103.877	19.859	4.600	0.506
264.000	224.939	80.008	19.993	103.874	19.858	4.672	0.467
264.500	225.201	80.001	19.995	103.878	19.860	4.544	0.509
265.000	225.420	80.010	19.994	103.880	19.863	4.331	0.512
265.500	225.653	79.988	19.997	103.877	19.855	4.842	0.467
266.000	225.950	79.991	19.995	103.875	19.858	4.637	0.491
266.500	226.170	80.007	19.994	103.878	19.859	4.581	0.524
267.000	226.419	79.997	19.996	103.874	19.859	4.570	0.493
267.500	226.661	79.991	19.998	103.870	19.859	4.605	0.480
268.000	226.964	80.010	19.993	103.865	19.861	4.428	0.518
268.500	227.217	80.019	19.995	103.868	19.860	4.520	0.551
269.000	227.471	80.012	19.993	103.866	19.861	4.480	0.532
269.500	227.688	80.001	19.994	103.869	19.859	4.566	0.489
270.000	227.957	80.004	19.993	103.871	19.860	4.540	0.479
270.500	228.201	80.003	19.995	103.876	19.857	4.736	0.499
271.000	228.444	80.006	19.994	103.875	19.856	4.794	0.500
271.500	228.723	80.006	19.995	103.874	19.853	4.995	0.505
272.000	228.958	79.990	19.996	103.873	19.857	4.731	0.518
272.500	229.214	80.001	19.994	103.871	19.855	4.863	0.502
273.000	229.558	80.018	19.993	103.869	19.855	4.882	0.546
273.500	229.747	80.004	19.994	103.871	19.854	4.925	0.567
274.000	229.993	79.998	19.995	103.871	19.856	4.812	0.483
274.500	230.203	79.995	19.994	103.869	19.854	4.958	0.445
275.000	230.479	80.005	19.994	103.868	19.854	4.941	0.472
275.500	230.742	80.010	19.992	103.869	19.854	4.902	0.513
276.000	231.007	80.007	19.994	103.869	19.851	5.109	0.533
276.500	231.278	80.006	19.993	103.869	19.851	5.118	0.532
277.000	231.511	80.004	19.994	103.870	19.853	4.975	0.520
277.500	231.762	80.007	19.993	103.872	19.854	4.910	0.494
278.000	231.983	80.002	19.994	103.873	19.852	5.098	0.477
278.500	232.235	80.009	19.993	103.871	19.853	5.008	0.472
279.000	232.476	80.022	19.993	103.871	19.849	5.299	0.483
279.500	232.761	80.012	19.993	103.873	19.851	5.109	0.510
280.000	232.990	79.999	19.995	103.873	19.850	5.217	0.520
280.500	233.257	80.004	19.993	103.872	19.847	5.402	0.505
281.000	233.524	80.004	19.995	103.873	19.849	5.303	0.515
281.500	233.760	80.007	19.995	103.874	19.846	5.448	0.518
282.000	234.048	80.017	19.993	103.873	19.849	5.249	0.513
282.500	234.262	79.998	19.996	103.876	19.846	5.465	0.513
283.000	234.528	80.003	19.996	103.877	19.847	5.413	0.491
283.500	234.775	79.998	19.997	103.877	19.848	5.364	0.496
284.000	235.037	80.008	19.997	103.877	19.843	5.672	0.511
284.500	235.297	79.996	19.995	103.877	19.844	5.610	0.516
285.000	235.489	80.004	19.996	103.870	19.846	5.448	0.488
285.500	235.781	80.008	19.994	103.870	19.845	5.531	0.468
286.000	236.020	80.006	19.995	103.869	19.847	5.439	0.507
286.500	236.269	80.003	19.994	103.868	19.846	5.467	0.509
287.000	236.553	80.008	19.994	103.870	19.848	5.366	0.511
287.500	236.735	80.005	19.995	103.873	19.846	5.478	0.499
288.000	237.061	80.002	19.993	103.873	19.845	5.508	0.487
288.500	237.256	80.002	19.995	103.876	19.844	5.614	0.515
289.000	237.496	80.006	19.994	103.875	19.844	5.642	0.478
289.500	237.726	80.007	19.995	103.874	19.840	5.875	0.453
290.000	237.968	80.001	19.996	103.872	19.842	5.767	0.471
290.500	238.249	80.003	19.995	103.872	19.842	5.713	0.497
291.000	238.490	79.992	19.998	103.869	19.840	5.885	0.522
291.500	238.726	80.003	19.995	103.867	19.837	6.055	0.500
292.000	238.975	79.994	19.997	103.871	19.837	6.066	0.481
292.500	239.223	80.007	19.995	103.872	19.840	5.906	0.491
293.000	239.476	80.001	19.995	103.874	19.838	6.010	0.499
293.500	239.687	79.999	19.997	103.875	19.840	5.902	0.482
294.000	239.982	80.005	19.995	103.873	19.843	5.673	0.485
294.500	240.226	80.010	19.994	103.867	19.839	5.964	0.522
295.000	240.465	80.006	19.995	103.870	19.839	5.981	0.511
295.500	240.713	80.014	19.994	103.867	19.842	5.766	0.485
296.000	240.950	80.005	19.995	103.868	19.842	5.721	0.486
296.500	241.157	80.003	19.993	103.872	19.839	5.917	0.465
297.000	241.437	80.000	19.995	103.873	19.840	5.872	0.466
297.500	241.678	80.014	19.993	103.871	19.839	5.941	0.504
298.000	241.973	80.011	19.993	103.874	19.842	5.760	0.528
298.500	242.154	80.010	19.993	103.873	19.840	5.866	0.506
299.000	242.394	80.006	19.996	103.874	19.836	6.135	0.448
299.500	242.623	79.997	19.995	103.869	19.837	6.094	0.445
300.000	242.904	80.008	19.993	103.869	19.834	6.288	0.490
300.500	243.153	80.002	19.994	103.869	19.834	6.314	0.520
301.000	243.421	80.012	19.993	103.866	19.839	5.948	0.524
301.500	243.661	80.022	19.992	103.865	19.840	5.851	0.513
302.000	243.936	80.005	19.994	103.873	19.837	6.112	0.512
302.500	244.207	80.010	19.994	103.875	19.836	6.157	0.530
303.000	244.400	79.997	19.994	103.875	19.834	6.317	0.505
303.500	244.670	80.007	19.994	103.875	19.832	6.398	0.463
304.000	244.892	80.008	19.994	103.878	19.836	6.116	0.477
304.500	245.166	80.012	19.994	103.881	19.832	6.396	0.494
305.000	245.386	80.013	19.994	103.883	19.836	6.120	0.495
305.500	245.639	80.001	19.995	103.887	19.833	6.382	0.484
306.000	245.871	80.003	19.994	103.887	19.834	6.299	0.479
306.500	246.181	80.001	19.995	103.885	19.831	6.509	0.513
307.000	246.433	79.999	19.994	103.879	19.829	6.633	0.552
307.500	246.657	79.997	19.995	103.876	19.833	6.376	0.519
308.000	246.907	80.005	19.994	103.870	19.830	6.577	0.475
308.500	247.146	80.003	19.993	103.871	19.828	6.656	0.481
309.000	247.412	80.004	19.995	103.875	19.828	6.721	0.497
309.500	247.649	80.020	19.993	103.875	19.830	6.536	0.504
310.000	247.885	80.003	19.993	103.876	19.829	6.594	0.488
310.500	248.113	79.999	19.997	103.878	19.829	6.635	0.469
311.000	248.408	80.007	19.992	103.874	19.828	6.697	0.494
311.500	248.651	79.992	19.995	103.872	19.831	6.514	0.530
312.000	248.897	80.005	19.996	103.871	19.829	6.633	0.513
312.500	249.157	80.014	19.994	103.867	19.822	7.075	0.498
313.000	249.390	80.005	19.994	103.867	19.827	6.740	0.500
313.500	249.633	79.983	19.995	103.870	19.826	6.796	0.485
314.000	249.938	80.010	19.992	103.867	19.824	6.975	0.512
314.500	250.156	79.998	19.995	103.872	19.825	6.912	0.535
315.000	250.439	80.021	19.992	103.873	19.823	7.026	0.512
315.500	250.704	80.014	19.993	103.875	19.821	7.152	0.524
316.000	250.917	80.003	19.994	103.879	19.821	7.163	0.513
316.500	251.191	80.002	19.994	103.881	19.821	7.193	0.483
317.000	251.431	80.000	19.994	103.880	19.823	7.038	0.501
317.500	251.667	80.011	19.994	103.882	19.824	6.963	0.495
318.000	251.911	80.009	19.993	103.879	19.823	7.040	0.478
318.500	252.144	79.998	19.995	103.878	19.821	7.135	0.478
319.000	252.420	80.015	19.995	103.876	19.820	7.228	0.493
319.500	252.674	80.016	19.992	103.876	19.818	7.387	0.519
320.000	252.902	80.022	19.991	103.879	19.819	7.305	0.506
320.500	253.131	80.003	19.994	103.881	19.822	7.124	0.470
321.000	253.392	80.006	19.994	103.878	19.818	7.384	0.473
321.500	253.660	80.030	19.990	103.879	19.819	7.276	0.509
322.000	253.905	80.010	19.994	103.883	19.818	7.390	0.521
322.500	254.150	80.006	19.994	103.880	19.816	7.523	0.502
323.000	254.400	80.007	19.995	103.876	19.819	7.293	0.493
323.500	254.640	80.003	19.993	103.878	19.815	7.567	0.492
324.000	254.936	80.011	19.992	103.879	19.813	7.700	0.513
324.500	255.160	80.008	19.993	103.877	19.814	7.620	0.528
325.000	255.431	80.015	19.991	103.878	19.812	7.750	0.507
325.500	255.636	80.009	19.993	103.883	19.818	7.385	0.485
326.000	255.942	80.014	19.992	103.885	19.815	7.534	0.494
326.500	256.142	80.000	19.995	103.886	19.814	7.633	0.509
327.000	256.376	80.015	19.993	103.881	19.816	7.531	0.470
327.500	256.660	80.000	19.994	103.880	19.811	7.818	0.476
328.000	256.937	80.006	19.993	103.878	19.811	7.846	0.540
328.500	257.119	79.995	19.993	103.878	19.814	7.646	0.510
329.000	257.378	80.013	19.993	103.877	19.813	7.676	0.450
329.500	257.582	79.996	19.996	103.881	19.812	7.737	0.452
330.000	257.851	80.006	19.994	103.878	19.810	7.892	0.468
330.500	258.127	80.003	19.995	103.879	19.809	7.952	0.509
331.000	258.388	80.007	19.994	103.876	19.806	8.150	0.541
331.500	258.650	79.993	19.996	103.875	19.806	8.196	0.530
332.000	258.872	80.013	19.994	103.870	19.807	8.136	0.504
332.500	259.143	80.004	19.993	103.873	19.806	8.157	0.488
333.000	259.402	80.006	19.993	103.872	19.806	8.154	0.511
333.500	259.615	79.984	19.997	103.874	19.804	8.316	0.501
334.000	259.831	80.003	19.994	103.869	19.807	8.110	0.450
334.500	260.098	80.000	19.993	103.871	19.806	8.196	0.456
335.000	260.367	80.002	19.994	103.873	19.803	8.405	0.510
335.500	260.584	80.007	19.993	103.871	19.801	8.525	0.511
336.000	260.888	80.000	19.993	103.873	19.799	8.650	0.504
336.500	261.073	79.998	19.995	103.879	19.796	8.831	0.505
337.000	261.314	80.009	19.993	103.879	19.800	8.594	0.457
337.500	261.572	80.007	19.992	103.880	19.798	8.710	0.462
338.000	261.862	79.995	19.992	103.882	19.801	8.542	0.524
338.500	262.033	80.007	19.994	103.883	19.798	8.694	0.505
339.000	262.333	79.997	19.994	103.882	19.797	8.791	0.466
339.500	262.555	80.011	19.994	103.881	19.799	8.677	0.496
340.000	262.817	80.002	19.994	103.878	19.797	8.798	0.503
340.500	263.049	80.008	19.992	103.876	19.797	8.783	0.489
341.000	263.345	80.007	19.993	103.872	19.797	8.803	0.511
341.500	263.612	80.012	19.995	103.872	19.794	9.015	0.545
342.000	263.803	79.994	19.996	103.874	19.795	8.935	0.511
342.500	264.035	80.002	19.995	103.874	19.792	9.093	0.441
343.000	264.327	80.008	19.995	103.874	19.792	9.125	0.474
343.500	264.580	80.009	19.993	103.875	19.794	8.983	0.534
344.000	264.809	80.008	19.994	103.880	19.794	9.017	0.514
344.500	265.066	80.007	19.994	103.884	19.792	9.132	0.484
345.000	265.293	80.004	19.994	103.889	19.791	9.158	0.485
345.500	265.544	80.013	19.993	103.894	19.789	9.301	0.481
346.000	265.773	80.011	19.994	103.898	19.788	9.366	0.479
346.500	266.009	80.016	19.993	103.898	19.788	9.415	0.472
347.000	266.281	80.013	19.992	103.898	19.787	9.479	0.487
347.500	266.501	80.010	19.993	103.902	19.784	9.658	0.500
348.000	266.755	80.018	19.993	103.907	19.787	9.472	0.483
348.500	267.012	80.001	19.995	103.908	19.786	9.555	0.493
349.000	267.277	80.020	19.993	103.909	19.786	9.560	0.516
349.500	267.509	80.007	19.993	103.913	19.785	9.621	0.510
350.000	267.758	80.013	19.992	103.914	19.783	9.727	0.489
350.500	268.005	80.009	19.993	103.913	19.782	9.766	0.488
351.000	268.271	80.000	19.994	103.912	19.781	9.849	0.504
351.500	268.484	80.004	19.994	103.912	19.783	9.719	0.496
352.000	268.778	80.017	19.995	103.904	19.783	9.730	0.493
352.500	268.997	80.007	19.995	103.899	19.779	10.004	0.510
353.000	269.239	80.002	19.995	103.894	19.782	9.818	0.487
353.500	269.448	80.004	19.994	103.893	19.780	9.960	0.456
354.000	269.759	79.998	19.994	103.891	19.778	10.076	0.486
354.500	269.984	80.011	19.995	103.893	19.775	10.298	0.528
355.000	270.224	79.996	19.995	103.893	19.777	10.163	0.501
355.500	270.523	80.001	19.995	103.891	19.772	10.501	0.502
356.000	270.754	80.002	19.994	103.888	19.775	10.299	0.534
356.500	271.015	80.001	19.995	103.884	19.772	10.443	0.510
357.000	271.293	80.001	19.994	103.881	19.773	10.423	0.515
357.500	271.509	80.010	19.994	103.881	19.774	10.367	0.516
358.000	271.778	80.006	19.995	103.888	19.771	10.541	0.490
358.500	272.034	80.007	19.994	103.893	19.774	10.359	0.505
359.000	272.310	80.007	19.994	103.898	19.767	10.842	0.529
359.500	272.500	80.005	19.995	103.901	19.768	10.718	0.499
360.000	272.763	80.004	19.995	103.900	19.767	10.792	0.459
360.500	272.997	80.003	19.995	103.893	19.769	10.701	0.475
361.000	273.238	80.012	19.995	103.888	19.763	11.079	0.486
361.500	273.486	80.010	19.994	103.884	19.767	10.776	0.482
362.000	273.731	80.005	19.994	103.880	19.766	10.886	0.491
362.500	274.015	80.008	19.995	103.879	19.766	10.907	0.511
363.000	274.266	80.008	19.995	103.880	19.762	11.131	0.532
363.500	274.518	80.007	19.993	103.881	19.765	10.922	0.519
364.000	274.728	80.003	19.995	103.886	19.761	11.216	0.482
364.500	275.010	80.004	19.993	103.889	19.760	11.272	0.478
365.000	275.254	80.011	19.993	103.889	19.762	11.145	0.509
365.500	275.480	80.004	19.993	103.887	19.761	11.234	0.497
366.000	275.727	80.007	19.994	103.886	19.761	11.209	0.471
366.500	275.995	80.007	19.994	103.881	19.761	11.243	0.494
367.000	276.255	80.008	19.994	103.880	19.759	11.376	0.522
367.500	276.504	80.006	19.994	103.882	19.760	11.261	0.518
368.000	276.754	80.003	19.995	103.887	19.757	11.453	0.504
368.500	277.010	80.007	19.995	103.892	19.755	11.649	0.503
369.000	277.230	80.005	19.995	103.897	19.754	11.666	0.491
369.500	277.472	80.006	19.995	103.899	19.754	11.658	0.469
370.000	277.709	80.003	19.995	103.897	19.754	11.656	0.470
370.500	277.972	80.009	19.994	103.891	19.756	11.555	0.489
371.000	278.208	80.015	19.992	103.886	19.751	11.912	0.500
371.500	278.463	80.009	19.994	103.886	19.753	11.785	0.495
372.000	278.737	80.007	19.995	103.886	19.751	11.895	0.510
372.500	278.987	80.009	19.995	103.890	19.750	11.972	0.527
373.000	279.198	80.008	19.993	103.892	19.748	12.062	0.492
373.500	279.452	80.000	19.994	103.897	19.747	12.153	0.463
374.000	279.683	80.005	19.995	103.898	19.746	12.211	0.475
374.500	279.972	80.004	19.996	103.902	19.748	12.099	0.502
375.000	280.194	79.997	19.995	103.904	19.744	12.351	0.515
375.500	280.484	80.008	19.994	103.908	19.742	12.517	0.512
376.000	280.724	79.999	19.996	103.906	19.743	12.452	0.521
376.500	280.960	80.005	19.995	103.901	19.742	12.486	0.503
377.000	281.213	80.007	19.994	103.898	19.743	12.417	0.482
377.500	281.499	80.008	19.994	103.900	19.742	12.489	0.514
378.000	281.712	80.001	19.994	103.902	19.740	12.655	0.519
378.500	281.961	80.009	19.995	103.906	19.737	12.818	0.481
379.000	282.216	80.006	19.994	103.907	19.739	12.696	0.483
379.500	282.458	79.994	19.995	103.909	19.734	13.028	0.500
380.000	282.715	80.008	19.995	103.908	19.735	13.004	0.498
380.500	282.912	80.004	19.997	103.906	19.731	13.221	0.477
381.000	283.199	79.996	19.997	103.902	19.734	13.032	0.469
381.500	283.463	80.014	19.993	103.905	19.733	13.107	0.517
382.000	283.723	80.011	19.994	103.907	19.731	13.261	0.537
382.500	283.974	79.992	19.996	103.909	19.729	13.369	0.518
383.000	284.231	80.000	19.996	103.909	19.727	13.507	0.510
383.500	284.460	80.009	19.995	103.912	19.724	13.703	0.496
384.000	284.698	79.997	19.997	103.913	19.724	13.694	0.477
384.500	284.979	80.003	19.996	103.909	19.726	13.583	0.493
385.000	285.234	80.006	19.994	103.908	19.722	13.867	0.527
385.500	285.493	80.004	19.993	103.910	19.721	13.909	0.525
386.000	285.727	80.011	19.994	103.913	19.722	13.872	0.504
386.500	285.983	80.005	19.996	103.914	19.722	13.855	0.492
387.000	286.203	80.005	19.994	103.916	19.720	14.001	0.483
387.500	286.496	79.994	19.996	103.916	19.718	14.149	0.494
388.000	286.744	80.006	19.996	103.915	19.716	14.239	0.527
388.500	286.980	80.004	19.995	103.915	19.718	14.119	0.513
389.000	287.208	79.996	19.994	103.913	19.712	14.529	0.474
389.500	287.486	80.004	19.995	103.913	19.713	14.447	0.485
390.000	287.761	80.001	19.994	103.912	19.712	14.543	0.529
390.500	287.982	80.005	19.995	103.912	19.710	14.653	0.525
391.000	288.226	80.011	19.994	103.911	19.711	14.618	0.481
391.500	288.492	80.009	19.994	103.913	19.710	14.695	0.487
392.000	288.761	80.011	19.992	103.913	19.709	14.765	0.523
392.500	289.007	80.007	19.994	103.917	19.705	15.001	0.525
393.000	289.251	80.006	19.994	103.919	19.704	15.038	0.503
393.500	289.464	80.013	19.995	103.920	19.704	15.072	0.473
394.000	289.726	80.007	19.994	103.921	19.701	15.265	0.466
394.500	289.968	80.005	19.993	103.922	19.700	15.325	0.490
395.000	290.238	80.004	19.995	103.920	19.697	15.558	0.508
395.500	290.477	80.003	19.995	103.918	19.702	15.189	0.510
396.000	290.728	80.008	19.994	103.915	19.699	15.432	0.499
396.500	290.981	80.007	19.993	103.915	19.693	15.825	0.497
397.000	291.250	80.011	19.993	103.916	19.694	15.715	0.513
397.500	291.509	80.008	19.993	103.916	19.693	15.842	0.525
398.000	291.729	79.995	19.996	103.919	19.688	16.180	0.504
398.500	292.004	80.010	19.994	103.920	19.689	16.073	0.487
399.000	292.236	80.007	19.993	103.920	19.690	16.048	0.501
399.500	292.519	80.004	19.998	103.919	19.685	16.360	0.511
400.000	292.760	80.008	19.994	103.915	19.686	16.287	0.520
400.500	293.007	80.016	19.992	103.914	19.684	16.437	0.506
401.000	293.242	80.007	19.993	103.920	19.683	16.458	0.485
401.500	293.503	80.008	19.994	103.922	19.682	16.582	0.489
402.000	293.766	80.004	19.994	103.925	19.677	16.902	0.510
402.500	294.020	80.010	19.994	103.929	19.680	16.684	0.521
403.000	294.256	80.005	19.995	103.931	19.676	16.956	0.504
403.500	294.528	80.005	19.994	103.929	19.679	16.770	0.498
404.000	294.772	80.006	19.996	103.927	19.675	17.029	0.511
404.500	295.022	80.002	19.996	103.927	19.669	17.429	0.505
405.000	295.252	80.004	19.995	103.932	19.670	17.401	0.488
405.500	295.516	80.008	19.993	103.937	19.673	17.191	0.487
406.000	295.787	80.006	19.993	103.943	19.666	17.651	0.514
406.500	296.063	80.009	19.994	103.948	19.665	17.707	0.541
407.000	296.294	80.014	19.993	103.949	19.665	17.734	0.527
407.500	296.540	80.006	19.994	103.948	19.661	17.954	0.493
408.000	296.787	80.002	19.995	103.944	19.661	18.003	0.485
408.500	297.034	80.011	19.992	103.937	19.659	18.131	0.493
409.000	297.283	79.988	19.995	103.937	19.659	18.146	0.495
409.500	297.567	80.003	19.995	103.931	19.658	18.155	0.515
410.000	297.779	79.995	19.997	103.926	19.657	18.229	0.514
410.500	298.017	80.001	19.994	103.921	19.653	18.485	0.473
411.000	298.321	80.007	19.994	103.916	19.653	18.531	0.496
411.500	298.550	80.005	19.993	103.911	19.650	18.689	0.538
412.000	298.800	80.006	19.994	103.914	19.651	18.654	0.506
412.500	299.042	80.003	19.994	103.915	19.647	18.898	0.485
413.000	299.298	80.006	19.994	103.920	19.647	18.951	0.495
413.500	299.588	80.000	19.994	103.925	19.646	18.993	0.522
414.000	299.813	80.007	19.993	103.925	19.638	19.506	0.531
414.500	300.071	80.006	19.994	103.927	19.643	19.223	0.500
415.000	300.301	80.004	19.995	103.933	19.638	19.528	0.486
415.500	300.561	80.004	19.994	103.937	19.637	19.573	0.489
416.000	300.779	79.996	19.996	103.939	19.638	19.562	0.484
416.500	301.057	80.019	19.993	103.941	19.632	19.925	0.487
417.000	301.293	80.003	19.992	103.938	19.632	19.917	0.505
417.500	301.564	80.015	19.993	103.937	19.631	20.014	0.511
418.000	301.811	80.005	19.993	103.940	19.630	20.068	0.512
418.500	302.073	80.000	19.995	103.941	19.628	20.203	0.513
419.000	302.289	80.006	19.996	103.944	19.625	20.423	0.493
419.500	302.570	80.014	19.993	103.948	19.627	20.246	0.487
420.000	302.822	79.998	19.997	103.950	19.625	20.386	0.515
420.500	303.071	80.003	19.995	103.948	19.620	20.766	0.517
421.000	303.314	80.009	19.994	103.948	19.617	20.950	0.497
421.500	303.611	80.007	19.990	103.946	19.621	20.683	0.516
422.000	303.835	79.999	19.993	103.952	19.618	20.909	0.531
422.500	304.066	80.011	19.994	103.948	19.614	21.152	0.488
423.000	304.346	80.004	19.994	103.944	19.612	21.265	0.483
423.500	304.577	80.000	19.994	103.941	19.610	21.392	0.511
424.000	304.845	80.008	19.996	103.942	19.608	21.585	0.504
424.500	305.072	80.005	19.993	103.935	19.605	21.792	0.497
425.000	305.334	80.004	19.996	103.936	19.603	21.923	0.492
425.500	305.590	80.014	19.993	103.941	19.599	22.161	0.503
426.000	305.845	80.010	19.993	103.947	19.599	22.188	0.514
426.500	306.144	80.010	19.994	103.947	19.602	21.955	0.532
427.000	306.308	80.007	19.998	103.949	19.600	22.114	0.509
427.500	306.609	80.008	19.994	103.949	19.593	22.567	0.464
428.000	306.856	80.004	19.993	103.949	19.591	22.730	0.507
428.500	307.091	80.008	19.994	103.948	19.590	22.790	0.515
429.000	307.373	80.005	19.993	103.949	19.592	22.663	0.499
429.500	307.615	80.006	19.995	103.950	19.587	22.950	0.521
430.000	307.852	80.007	19.994	103.951	19.584	23.173	0.502
430.500	308.095	80.005	19.994	103.952	19.582	23.316	0.479
431.000	308.335	80.010	19.993	103.953	19.582	23.339	0.482
431.500	308.619	80.007	19.995	103.955	19.580	23.480	0.503
432.000	308.858	80.007	19.992	103.954	19.580	23.424	0.523
432.500	309.126	80.005	19.992	103.954	19.577	23.625	0.515
433.000	309.384	80.007	19.993	103.953	19.573	23.922	0.516
433.500	309.661	80.003	19.994	103.952	19.571	24.055	0.530
434.000	309.862	80.007	19.992	103.951	19.567	24.319	0.507
434.500	310.149	80.006	19.994	103.952	19.568	24.269	0.483
435.000	310.391	80.009	19.993	103.951	19.566	24.392	0.509
435.500	310.633	80.008	19.994	103.952	19.563	24.599	0.507
436.000	310.911	79.994	20.002	103.953	19.557	24.989	0.502
436.500	311.175	80.004	19.992	103.951	19.560	24.786	0.531
437.000	311.406	80.008	19.993	103.952	19.555	25.154	0.519
437.500	311.695	80.009	19.992	103.954	19.555	25.118	0.508
438.001	311.915	80.006	19.995	103.955	19.550	25.466	0.515
438.500	312.175	80.002	19.994	103.955	19.551	25.382	0.495
439.000	312.446	80.003	19.993	103.959	19.548	25.632	0.506
439.500	312.695	80.006	19.993	103.957	19.543	25.988	0.525
440.000	312.960	80.008	19.993	103.957	19.540	26.143	0.517
440.500	313.225	80.010	19.991	103.956	19.537	26.334	0.522
441.000	313.475	80.008	19.991	103.957	19.538	26.305	0.522
441.500	313.703	80.006	19.994	103.958	19.531	26.797	0.497
442.000	313.972	80.005	19.993	103.960	19.529	26.930	0.488
442.500	314.215	80.007	19.993	103.962	19.528	26.988	0.505
443.000	314.478	80.001	20.000	103.962	19.522	27.384	0.509
443.500	314.755	80.004	19.992	103.961	19.521	27.456	0.523
444.000	314.993	80.002	19.994	103.962	19.518	27.628	0.527
444.500	315.207	80.007	19.996	103.965	19.518	27.651	0.483
445.000	315.496	80.004	19.995	103.966	19.517	27.751	0.478
445.500	315.754	80.007	19.994	103.968	19.510	28.159	0.526
446.000	315.968	80.007	19.994	103.969	19.506	28.444	0.510
446.500	316.261	80.009	19.994	103.968	19.506	28.435	0.489
447.000	316.457	80.008	19.993	103.967	19.504	28.611	0.498
447.500	316.701	80.004	19.993	103.967	19.503	28.645	0.465
448.000	317.012	80.009	19.993	103.967	19.498	28.971	0.497
448.500	317.251	80.009	19.993	103.967	19.498	29.009	0.552
449.000	317.505	80.008	19.995	103.968	19.493	29.351	0.522
449.500	317.749	80.005	19.998	103.969	19.490	29.563	0.495
450.000	317.980	80.003	19.996	103.970	19.490	29.549	0.486
450.500	318.279	80.005	19.996	103.975	19.486	29.824	0.503
451.000	318.510	80.006	19.995	103.981	19.481	30.142	0.530
451.500	318.743	80.011	19.993	103.985	19.478	30.385	0.497
452.000	319.007	80.006	19.993	103.988	19.476	30.526	0.480
452.500	319.263	80.008	19.995	103.989	19.474	30.620	0.508
453.000	319.469	80.008	19.992	103.990	19.471	30.840	0.491
453.500	319.720	80.005	19.994	103.991	19.470	30.935	0.460
454.000	319.993	80.005	19.995	103.992	19.466	31.186	0.491
454.500	320.259	80.008	19.995	103.991	19.462	31.469	0.532
455.000	320.464	80.006	19.994	103.991	19.462	31.425	0.505
455.500	320.722	80.004	19.993	103.991	19.459	31.646	0.467
456.000	320.970	80.006	19.993	103.990	19.453	32.056	0.484
456.500	321.248	80.004	19.995	103.991	19.452	32.095	0.516
457.000	321.486	80.005	19.993	103.991	19.450	32.280	0.521
457.500	321.727	80.005	19.994	103.991	19.450	32.245	0.497
458.000	321.995	80.005	19.992	103.991	19.446	32.547	0.494
458.500	322.226	80.002	19.998	103.993	19.440	32.944	0.504
459.000	322.485	80.001	19.996	103.992	19.442	32.825	0.494
459.500	322.789	80.005	19.993	103.993	19.436	33.202	0.526
460.000	322.993	80.003	19.994	103.995	19.434	33.333	0.536
460.500	323.232	80.004	19.993	103.996	19.428	33.760	0.476
461.000	323.514	80.000	19.995	103.996	19.427	33.795	0.481
461.500	323.770	80.005	19.995	103.997	19.425	33.920	0.529
462.000	324.002	80.006	19.994	103.998	19.421	34.244	0.513
462.500	324.244	80.007	19.994	103.999	19.420	34.314	0.481
463.000	324.512	80.006	19.991	104.004	19.416	34.536	0.492
463.500	324.759	80.006	19.993	104.010	19.413	34.770	0.513
464.000	325.024	80.008	19.994	104.016	19.410	34.934	0.514
464.500	325.240	80.003	19.995	104.020	19.407	35.199	0.497
465.000	325.500	80.007	19.993	104.023	19.404	35.402	0.478
465.500	325.706	80.003	19.995	104.020	19.401	35.601	0.470
466.000	326.008	80.005	19.995	104.018	19.397	35.851	0.487
466.500	326.255	80.004	19.995	104.012	19.393	36.127	0.529
467.000	326.457	80.006	19.993	104.011	19.389	36.397	0.499
467.500	326.748	80.003	19.994	104.010	19.385	36.625	0.470
468.000	326.967	80.006	19.993	104.010	19.383	36.810	0.501
468.500	327.263	80.006	19.994	104.012	19.378	37.150	0.513
469.000	327.513	80.003	19.995	104.015	19.377	37.211	0.530
469.500	327.765	80.004	19.995	104.017	19.373	37.446	0.524
470.000	328.016	80.005	19.994	104.020	19.368	37.782	0.503
470.500	328.259	80.004	19.996	104.025	19.367	37.844	0.499
471.000	328.517	80.004	19.994	104.026	19.363	38.173	0.498
471.500	328.783	80.004	19.996	104.027	19.359	38.389	0.512
472.000	329.020	80.008	19.994	104.027	19.358	38.470	0.513
472.500	329.294	80.002	19.995	104.028	19.351	38.942	0.507
473.000	329.549	80.005	19.996	104.029	19.353	38.824	0.520
473.500	329.838	80.000	19.996	104.031	19.347	39.210	0.537
474.000	330.092	80.003	19.991	104.032	19.344	39.408	0.543
474.500	330.303	80.004	19.994	104.033	19.340	39.705	0.503
475.000	330.545	80.005	19.996	104.032	19.335	40.076	0.459
475.500	330.800	80.005	19.995	104.031	19.331	40.308	0.475
476.000	331.078	80.007	19.994	104.030	19.327	40.583	0.515
476.500	331.348	80.006	19.995	104.030	19.327	40.570	0.541
477.000	331.581	80.005	19.994	104.029	19.319	41.135	0.525
477.500	331.795	80.005	19.997	104.030	19.318	41.200	0.475
478.000	332.091	80.003	19.997	104.031	19.316	41.367	0.479
478.500	332.372	80.000	19.996	104.031	19.310	41.763	0.544
479.000	332.593	80.007	19.995	104.033	19.305	42.104	0.539
479.500	332.854	80.004	19.995	104.037	19.302	42.295	0.492
480.000	333.105	80.004	19.995	104.041	19.301	42.375	0.497
480.500	333.370	80.006	19.996	104.040	19.294	42.804	0.514
481.000	333.581	80.004	19.995	104.044	19.291	43.029	0.496
481.500	333.872	80.003	19.995	104.044	19.287	43.294	0.489
482.000	334.124	80.005	19.994	104.045	19.283	43.602	0.522
482.500	334.391	80.002	19.997	104.043	19.280	43.798	0.531
483.000	334.660	79.998	20.001	104.046	19.277	43.985	0.528
483.500	334.926	80.006	19.996	104.043	19.270	44.482	0.536
484.000	335.167	80.010	19.991	104.042	19.269	44.511	0.521
484.500	335.413	80.003	19.998	104.042	19.264	44.861	0.497
485.000	335.656	80.007	19.994	104.046	19.258	45.235	0.488
485.500	335.923	80.007	19.997	104.050	19.255	45.465	0.499
486.000	336.159	80.003	19.996	104.053	19.249	45.851	0.506
486.500	336.427	80.001	19.994	104.057	19.249	45.884	0.503
487.000	336.693	80.006	19.996	104.059	19.243	46.277	0.519
487.500	336.949	80.008	19.992	104.061	19.239	46.536	0.528
488.000	337.245	80.006	19.994	104.061	19.237	46.681	0.537
488.500	337.432	80.005	19.993	104.064	19.232	47.051	0.517
489.000	337.665	80.012	19.996	104.066	19.227	47.383	0.452
489.500	337.929	80.004	19.994	104.067	19.220	47.806	0.459
490.000	338.232	80.010	19.992	104.068	19.216	48.131	0.532
490.500	338.492	80.005	19.996	104.070	19.212	48.378	0.564
491.000	338.734	80.006	19.990	104.069	19.206	48.815	0.532
491.500	338.988	80.002	19.995	104.071	19.205	48.892	0.499
492.000	339.200	80.006	19.995	104.073	19.196	49.454	0.481
492.500	339.465	80.005	19.993	104.073	19.194	49.632	0.471
493.000	339.740	80.005	19.995	104.072	19.189	49.963	0.509
493.500	340.000	80.005	19.995	104.075	19.188	50.029	0.537
494.000	340.248	80.007	19.993	104.076	19.182	50.432	0.521
494.500	340.518	80.004	19.993	104.084	19.177	50.757	0.513
495.000	340.744	80.006	19.994	104.086	19.172	51.116	0.507
495.500	341.031	80.010	19.994	104.087	19.168	51.354	0.504
496.000	341.269	80.004	19.995	104.088	19.164	51.661	0.519
496.500	341.487	80.010	19.995	104.084	19.159	51.957	0.491
497.000	341.804	80.006	19.994	104.076	19.155	52.226	0.495
497.500	342.026	80.004	19.994	104.076	19.148	52.689	0.537
498.000	342.293	80.003	19.995	104.074	19.142	53.115	0.514
498.500	342.552	80.008	19.994	104.071	19.140	53.276	0.508
499.000	342.780	80.003	19.994	104.073	19.136	53.522	0.506
499.500	343.044	80.005	19.994	104.077	19.131	53.883	0.489
500.000	343.306	80.001	19.998	104.081	19.126	54.240	0.509
500.500	343.531	80.002	19.993	104.086	19.121	54.538	0.507
501.000	343.815	80.009	19.995	104.092	19.113	55.080	0.498
501.500	344.072	80.014	19.993	104.098	19.109	55.366	0.525
502.000	344.299	80.003	19.994	104.104	19.108	55.456	0.513
502.500	344.538	80.004	19.995	104.106	19.103	55.780	0.475
503.000	344.831	80.003	19.993	104.108	19.097	56.148	0.499
503.500	345.057	80.008	19.994	104.108	19.093	56.434	0.525
504.000	345.294	80.008	19.993	104.109	19.090	56.669	0.491
504.500	345.544	80.016	19.992	104.106	19.084	57.043	0.475
505.000	345.795	80.005	19.994	104.109	19.081	57.249	0.494
505.500	346.068	80.012	19.994	104.112	19.076	57.571	0.513
506.000	346.306	80.006	19.994	104.112	19.072	57.842	0.517
506.500	346.548	80.002	19.994	104.112	19.066	58.306	0.495
507.000	346.809	80.005	19.994	104.113	19.067	58.229	0.491
507.500	347.057	80.011	19.993	104.110	19.056	58.980	0.506
508.000	347.327	80.015	19.992	104.110	19.052	59.238	0.513
508.500	347.550	79.999	19.995	104.114	19.049	59.433	0.505
509.000	347.851	80.007	19.993	104.112	19.041	59.985	0.509
509.500	348.099	80.007	19.993	104.113	19.041	59.941	0.537
510.000	348.351	80.005	19.994	104.114	19.035	60.377	0.525
510.500	348.569	80.004	19.995	104.112	19.030	60.757	0.485
511.000	348.842	80.005	19.993	104.109	19.026	60.967	0.480
511.500	349.101	80.007	19.993	104.109	19.023	61.190	0.512
512.000	349.342	80.012	19.992	104.109	19.016	61.684	0.516
512.500	349.641	80.022	19.991	104.109	19.012	61.971	0.520
513.000	349.867	80.008	19.993	104.113	19.003	62.523	0.532
513.500	350.143	80.006	19.993	104.114	18.999	62.812	0.513
514.000	350.399	79.999	19.994	104.117	18.999	62.841	0.517
514.500	350.612	80.005	19.994	104.117	18.997	62.981	0.501
515.000	350.888	80.004	19.994	104.120	18.989	63.501	0.479
515.500	351.102	79.999	19.994	104.119	18.989	63.495	0.490
516.000	351.323	80.002	19.994	104.120	18.981	64.064	0.463
516.500	351.633	80.005	19.994	104.118	18.980	64.121	0.483
517.000	351.903	80.007	19.994	104.120	18.975	64.457	0.555
517.500	352.150	80.005	19.994	104.121	18.972	64.649	0.549
518.000	352.417	80.004	19.994	104.118	18.969	64.816	0.515
518.500	352.666	80.003	19.992	104.117	18.960	65.434	0.514
519.000	352.932	80.006	19.992	104.120	18.957	65.655	0.515
519.500	353.209	80.006	19.991	104.123	18.953	65.927	0.529
520.000	353.457	80.001	19.992	104.127	18.952	65.994	0.534
520.500	353.719	80.007	19.993	104.133	18.950	66.156	0.518
521.000	353.980	80.020	19.990	104.136	18.946	66.390	0.517
521.500	354.213	80.007	19.993	104.142	18.943	66.597	0.509
522.000	354.473	79.998	19.994	104.147	18.938	66.913	0.493
522.500	354.741	80.006	19.993	104.145	18.939	66.862	0.510
523.000	354.963	80.000	19.994	104.148	18.931	67.383	0.509
523.500	355.253	80.005	19.993	104.150	18.928	67.602	0.501
524.000	355.489	80.009	19.992	104.147	18.923	67.948	0.519
524.500	355.724	80.009	19.994	104.146	18.921	68.105	0.499
525.000	355.986	80.012	19.993	104.148	18.920	68.131	0.484
525.500	356.200	80.002	19.995	104.147	18.919	68.249	0.487
526.000	356.499	80.013	19.993	104.146	18.912	68.691	0.494
526.500	356.763	80.008	19.993	104.147	18.910	68.796	0.538
527.000	356.987	80.008	19.994	104.143	18.909	68.864	0.526
527.500	357.247	80.006	19.991	104.139	18.906	69.097	0.486
528.000	357.497	80.005	19.992	104.135	18.904	69.252	0.497
528.500	357.782	80.006	19.993	104.137	18.901	69.410	0.522
529.000	357.987	80.009	19.993	104.136	18.903	69.325	0.512
529.500	358.289	80.007	19.994	104.134	18.898	69.661	0.498
530.000	358.566	80.012	19.991	104.131	18.897	69.670	0.543
530.500	358.782	80.007	19.993	104.129	18.898	69.629	0.536
531.000	359.026	80.012	19.992	104.123	18.894	69.886	0.476
531.500	359.273	80.009	19.993	104.120	18.894	69.902	0.476
532.000	359.572	80.009	19.993	104.120	18.895	69.805	0.518
532.500	359.798	80.006	19.992	104.119	18.891	70.081	0.535
533.000	360.035	80.008	19.993	104.116	18.892	70.019	0.494
533.500	360.318	80.002	19.992	104.115	18.893	69.938	0.491
534.000	360.539	80.006	19.992	104.111	18.892	70.015	0.512
534.500	360.821	80.005	19.993	104.109	18.891	70.074	0.504
535.000	361.059	80.007	19.994	104.109	18.890	70.146	0.512
535.500	361.321	80.008	19.992	104.109	18.889	70.226	0.511
536.000	361.554	79.999	19.993	104.109	18.890	70.168	0.497
536.500	361.831	80.015	19.991	104.109	18.894	69.836	0.502
537.000	362.047	80.002	19.993	104.111	18.890	70.102	0.502
537.500	362.333	80.000	19.995	104.108	18.894	69.835	0.498
538.000	362.589	80.013	19.991	104.109	18.895	69.806	0.522
538.500	362.806	80.019	19.992	104.108	18.896	69.727	0.507
539.000	363.058	80.003	19.992	104.104	18.898	69.605	0.471
539.500	363.313	80.008	19.991	104.098	18.900	69.433	0.488
540.000	363.534	80.003	19.993	104.099	18.902	69.286	0.492
540.500	363.804	80.006	19.993	104.096	18.901	69.344	0.484
541.000	364.070	80.011	19.994	104.095	18.906	69.043	0.514
541.500	364.310	80.000	19.999	104.095	18.908	68.868	0.521
542.000	364.569	80.006	19.996	104.091	18.913	68.518	0.502
542.500	364.831	80.001	20.001	104.084	18.913	68.573	0.510
543.000	365.063	80.003	19.996	104.077	18.916	68.350	0.507
543.500	365.335	80.005	19.998	104.070	18.921	67.991	0.499
544.000	365.590	80.003	19.995	104.064	18.927	67.570	0.516
544.500	365.861	80.001	19.997	104.063	18.928	67.516	0.526
545.000	366.109	80.003	19.995	104.058	18.934	67.137	0.522
545.500	366.366	80.005	19.994	104.058	18.937	66.872	0.512
546.000	366.644	80.006	19.994	104.055	18.945	66.380	0.520
546.500	366.877	80.003	19.997	104.053	18.949	66.071	0.523
547.000	367.136	80.000	19.999	104.046	18.955	65.667	0.502
547.500	367.356	79.996	20.000	104.041	18.959	65.421	0.485
548.000	367.667	80.004	19.996	104.035	18.965	64.987	0.504
548.500	367.899	80.006	19.994	104.030	18.971	64.562	0.537
549.000	368.147	80.013	19.991	104.026	18.977	64.157	0.512
549.500	368.424	80.005	19.994	104.027	18.986	63.568	0.503
550.000	368.671	80.007	19.993	104.026	18.994	63.010	0.525
550.500	368.939	80.004	19.994	104.023	19.001	62.584	0.519
551.000	369.168	80.000	19.997	104.016	19.006	62.186	0.506
551.500	369.413	80.004	19.996	104.007	19.010	61.919	0.486
552.000	369.693	80.007	19.993	103.998	19.018	61.407	0.500
552.500	369.924	80.007	19.994	103.993	19.028	60.746	0.517
553.000	370.215	80.004	19.995	103.990	19.037	60.133	0.516
553.501	370.451	80.008	19.993	103.988	19.043	59.729	0.524
554.000	370.728	80.005	19.994	103.988	19.054	58.979	0.520
554.500	370.937	80.003	19.994	103.980	19.063	58.353	0.500
555.000	371.229	80.004	19.994	103.971	19.068	57.990	0.494
555.500	371.465	80.004	19.995	103.966	19.076	57.444	0.514
556.000	371.750	80.006	19.995	103.960	19.087	56.693	0.524
556.500	372.002	80.004	19.993	103.953	19.097	56.039	0.529
557.000	372.219	79.993	19.996	103.952	19.106	55.416	0.503
557.500	372.529	80.005	19.996	103.947	19.116	54.795	0.498
558.000	372.813	80.005	19.994	103.943	19.126	54.064	0.561
558.500	373.020	80.006	19.996	103.941	19.137	53.362	0.543
559.000	373.266	80.005	19.995	103.940	19.148	52.635	0.472
559.500	373.511	80.007	19.993	103.937	19.159	51.887	0.472
560.001	373.802	80.009	19.993	103.937	19.165	51.446	0.513
560.500	374.080	80.005	19.995	103.933	19.179	50.511	0.552
561.000	374.334	80.008	19.995	103.926	19.189	49.858	0.550
561.500	374.587	80.008	19.993	103.919	19.201	49.021	0.519
562.000	374.821	80.004	19.995	103.915	19.213	48.200	0.497
562.500	375.048	80.005	19.995	103.912	19.224	47.481	0.474
563.000	375.332	80.007	19.995	103.911	19.235	46.719	0.486
563.500	375.605	80.006	19.993	103.911	19.245	46.028	0.534
564.000	375.849	80.004	19.995	103.909	19.256	45.281	0.537
564.500	376.104	80.009	19.994	103.901	19.267	44.552	0.508
565.000	376.341	80.007	19.996	103.894	19.281	43.618	0.496
565.500	376.636	80.003	19.994	103.888	19.290	43.013	0.512
566.000	376.832	80.007	19.995	103.880	19.304	42.076	0.512
566.500	377.117	80.010	19.995	103.875	19.315	41.306	0.486
567.000	377.381	80.003	19.994	103.876	19.326	40.599	0.515
567.500	377.624	80.006	19.994	103.880	19.336	39.919	0.528
568.000	377.885	80.000	19.994	103.884	19.349	39.016	0.506
568.500	378.127	80.006	19.993	103.884	19.358	38.401	0.504
569.000	378.402	80.001	19.996	103.884	19.368	37.719	0.510
569.500	378.653	80.003	19.998	103.884	19.379	36.986	0.521
570.000	378.903	80.007	19.994	103.878	19.394	35.977	0.514
570.500	379.178	80.002	19.995	103.874	19.401	35.485	0.513
571.000	379.411	80.004	19.996	103.873	19.414	34.637	0.517
571.500	379.677	80.004	19.996	103.872	19.424	33.932	0.503
572.000	379.904	80.003	19.996	103.870	19.434	33.289	0.496
572.500	380.164	80.004	19.994	103.864	19.444	32.636	0.490
573.000	380.424	80.002	19.995	103.856	19.458	31.665	0.503
573.500	380.659	80.006	19.994	103.848	19.466	31.096	0.508
574.000	380.947	80.003	19.990	103.842	19.475	30.536	0.509
574.500	381.224	80.000	19.993	103.840	19.488	29.593	0.544
575.000	381.423	80.003	19.998	103.842	19.491	29.398	0.520
575.500	381.716	80.004	19.999	103.842	19.504	28.523	0.484
576.000	381.980	80.003	19.996	103.843	19.511	28.077	0.524
576.500	382.235	80.006	19.993	103.841	19.522	27.355	0.538
577.000	382.494	79.999	19.995	103.838	19.530	26.817	0.517
577.500	382.763	80.023	19.989	103.839	19.537	26.307	0.521
578.000	382.989	80.006	19.994	103.843	19.544	25.832	0.511
578.500	383.230	80.005	19.994	103.844	19.558	24.906	0.481
579.000	383.514	80.002	19.995	103.844	19.562	24.628	0.496
579.500	383.760	80.001	19.996	103.843	19.566	24.346	0.528
580.000	384.023	80.009	19.993	103.840	19.578	23.576	0.520
580.500	384.270	80.001	19.996	103.835	19.580	23.449	0.510
581.000	384.515	80.007	19.995	103.833	19.592	22.612	0.501
581.500	384.761	80.007	19.995	103.834	19.597	22.292	0.492
582.000	385.023	80.008	19.995	103.835	19.603	21.899	0.500
582.500	385.288	80.004	19.992	103.836	19.608	21.550	0.517
583.000	385.524	80.006	19.995	103.835	19.613	21.194	0.514
583.500	385.802	80.004	19.994	103.833	19.619	20.791	0.508
584.000	386.088	80.007	19.993	103.830	19.621	20.640	0.539
584.500	386.307	80.002	19.993	103.824	19.627	20.242	0.534
585.000	386.577	80.005	19.994	103.816	19.631	19.984	0.497
585.500	386.824	80.001	19.987	103.808	19.632	19.926	0.503
586.000	387.072	80.008	19.992	103.805	19.639	19.442	0.506
586.500	387.312	79.997	19.993	103.801	19.645	19.004	0.492
587.000	387.603	80.006	19.994	103.798	19.648	18.817	0.510
587.500	387.878	80.010	19.988	103.799	19.654	18.449	0.548
588.000	388.087	80.007	19.993	103.800	19.657	18.204	0.525
588.500	388.353	80.011	19.991	103.802	19.657	18.222	0.479
589.000	388.612	79.999	19.995	103.804	19.659	18.084	0.500
589.500	388.881	80.004	19.992	103.805	19.663	17.844	0.526
590.000	389.131	79.998	19.994	103.805	19.665	17.680	0.523
590.500	389.420	80.003	19.992	103.804	19.666	17.613	0.529
591.000	389.624	80.005	19.995	103.802	19.670	17.367	0.516
591.500	389.894	80.005	19.995	103.800	19.672	17.242	0.483
592.000	390.128	80.005	19.992	103.801	19.675	16.977	0.489
592.500	390.378	80.002	19.993	103.802	19.674	17.087	0.494
593.000	390.637	80.006	19.993	103.803	19.677	16.849	0.497
593.500	390.892	80.007	19.992	103.801	19.677	16.848	0.512
594.000	391.148	80.005	19.999	103.802	19.679	16.763	0.512
594.500	391.372	80.005	19.992	103.799	19.681	16.595	0.495
595.000	391.673	80.019	19.994	103.803	19.681	16.636	0.502
595.500	391.919	79.997	19.995	103.803	19.682	16.542	0.536
596.000	392.182	80.009	19.992	103.803	19.682	16.513	0.528
596.500	392.436	80.010	19.993	103.803	19.686	16.291	0.513
597.000	392.666	80.014	19.993	103.806	19.685	16.362	0.501
597.500	392.896	80.004	19.994	103.802	19.685	16.307	0.472
598.000	393.195	80.007	19.995	103.802	19.685	16.352	0.494
598.500	393.441	80.000	19.997	103.804	19.687	16.187	0.537
599.000	393.732	80.008	19.992	103.805	19.687	16.200	0.541
599.500	393.981	80.001	19.995	103.808	19.688	16.157	0.538
600.000	394.248	80.007	19.993	103.810	19.687	16.196	0.528
600.500	394.491	80.004	19.997	103.813	19.685	16.330	0.513
601.000	394.775	80.008	19.992	103.814	19.687	16.179	0.519
601.500	395.016	80.006	19.996	103.816	19.685	16.348	0.526
602.000	395.297	80.004	19.997	103.813	19.686	16.302	0.524
602.500	395.541	80.010	19.999	103.813	19.687	16.173	0.524
603.000	395.774	80.008	19.991	103.813	19.687	16.173	0.501
603.500	396.051	80.005	19.992	103.820	19.688	16.125	0.493
604.000	396.291	80.010	19.992	103.824	19.687	16.216	0.514
604.500	396.549	80.000	19.988	103.830	19.686	16.303	0.507
605.000	396.812	80.000	20.000	103.834	19.687	16.197	0.510
605.500	397.076	80.011	19.995	103.834	19.686	16.295	0.524
606.000	397.314	80.006	19.998	103.834	19.686	16.248	0.515
606.500	397.551	79.993	19.993	103.829	19.685	16.313	0.488
607.000	397.799	80.005	19.998	103.827	19.691	15.949	0.480
607.500	398.045	80.009	19.989	103.825	19.683	16.495	0.490
608.000	398.292	80.002	19.993	103.826	19.684	16.376	0.494
608.500	398.556	80.009	19.993	103.828	19.684	16.394	0.502
609.000	398.837	80.003	19.993	103.833	19.682	16.537	0.528
609.500	399.076	80.009	19.993	103.835	19.684	16.416	0.533
610.000	399.339	80.003	19.992	103.837	19.685	16.345	0.511
610.500	399.623	80.006	19.996	103.837	19.682	16.516	0.524
611.000	399.841	80.009	19.992	103.836	19.683	16.452	0.524
611.500	400.120	80.009	19.992	103.835	19.681	16.632	0.500
612.000	400.378	80.008	19.992	103.833	19.681	16.628	0.517
612.500	400.621	80.021	19.988	103.832	19.678	16.779	0.519
613.000	400.832	80.003	19.996	103.835	19.680	16.672	0.477
613.500	401.114	80.008	19.996	103.834	19.677	16.871	0.473
614.000	401.334	80.009	19.993	103.833	19.680	16.669	0.498
614.500	401.601	80.007	19.993	103.835	19.680	16.702	0.495
615.000	401.873	80.007	19.993	103.835	19.678	16.830	0.513
615.500	402.126	80.012	19.990	103.829	19.676	16.928	0.532
616.000	402.379	80.003	19.999	103.827	19.675	16.983	0.516
616.500	402.596	80.002	19.996	103.825	19.676	16.977	0.488
617.000	402.877	80.004	19.998	103.823	19.674	17.087	0.484
617.500	403.111	80.008	19.997	103.819	19.672	17.186	0.507
618.000	403.386	80.007	19.993	103.815	19.671	17.300	0.512
618.500	403.607	80.002	19.992	103.815	19.673	17.117	0.502
619.000	403.912	80.006	19.994	103.815	19.674	17.102	0.511
619.500	404.134	80.003	19.995	103.816	19.671	17.271	0.527
620.000	404.369	80.003	19.994	103.819	19.670	17.383	0.492
620.500	404.642	79.999	19.992	103.822	19.667	17.584	0.482
621.000	404.864	80.009	19.998	103.824	19.667	17.574	0.501
621.500	405.111	80.009	19.996	103.818	19.667	17.570	0.482
622.000	405.380	80.010	19.990	103.814	19.666	17.627	0.492
622.500	405.616	79.996	20.001	103.812	19.662	17.889	0.511
623.000	405.872	79.999	19.999	103.806	19.662	17.895	0.499
623.500	406.148	80.006	19.993	103.798	19.661	17.928	0.512
624.000	406.405	80.000	19.995	103.801	19.662	17.885	0.532
624.500	406.644	80.011	19.991	103.799	19.660	18.009	0.514
625.000	406.894	80.003	19.992	103.798	19.660	17.996	0.492
625.500	407.179	80.004	19.992	103.804	19.657	18.226	0.512
626.000	407.412	80.007	19.994	103.815	19.658	18.176	0.527
626.500	407.676	80.006	19.990	103.820	19.656	18.266	0.508
627.000	407.905	80.006	19.994	103.826	19.656	18.315	0.495
627.500	408.155	80.001	19.993	103.831	19.657	18.234	0.486
628.000	408.452	80.010	19.995	103.833	19.653	18.527	0.513
628.500	408.680	80.008	19.995	103.833	19.653	18.483	0.536
629.000	408.926	80.004	19.992	103.835	19.653	18.474	0.500
629.500	409.202	80.009	19.992	103.835	19.651	18.653	0.498
630.000	409.471	79.995	19.992	103.836	19.649	18.788	0.533
630.500	409.725	79.996	19.991	103.839	19.648	18.848	0.534
631.000	409.974	79.998	19.995	103.841	19.648	18.868	0.513
631.500	410.224	80.003	19.992	103.837	19.650	18.715	0.501
632.000	410.469	80.004	19.993	103.837	19.641	19.311	0.497
632.500	410.734	80.009	19.994	103.835	19.645	19.062	0.502
633.000	410.973	80.005	19.996	103.831	19.643	19.160	0.507
633.500	411.243	80.007	19.998	103.827	19.646	18.981	0.506
634.000	411.472	80.008	19.994	103.826	19.642	19.258	0.504
634.500	411.749	79.990	19.996	103.823	19.643	19.176	0.503
635.000	411.974	80.009	19.992	103.822	19.642	19.245	0.504
635.500	412.246	80.006	19.991	103.826	19.636	19.623	0.500
636.000	412.513	79.999	20.001	103.829	19.638	19.513	0.518
636.500	412.758	79.991	19.991	103.830	19.636	19.661	0.525
637.000	413.035	80.012	19.990	103.833	19.635	19.722	0.517
637.501	413.274	80.009	19.993	103.838	19.636	19.613	0.519
638.000	413.491	79.996	19.994	103.837	19.632	19.886	0.486
638.500	413.736	80.001	19.992	103.836	19.633	19.860	0.459
639.000	414.004	79.992	19.994	103.836	19.631	19.966	0.487
639.500	414.240	80.011	19.993	103.833	19.629	20.117	0.509
640.000	414.518	80.002	19.995	103.831	19.626	20.286	0.509
640.500	414.763	80.011	19.992	103.834	19.625	20.403	0.519
641.000	414.999	80.005	19.994	103.837	19.624	20.419	0.502
641.500	415.269	80.008	19.994	103.839	19.622	20.595	0.493
642.000	415.522	80.002	19.997	103.846	19.623	20.543	0.515
642.500	415.789	80.007	19.994	103.843	19.622	20.604	0.522
643.000	416.027	80.017	19.993	103.839	19.621	20.667	0.512
643.500	416.244	80.007	19.994	103.835	19.618	20.864	0.480
644.000	416.509	80.007	19.993	103.829	19.616	20.970	0.469
644.500	416.762	80.008	19.993	103.820	19.610	21.360	0.500
645.000	417.029	80.004	19.992	103.816	19.613	21.192	0.519
645.500	417.267	80.022	19.994	103.817	19.610	21.406	0.512
646.000	417.519	80.000	19.998	103.819	19.612	21.226	0.497
646.500	417.786	80.005	19.998	103.822	19.609	21.435	0.505
647.000	418.052	79.992	20.002	103.826	19.605	21.713	0.526
647.500	418.303	80.001	19.995	103.827	19.607	21.586	0.525
648.000	418.581	80.002	19.995	103.825	19.607	21.563	0.523
648.500	418.828	80.017	19.991	103.823	19.602	21.917	0.527
649.000	419.078	80.003	19.995	103.826	19.604	21.772	0.511
649.500	419.305	80.000	20.000	103.826	19.600	22.039	0.487
650.000	419.545	79.997	19.994	103.822	19.597	22.244	0.472
650.500	419.805	80.000	19.996	103.815	19.600	22.087	0.484
651.000	420.049	80.001	19.996	103.813	19.599	22.128	0.502
651.500	420.301	80.017	19.997	103.809	19.595	22.388	0.500
652.000	420.534	80.013	19.995	103.806	19.595	22.392	0.490
652.500	420.832	80.007	19.993	103.809	19.596	22.352	0.508
653.000	421.066	80.010	19.995	103.809	19.594	22.492	0.532
653.500	421.313	80.009	19.995	103.808	19.591	22.668	0.506
654.000	421.594	80.004	19.995	103.804	19.593	22.558	0.504
654.500	421.829	80.003	19.998	103.802	19.587	22.932	0.522
655.000	422.095	80.009	19.993	103.801	19.587	22.955	0.509
655.500	422.358	80.006	19.993	103.802	19.588	22.858	0.515
656.000	422.607	80.000	19.995	103.803	19.584	23.160	0.521
656.500	422.811	79.998	19.997	103.807	19.582	23.251	0.483
657.000	423.090	80.005	19.992	103.806	19.584	23.123	0.468
657.500	423.349	80.002	19.999	103.807	19.580	23.428	0.510
658.000	423.585	80.001	19.996	103.805	19.581	23.350	0.516
658.501	423.846	79.995	19.990	103.805	19.577	23.644	0.496
659.001	424.098	80.009	19.995	103.804	19.574	23.808	0.505
659.500	424.353	80.008	19.995	103.810	19.575	23.775	0.510
660.000	424.612	80.023	19.989	103.810	19.574	23.831	0.510
660.500	424.863	80.012	19.993	103.817	19.572	23.956	0.512
661.000	425.131	80.015	19.988	103.815	19.570	24.081	0.515
661.500	425.338	79.995	19.992	103.814	19.567	24.314	0.496
662.000	425.604	80.008	19.992	103.812	19.566	24.331	0.474
662.500	425.835	79.998	19.998	103.810	19.566	24.333	0.485
663.000	426.149	80.002	19.998	103.802	19.563	24.532	0.521
663.500	426.367	80.006	19.989	103.799	19.562	24.607	0.538
664.000	426.629	80.000	19.997	103.796	19.564	24.523	0.506
664.500	426.870	79.999	19.997	103.792	19.559	24.812	0.492
665.000	427.135	80.008	19.999	103.790	19.558	24.920	0.505
665.500	427.345	79.997	19.998	103.790	19.557	24.967	0.491
666.000	427.618	80.002	19.992	103.792	19.551	25.362	0.479
666.500	427.877	80.008	19.995	103.791	19.555	25.129	0.507
667.000	428.128	80.009	19.995	103.792	19.554	25.164	0.521
667.500	428.399	80.011	19.995	103.792	19.550	25.421	0.516
668.000	428.646	80.006	19.999	103.793	19.548	25.589	0.520
668.500	428.880	80.010	19.999	103.791	19.551	25.341	0.499
669.000	429.135	80.007	19.995	103.791	19.548	25.568	0.485
669.501	429.389	80.010	19.993	103.790	19.543	25.898	0.499
670.000	429.647	80.007	19.995	103.791	19.543	25.923	0.510
670.500	429.913	80.008	19.992	103.792	19.540	26.129	0.518
671.000	430.139	80.002	19.995	103.793	19.543	25.908	0.508
671.500	430.436	80.006	19.993	103.793	19.541	26.061	0.507
672.000	430.638	80.012	19.992	103.792	19.538	26.251	0.511
672.500	430.889	80.006	19.995	103.794	19.533	26.605	0.476
673.000	431.142	80.009	19.991	103.793	19.532	26.627	0.479
673.500	431.416	80.007	19.994	103.794	19.535	26.459	0.516
674.000	431.661	80.009	19.993	103.795	19.532	26.629	0.523
674.500	431.910	80.007	19.995	103.796	19.532	26.673	0.506
675.000	432.159	80.003	19.993	103.794	19.529	26.854	0.496
675.500	432.423	80.007	19.991	103.794	19.528	26.957	0.506
676.000	432.672	80.004	19.993	103.793	19.526	27.066	0.513
676.500	432.949	80.006	19.995	103.794	19.525	27.155	0.520
677.000	433.196	80.008	19.994	103.794	19.525	27.118	0.525
677.500	433.468	80.008	19.988	103.794	19.525	27.130	0.521
678.000	433.719	80.005	19.994	103.795	19.521	27.388	0.521
678.500	433.948	79.997	19.995	103.794	19.520	27.489	0.501
679.000	434.228	80.005	19.996	103.794	19.517	27.658	0.495
679.500	434.464	80.003	19.997	103.794	19.518	27.628	0.513
680.000	434.744	80.008	19.997	103.794	19.516	27.746	0.516
680.500	434.988	80.009	19.991	103.794	19.514	27.874	0.520
681.000	435.224	79.995	19.995	103.795	19.512	28.016	0.502
681.500	435.477	80.009	19.990	103.794	19.513	27.911	0.485
682.000	435.736	80.000	19.993	103.795	19.516	27.745	0.500
682.500	435.987	80.007	19.995	103.794	19.510	28.105	0.511
683.000	436.225	80.014	19.996	103.795	19.509	28.195	0.499
683.500	436.487	79.997	20.000	103.795	19.509	28.184	0.494
684.000	436.764	80.007	19.995	103.793	19.511	28.104	0.520
684.500	436.996	80.006	19.996	103.792	19.506	28.376	0.524
685.000	437.249	80.002	19.994	103.793	19.504	28.572	0.497
685.500	437.526	80.007	19.994	103.792	19.503	28.620	0.508
686.000	437.733	80.000	19.993	103.791	19.502	28.661	0.507
686.500	438.019	80.004	19.994	103.794	19.501	28.769	0.488
687.000	438.269	80.006	19.987	103.795	19.503	28.636	0.515
687.500	438.486	80.006	19.994	103.796	19.497	29.009	0.502
688.000	438.740	80.003	19.996	103.796	19.498	28.937	0.469
688.500	439.029	80.013	19.992	103.794	19.495	29.125	0.507
689.000	439.248	80.006	19.994	103.795	19.494	29.194	0.525
689.500	439.536	80.006	19.994	103.795	19.491	29.390	0.508
690.000	439.793	80.008	19.993	103.794	19.492	29.344	0.526
690.500	440.013	80.005	19.996	103.794	19.493	29.308	0.511
691.000	440.286	80.005	19.994	103.795	19.490	29.468	0.485
691.500	440.513	80.007	19.993	103.793	19.489	29.560	0.496
692.000	440.793	80.005	19.994	103.793	19.489	29.530	0.503
692.500	441.069	80.013	19.991	103.792	19.488	29.656	0.531
693.000	441.261	80.008	19.993	103.793	19.485	29.822	0.512
693.500	441.540	80.009	19.995	103.794	19.488	29.630	0.469
694.000	441.787	80.006	19.992	103.794	19.484	29.904	0.498
694.500	442.057	80.008	19.991	103.795	19.482	30.009	0.522
695.000	442.288	80.010	19.991	103.796	19.484	29.869	0.509
695.500	442.565	80.002	19.995	103.796	19.480	30.176	0.504
696.000	442.817	80.010	19.992	103.795	19.480	30.133	0.519
696.500	443.076	80.013	19.992	103.795	19.480	30.189	0.520
697.000	443.317	80.005	19.996	103.796	19.478	30.319	0.506
697.500	443.605	80.001	19.993	103.796	19.476	30.422	0.515
698.000	443.842	80.005	19.995	103.794	19.478	30.297	0.527
698.500	444.064	80.003	19.993	103.794	19.477	30.367	0.492
699.000	444.349	80.010	19.990	103.794	19.474	30.542	0.483
699.500	444.581	80.006	19.994	103.794	19.476	30.454	0.512
700.000	444.844	80.005	19.996	103.796	19.473	30.646	0.506
700.500	445.100	80.003	19.989	103.797	19.474	30.568	0.507
701.000	445.373	79.999	19.997	103.799	19.475	30.497	0.524
701.500	445.570	80.001	19.997	103.798	19.470	30.809	0.499
702.000	445.805	80.006	19.995	103.795	19.471	30.762	0.451
702.500	446.097	80.003	19.994	103.796	19.470	30.848	0.480
703.000	446.341	80.001	19.997	103.797	19.468	31.004	0.532
703.500	446.608	80.007	19.988	103.794	19.464	31.232	0.524
704.000	446.822	79.991	19.999	103.796	19.466	31.103	0.496
704.500	447.132	80.008	19.998	103.795	19.463	31.298	0.503
705.000	447.339	79.988	20.001	103.794	19.464	31.249	0.520
705.500	447.622	79.998	19.994	103.792	19.463	31.300	0.503
706.000	447.889	80.002	19.994	103.795	19.462	31.355	0.520
706.500	448.123	80.005	19.994	103.794	19.464	31.269	0.526
707.000	448.372	80.000	19.993	103.794	19.463	31.302	0.492
707.500	448.628	80.003	19.994	103.794	19.464	31.243	0.494
708.000	448.923	80.005	19.994	103.790	19.461	31.431	0.527
708.500	449.153	80.004	19.995	103.787	19.458	31.613	0.538
709.000	449.403	80.007	19.992	103.787	19.461	31.418	0.503
709.500	449.632	80.004	19.993	103.789	19.460	31.529	0.480
710.000	449.878	80.006	19.993	103.789	19.461	31.437	0.477
710.500	450.129	80.001	19.994	103.794	19.463	31.340	0.486
711.000	450.377	80.004	19.993	103.796	19.464	31.230	0.498
711.500	450.639	80.006	19.994	103.797	19.459	31.607	0.504
712.000	450.916	80.006	19.994	103.797	19.463	31.324	0.524
712.500	451.152	80.004	19.994	103.798	19.463	31.278	0.526
713.000	451.431	80.001	19.990	103.797	19.463	31.324	0.514
713.500	451.686	80.005	19.996	103.796	19.460	31.532	0.525
714.000	451.957	79.996	19.998	103.795	19.460	31.510	0.530
714.500	452.188	80.006	19.993	103.793	19.458	31.614	0.514
715.000	452.438	80.015	19.998	103.789	19.462	31.379	0.492
715.500	452.668	79.997	19.994	103.787	19.458	31.653	0.481
716.000	452.921	80.004	19.997	103.785	19.458	31.617	0.482
716.500	453.189	80.011	19.991	103.783	19.459	31.547	0.502
717.000	453.443	79.994	19.992	103.786	19.460	31.526	0.521
717.500	453.689	79.996	19.992	103.790	19.459	31.559	0.511
718.000	453.902	79.999	19.993	103.789	19.463	31.276	0.479
718.500	454.179	80.001	19.993	103.791	19.464	31.267	0.474
719.000	454.447	80.005	19.993	103.795	19.462	31.338	0.517
719.500	454.665	80.005	19.995	103.794	19.460	31.492	0.516
720.000	454.960	80.004	19.994	103.790	19.461	31.460	0.500
720.500	455.209	80.004	19.993	103.793	19.462	31.393	0.528
721.000	455.478	80.006	19.989	103.792	19.465	31.158	0.530
721.500	455.700	79.999	19.997	103.792	19.463	31.282	0.504
722.000	455.968	80.003	19.994	103.791	19.460	31.486	0.491
722.500	456.234	80.006	19.992	103.792	19.465	31.148	0.512
723.000	456.504	80.026	19.990	103.792	19.462	31.380	0.535
723.500	456.738	80.003	19.994	103.795	19.466	31.069	0.520
724.000	456.992	79.994	19.995	103.788	19.462	31.349	0.496
724.500	457.239	79.993	19.998	103.784	19.464	31.225	0.495
725.000	457.492	80.003	19.992	103.779	19.464	31.271	0.501
725.500	457.741	79.998	19.993	103.779	19.465	31.176	0.501
726.000	458.019	80.010	19.991	103.771	19.463	31.309	0.514
726.500	458.264	80.006	19.998	103.772	19.466	31.085	0.525
727.000	458.529	80.020	19.992	103.771	19.468	30.988	0.517
727.500	458.804	80.003	19.996	103.774	19.472	30.707	0.525
728.000	459.015	79.995	19.997	103.771	19.471	30.796	0.513
728.500	459.253	79.978	19.998	103.776	19.472	30.696	0.468
729.000	459.547	80.000	19.996	103.776	19.474	30.594	0.491
729.500	459.820	80.002	19.996	103.779	19.471	30.756	0.549
730.000	460.024	80.008	19.995	103.777	19.475	30.506	0.522
730.500	460.293	80.004	19.992	103.777	19.474	30.538	0.475
731.000	460.519	79.996	19.997	103.776	19.477	30.335	0.483
731.500	460.812	80.005	19.995	103.775	19.479	30.229	0.507
732.000	461.081	80.006	19.995	103.774	19.481	30.094	0.541
732.500	461.350	80.004	19.994	103.771	19.484	29.901	0.550
733.000	461.588	80.005	19.995	103.769	19.482	30.016	0.522
733.500	461.832	79.998	19.996	103.767	19.484	29.882	0.494
734.000	462.085	80.005	19.992	103.768	19.487	29.683	0.489
734.500	462.345	80.005	19.993	103.771	19.488	29.630	0.505
735.000	462.610	80.000	19.998	103.778	19.492	29.374	0.519
735.500	462.848	80.004	19.994	103.781	19.491	29.454	0.514
736.000	463.067	79.995	19.998	103.784	19.492	29.331	0.480
736.500	463.341	80.018	19.992	103.785	19.495	29.180	0.475
737.001	463.585	80.004	19.995	103.786	19.496	29.092	0.505
737.500	463.842	80.006	19.993	103.785	19.494	29.216	0.509
738.000	464.099	80.002	19.995	103.786	19.500	28.834	0.508
738.500	464.317	80.005	19.995	103.788	19.501	28.728	0.494
739.000	464.603	80.009	19.994	103.791	19.502	28.657	0.489
739.500	464.836	80.004	19.993	103.793	19.506	28.411	0.512
740.000	465.087	80.006	19.993	103.795	19.506	28.387	0.502
740.500	465.367	80.001	19.996	103.796	19.510	28.149	0.507
741.000	465.630	80.005	19.996	103.796	19.514	27.873	0.537
741.500	465.884	80.009	19.990	103.796	19.516	27.751	0.530
742.000	466.101	80.001	19.997	103.796	19.515	27.766	0.494
742.500	466.405	80.004	19.997	103.796	19.520	27.468	0.496
743.000	466.662	80.008	19.991	103.794	19.521	27.403	0.541
743.500	466.901	80.003	19.994	103.796	19.524	27.174	0.529
744.000	467.139	80.009	19.992	103.796	19.527	27.003	0.486
744.500	467.412	80.005	19.992	103.795	19.527	26.959	0.493
745.000	467.662	80.027	19.989	103.796	19.532	26.678	0.517
745.500	467.956	80.007	19.997	103.800	19.533	26.576	0.534
746.000	468.204	80.010	19.990	103.798	19.537	26.290	0.543
746.500	468.462	80.004	19.995	103.799	19.537	26.326	0.524
747.000	468.717	80.006	19.995	103.799	19.538	26.275	0.510
747.500	468.953	80.007	19.993	103.798	19.541	26.042	0.502
748.000	469.239	80.007	19.996	103.796	19.545	25.753	0.507
748.500	469.469	80.011	19.993	103.795	19.546	25.732	0.519
749.000	469.710	80.005	19.995	103.789	19.549	25.485	0.494
749.500	469.955	80.011	19.996	103.788	19.552	25.329	0.478
750.000	470.247	80.008	19.995	103.788	19.555	25.098	0.511
750.500	470.470	80.010	19.992	103.788	19.557	24.996	0.526
751.000	470.721	80.006	19.998	103.788	19.559	24.808	0.495
751.500	471.002	80.002	19.996	103.791	19.560	24.733	0.503
752.000	471.235	80.010	19.990	103.789	19.568	24.218	0.523
752.500	471.523	80.004	19.994	103.788	19.570	24.110	0.518
753.000	471.735	80.006	19.994	103.787	19.571	23.992	0.511
753.500	471.973	80.002	19.994	103.788	19.577	23.641	0.475
754.000	472.259	80.003	19.994	103.788	19.578	23.544	0.487
754.500	472.519	80.008	19.994	103.789	19.583	23.231	0.535
755.000	472.804	80.005	19.995	103.790	19.584	23.131	0.546
755.500	473.050	80.006	19.993	103.793	19.588	22.868	0.538
756.000	473.299	80.003	19.993	103.794	19.593	22.517	0.513
756.500	473.581	80.005	19.996	103.796	19.595	22.437	0.513
757.000	473.864	80.002	19.994	103.796	19.595	22.373	0.548
757.500	474.093	80.005	19.994	103.796	19.598	22.202	0.539
758.000	474.371	80.004	19.996	103.794	19.603	21.859	0.510
758.501	474.631	80.001	19.996	103.794	19.606	21.685	0.523
759.000	474.878	80.011	19.994	103.795	19.610	21.419	0.522
759.500	475.146	80.014	19.994	103.799	19.612	21.257	0.511
760.000	475.413	80.008	19.990	103.801	19.615	21.036	0.525
760.500	475.670	80.005	19.993	103.804	19.617	20.884	0.529
761.000	475.911	80.002	19.996	103.804	19.622	20.564	0.511
761.500	476.156	80.012	19.996	103.802	19.626	20.305	0.492
762.000	476.438	80.008	19.994	103.801	19.628	20.149	0.507
762.500	476.669	79.987	19.994	103.800	19.633	19.859	0.520
763.000	476.977	80.013	19.994	103.797	19.633	19.824	0.526
763.500	477.230	80.010	19.994	103.800	19.635	19.703	0.550
764.000	477.482	80.010	19.994	103.803	19.640	19.334	0.533
764.500	477.705	80.003	19.994	103.801	19.643	19.189	0.490
765.000	477.991	80.009	19.996	103.800	19.646	18.974	0.492
765.500	478.226	80.006	19.995	103.800	19.647	18.899	0.516
766.000	478.501	80.014	19.994	103.797	19.648	18.854	0.515
766.500	478.752	80.001	19.996	103.793	19.655	18.335	0.518
767.000	479.041	80.007	19.994	103.790	19.656	18.254	0.533
767.500	479.269	80.004	19.994	103.792	19.656	18.259	0.528
768.000	479.569	80.006	19.995	103.792	19.659	18.059	0.522
768.500	479.796	80.007	19.994	103.793	19.665	17.713	0.528
769.000	480.039	80.006	19.992	103.794	19.669	17.395	0.498
769.500	480.326	80.005	19.996	103.796	19.670	17.345	0.500
770.000	480.598	80.009	19.995	103.792	19.674	17.099	0.544
770.500	480.796	80.001	19.996	103.791	19.675	17.027	0.515
771.000	481.099	80.012	19.993	103.785	19.677	16.859	0.486
771.500	481.375	80.007	19.993	103.783	19.677	16.874	0.540
772.000	481.608	80.007	19.995	103.783	19.683	16.455	0.544
772.500	481.876	80.013	19.993	103.786	19.685	16.347	0.505
773.000	482.158	80.008	19.995	103.786	19.689	16.068	0.526
773.500	482.415	80.004	19.993	103.792	19.691	15.938	0.545
774.000	482.673	80.009	19.993	103.792	19.693	15.799	0.527
774.500	482.942	80.006	19.993	103.793	19.699	15.389	0.520
775.000	483.186	80.004	19.993	103.794	19.699	15.418	0.520
775.500	483.439	80.004	19.992	103.794	19.704	15.060	0.505
776.000	483.698	80.004	19.992	103.791	19.707	14.858	0.504
776.500	483.971	80.006	19.994	103.791	19.707	14.852	0.522
777.000	484.238	80.013	19.988	103.790	19.711	14.572	0.536
777.500	484.475	80.007	19.993	103.792	19.712	14.523	0.522
778.000	484.760	80.004	19.995	103.792	19.715	14.284	0.513
778.500	484.972	80.009	20.000	103.796	19.717	14.175	0.509
779.000	485.237	80.007	19.993	103.796	19.720	14.002	0.487
779.500	485.540	80.006	19.993	103.796	19.722	13.806	0.522
780.000	485.744	80.005	19.993	103.794	19.725	13.646	0.537
780.500	486.074	80.005	19.993	103.794	19.725	13.653	0.520
781.000	486.275	80.004	19.997	103.794	19.726	13.590	0.533
781.500	486.548	80.009	19.992	103.795	19.730	13.321	0.503
782.000	486.819	80.000	19.996	103.797	19.733	13.077	0.509
782.500	487.076	80.005	19.992	103.796	19.736	12.902	0.536
783.000	487.341	80.003	19.995	103.797	19.741	12.583	0.525
783.500	487.590	80.007	19.993	103.800	19.738	12.758	0.518
784.000	487.849	80.002	19.994	103.806	19.743	12.443	0.511
784.500	488.082	79.997	19.995	103.807	19.745	12.292	0.500
785.000	488.359	80.004	19.992	103.809	19.745	12.272	0.501
785.500	488.613	80.006	19.995	103.812	19.747	12.178	0.520
786.000	488.868	80.001	19.994	103.810	19.753	11.757	0.520
786.500	489.114	80.006	19.992	103.809	19.753	11.737	0.505
787.000	489.387	80.004	19.994	103.812	19.753	11.748	0.509
787.500	489.672	80.007	19.994	103.811	19.758	11.396	0.538
788.000	489.937	80.005	19.993	103.809	19.761	11.215	0.555
788.500	490.170	80.007	19.993	103.808	19.758	11.434	0.524
789.000	490.488	80.002	19.993	103.804	19.760	11.249	0.525
789.500	490.665	80.005	19.993	103.799	19.764	10.972	0.523
790.000	490.969	80.007	19.995	103.800	19.769	10.642	0.488
790.500	491.228	80.006	19.993	103.798	19.768	10.699	0.522
791.000	491.488	80.005	19.994	103.797	19.771	10.544	0.541
791.500	491.747	80.004	19.995	103.797	19.776	10.185	0.520
792.000	491.997	80.003	19.994	103.797	19.776	10.222	0.514
792.500	492.240	80.004	19.995	103.796	19.776	10.173	0.501
793.000	492.509	80.006	19.992	103.796	19.778	10.035	0.502
793.500	492.764	80.013	19.996	103.794	19.779	9.968	0.518
794.000	493.012	80.006	19.994	103.793	19.780	9.918	0.513
794.500	493.284	80.003	19.996	103.793	19.786	9.491	0.511
795.000	493.511	79.999	19.996	103.793	19.787	9.463	0.510
795.500	493.767	80.004	19.995	103.791	19.788	9.402	0.491
796.000	494.063	80.004	19.996	103.794	19.790	9.226	0.517
796.500	494.321	80.004	19.996	103.794	19.791	9.195	0.553
797.000	494.592	80.004	19.994	103.793	19.793	9.012	0.542
797.500	494.844	80.002	19.994	103.793	19.795	8.915	0.526
798.000	495.122	80.006	19.994	103.795	19.797	8.775	0.527
798.500	495.397	80.006	19.994	103.796	19.796	8.841	0.541
799.000	495.611	80.005	19.995	103.799	19.798	8.706	0.521
799.500	495.913	80.004	19.994	103.803	19.800	8.584	0.502
800.000	496.128	80.005	19.995	103.803	19.803	8.347	0.517
800.500	496.363	80.004	19.995	103.804	19.802	8.448	0.483
801.000	496.655	80.005	19.994	103.803	19.804	8.319	0.488
801.500	496.894	80.005	19.993	103.801	19.804	8.319	0.529
802.000	497.157	80.005	19.996	103.797	19.807	8.125	0.517
802.500	497.409	80.006	19.992	103.798	19.809	7.979	0.509
803.000	497.662	80.006	19.994	103.797	19.809	7.938	0.510
803.500	497.929	80.004	19.993	103.796	19.811	7.836	0.512
804.000	498.142	80.006	19.994	103.797	19.812	7.771	0.499
804.500	498.419	80.006	19.994	103.797	19.811	7.856	0.485
805.000	498.718	80.007	19.995	103.797	19.810	7.912	0.533
805.500	498.973	80.005	19.995	103.796	19.816	7.517	0.565
806.000	499.192	80.005	19.994	103.796	19.816	7.508	0.514
806.500	499.450	80.004	19.994	103.797	19.817	7.398	0.476
807.000	499.665	80.006	19.993	103.797	19.817	7.404	0.474
807.500	499.932	80.006	19.993	103.798	19.817	7.404	0.478
808.000	500.208	80.006	19.995	103.797	19.820	7.208	0.513
808.500	500.451	80.008	19.994	103.799	19.823	7.035	0.531
809.000	500.696	80.005	19.994	103.798	19.823	7.038	0.504
809.500	500.971	80.004	19.993	103.797	19.823	6.994	0.504
810.000	501.242	80.007	19.993	103.798	19.822	7.081	0.533
810.500	501.468	80.009	19.992	103.799	19.825	6.908	0.521
811.000	501.720	80.005	19.992	103.799	19.825	6.895	0.488
811.500	501.954	80.003	19.997	103.800	19.828	6.656	0.482
812.000	502.196	80.005	19.995	103.800	19.830	6.537	0.481
812.500	502.445	80.005	19.993	103.799	19.833	6.367	0.483
813.000	502.716	80.003	19.993	103.796	19.831	6.492	0.505
813.500	502.955	80.007	19.993	103.796	19.833	6.377	0.515
814.000	503.189	80.005	19.994	103.794	19.833	6.371	0.492
814.500	503.463	80.004	19.993	103.796	19.835	6.235	0.491
815.000	503.702	80.009	19.993	103.795	19.836	6.149	0.511
815.500	503.942	80.006	19.994	103.797	19.834	6.267	0.496
816.000	504.193	80.004	19.995	103.798	19.835	6.225	0.485
816.500	504.468	80.009	19.993	103.798	19.836	6.145	0.508
817.000	504.683	80.006	19.994	103.799	19.840	5.856	0.508
817.500	504.955	80.006	19.994	103.801	19.841	5.793	0.488
818.000	505.204	80.004	19.993	103.801	19.839	5.910	0.504
818.500	505.438	80.004	19.994	103.800	19.841	5.800	0.502
819.000	505.685	80.003	19.995	103.800	19.841	5.776	0.482
819.500	505.908	80.004	19.994	103.800	19.840	5.866	0.476
820.000	506.176	80.004	19.995	103.801	19.839	5.959	0.480
820.500	506.433	80.004	19.994	103.801	19.844	5.601	0.508
821.000	506.660	80.004	19.996	103.802	19.845	5.517	0.505
821.500	506.916	80.004	19.995	103.806	19.843	5.663	0.484
822.000	507.178	80.006	19.996	103.805	19.847	5.418	0.500
822.500	507.442	80.003	19.994	103.802	19.847	5.435	0.522
823.000	507.658	80.005	19.994	103.802	19.848	5.349	0.503
823.500	507.921	80.005	19.995	103.800	19.848	5.363	0.480
824.000	508.177	80.004	19.996	103.800	19.845	5.545	0.499
824.500	508.456	80.006	19.996	103.804	19.847	5.381	0.527
825.000	508.655	80.004	19.996	103.804	19.847	5.413	0.507
825.500	508.941	80.005	19.995	103.804	19.847	5.433	0.481
826.000	509.198	80.005	19.995	103.804	19.850	5.212	0.514
826.500	509.458	80.006	19.995	103.801	19.849	5.262	0.530
827.000	509.721	80.005	19.995	103.797	19.847	5.435	0.520
827.500	509.936	80.004	19.994	103.796	19.850	5.188	0.501
828.000	510.187	80.006	19.996	103.797	19.852	5.057	0.472
828.500	510.453	80.006	19.995	103.796	19.853	4.992	0.492
829.000	510.704	80.005	19.994	103.797	19.853	5.012	0.517
829.500	510.922	80.006	19.995	103.795	19.852	5.077	0.493
830.000	511.179	80.005	19.996	103.795	19.850	5.169	0.472
830.500	511.442	80.006	19.995	103.795	19.856	4.807	0.497
831.000	511.645	80.006	19.995	103.795	19.855	4.878	0.493
831.500	511.907	80.005	19.996	103.795	19.858	4.677	0.466
832.000	512.173	80.005	19.994	103.797	19.855	4.887	0.496
832.500	512.425	80.007	19.996	103.797	19.856	4.790	0.522
833.000	512.663	80.006	19.995	103.798	19.858	4.647	0.504
833.500	512.918	80.006	19.994	103.798	19.855	4.893	0.492
834.000	513.173	80.007	19.996	103.797	19.857	4.725	0.502
834.500	513.414	80.005	19.994	103.798	19.858	4.678	0.503
835.000	513.682	80.008	19.996	103.798	19.856	4.762	0.503
835.500	513.952	80.007	19.994	103.799	19.858	4.669	0.524
836.000	514.208	80.006	19.995	103.799	19.857	4.744	0.532
836.500	514.456	80.005	19.996	103.799	19.861	4.459	0.515
837.000	514.728	80.005	19.993	103.800	19.859	4.602	0.512
837.500	514.962	80.006	19.993	103.802	19.861	4.440	0.513
838.000	515.196	80.007	19.994	103.801	19.863	4.351	0.487
838.500	515.476	80.007	19.995	103.802	19.864	4.282	0.491
839.000	515.703	80.006	19.994	103.802	19.864	4.276	0.511
839.500	515.956	80.004	19.995	103.800	19.863	4.311	0.494
840.000	516.247	80.006	19.993	103.798	19.864	4.242	0.512
840.500	516.472	80.003	19.994	103.798	19.864	4.240	0.530
841.000	516.747	80.005	19.993	103.797	19.866	4.108	0.508
841.500	517.021	80.004	19.994	103.797	19.864	4.259	0.524
842.000	517.279	80.006	19.994	103.796	19.866	4.116	0.540
842.500	517.482	80.006	19.993	103.796	19.864	4.287	0.497
843.000	517.811	80.006	19.994	103.796	19.865	4.197	0.496
843.500	518.027	80.005	19.994	103.797	19.867	4.080	0.538
844.000	518.274	80.005	19.994	103.796	19.868	4.013	0.504
844.500	518.528	80.006	19.995	103.796	19.866	4.110	0.482
845.000	518.809	80.004	19.994	103.796	19.866	4.095	0.518
845.500	519.024	80.005	19.994	103.796	19.869	3.925	0.515
846.000	519.271	80.006	19.993	103.796	19.863	4.292	0.479
846.500	519.538	80.004	19.994	103.797	19.867	4.052	0.488
847.000	519.772	80.007	19.995	103.797	19.866	4.121	0.507
847.500	520.051	80.004	19.995	103.797	19.868	4.002	0.507
848.000	520.302	80.006	19.994	103.799	19.867	4.031	0.522
848.500	520.571	80.007	19.993	103.800	19.869	3.936	0.525
849.000	520.835	80.005	19.994	103.800	19.866	4.151	0.527
849.500	521.050	80.003	19.995	103.800	19.869	3.951	0.506
850.000	521.349	80.006	19.996	103.800	19.868	3.981	0.496
850.500	521.641	80.007	19.994	103.798	19.870	3.821	0.553
851.000	521.858	80.006	19.994	103.797	19.868	3.992	0.550
851.500	522.106	80.006	19.995	103.797	19.869	3.940	0.487
852.000	522.355	80.007	19.995	103.796	19.871	3.804	0.481
852.500	522.587	80.005	19.994	103.796	19.870	3.819	0.489
853.000	522.867	80.006	19.994	103.796	19.870	3.855	0.497
853.500	523.127	80.005	19.996	103.796	19.871	3.774	0.526
854.000	523.363	80.007	19.996	103.795	19.872	3.694	0.518
854.500	523.631	80.008	19.994	103.796	19.875	3.534	0.500
855.000	523.874	80.005	19.995	103.795	19.873	3.664	0.507
855.500	524.130	80.006	19.994	103.795	19.872	3.711	0.504
856.000	524.355	80.008	19.993	103.793	19.873	3.629	0.490
856.500	524.624	80.007	19.994	103.794	19.875	3.538	0.488
857.000	524.877	80.007	19.995	103.793	19.874	3.608	0.508
857.500	525.114	80.006	19.995	103.792	19.876	3.456	0.506
858.000	525.369	80.010	19.992	103.792	19.873	3.629	0.491
858.500	525.649	80.006	19.994	103.793	19.875	3.512	0.513
859.000	525.919	80.007	19.994	103.793	19.875	3.525	0.543
859.500	526.118	80.006	19.994	103.793	19.874	3.603	0.509
860.000	526.382	80.009	19.995	103.793	19.876	3.450	0.466
860.500	526.646	80.004	19.997	103.795	19.873	3.616	0.495
861.000	526.917	80.006	19.995	103.795	19.873	3.635	0.532
861.500	527.140	80.007	19.991	103.795	19.874	3.592	0.515
862.000	527.373	80.005	19.994	103.796	19.874	3.553	0.475
862.500	527.617	80.006	19.996	103.796	19.877	3.355	0.467
863.000	527.867	80.005	19.994	103.795	19.874	3.590	0.485
863.500	528.152	80.005	19.995	103.795	19.874	3.562	0.514
864.000	528.392	80.005	19.994	103.796	19.877	3.357	0.531
864.500	528.658	80.005	19.994	103.795	19.878	3.284	0.516
865.000	528.958	80.006	19.993	103.794	19.876	3.454	0.536
865.500	529.190	80.004	19.995	103.794	19.876	3.469	0.548
866.000	529.449	80.006	19.994	103.794	19.877	3.359	0.511
866.500	529.708	80.004	19.997	103.793	19.875	3.497	0.505
867.000	529.996	80.005	19.993	103.792	19.878	3.295	0.533
867.500	530.185	80.005	19.994	103.793	19.878	3.322	0.512
868.000	530.496	80.004	19.994	103.794	19.876	3.439	0.488
868.500	530.761	80.005	19.993	103.794	19.880	3.163	0.538
869.000	531.019	80.005	19.994	103.794	19.879	3.277	0.549
869.500	531.307	80.005	19.994	103.795	19.877	3.364	0.534
870.000	531.563	80.005	19.994	103.794	19.876	3.413	0.545
870.500	531.813	80.004	19.994	103.795	19.878	3.322	0.526
871.000	532.057	80.006	19.994	103.795	19.878	3.339	0.500
871.500	532.322	80.006	19.995	103.795	19.878	3.342	0.501
872.000	532.571	80.007	19.994	103.795	19.879	3.242	0.512
872.500	532.875	80.006	19.994	103.795	19.878	3.316	0.534
873.000	533.101	80.005	19.995	103.795	19.879	3.277	0.542
873.500	533.328	80.006	19.994	103.795	19.881	3.124	0.492
874.000	533.587	80.006	19.994	103.794	19.882	3.046	0.469
874.500	533.880	80.005	19.994	103.794	19.881	3.135	0.518
875.000	534.127	80.006	19.994	103.794	19.878	3.285	0.546
875.500	534.391	80.006	19.994	103.794	19.876	3.421	0.526
876.000	534.646	80.005	19.994	103.795	19.877	3.363	0.515
876.500	534.902	80.005	19.994	103.796	19.878	3.303	0.515
877.000	535.143	80.004	19.994	103.798	19.879	3.256	0.504
877.500	535.460	80.005	19.994	103.798	19.880	3.180	0.528
878.000	535.734	80.006	19.994	103.798	19.881	3.083	0.575
878.500	535.992	80.005	19.994	103.798	19.879	3.245	0.561
879.000	536.205	80.007	19.994	103.798	19.881	3.122	0.501
879.500	536.489	80.006	19.994	103.797	19.883	2.977	0.484
880.000	536.745	80.005	19.995	103.798	19.882	3.046	0.519
880.500	536.997	80.005	19.994	103.800	19.882	3.010	0.524
881.000	537.280	80.005	19.995	103.800	19.881	3.087	0.522
881.500	537.530	80.007	19.995	103.804	19.883	3.003	0.534
882.000	537.811	80.003	19.995	103.808	19.881	3.094	0.532
882.500	538.064	80.004	19.994	103.808	19.880	3.156	0.533
883.000	538.333	80.005	19.996	103.810	19.883	2.980	0.528
883.500	538.570	80.006	19.995	103.809	19.881	3.118	0.514
884.000	538.846	80.005	19.995	103.808	19.879	3.239	0.510
884.500	539.087	80.006	19.994	103.806	19.880	3.165	0.515
885.000	539.381	80.008	19.994	103.805	19.881	3.081	0.526
885.500	539.640	80.005	19.995	103.805	19.880	3.204	0.544
886.000	539.889	80.007	19.995	103.807	19.882	3.068	0.530
886.500	540.122	80.005	19.994	103.804	19.884	2.908	0.495
887.000	540.398	80.006	19.994	103.803	19.884	2.898	0.495
887.500	540.677	80.006	19.994	103.802	19.885	2.818	0.531
888.000	540.912	80.006	19.994	103.800	19.883	2.941	0.535
888.500	541.133	80.006	19.995	103.799	19.881	3.077	0.486
889.000	541.409	80.004	19.995	103.798	19.884	2.889	0.477
889.500	541.663	80.006	19.994	103.798	19.883	2.977	0.513
890.000	541.939	80.005	19.996	103.798	19.883	2.997	0.530
890.500	542.165	80.005	19.995	103.798	19.888	2.615	0.516
891.000	542.462	80.006	19.995	103.797	19.887	2.703	0.512
891.500	542.724	80.004	19.994	103.797	19.888	2.639	0.540
892.000	542.975	80.007	19.994	103.797	19.885	2.833	0.536
892.500	543.250	80.003	19.994	103.797	19.885	2.815	0.520
893.000	543.477	80.005	19.995	103.796	19.885	2.856	0.514
893.500	543.746	80.005	19.995	103.794	19.885	2.830	0.499
894.000	543.977	80.006	19.994	103.791	19.882	3.014	0.498
894.500	544.262	80.003	19.996	103.791	19.882	3.016	0.508
895.000	544.475	80.004	19.994	103.791	19.883	3.001	0.507
895.500	544.738	80.005	19.995	103.792	19.883	2.968	0.487
896.000	544.963	80.006	19.995	103.795	19.882	3.048	0.482
896.500	545.229	80.004	19.995	103.797	19.881	3.077	0.490
897.000	545.501	80.006	19.993	103.797	19.882	3.064	0.515
897.500	545.766	80.005	19.995	103.798	19.884	2.912	0.538
898.000	545.969	80.005	19.994	103.798	19.883	3.005	0.502
898.500	546.252	80.005	19.995	103.798	19.882	3.014	0.477
899.000	546.522	80.005	19.994	103.798	19.881	3.113	0.519
899.500	546.782	80.005	19.994	103.799	19.880	3.172	0.542
900.000	547.032	80.005	19.994	103.799	19.884	2.924	0.520
900.500	547.291	80.005	19.994	103.798	19.882	3.055	0.510
901.000	547.561	80.005	19.994	103.797	19.882	3.047	0.519
901.500	547.832	80.005	19.995	103.798	19.884	2.922	0.535
902.000	548.083	80.006	19.993	103.798	19.881	3.103	0.532
902.500	548.366	80.005	19.994	103.798	19.886	2.792	0.528
903.000	548.588	80.007	19.993	103.799	19.883	2.965	0.519
903.500	548.843	80.006	19.993	103.801	19.882	3.008	0.491
904.000	549.107	80.005	19.995	103.805	19.887	2.723	0.498
904.500	549.405	80.004	19.995	103.807	19.887	2.699	0.541
905.000	549.662	80.006	19.994	103.808	19.888	2.639	0.558
905.500	549.939	80.005	19.994	103.808	19.888	2.656	0.544
906.000	550.203	80.006	19.994	103.807	19.886	2.762	0.537
906.500	550.445	80.006	19.994	103.803	19.888	2.636	0.523
907.000	550.674	80.004	19.996	103.801	19.888	2.669	0.489
907.500	550.980	80.006	19.994	103.800	19.886	2.757	0.503
908.000	551.194	80.006	19.994	103.800	19.886	2.764	0.527
908.500	551.437	80.007	19.994	103.800	19.888	2.647	0.489
909.000	551.728	80.007	19.995	103.800	19.886	2.794	0.496
909.500	551.979	80.006	19.994	103.799	19.887	2.732	0.538
910.000	552.256	80.006	19.994	103.799	19.887	2.693	0.534
910.500	552.500	80.005	19.994	103.798	19.890	2.507	0.525
911.000	552.754	80.007	19.995	103.797	19.885	2.828	0.510
911.500	553.005	80.006	19.993	103.794	19.889	2.576	0.501
912.000	553.279	80.004	19.993	103.794	19.887	2.675	0.515
912.500	553.545	80.006	19.994	103.792	19.889	2.542	0.533
913.000	553.737	80.006	19.995	103.791	19.890	2.531	0.499
913.500	554.068	80.006	19.993	103.792	19.887	2.718	0.490
914.000	554.329	80.005	19.994	103.794	19.890	2.527	0.558
914.500	554.595	80.006	19.994	103.795	19.888	2.604	0.560
915.000	554.821	80.006	19.994	103.796	19.889	2.559	0.509
915.500	555.131	80.006	19.995	103.798	19.890	2.527	0.514
916.000	555.408	80.007	19.994	103.799	19.888	2.669	0.561
916.500	555.688	80.005	19.995	103.799	19.888	2.637	0.572
917.000	555.921	80.006	19.994	103.799	19.885	2.805	0.535
917.500	556.155	80.007	19.995	103.799	19.887	2.725	0.490
918.000	556.438	80.006	19.994	103.798	19.888	2.665	0.492
918.500	556.663	80.006	19.996	103.797	19.887	2.734	0.512
919.000	556.918	80.007	19.994	103.797	19.889	2.598	0.494
919.500	557.231	80.007	19.995	103.796	19.888	2.667	0.524
920.000	557.445	80.006	19.995	103.796	19.884	2.904	0.547
920.500	557.731	80.007	19.995	103.796	19.890	2.499	0.513
921.000	557.996	80.004	19.994	103.796	19.886	2.755	0.526
921.500	558.265	80.005	19.994	103.796	19.886	2.746	0.543
922.000	558.516	80.005	19.995	103.796	19.887	2.682	0.527
922.500	558.786	80.006	19.995	103.795	19.890	2.486	0.520
923.000	559.045	80.005	19.995	103.795	19.887	2.710	0.525
923.500	559.274	80.004	19.995	103.795	19.885	2.857	0.509
924.000	559.565	80.006	19.995	103.794	19.886	2.759	0.504
924.500	559.790	80.006	19.995	103.794	19.887	2.697	0.518
925.000	560.029	80.005	19.996	103.794	19.889	2.565	0.490
925.500	560.351	80.004	19.994	103.794	19.885	2.863	0.513
926.000	560.561	80.004	19.995	103.794	19.889	2.585	0.547
926.500	560.871	80.007	19.993	103.793	19.888	2.667	0.526
927.000	561.108	80.005	19.995	103.794	19.889	2.565	0.534
927.500	561.367	80.006	19.996	103.793	19.888	2.621	0.522
928.000	561.669	80.006	19.995	103.794	19.887	2.727	0.529
928.500	561.858	80.006	19.996	103.794	19.888	2.650	0.526
929.000	562.120	80.008	19.994	103.794	19.885	2.811	0.471
929.500	562.367	80.004	19.994	103.794	19.887	2.684	0.480
930.000	562.643	80.005	19.995	103.793	19.889	2.600	0.516
930.500	562.922	80.007	19.994	103.793	19.890	2.514	0.539
931.000	563.199	80.007	19.994	103.795	19.888	2.604	0.556
931.500	563.384	80.007	19.994	103.795	19.890	2.470	0.509
932.000	563.664	80.006	19.995	103.796	19.886	2.794	0.463
932.500	563.956	80.006	19.995	103.796	19.889	2.602	0.519
933.000	564.174	80.006	19.994	103.796	19.889	2.574	0.541
933.500	564.467	80.007	19.995	103.795	19.893	2.306	0.510
934.000	564.673	80.007	19.994	103.795	19.891	2.455	0.505
934.500	564.999	80.007	19.994	103.793	19.889	2.546	0.516
935.000	565.176	80.006	19.995	103.794	19.891	2.440	0.517
935.500	565.473	80.008	19.995	103.794	19.887	2.691	0.488
936.000	565.717	80.007	19.995	103.794	19.886	2.744	0.508
936.500	565.970	80.009	19.995	103.792	19.892	2.352	0.519
937.000	566.262	80.008	19.995	103.792	19.889	2.591	0.521
937.500	566.479	80.007	19.995	103.791	19.890	2.490	0.527
938.000	566.763	80.008	19.994	103.791	19.886	2.745	0.505
938.500	566.978	80.007	19.994	103.792	19.890	2.520	0.500
939.000	567.280	80.007	19.995	103.793	19.891	2.414	0.508
939.500	567.500	80.007	19.995	103.793	19.887	2.690	0.519
940.000	567.767	80.007	19.994	103.793	19.892	2.384	0.504
940.500	568.031	80.004	19.995	103.792	19.890	2.524	0.509
941.000	568.343	80.008	19.995	103.791	19.893	2.332	0.554
941.500	568.520	80.007	19.996	103.791	19.889	2.602	0.532
942.000	568.852	80.006	19.997	103.791	19.894	2.264	0.499
942.500	569.045	80.006	19.997	103.792	19.893	2.332	0.517
943.000	569.365	80.006	19.996	103.792	19.891	2.438	0.519
943.500	569.606	80.007	19.996	103.792	19.888	2.611	0.537
944.000	569.831	80.005	19.996	103.792	19.883	2.988	0.514
944.500	570.222	80.006	19.993	103.792	19.882	3.066	0.541
945.000	570.437	80.006	19.996	103.793	19.885	2.826	0.611
945.500	570.636	80.006	19.996	103.793	19.901	1.758	0.510
946.000	570.859	80.003	19.991	103.793	19.891	2.457	0.418
946.500	571.194	80.004	19.992	103.794	19.880	3.148	0.491
947.000	571.436	80.005	19.994	103.795	19.888	2.619	0.568
947.500	571.746	80.004	19.997	103.794	19.890	2.488	0.564
948.000	571.983	80.004	19.995	103.794	19.891	2.406	0.549
948.500	572.158	80.004	19.995	103.794	19.889	2.539	0.480
949.000	572.560	80.004	19.995	103.793	19.890	2.505	0.495
949.500	572.744	80.003	19.995	103.792	19.888	2.609	0.581
950.000	572.993	80.004	19.996	103.792	19.884	2.906	0.510
950.500	573.367	80.004	19.995	103.794	19.893	2.289	0.528
951.000	573.428	80.004	19.996	103.793	19.893	2.298	0.529
951.500	573.933	80.005	19.995	103.793	19.888	2.647	0.500
952.000	573.984	80.005	19.997	103.793	19.889	2.569	0.560
952.500	574.403	80.005	19.996	103.791	19.884	2.902	0.513
953.000	574.730	80.005	19.996	103.789	19.893	2.308	0.609
953.500	574.876	80.005	19.993	103.789	19.892	2.384	0.610
954.000	575.196	80.005	19.997	103.789	19.889	2.589	0.469
954.500	575.302	80.004	19.994	103.790	19.888	2.651	0.446
955.000	575.734	80.003	19.996	103.792	19.888	2.636	0.482
955.500	575.961	80.003	19.995	103.793	19.887	2.677	0.598
956.000	576.377	80.006	19.995	103.793	19.889	2.589	0.651
956.500	576.319	80.003	19.995	103.793	19.891	2.412	0.500
957.000	576.937	80.004	19.995	103.794	19.890	2.507	0.459
957.500	576.595	80.003	19.993	103.794	19.889	2.554	0.419
958.000	577.064	80.007	19.993	103.795	19.888	2.639	0.202
958.500	577.478	80.008	19.993	103.795	19.890	2.472	0.505
959.000	577.412	80.007	19.994	103.797	19.891	2.401	0.615
959.500	578.220	80.004	19.995	103.797	19.889	2.546	0.545
960.000	578.728	80.004	19.993	103.797	19.890	2.501	1.029
960.500	578.659	80.007	19.992	103.797	19.891	2.419	0.877
961.000	578.491	80.005	19.994	103.798	19.894	2.248	0.101
961.500	579.136	80.003	19.994	103.797	19.890	2.492	0.120
962.000	579.366	80.005	19.994	103.798	19.888	2.617	0.676
962.500	579.522	80.003	19.994	103.799	19.891	2.423	0.631
963.000	579.888	80.007	19.993	103.801	19.890	2.529	0.454
963.500	580.085	80.005	19.994	103.800	19.891	2.453	0.542
964.000	580.290	80.007	19.994	103.801	19.889	2.582	0.482
964.500	580.940	80.007	19.993	103.801	19.891	2.423	0.628
965.000	580.936	80.005	19.993	103.799	19.889	2.569	0.751
965.500	581.108	80.007	19.993	103.798	19.888	2.606	0.407
966.000	581.478	80.007	19.994	103.798	19.888	2.654	0.355
966.500	581.569	80.005	19.993	103.798	19.891	2.425	0.501
967.000	582.013	80.005	19.994	103.798	19.889	2.565	0.498
967.500	582.231	80.005	19.994	103.797	19.888	2.613	0.599
968.000	582.470	80.006	19.993	103.798	19.887	2.686	0.560
968.500	582.729	80.005	19.995	103.798	19.890	2.522	0.477
969.000	583.010	80.005	19.996	103.797	19.890	2.471	0.519
969.500	583.241	80.006	19.993	103.797	19.891	2.458	0.526
970.000	583.451	80.003	19.994	103.797	19.892	2.399	0.477
970.500	583.857	80.004	19.996	103.796	19.891	2.416	0.528
971.000	583.983	80.005	19.994	103.796	19.889	2.557	0.574
971.500	584.316	80.006	19.995	103.796	19.888	2.632	0.495
972.000	584.571	80.004	19.995	103.796	19.890	2.520	0.524
972.500	584.776	80.005	19.995	103.795	19.888	2.626	0.524
973.000	585.128	80.006	19.994	103.795	19.890	2.468	0.509
973.500	585.288	80.005	19.994	103.794	19.891	2.447	0.534
974.000	585.615	80.005	19.995	103.795	19.889	2.548	0.500
974.500	585.888	80.005	19.994	103.796	19.892	2.367	0.544
975.000	586.174	80.005	19.994	103.797	19.886	2.755	0.580
975.500	586.367	80.004	19.995	103.798	19.890	2.496	0.519
976.000	586.694	80.004	19.995	103.798	19.887	2.686	0.499
976.500	586.885	80.005	19.995	103.798	19.888	2.636	0.519
977.000	587.157	80.003	19.994	103.798	19.890	2.498	0.490
977.500	587.472	80.005	19.993	103.798	19.887	2.688	0.525
978.000	587.656	80.005	19.995	103.796	19.889	2.567	0.543
978.500	587.931	80.005	19.994	103.794	19.888	2.639	0.479
979.000	588.172	80.005	19.994	103.793	19.889	2.602	0.488
979.500	588.492	80.006	19.994	103.792	19.887	2.690	0.539
980.000	588.729	80.002	19.994	103.792	19.885	2.805	0.559
980.500	589.003	80.006	19.994	103.795	19.890	2.509	0.533
981.000	589.238	80.006	19.995	103.796	19.886	2.771	0.510
981.500	589.500	80.005	19.994	103.798	19.889	2.563	0.503
982.000	589.682	80.005	19.996	103.799	19.888	2.624	0.471
982.500	590.029	80.005	19.994	103.800	19.886	2.770	0.486
983.000	590.229	80.005	19.995	103.800	19.886	2.760	0.538
983.500	590.517	80.005	19.993	103.800	19.888	2.636	0.517
984.000	590.771	80.005	19.992	103.799	19.888	2.645	0.515
984.500	591.043	80.004	19.996	103.799	19.886	2.759	0.534
985.000	591.260	80.007	19.995	103.797	19.887	2.682	0.508
985.500	591.577	80.004	19.995	103.797	19.888	2.654	0.512
986.000	591.796	80.007	19.994	103.797	19.888	2.648	0.535
986.500	592.068	80.004	19.993	103.797	19.888	2.663	0.513
987.000	592.305	80.005	19.994	103.796	19.887	2.699	0.500
987.500	592.545	80.007	19.993	103.796	19.892	2.367	0.493
988.000	592.822	80.005	19.995	103.796	19.886	2.770	0.497
988.500	593.053	80.006	19.994	103.796	19.889	2.561	0.513
989.000	593.340	80.008	19.994	103.795	19.893	2.266	0.513
989.500	593.570	80.006	19.994	103.795	19.890	2.533	0.517
990.000	593.827	80.008	19.993	103.794	19.890	2.516	0.502
990.500	594.143	80.007	19.994	103.792	19.894	2.259	0.530
991.000	594.355	80.007	19.995	103.791	19.891	2.402	0.550
991.500	594.655	80.006	19.996	103.791	19.893	2.305	0.520
992.000	594.873	80.007	19.994	103.791	19.891	2.415	0.515
992.500	595.140	80.005	19.995	103.792	19.892	2.384	0.501
993.000	595.359	80.007	19.993	103.794	19.892	2.362	0.485
993.500	595.643	80.006	19.993	103.795	19.891	2.423	0.495
994.000	595.883	80.006	19.994	103.795	19.895	2.186	0.513
994.500	596.146	80.008	19.994	103.794	19.894	2.211	0.513
995.000	596.358	80.008	19.993	103.794	19.892	2.386	0.489
995.500	596.601	80.009	19.994	103.794	19.890	2.488	0.466
996.000	596.863	80.006	19.996	103.794	19.892	2.386	0.480
996.500	597.140	80.006	19.995	103.792	19.895	2.196	0.522
997.000	597.386	80.007	19.994	103.792	19.891	2.432	0.531
997.500	597.610	80.006	19.994	103.792	19.891	2.434	0.496
998.000	597.899	80.008	19.993	103.792	19.892	2.339	0.491
998.500	598.109	80.007	19.994	103.792	19.891	2.410	0.506
999.000	598.413	80.008	19.994	103.794	19.896	2.093	0.506
999.500	598.637	80.007	19.994	103.795	19.894	2.218	0.521
1000.000	598.885	80.008	19.994	103.795	19.893	2.330	0.500
1000.500	599.114	80.004	19.994	103.795	19.892	2.399	0.474
1001.000	599.382	80.007	19.993	103.790	19.896	2.104	0.488
1001.500	599.624	80.007	19.997	103.788	19.893	2.296	0.504
1002.000	599.873	80.004	19.998	103.788	19.893	2.298	0.500
1002.500	600.159	80.008	19.995	103.789	19.897	2.054	0.513
1003.000	600.366	80.008	19.997	103.789	19.894	2.216	0.514
1003.500	600.631	80.005	19.995	103.794	19.893	2.309	0.483
1004.000	600.884	80.005	19.996	103.796	19.895	2.188	0.495
1004.500	601.153	80.006	19.993	103.795	19.893	2.282	0.520
1005.000	601.391	80.007	19.995	103.794	19.895	2.168	0.514
1005.500	601.610	80.005	19.996	103.794	19.895	2.138	0.482
1006.000	601.911	80.006	19.994	103.794	19.894	2.254	0.488
1006.500	602.127	80.006	19.994	103.794	19.891	2.412	0.519
1007.000	602.406	80.006	19.994	103.794	19.893	2.291	0.506
1007.501	602.602	80.005	19.995	103.795	19.891	2.427	0.485
1008.000	602.895	80.006	19.995	103.795	19.892	2.333	0.482
1008.500	603.113	80.008	19.993	103.795	19.892	2.333	0.500
1009.000	603.385	80.006	19.994	103.795	19.896	2.129	0.500
1009.500	603.581	80.006	19.995	103.795	19.893	2.280	0.479
1010.000	603.877	80.005	19.994	103.795	19.891	2.432	0.480
1010.500	604.090	80.008	19.994	103.795	19.893	2.280	0.500
1011.000	604.340	80.006	19.994	103.795	19.893	2.302	0.486
1011.500	604.608	80.005	19.995	103.794	19.895	2.140	0.491
1012.000	604.864	80.006	19.994	103.795	19.891	2.410	0.521
1012.500	605.092	80.006	19.994	103.795	19.895	2.189	0.504
1013.000	605.375	80.008	19.995	103.795	19.891	2.437	0.498
1013.500	605.604	80.008	19.994	103.795	19.892	2.334	0.512
1014.000	605.863	80.006	19.995	103.795	19.893	2.328	0.500
1014.500	606.108	80.007	19.995	103.796	19.890	2.483	0.496
1015.000	606.317	80.006	19.994	103.802	19.893	2.330	0.479
1015.500	606.602	80.008	19.994	103.806	19.892	2.341	0.474
1016.000	606.818	80.006	19.996	103.807	19.891	2.455	0.497
1016.500	607.051	80.008	19.994	103.807	19.892	2.382	0.475
1017.000	607.306	80.008	19.993	103.804	19.893	2.304	0.468
1017.500	607.557	80.006	19.994	103.795	19.893	2.321	0.497
1018.000	607.787	80.008	19.994	103.791	19.891	2.417	0.494
1018.500	608.032	80.009	19.995	103.790	19.894	2.250	0.479
1019.000	608.304	80.009	19.995	103.790	19.892	2.395	0.496
1019.500	608.553	80.007	19.994	103.791	19.892	2.391	0.519
1020.000	608.829	80.008	19.995	103.794	19.892	2.345	0.523
1020.500	609.063	80.008	19.995	103.795	19.895	2.175	0.517
1021.000	609.264	80.006	19.994	103.796	19.896	2.073	0.472
1021.500	609.550	80.009	19.993	103.797	19.891	2.421	0.461
1022.000	609.770	80.007	19.995	103.797	19.891	2.401	0.497
1022.500	610.001	80.008	19.996	103.799	19.895	2.134	0.479
1023.000	610.269	80.006	19.994	103.804	19.892	2.373	0.475
1023.500	610.513	80.007	19.995	103.811	19.893	2.293	0.505
1024.000	610.787	80.008	19.994	103.814	19.892	2.382	0.515
1024.500	611.019	80.008	19.992	103.815	19.893	2.311	0.512
1025.000	611.280	80.007	19.994	103.813	19.894	2.240	0.499
1025.500	611.535	80.007	19.993	103.808	19.893	2.296	0.505
1026.000	611.808	80.005	19.998	103.801	19.890	2.483	0.522
1026.500	612.016	80.008	19.994	103.796	19.888	2.634	0.504
1027.000	612.291	80.005	19.994	103.796	19.892	2.395	0.482
1027.500	612.553	80.006	19.995	103.796	19.889	2.567	0.510
1028.000	612.753	80.005	19.994	103.796	19.888	2.630	0.500
1028.500	613.037	80.005	19.996	103.796	19.889	2.593	0.473
1029.000	613.269	80.003	19.994	103.797	19.885	2.821	0.500
1029.500	613.541	80.003	19.994	103.796	19.889	2.552	0.510
1030.000	613.776	80.005	19.994	103.797	19.885	2.811	0.505
1030.500	614.076	80.006	19.996	103.796	19.886	2.796	0.521
1031.000	614.313	80.008	19.997	103.795	19.886	2.755	0.536
1031.500	614.588	80.006	19.995	103.795	19.885	2.818	0.525
1032.000	614.835	80.006	19.995	103.795	19.890	2.528	0.517
1032.500	615.037	80.003	19.996	103.795	19.891	2.403	0.485
1033.000	615.311	80.007	19.992	103.794	19.890	2.481	0.462
1033.500	615.585	80.003	19.996	103.795	19.888	2.608	0.512
1034.001	615.803	80.001	20.000	103.796	19.887	2.686	0.521
1034.501	616.086	80.006	19.996	103.795	19.891	2.436	0.497
1035.000	616.350	80.006	19.996	103.794	19.887	2.681	0.524
1035.500	616.603	80.006	19.993	103.796	19.890	2.477	0.532
1036.000	616.845	80.002	19.995	103.796	19.887	2.690	0.506
1036.500	617.094	80.004	19.993	103.796	19.888	2.612	0.493
1037.000	617.368	80.005	19.994	103.797	19.887	2.724	0.507
1037.500	617.622	80.005	19.995	103.798	19.891	2.429	0.525
1038.000	617.846	80.004	19.995	103.798	19.892	2.371	0.503
1038.500	618.136	80.005	19.995	103.798	19.889	2.600	0.496
1039.000	618.384	80.005	19.995	103.805	19.889	2.554	0.526
1039.500	618.636	80.004	19.994	103.810	19.889	2.563	0.519
1040.000	618.900	80.004	19.994	103.812	19.889	2.571	0.508
1040.500	619.174	80.003	19.995	103.815	19.889	2.578	0.527
1041.001	619.391	80.003	19.996	103.816	19.891	2.434	0.515
1041.501	619.628	80.003	19.996	103.811	19.887	2.686	0.473
1042.000	619.902	80.004	19.994	103.806	19.890	2.503	0.482
1042.500	620.163	80.004	19.994	103.804	19.891	2.429	0.523
1043.000	620.443	80.005	19.994	103.801	19.891	2.449	0.539
1043.500	620.679	80.006	19.993	103.800	19.889	2.552	0.529
1044.000	620.977	80.005	19.996	103.799	19.889	2.568	0.525
1044.500	621.223	80.005	19.996	103.801	19.891	2.408	0.538
1045.000	621.469	80.003	19.995	103.802	19.889	2.583	0.518
1045.500	621.739	80.004	19.995	103.807	19.890	2.503	0.505
1046.000	622.017	80.005	19.995	103.808	19.891	2.417	0.532
1046.500	622.276	80.004	19.995	103.811	19.889	2.552	0.543
1047.000	622.537	80.004	19.996	103.811	19.888	2.624	0.529
1047.500	622.838	80.005	19.994	103.813	19.891	2.434	0.541
1048.000	623.096	80.003	19.996	103.809	19.892	2.362	0.560
1048.500	623.360	80.004	19.995	103.809	19.891	2.419	0.541
1049.000	623.616	80.005	19.993	103.807	19.892	2.380	0.521
1049.500	623.841	80.004	19.994	103.809	19.890	2.470	0.501
1050.000	624.113	80.006	19.997	103.807	19.892	2.350	0.489
1050.500	624.394	80.003	19.997	103.806	19.890	2.509	0.525
1051.000	624.604	80.003	19.996	103.804	19.888	2.634	0.522
1051.500	624.885	80.004	19.994	103.802	19.890	2.475	0.491
1052.000	625.141	80.006	19.995	103.797	19.889	2.576	0.514
1052.500	625.408	80.005	19.995	103.796	19.892	2.399	0.530
1053.000	625.683	80.005	19.995	103.796	19.890	2.518	0.532
1053.501	625.930	80.005	19.995	103.796	19.890	2.479	0.532
1054.001	626.185	80.004	19.994	103.795	19.890	2.477	0.512
1054.500	626.432	80.004	19.994	103.795	19.885	2.817	0.502
1055.000	626.693	80.005	19.993	103.794	19.887	2.675	0.505
1055.500	626.965	80.006	19.994	103.794	19.890	2.500	0.520
1056.000	627.194	80.005	19.994	103.795	19.890	2.533	0.517
1056.500	627.514	80.006	19.994	103.795	19.889	2.567	0.525
1057.000	627.740	80.007	19.993	103.795	19.889	2.595	0.548
1057.500	627.993	80.005	19.994	103.796	19.888	2.645	0.513
1058.000	628.273	80.006	19.993	103.796	19.886	2.789	0.506
1058.500	628.519	80.006	19.994	103.795	19.887	2.731	0.529
1059.000	628.781	80.005	19.995	103.796	19.886	2.794	0.517
1059.500	629.052	80.006	19.993	103.798	19.885	2.846	0.521
1060.000	629.284	80.005	19.993	103.798	19.883	2.982	0.519
1060.500	629.526	80.005	19.994	103.798	19.884	2.898	0.488
1061.000	629.803	80.006	19.996	103.798	19.886	2.792	0.496
1061.500	630.069	80.003	19.997	103.798	19.884	2.874	0.531
1062.000	630.365	80.004	19.995	103.798	19.882	3.042	0.553
1062.500	630.615	80.003	19.995	103.799	19.883	2.969	0.553
1063.000	630.829	80.004	19.995	103.800	19.884	2.878	0.505
1063.501	631.111	80.006	19.991	103.802	19.885	2.818	0.480
1064.001	631.368	80.004	19.994	103.803	19.885	2.822	0.517
1064.500	631.642	80.003	19.994	103.803	19.885	2.848	0.535
1065.000	631.875	80.004	19.996	103.801	19.885	2.814	0.519
1065.500	632.124	80.005	19.996	103.802	19.883	3.006	0.494
1066.000	632.395	80.004	19.995	103.801	19.885	2.820	0.501
1066.500	632.662	80.005	19.994	103.800	19.886	2.759	0.529
1067.000	632.889	80.007	19.994	103.804	19.883	2.954	0.516
1067.500	633.152	80.006	19.994	103.807	19.885	2.818	0.492
1068.000	633.412	80.006	19.995	103.809	19.886	2.773	0.506
1068.501	633.668	80.004	19.995	103.810	19.883	2.952	0.519
1069.001	633.918	80.006	19.995	103.809	19.883	2.958	0.511
1069.500	634.159	80.007	19.995	103.803	19.885	2.839	0.499
1070.000	634.433	80.008	19.994	103.800	19.886	2.802	0.503
1070.500	634.678	80.006	19.996	103.798	19.882	3.065	0.517
1071.000	634.922	80.004	19.994	103.799	19.885	2.811	0.504
1071.501	635.181	80.006	19.995	103.800	19.884	2.908	0.496
1072.001	635.436	80.005	19.994	103.803	19.884	2.886	0.508
1072.500	635.722	80.006	19.995	103.803	19.885	2.850	0.527
1073.000	635.975	80.006	19.994	103.801	19.885	2.845	0.540
1073.501	636.203	80.008	19.993	103.799	19.886	2.740	0.510
1074.001	636.494	80.007	19.994	103.798	19.885	2.850	0.500
1074.500	636.722	80.006	19.994	103.795	19.884	2.877	0.519
1075.000	636.967	80.008	19.994	103.795	19.882	3.028	0.496
1075.501	637.228	80.007	19.994	103.796	19.885	2.841	0.490
1076.001	637.491	80.006	19.994	103.795	19.885	2.834	0.515
1076.500	637.754	80.007	19.995	103.796	19.885	2.811	0.525
1077.000	637.997	80.006	19.993	103.796	19.885	2.841	0.516
1077.500	638.261	80.009	19.994	103.796	19.886	2.790	0.506
1078.000	638.502	80.008	19.994	103.795	19.885	2.869	0.506
1078.500	638.749	80.007	19.993	103.796	19.888	2.656	0.497
1079.000	639.018	80.006	19.994	103.795	19.886	2.755	0.501
1079.500	639.266	80.008	19.995	103.795	19.888	2.624	0.516
1080.000	639.506	80.007	19.993	103.796	19.883	2.992	0.503
1080.500	639.798	80.006	19.995	103.797	19.883	3.001	0.510
1081.000	640.053	80.007	19.993	103.802	19.885	2.861	0.539
1081.500	640.301	80.007	19.994	103.804	19.883	2.977	0.525
1082.000	640.582	80.006	19.994	103.808	19.883	2.949	0.516
1082.500	640.803	80.005	19.994	103.808	19.882	3.010	0.516
1083.000	641.054	80.006	19.995	103.808	19.885	2.843	0.487
1083.500	641.316	80.005	19.994	103.804	19.883	2.977	0.493
1084.000	641.566	80.007	19.993	103.805	19.882	3.053	0.512
1084.500	641.822	80.006	19.994	103.807	19.882	3.053	0.509
1085.000	642.051	80.007	19.995	103.811	19.885	2.817	0.496
1085.500	642.342	80.007	19.996	103.817	19.885	2.830	0.503
1086.000	642.621	80.007	19.994	103.818	19.884	2.884	0.545
1086.500	642.855	80.006	19.995	103.817	19.884	2.873	0.542
1087.000	643.081	80.006	19.994	103.814	19.883	2.991	0.486
1087.500	643.373	80.006	19.994	103.811	19.883	2.992	0.489
1088.000	643.606	80.006	19.994	103.805	19.882	3.067	0.522
1088.500	643.884	80.004	19.994	103.803	19.880	3.207	0.518
1089.000	644.139	80.006	19.994	103.800	19.880	3.153	0.522
1089.500	644.356	80.006	19.994	103.798	19.885	2.871	0.502
1090.000	644.629	80.008	19.994	103.799	19.884	2.927	0.481
1090.500	644.851	80.006	19.994	103.799	19.885	2.851	0.493
1091.000	645.128	80.007	19.994	103.800	19.883	3.003	0.497
1091.500	645.371	80.005	19.994	103.801	19.884	2.890	0.510
1092.000	645.650	80.007	19.994	103.804	19.883	2.981	0.521
1092.500	645.904	80.005	19.994	103.805	19.884	2.929	0.528
1093.000	646.139	80.006	19.994	103.805	19.883	3.006	0.511
1093.500	646.382	80.007	19.993	103.805	19.887	2.735	0.483
1094.000	646.664	80.007	19.994	103.805	19.884	2.920	0.501
1094.500	646.920	80.007	19.995	103.805	19.882	3.047	0.531
1095.000	647.151	80.005	19.995	103.805	19.884	2.907	0.512
1095.500	647.395	80.008	19.994	103.807	19.882	3.020	0.481
1096.000	647.654	80.006	19.995	103.813	19.882	3.011	0.489
1096.500	647.905	80.005	19.993	103.816	19.882	3.066	0.507
1097.000	648.157	80.006	19.993	103.822	19.884	2.878	0.506
1097.500	648.389	80.008	19.993	103.826	19.881	3.136	0.493
1098.000	648.635	80.006	19.994	103.830	19.881	3.095	0.481
1098.500	648.902	80.008	19.994	103.828	19.881	3.078	0.496
1099.000	649.173	80.006	19.994	103.829	19.883	2.990	0.526
1099.500	649.462	80.009	19.995	103.829	19.879	3.229	0.549
1100.000	649.706	80.007	19.994	103.825	19.881	3.085	0.547
1100.500	649.952	80.008	19.993	103.823	19.881	3.079	0.512
1101.001	650.207	80.007	19.993	103.822	19.879	3.214	0.495
1101.501	650.446	80.006	19.994	103.821	19.878	3.340	0.497
1102.000	650.695	80.008	19.994	103.819	19.883	2.992	0.491
1102.500	650.955	80.007	19.993	103.822	19.881	3.132	0.498
1103.000	651.236	80.007	19.994	103.826	19.879	3.268	0.525
1103.500	651.483	80.007	19.993	103.831	19.879	3.248	0.535
1104.000	651.738	80.007	19.993	103.832	19.881	3.090	0.515
1104.500	651.974	80.007	19.993	103.834	19.881	3.140	0.497
1105.000	652.234	80.008	19.994	103.834	19.879	3.235	0.493
1105.501	652.513	80.007	19.993	103.828	19.878	3.326	0.517
1106.001	652.761	80.005	19.995	103.822	19.879	3.278	0.533
1106.500	653.002	80.006	19.994	103.817	19.879	3.261	0.508
1107.000	653.272	80.005	19.995	103.812	19.876	3.468	0.501
1107.500	653.564	80.007	19.994	103.807	19.881	3.118	0.537
1108.000	653.787	80.006	19.993	103.810	19.878	3.343	0.538
1108.500	654.017	80.003	19.995	103.812	19.879	3.276	0.484
1109.001	654.322	80.004	19.994	103.813	19.877	3.366	0.494
1109.501	654.549	80.004	19.994	103.813	19.876	3.437	0.533
1110.000	654.815	80.005	19.995	103.813	19.877	3.384	0.512
1110.500	655.071	80.006	19.994	103.810	19.878	3.343	0.508
1111.000	655.344	80.005	19.994	103.806	19.876	3.453	0.525
1111.500	655.606	80.003	19.995	103.806	19.873	3.629	0.532
1112.000	655.846	80.005	19.995	103.806	19.879	3.259	0.519
1112.500	656.077	80.004	19.995	103.806	19.876	3.476	0.487
1113.000	656.364	80.005	19.993	103.813	19.874	3.556	0.495
1113.501	656.593	80.005	19.995	103.821	19.878	3.289	0.516
1114.001	656.869	80.004	19.994	103.826	19.874	3.565	0.510
1114.500	657.095	80.006	19.994	103.831	19.880	3.162	0.504
1115.000	657.377	80.006	19.995	103.835	19.870	3.860	0.505
1115.500	657.604	80.005	19.994	103.836	19.892	2.368	0.508
1116.000	657.876	80.004	19.995	103.836	19.878	3.312	0.504
1116.500	658.093	80.006	19.994	103.836	19.882	3.015	0.494
1117.000	658.350	80.006	19.993	103.836	19.883	2.953	0.481
1117.501	658.636	80.005	19.995	103.836	19.878	3.291	0.509
1118.001	658.888	80.005	19.995	103.836	19.875	3.492	0.541
1118.500	659.165	80.005	19.994	103.836	19.880	3.170	0.534
1119.000	659.411	80.005	19.995	103.835	19.877	3.399	0.525
1119.501	659.651	80.006	19.994	103.835	19.879	3.235	0.504
1120.001	659.871	80.005	19.995	103.836	19.881	3.125	0.473
1120.500	660.129	80.004	19.994	103.837	19.879	3.270	0.469
1121.000	660.396	80.005	19.995	103.836	19.879	3.254	0.501
1121.500	660.669	80.006	19.995	103.836	19.878	3.311	0.533
1122.000	660.875	80.006	19.997	103.837	19.880	3.188	0.510
1122.500	661.141	80.004	19.995	103.836	19.878	3.293	0.475
1123.000	661.384	80.003	19.995	103.835	19.880	3.146	0.490
1123.500	661.671	80.005	19.995	103.835	19.880	3.159	0.519
1124.000	661.907	80.006	19.995	103.835	19.877	3.347	0.526
1124.500	662.131	80.006	19.994	103.834	19.878	3.345	0.491
1125.000	662.416	80.006	19.994	103.834	19.881	3.127	0.484
1125.500	662.604	80.003	19.994	103.835	19.877	3.373	0.491
1126.000	662.969	80.006	19.994	103.834	19.883	2.974	0.514
1126.500	663.158	80.006	19.994	103.835	19.877	3.367	0.554
1127.000	663.453	80.006	19.994	103.834	19.875	3.485	0.518
1127.500	663.732	80.005	19.994	103.832	19.876	3.429	0.529
1128.000	663.942	80.005	19.995	103.829	19.877	3.369	0.532
1128.500	664.433	80.006	19.994	103.827	19.875	3.504	0.595
1129.000	663.891	80.005	19.995	103.827	19.876	3.465	0.325
1129.500	664.883	80.004	19.994	103.827	19.879	3.275	0.199
1130.000	665.076	80.005	19.994	103.829	19.878	3.293	0.817
1130.500	665.155	80.004	19.995	103.832	19.876	3.467	0.729
1131.000	665.444	80.006	19.994	103.834	19.878	3.325	0.321
1131.500	665.757	80.004	19.994	103.834	19.877	3.362	0.485
1132.000	665.992	80.007	19.994	103.833	19.875	3.487	0.574
1132.500	666.240	80.006	19.993	103.833	19.876	3.478	0.515
1133.000	666.488	80.006	19.994	103.834	19.873	3.629	0.490
1133.500	666.800	80.004	19.994	103.834	19.878	3.297	0.528
1134.000	667.045	80.004	19.995	103.835	19.879	3.237	0.558
1134.500	667.313	80.005	19.995	103.839	19.876	3.469	0.535
1135.000	667.558	80.005	19.995	103.839	19.877	3.365	0.513
1135.500	667.864	80.005	19.995	103.840	19.878	3.327	0.532
1136.000	668.085	80.005	19.995	103.840	19.879	3.221	0.539
1136.500	668.365	80.005	19.995	103.840	19.878	3.305	0.514
1137.000	668.605	80.005	19.996	103.836	19.880	3.195	0.511
1137.500	668.866	80.004	19.995	103.836	19.877	3.348	0.510
1138.000	669.182	80.005	19.994	103.836	19.876	3.422	0.539
1138.501	669.394	80.005	19.995	103.838	19.876	3.443	0.553
1139.001	669.647	80.004	19.995	103.840	19.875	3.501	0.496
1139.500	669.968	80.003	19.995	103.840	19.876	3.434	0.519
1140.000	670.211	80.005	19.995	103.845	19.875	3.508	0.569
1140.500	670.489	80.005	19.994	103.845	19.876	3.475	0.543
1141.000	670.710	80.004	19.996	103.845	19.876	3.477	0.510
1141.500	670.956	80.003	19.996	103.846	19.877	3.387	0.483
1142.000	671.201	80.004	19.995	103.850	19.874	3.568	0.479
1142.500	671.495	80.005	19.994	103.849	19.879	3.262	0.515
1143.000	671.784	80.006	19.994	103.849	19.873	3.641	0.561
1143.500	671.995	80.004	19.995	103.847	19.872	3.691	0.541
1144.000	672.273	80.005	19.994	103.848	19.872	3.745	0.494
1144.500	672.582	80.004	19.995	103.848	19.880	3.206	0.538
1145.000	672.804	80.005	19.995	103.851	19.875	3.484	0.559
1145.500	673.132	80.004	19.995	103.854	19.875	3.538	0.540
1146.000	673.370	80.007	19.994	103.859	19.876	3.445	0.558
1146.500	673.691	80.005	19.995	103.861	19.871	3.769	0.563
1147.000	673.882	80.006	19.994	103.863	19.876	3.458	0.535
1147.500	674.198	80.005	19.994	103.861	19.887	2.736	0.509
1148.000	674.493	80.004	19.995	103.858	19.876	3.480	0.560
1148.500	674.700	80.005	19.994	103.856	19.875	3.505	0.556
1149.000	675.034	80.006	19.993	103.855	19.874	3.557	0.521
1149.500	675.279	80.006	19.993	103.855	19.877	3.399	0.560
1150.000	675.542	80.005	19.994	103.859	19.872	3.740	0.544
1150.500	675.849	80.005	19.994	103.863	19.871	3.788	0.539
1151.000	676.100	80.005	19.994	103.866	19.872	3.691	0.564
1151.500	676.325	80.006	19.993	103.869	19.875	3.509	0.516
1152.000	676.605	80.005	19.994	103.871	19.874	3.572	0.491
1152.500	676.877	80.006	19.993	103.871	19.874	3.585	0.529
1153.000	677.169	80.004	19.994	103.869	19.873	3.671	0.558
1153.500	677.431	80.006	19.994	103.865	19.868	3.964	0.559
1154.000	677.698	80.006	19.994	103.861	19.871	3.807	0.542
1154.500	677.944	80.007	19.993	103.855	19.872	3.700	0.521
1155.000	678.202	80.005	19.994	103.852	19.873	3.678	0.509
1155.500	678.501	80.006	19.993	103.850	19.870	3.883	0.531
1156.000	678.706	80.007	19.994	103.848	19.873	3.667	0.530
1156.500	678.978	80.008	19.994	103.850	19.870	3.870	0.490
1157.000	679.235	80.007	19.994	103.856	19.871	3.815	0.503
1157.500	679.509	80.007	19.993	103.857	19.868	3.975	0.530
1158.000	679.795	80.006	19.993	103.861	19.873	3.639	0.545
1158.500	680.060	80.008	19.994	103.869	19.872	3.705	0.556
1159.000	680.256	80.007	19.993	103.869	19.872	3.731	0.506
1159.500	680.670	80.007	19.994	103.869	19.875	3.529	0.535
1160.000	680.974	80.006	19.994	103.872	19.871	3.757	0.664
1160.500	681.065	80.007	19.994	103.873	19.872	3.729	0.556
1161.000	681.452	80.006	19.994	103.873	19.869	3.913	0.436
1161.500	682.164	80.008	19.994	103.875	19.875	3.525	0.789
1162.000	681.923	80.009	19.993	103.875	19.871	3.787	0.785
1162.500	682.163	80.008	19.994	103.874	19.876	3.466	0.235
1163.001	682.399	80.005	19.994	103.874	19.873	3.625	0.238
1163.501	682.693	80.007	19.994	103.873	19.871	3.798	0.503
1164.000	682.973	80.006	19.993	103.873	19.873	3.645	0.552
1164.500	683.153	80.004	19.993	103.872	19.871	3.807	0.517
1165.001	683.482	80.007	19.994	103.870	19.869	3.895	0.484
1165.501	683.738	80.007	19.994	103.865	19.873	3.649	0.547
1166.000	684.009	80.007	19.994	103.864	19.868	3.960	0.556
1166.500	684.219	80.005	19.994	103.863	19.870	3.839	0.504
1167.000	684.528	80.005	19.993	103.865	19.869	3.932	0.500
1167.500	684.745	80.006	19.993	103.869	19.871	3.761	0.523
1168.000	685.033	80.005	19.994	103.876	19.872	3.748	0.515
1168.500	685.330	80.007	19.993	103.880	19.869	3.919	0.545
1169.000	685.491	80.005	19.994	103.881	19.871	3.817	0.521
1169.500	685.862	80.006	19.995	103.881	19.869	3.953	0.495
1170.000	686.076	80.006	19.993	103.880	19.871	3.811	0.558
1170.500	686.344	80.006	19.993	103.877	19.872	3.697	0.534
1171.000	686.615	80.005	19.994	103.874	19.873	3.671	0.511
1171.500	686.872	80.006	19.994	103.874	19.871	3.760	0.534
1172.001	687.154	80.005	19.994	103.874	19.871	3.759	0.534
1172.501	687.412	80.005	19.994	103.876	19.872	3.718	0.539
1173.000	687.653	80.006	19.993	103.880	19.870	3.848	0.520
1173.500	687.942	80.005	19.993	103.882	19.871	3.816	0.515
1174.000	688.183	80.005	19.993	103.883	19.872	3.723	0.530
1174.500	688.444	80.006	19.993	103.885	19.873	3.665	0.516
1175.000	688.718	80.005	19.994	103.883	19.869	3.895	0.518
1175.500	688.969	80.007	19.993	103.880	19.870	3.820	0.530
1176.000	689.210	80.007	19.994	103.879	19.872	3.697	0.508
1176.500	689.490	80.007	19.994	103.879	19.869	3.940	0.506
1177.000	689.777	80.007	19.994	103.878	19.869	3.914	0.544
1177.500	690.015	80.007	19.994	103.878	19.872	3.746	0.546
1178.000	690.259	80.006	19.994	103.879	19.871	3.761	0.504
1178.500	690.546	80.008	19.994	103.879	19.870	3.880	0.506
1179.000	690.779	80.007	19.993	103.878	19.869	3.913	0.525
1179.500	691.091	80.008	19.994	103.878	19.869	3.906	0.533
1180.000	691.336	80.008	19.994	103.877	19.866	4.100	0.551
1180.500	691.588	80.008	19.993	103.876	19.869	3.926	0.527
1181.000	691.821	80.007	19.995	103.875	19.867	4.059	0.491
1181.500	692.113	80.008	19.995	103.875	19.866	4.128	0.505
1182.000	692.371	80.007	19.996	103.874	19.872	3.697	0.538
1182.500	692.560	80.009	19.994	103.874	19.869	3.899	0.498
1183.000	692.879	80.008	19.994	103.874	19.869	3.904	0.477
1183.500	693.150	80.008	19.995	103.874	19.870	3.850	0.549
1184.000	693.412	80.008	19.994	103.873	19.868	3.997	0.562
1184.500	693.685	80.009	19.992	103.872	19.869	3.921	0.534
1185.000	693.917	80.008	19.993	103.872	19.867	4.037	0.520
1185.500	694.202	80.008	19.994	103.872	19.869	3.912	0.511
1186.000	694.449	80.006	19.993	103.873	19.867	4.067	0.525
1186.500	694.734	80.008	19.993	103.879	19.866	4.106	0.532
1187.000	694.983	80.008	19.993	103.884	19.867	4.066	0.533
1187.500	695.247	80.007	19.993	103.884	19.870	3.877	0.524
1188.000	695.509	80.007	19.993	103.883	19.868	4.023	0.520
1188.500	695.767	80.007	19.995	103.883	19.865	4.163	0.523
1189.000	696.009	80.007	19.993	103.879	19.866	4.129	0.510
1189.500	696.257	80.007	19.993	103.874	19.867	4.060	0.495
1190.000	696.504	80.006	19.994	103.872	19.867	4.079	0.493
1190.500	696.767	80.006	19.993	103.872	19.866	4.129	0.502
1191.000	697.048	80.005	19.994	103.872	19.866	4.117	0.527
1191.500	697.299	80.005	19.994	103.871	19.868	3.959	0.538
1192.000	697.560	80.005	19.994	103.872	19.866	4.132	0.522
1192.500	697.792	80.004	19.994	103.875	19.863	4.317	0.502
1193.000	698.024	80.006	19.994	103.876	19.864	4.266	0.478
1193.500	698.290	80.004	19.993	103.876	19.866	4.145	0.481
1194.000	698.547	80.006	19.993	103.877	19.864	4.268	0.510
1194.500	698.797	80.006	19.994	103.877	19.865	4.181	0.515
1195.000	699.058	80.005	19.993	103.876	19.864	4.240	0.509
1195.500	699.276	80.006	19.994	103.880	19.865	4.214	0.495
1196.000	699.568	80.005	19.994	103.884	19.867	4.082	0.494
1196.500	699.809	80.004	19.995	103.886	19.866	4.147	0.522
1197.000	700.088	80.005	19.994	103.891	19.863	4.296	0.526
1197.500	700.316	80.004	19.995	103.897	19.868	3.994	0.513
1198.000	700.572	80.005	19.995	103.901	19.863	4.326	0.496
1198.500	700.845	80.006	19.995	103.901	19.868	4.015	0.507
1199.000	701.086	80.004	19.995	103.902	19.863	4.319	0.521
1199.500	701.350	80.006	19.994	103.905	19.864	4.283	0.509
1200.000	701.580	80.004	19.994	103.906	19.864	4.259	0.500
1200.500	701.832	80.005	19.994	103.904	19.865	4.216	0.488
1201.000	702.060	80.004	19.995	103.903	19.863	4.296	0.481
1201.500	702.337	80.003	19.995	103.899	19.866	4.142	0.493
1202.000	702.608	80.004	19.996	103.891	19.865	4.205	0.526
1202.500	702.861	80.005	19.995	103.884	19.865	4.200	0.535
1203.000	703.090	80.005	19.994	103.881	19.865	4.184	0.503
1203.500	703.357	80.005	19.995	103.880	19.865	4.211	0.489
1204.000	703.600	80.004	19.996	103.881	19.866	4.108	0.503
1204.500	703.878	80.006	19.994	103.883	19.864	4.233	0.515
1205.000	704.109	80.005	19.995	103.887	19.865	4.162	0.515
1205.500	704.361	80.005	19.994	103.887	19.865	4.193	0.496
1206.000	704.581	80.005	19.995	103.885	19.866	4.117	0.477
1206.500	704.852	80.005	19.994	103.884	19.864	4.225	0.482
1207.000	705.108	80.006	19.994	103.887	19.864	4.234	0.509
1207.501	705.364	80.006	19.994	103.885	19.863	4.354	0.519
1208.001	705.591	80.006	19.995	103.882	19.867	4.048	0.497
1208.500	705.840	80.006	19.994	103.883	19.867	4.074	0.479
1209.000	706.085	80.008	19.994	103.887	19.865	4.204	0.485
1209.501	706.319	80.006	19.995	103.889	19.863	4.333	0.487
1210.001	706.589	80.005	19.995	103.891	19.864	4.247	0.492
1210.500	706.849	80.004	19.995	103.892	19.864	4.290	0.517
1211.000	707.100	80.006	19.994	103.892	19.867	4.085	0.520
1211.500	707.339	80.004	19.995	103.894	19.865	4.186	0.500
1212.000	707.626	80.004	19.995	103.891	19.863	4.300	0.508
1212.500	707.866	80.006	19.995	103.889	19.864	4.238	0.527
1213.000	708.131	80.004	19.994	103.892	19.865	4.223	0.516
1213.500	708.355	80.007	19.995	103.893	19.863	4.315	0.497
1214.000	708.620	80.006	19.995	103.889	19.865	4.214	0.489
1214.500	708.832	80.007	19.995	103.888	19.866	4.113	0.483
1215.000	709.098	80.005	19.995	103.885	19.863	4.298	0.477
1215.500	709.398	80.004	19.994	103.881	19.863	4.341	0.522
1216.000	709.635	80.004	19.994	103.879	19.863	4.346	0.551
1216.500	709.882	80.004	19.994	103.878	19.863	4.342	0.510
1217.000	710.121	80.005	19.995	103.876	19.864	4.231	0.485
1217.500	710.386	80.005	19.995	103.877	19.864	4.225	0.495
1218.000	710.634	80.006	19.994	103.876	19.863	4.311	0.509
1218.500	710.914	80.006	19.995	103.876	19.864	4.238	0.521
1219.000	711.176	80.005	19.995	103.877	19.864	4.285	0.535
1219.500	711.419	80.005	19.995	103.876	19.864	4.236	0.523
1220.000	711.665	80.005	19.995	103.875	19.866	4.126	0.497
1220.500	711.906	80.005	19.994	103.875	19.864	4.249	0.488
1221.000	712.169	80.005	19.994	103.876	19.865	4.219	0.495
1221.500	712.432	80.005	19.995	103.875	19.862	4.380	0.515
1222.000	712.703	80.005	19.995	103.876	19.866	4.156	0.530
1222.500	712.953	80.005	19.995	103.877	19.862	4.419	0.527
1223.000	713.188	80.005	19.994	103.879	19.867	4.079	0.503
1223.500	713.472	80.004	19.995	103.879	19.865	4.194	0.502
1224.000	713.673	80.004	19.995	103.879	19.864	4.233	0.503
1224.500	713.937	80.004	19.995	103.878	19.864	4.239	0.475
1225.000	714.186	80.005	19.995	103.878	19.865	4.222	0.489
1225.500	714.450	80.004	19.995	103.876	19.865	4.166	0.512
1226.000	714.714	80.004	19.995	103.875	19.865	4.210	0.521
1226.500	714.968	80.004	19.995	103.873	19.868	4.020	0.523
1227.000	715.262	80.005	19.995	103.873	19.869	3.929	0.533
1227.500	715.513	80.004	19.995	103.873	19.866	4.128	0.547
1228.000	715.743	80.004	19.995	103.874	19.868	3.994	0.513
1228.500	716.001	80.006	19.995	103.874	19.866	4.110	0.484
1229.000	716.257	80.004	19.994	103.876	19.866	4.093	0.501
1229.500	716.521	80.004	19.994	103.876	19.865	4.183	0.517
1230.000	716.780	80.004	19.996	103.876	19.867	4.037	0.522
1230.500	717.036	80.005	19.995	103.876	19.867	4.076	0.520
1231.000	717.275	80.005	19.995	103.875	19.870	3.858	0.505
1231.500	717.517	80.005	19.996	103.874	19.867	4.026	0.487
1232.000	717.772	80.005	19.995	103.874	19.872	3.737	0.489
1232.500	718.036	80.006	19.994	103.870	19.870	3.878	0.508
1233.000	718.267	80.005	19.995	103.866	19.869	3.923	0.507
1233.500	718.512	80.005	19.995	103.865	19.870	3.824	0.485
1234.000	718.797	80.005	19.995	103.862	19.870	3.820	0.503
1234.500	719.072	80.005	19.995	103.857	19.868	3.982	0.545
1235.000	719.330	80.006	19.995	103.853	19.871	3.813	0.547
1235.500	719.555	80.005	19.994	103.848	19.869	3.939	0.508
1236.000	719.812	80.006	19.995	103.844	19.872	3.699	0.482
1236.500	720.043	80.005	19.995	103.839	19.870	3.829	0.485
1237.000	720.311	80.005	19.995	103.838	19.872	3.732	0.494
1237.501	720.557	80.006	19.995	103.838	19.872	3.711	0.507
1238.001	720.823	80.006	19.995	103.839	19.872	3.717	0.513
1238.500	721.088	80.006	19.995	103.839	19.875	3.508	0.521
1239.000	721.324	80.006	19.994	103.840	19.874	3.614	0.516
1239.500	721.583	80.007	19.995	103.841	19.874	3.547	0.498
1240.000	721.801	80.005	19.995	103.840	19.874	3.601	0.486
1240.500	722.107	80.006	19.993	103.841	19.873	3.646	0.501
1241.000	722.354	80.006	19.994	103.840	19.875	3.487	0.539
1241.500	722.565	80.006	19.995	103.840	19.875	3.539	0.505
1242.000	722.835	80.006	19.994	103.840	19.873	3.631	0.469
1242.500	723.105	80.007	19.994	103.839	19.876	3.444	0.511
1243.000	723.345	80.006	19.995	103.838	19.873	3.670	0.525
1243.500	723.604	80.006	19.994	103.838	19.878	3.316	0.505
1244.000	723.868	80.006	19.994	103.837	19.877	3.347	0.511
1244.500	724.131	80.005	19.995	103.833	19.880	3.182	0.525
1245.000	724.369	80.006	19.993	103.828	19.878	3.299	0.514
1245.500	724.580	80.007	19.996	103.825	19.878	3.290	0.475
1246.000	724.860	80.006	19.996	103.821	19.880	3.182	0.470
1246.500	725.097	80.007	19.993	103.817	19.876	3.437	0.504
1247.000	725.354	80.006	19.994	103.815	19.880	3.180	0.506
1247.500	725.592	80.008	19.993	103.812	19.880	3.144	0.494
1248.000	725.839	80.006	19.995	103.806	19.882	3.031	0.489
1248.500	726.094	80.006	19.994	103.802	19.882	3.046	0.493
1249.000	726.372	80.005	19.994	103.797	19.879	3.254	0.518
1249.500	726.598	80.005	19.995	103.795	19.881	3.141	0.519
1250.000	726.844	80.007	19.994	103.793	19.882	3.053	0.488
1250.500	727.122	80.006	19.994	103.792	19.884	2.911	0.498
1251.000	727.335	80.007	19.993	103.793	19.888	2.669	0.507
1251.500	727.599	80.005	19.995	103.790	19.886	2.795	0.484
1252.000	727.865	80.007	19.994	103.790	19.884	2.883	0.504
1252.500	728.087	80.006	19.995	103.791	19.887	2.700	0.509
1253.000	728.347	80.008	19.994	103.789	19.883	2.974	0.484
1253.500	728.608	80.006	19.994	103.787	19.887	2.726	0.502
1254.000	728.858	80.007	19.994	103.789	19.885	2.825	0.516
1254.500	729.067	80.006	19.995	103.788	19.884	2.899	0.485
1255.000	729.329	80.005	19.994	103.788	19.883	3.006	0.465
1255.500	729.618	80.006	19.994	103.791	19.885	2.868	0.511
1256.000	729.858	80.006	19.995	103.793	19.882	3.056	0.540
1256.500	730.086	80.007	19.994	103.793	19.883	2.991	0.498
1257.000	730.332	80.006	19.994	103.793	19.883	2.978	0.470
1257.500	730.588	80.007	19.994	103.794	19.885	2.837	0.488
1258.000	730.824	80.007	19.994	103.794	19.887	2.693	0.497
1258.500	731.100	80.007	19.995	103.795	19.884	2.883	0.502
1259.000	731.337	80.007	19.993	103.795	19.888	2.639	0.513
1259.500	731.557	80.007	19.994	103.795	19.885	2.834	0.485
1260.000	731.825	80.008	19.993	103.795	19.886	2.745	0.472
1260.500	732.070	80.007	19.993	103.794	19.887	2.710	0.500
1261.000	732.331	80.007	19.994	103.792	19.886	2.767	0.510
1261.500	732.574	80.008	19.994	103.787	19.885	2.823	0.505
1262.000	732.802	80.008	19.994	103.783	19.886	2.740	0.487
1262.500	733.045	80.007	19.993	103.782	19.882	3.025	0.471
1263.000	733.294	80.008	19.994	103.782	19.882	3.026	0.482
1263.500	733.583	80.008	19.994	103.778	19.881	3.084	0.515
1264.000	733.804	80.009	19.994	103.778	19.884	2.913	0.524
1264.500	734.046	80.009	19.994	103.776	19.882	3.050	0.486
1265.000	734.317	80.011	19.993	103.769	19.885	2.844	0.488
1265.500	734.594	80.009	19.994	103.762	19.885	2.866	0.531
1266.000	734.830	80.009	19.993	103.765	19.882	3.043	0.531
1266.501	735.051	80.009	19.993	103.764	19.883	2.970	0.485
1267.001	735.296	80.008	19.993	103.769	19.884	2.881	0.461
1267.500	735.515	80.008	19.994	103.777	19.885	2.806	0.465
1268.000	735.764	80.008	19.994	103.784	19.881	3.123	0.466
1268.500	736.019	80.008	19.995	103.788	19.883	3.002	0.486
1269.000	736.249	80.008	19.994	103.787	19.883	2.976	0.494
1269.500	736.501	80.007	19.994	103.785	19.885	2.832	0.484
1270.000	736.720	80.007	19.993	103.782	19.882	3.015	0.477
1270.500	736.978	80.009	19.993	103.777	19.884	2.883	0.474
1271.000	737.196	80.007	19.993	103.775	19.882	3.056	0.476
1271.500	737.448	80.008	19.993	103.775	19.883	2.959	0.473
1272.000	737.701	80.007	19.993	103.777	19.882	3.032	0.487
1272.500	737.943	80.006	19.993	103.779	19.884	2.885	0.500
1273.000	738.205	80.007	19.993	103.783	19.882	3.030	0.500
1273.500	738.452	80.006	19.995	103.780	19.884	2.886	0.506
1274.000	738.705	80.007	19.995	103.778	19.881	3.099	0.504
1274.500	738.961	80.006	19.993	103.774	19.883	2.970	0.505
1275.000	739.243	80.005	19.994	103.773	19.884	2.913	0.524
1275.500	739.478	80.006	19.995	103.771	19.883	2.982	0.527
1276.000	739.723	80.007	19.994	103.774	19.882	3.062	0.498
1276.500	739.936	80.006	19.993	103.775	19.879	3.233	0.469
1277.000	740.215	80.005	19.993	103.776	19.881	3.080	0.475
1277.500	740.438	80.007	19.994	103.774	19.881	3.138	0.497
1278.000	740.724	80.007	19.994	103.770	19.879	3.209	0.505
1278.500	740.936	80.006	19.994	103.767	19.884	2.900	0.504
1279.000	741.213	80.006	19.994	103.767	19.882	3.014	0.494
1279.500	741.431	80.006	19.993	103.765	19.884	2.889	0.492
1280.000	741.706	80.006	19.993	103.762	19.881	3.120	0.494
1280.500	741.952	80.005	19.993	103.763	19.881	3.079	0.507
1281.000	742.222	80.008	19.993	103.767	19.879	3.252	0.519
1281.500	742.452	80.005	19.993	103.769	19.879	3.217	0.508
1282.000	742.681	80.008	19.993	103.772	19.881	3.139	0.479
1282.500	742.965	80.006	19.993	103.773	19.881	3.099	0.486
1283.000	743.218	80.006	19.993	103.774	19.882	3.069	0.525
1283.500	743.467	80.006	19.994	103.769	19.883	2.995	0.519
1284.000	743.702	80.006	19.994	103.766	19.879	3.211	0.493
