Sample ID:	C:\MCC\MCC Cal\Test\PC_MCC_30K_min_210924_R4.txt
Sample Weight (mg):	4.81
Heating Rate (C/s):	0.5
Combustor Temp (C):	900
N2 Flow Rate (cc/min):	80
O2 Flow Rate (cc/min):	20
Calibration File:	C:\MCC\MCC Cal\Coeff1 JN10440_30_210304.txt.txt
T Correction Coefficients:	0	1.024463	0
Time Shift (s):	14
*
Time (s)	Temperature (C)	N2 flow rate (cc/min)	O2 flow rate (cc/min)	Flow Rate (cc/min)	Oxygen (%)	HRR (W/g)	Heating rate (C/s)
0.000	108.660	80.008	19.996	100.060	20.387	0.097	-0.011
0.500	108.641	80.010	19.996	100.060	20.385	0.230	-0.043
1.000	108.694	80.008	19.996	100.060	20.387	0.115	-0.009
1.500	108.671	80.008	19.996	100.060	20.383	0.382	0.032
2.000	108.639	80.008	19.995	100.060	20.384	0.279	-0.013
2.500	108.672	80.008	19.995	100.060	20.386	0.142	-0.027
3.000	108.664	80.008	19.995	100.060	20.387	0.097	0.014
3.500	108.660	80.008	19.995	100.061	20.387	0.087	0.007
3.999	108.645	80.008	19.995	100.062	20.388	0.060	-0.016
4.499	108.673	80.007	19.995	100.062	20.388	0.051	-0.004
4.999	108.667	80.007	19.995	100.062	20.388	0.035	0.017
5.499	108.671	80.009	19.995	100.060	20.386	0.175	0.010
5.999	108.655	80.007	19.996	100.060	20.384	0.310	-0.007
6.499	108.669	80.009	19.995	100.060	20.386	0.195	-0.007
6.999	108.645	80.007	19.995	100.061	20.389	-0.028	-0.005
7.499	108.646	80.009	19.995	100.061	20.386	0.177	-0.016
7.999	108.635	80.007	19.995	100.061	20.387	0.115	-0.016
8.499	108.641	80.008	19.995	100.061	20.386	0.196	-0.007
8.999	108.623	80.007	19.995	100.061	20.389	-0.046	-0.009
9.499	108.597	80.006	19.996	100.061	20.390	-0.071	-0.028
9.999	108.614	80.007	19.995	100.062	20.389	-0.007	-0.026
10.499	108.626	80.007	19.994	100.062	20.385	0.200	0.010
10.999	108.641	80.006	19.995	100.063	20.384	0.312	0.028
11.499	108.630	80.007	19.995	100.066	20.387	0.129	0.015
11.999	108.626	80.006	19.995	100.070	20.386	0.156	-0.006
12.499	108.612	80.006	19.995	100.076	20.385	0.214	-0.016
12.999	108.613	80.007	19.995	100.084	20.385	0.244	-0.015
13.499	108.589	80.007	19.994	100.092	20.384	0.324	-0.018
13.999	108.636	80.007	19.995	100.096	20.382	0.439	-0.000
14.500	108.618	80.008	19.996	100.099	20.381	0.490	0.026
15.000	108.604	80.006	19.995	100.105	20.381	0.498	-0.001
15.500	108.630	80.007	19.996	100.106	20.380	0.528	-0.010
16.000	108.614	80.009	19.996	100.107	20.378	0.682	0.011
16.500	108.626	80.007	19.996	100.107	20.381	0.501	0.003
17.000	108.624	80.007	19.996	100.108	20.377	0.781	0.003
17.500	108.667	80.008	19.995	100.111	20.380	0.583	0.025
18.000	108.660	80.008	19.995	100.116	20.376	0.840	0.038
18.500	108.650	80.006	19.995	100.123	20.375	0.873	0.010
19.000	108.691	80.007	19.996	100.135	20.377	0.756	0.007
19.500	108.669	80.008	19.995	100.143	20.376	0.845	0.025
20.000	108.694	80.008	19.996	100.148	20.374	0.973	0.011
20.500	108.692	80.008	19.995	100.154	20.374	0.928	0.013
21.000	108.710	80.008	19.995	100.156	20.370	1.206	0.020
21.500	108.718	80.007	19.995	100.157	20.370	1.201	0.021
22.000	108.726	80.008	19.995	100.164	20.373	0.999	0.021
22.500	108.719	80.008	19.995	100.168	20.371	1.132	0.008
23.000	108.794	80.007	19.995	100.171	20.370	1.177	0.035
23.500	108.781	80.008	19.995	100.176	20.368	1.336	0.065
24.000	108.804	80.008	19.995	100.179	20.367	1.391	0.036
24.500	108.861	80.009	19.995	100.179	20.366	1.476	0.045
25.000	108.831	80.008	19.996	100.180	20.369	1.279	0.054
25.500	108.888	80.010	19.994	100.182	20.368	1.345	0.027
26.000	108.910	80.008	19.995	100.189	20.369	1.253	0.053
26.500	108.924	80.007	19.994	100.197	20.364	1.584	0.058
27.000	108.961	80.008	19.995	100.204	20.366	1.440	0.043
27.500	108.976	80.008	19.994	100.212	20.366	1.479	0.051
28.000	109.043	80.008	19.995	100.221	20.364	1.580	0.067
28.500	109.066	80.009	19.995	100.221	20.364	1.607	0.086
29.000	109.081	80.008	19.995	100.222	20.363	1.646	0.064
29.500	109.139	80.010	19.994	100.225	20.361	1.791	0.056
30.000	109.164	80.009	19.995	100.225	20.360	1.839	0.078
30.500	109.265	80.009	19.994	100.224	20.360	1.859	0.104
31.000	109.305	80.007	19.994	100.226	20.362	1.749	0.133
31.500	109.369	80.009	19.996	100.231	20.360	1.834	0.122
32.000	109.366	80.010	19.994	100.237	20.358	1.974	0.083
32.499	109.459	80.009	19.995	100.243	20.358	2.013	0.075
32.999	109.477	80.008	19.994	100.248	20.358	2.000	0.100
33.499	109.571	80.007	19.994	100.251	20.360	1.845	0.111
33.999	109.578	80.008	19.994	100.249	20.361	1.793	0.107
34.499	109.686	80.008	19.995	100.248	20.357	2.040	0.108
34.999	109.733	80.007	19.995	100.248	20.360	1.882	0.135
35.500	109.777	80.008	19.995	100.245	20.359	1.898	0.123
36.000	109.851	80.008	19.996	100.241	20.358	1.974	0.105
36.499	109.921	80.009	19.995	100.239	20.359	1.944	0.131
36.999	109.995	80.007	19.996	100.234	20.357	2.047	0.144
37.500	110.070	80.009	19.995	100.233	20.359	1.908	0.147
38.000	110.125	80.009	19.995	100.234	20.356	2.144	0.139
38.499	110.176	80.009	19.995	100.237	20.356	2.105	0.118
38.999	110.278	80.009	19.995	100.243	20.356	2.123	0.130
39.500	110.356	80.008	19.995	100.248	20.358	2.018	0.166
40.000	110.422	80.010	19.996	100.249	20.357	2.071	0.162
40.500	110.503	80.008	19.995	100.250	20.355	2.183	0.146
41.000	110.588	80.009	19.995	100.252	20.355	2.185	0.157
41.499	110.698	80.010	19.994	100.252	20.355	2.187	0.181
41.999	110.764	80.009	19.995	100.252	20.354	2.238	0.186
42.499	110.828	80.007	19.995	100.253	20.356	2.088	0.153
43.000	110.900	80.009	19.994	100.253	20.353	2.309	0.133
43.500	111.000	80.008	19.994	100.253	20.354	2.262	0.154
44.000	111.079	80.009	19.995	100.254	20.355	2.176	0.175
44.500	111.148	80.008	19.996	100.254	20.351	2.458	0.164
44.999	111.263	80.010	19.994	100.256	20.351	2.471	0.166
45.499	111.345	80.009	19.995	100.259	20.352	2.382	0.191
45.999	111.443	80.009	19.995	100.259	20.354	2.226	0.189
46.500	111.532	80.009	19.994	100.259	20.351	2.430	0.183
47.000	111.614	80.008	19.994	100.260	20.353	2.287	0.179
47.499	111.725	80.009	19.995	100.260	20.352	2.386	0.182
47.999	111.837	80.009	19.994	100.258	20.352	2.356	0.208
48.499	111.914	80.009	19.995	100.260	20.350	2.526	0.206
48.999	111.992	80.011	19.994	100.262	20.350	2.501	0.172
49.499	112.072	80.009	19.994	100.263	20.351	2.437	0.156
49.999	112.200	80.009	19.995	100.262	20.355	2.210	0.183
50.499	112.318	80.012	19.994	100.260	20.351	2.425	0.227
51.000	112.438	80.010	19.994	100.258	20.352	2.365	0.242
51.500	112.555	80.009	19.995	100.257	20.350	2.491	0.238
51.999	112.643	80.010	19.994	100.260	20.350	2.491	0.221
52.499	112.747	80.010	19.994	100.270	20.351	2.430	0.199
52.999	112.833	80.011	19.995	100.274	20.349	2.567	0.191
53.499	112.956	80.010	19.994	100.278	20.346	2.744	0.200
53.999	113.086	80.010	19.994	100.281	20.349	2.544	0.231
54.499	113.134	80.010	19.995	100.282	20.345	2.819	0.215
54.999	113.286	80.009	19.995	100.279	20.348	2.627	0.189
55.499	113.414	80.011	19.995	100.281	20.349	2.581	0.240
55.999	113.557	80.009	19.995	100.283	20.349	2.579	0.275
56.499	113.610	80.010	19.995	100.289	20.348	2.652	0.234
56.999	113.769	80.009	19.996	100.290	20.348	2.648	0.204
57.499	113.890	80.010	19.996	100.290	20.343	2.975	0.246
58.000	114.016	80.009	19.995	100.291	20.344	2.893	0.264
58.500	114.169	80.011	19.995	100.294	20.346	2.780	0.263
58.999	114.300	80.010	19.996	100.291	20.346	2.785	0.281
59.499	114.442	80.009	19.995	100.292	20.345	2.851	0.278
59.999	114.584	80.009	19.996	100.293	20.342	3.012	0.279
60.499	114.660	80.009	19.995	100.292	20.343	2.932	0.251
60.999	114.816	80.010	19.996	100.293	20.343	2.994	0.225
61.499	114.938	80.008	19.996	100.293	20.344	2.870	0.255
62.000	115.078	80.008	19.996	100.292	20.342	3.007	0.270
62.500	115.228	80.008	19.996	100.294	20.346	2.789	0.276
62.999	115.363	80.008	19.996	100.300	20.346	2.741	0.287
63.499	115.458	80.009	19.996	100.301	20.345	2.844	0.257
63.999	115.632	80.008	19.996	100.303	20.345	2.814	0.250
64.499	115.762	80.008	19.996	100.303	20.347	2.686	0.286
64.999	115.894	80.008	19.995	100.303	20.344	2.928	0.283
65.499	116.027	80.008	19.995	100.298	20.345	2.825	0.264
65.999	116.214	80.008	19.996	100.297	20.344	2.922	0.293
66.499	116.373	80.007	19.995	100.298	20.344	2.885	0.333
67.000	116.506	80.008	19.997	100.297	20.345	2.803	0.319
67.500	116.661	80.007	19.995	100.297	20.344	2.880	0.290
68.000	116.819	80.008	19.995	100.297	20.345	2.842	0.300
68.500	116.964	80.009	19.995	100.298	20.345	2.816	0.308
68.999	117.104	80.008	19.995	100.302	20.345	2.825	0.294
69.499	117.268	80.006	19.996	100.305	20.347	2.692	0.294
70.000	117.410	80.006	19.995	100.306	20.345	2.804	0.305
70.500	117.620	80.007	19.995	100.311	20.348	2.648	0.329
70.999	117.735	80.008	19.995	100.312	20.346	2.745	0.338
71.499	117.902	80.009	19.996	100.311	20.344	2.921	0.303
71.999	118.061	80.007	19.995	100.308	20.345	2.850	0.304
72.499	118.260	80.007	19.995	100.307	20.341	3.085	0.342
72.999	118.406	80.007	19.995	100.305	20.343	2.942	0.351
73.499	118.584	80.007	19.996	100.304	20.343	2.954	0.335
73.999	118.740	80.006	19.995	100.306	20.343	2.945	0.329
74.499	118.890	80.006	19.996	100.313	20.345	2.823	0.320
74.999	119.053	80.007	19.994	100.319	20.342	3.027	0.309
75.499	119.226	80.004	19.995	100.322	20.344	2.922	0.325
75.999	119.393	80.006	19.995	100.326	20.342	3.061	0.338
76.500	119.615	80.007	19.995	100.325	20.343	2.993	0.364
77.000	119.752	80.007	19.996	100.322	20.342	3.050	0.374
77.499	119.955	80.007	19.995	100.320	20.344	2.903	0.350
77.999	120.135	80.007	19.995	100.320	20.343	2.981	0.362
78.499	120.274	80.007	19.995	100.322	20.343	2.988	0.351
78.999	120.491	80.007	19.996	100.325	20.341	3.112	0.338
79.499	120.653	80.008	19.996	100.329	20.343	2.997	0.368
80.000	120.780	80.007	19.995	100.330	20.342	3.057	0.334
80.500	120.969	80.007	19.996	100.332	20.341	3.073	0.302
80.999	121.173	80.007	19.995	100.333	20.341	3.075	0.355
81.499	121.369	80.008	19.995	100.333	20.340	3.167	0.397
81.999	121.542	80.006	19.996	100.333	20.343	2.945	0.385
82.500	121.728	80.008	19.996	100.331	20.343	2.933	0.364
83.000	121.898	80.007	19.996	100.331	20.343	2.956	0.357
83.499	122.107	80.008	19.996	100.330	20.340	3.178	0.368
83.999	122.323	80.007	19.996	100.327	20.345	2.848	0.402
84.500	122.510	80.007	19.996	100.324	20.344	2.930	0.414
85.000	122.718	80.007	19.996	100.326	20.345	2.834	0.399
85.499	122.903	80.006	19.996	100.325	20.346	2.788	0.394
85.999	123.117	80.006	19.996	100.326	20.342	3.000	0.396
86.499	123.238	80.006	19.995	100.328	20.342	3.057	0.367
86.999	123.470	80.006	19.996	100.330	20.342	3.027	0.345
87.499	123.605	80.005	19.996	100.329	20.343	2.970	0.360
87.999	123.839	80.006	19.996	100.331	20.342	3.050	0.368
88.499	123.995	80.007	19.996	100.330	20.341	3.110	0.380
89.000	124.215	80.007	19.996	100.331	20.340	3.183	0.383
89.500	124.419	80.006	19.997	100.332	20.340	3.156	0.400
89.999	124.601	80.006	19.996	100.332	20.339	3.219	0.405
90.499	124.802	80.006	19.997	100.332	20.343	2.997	0.385
90.999	124.976	80.008	19.996	100.331	20.342	3.045	0.379
91.500	125.185	80.005	19.996	100.329	20.340	3.149	0.379
92.000	125.390	80.007	19.996	100.328	20.345	2.834	0.399
92.499	125.607	80.005	19.996	100.327	20.344	2.913	0.418
92.999	125.816	80.005	19.997	100.327	20.338	3.270	0.424
93.499	125.988	80.005	19.997	100.329	20.345	2.807	0.404
93.999	126.220	80.006	19.996	100.331	20.343	2.992	0.392
94.500	126.380	80.006	19.997	100.333	20.342	3.039	0.398
95.000	126.603	80.006	19.996	100.334	20.340	3.151	0.387
95.499	126.836	80.006	19.997	100.332	20.342	3.004	0.419
95.999	127.032	80.007	19.996	100.331	20.338	3.266	0.442
96.500	127.239	80.006	19.997	100.330	20.340	3.137	0.416
97.000	127.462	80.006	19.996	100.330	20.339	3.208	0.416
97.499	127.646	80.006	19.997	100.331	20.343	2.995	0.419
97.999	127.889	80.007	19.996	100.330	20.343	2.972	0.417
98.499	128.133	80.006	19.996	100.327	20.341	3.109	0.457
99.000	128.294	80.006	19.996	100.327	20.341	3.117	0.446
99.500	128.500	80.006	19.995	100.328	20.338	3.320	0.386
99.999	128.717	80.007	19.995	100.327	20.341	3.119	0.395
100.499	128.952	80.008	19.996	100.328	20.340	3.146	0.438
100.999	129.156	80.007	19.995	100.331	20.338	3.279	0.446
101.499	129.378	80.008	19.995	100.330	20.340	3.149	0.433
101.999	129.551	80.008	19.995	100.329	20.337	3.350	0.410
102.499	129.809	80.008	19.995	100.328	20.340	3.162	0.413
102.999	129.999	80.007	19.995	100.329	20.339	3.252	0.439
103.499	130.253	80.007	19.995	100.328	20.337	3.378	0.446
103.999	130.440	80.008	19.995	100.329	20.341	3.110	0.443
104.499	130.655	80.008	19.995	100.329	20.339	3.197	0.422
105.000	130.868	80.007	19.996	100.331	20.339	3.210	0.415
105.500	131.086	80.008	19.994	100.331	20.339	3.227	0.430
105.999	131.316	80.009	19.994	100.332	20.341	3.091	0.439
106.499	131.509	80.009	19.996	100.331	20.338	3.288	0.435
106.999	131.732	80.008	19.995	100.331	20.339	3.204	0.420
107.499	131.984	80.010	19.995	100.331	20.340	3.148	0.445
107.999	132.223	80.009	19.995	100.331	20.338	3.266	0.483
108.499	132.456	80.010	19.995	100.330	20.339	3.217	0.481
108.999	132.651	80.008	19.995	100.330	20.338	3.319	0.450
109.499	132.888	80.009	19.996	100.331	20.338	3.310	0.430
109.999	133.097	80.010	19.996	100.330	20.339	3.238	0.439
110.499	133.317	80.010	19.995	100.330	20.337	3.387	0.438
110.999	133.522	80.009	19.995	100.330	20.337	3.350	0.427
111.499	133.759	80.008	19.995	100.329	20.338	3.298	0.433
112.000	133.997	80.009	19.996	100.329	20.342	3.027	0.458
112.500	134.220	80.010	19.995	100.330	20.343	2.945	0.468
112.999	134.467	80.011	19.995	100.330	20.338	3.300	0.466
113.500	134.682	80.007	19.995	100.329	20.339	3.218	0.466
114.000	134.911	80.010	19.995	100.329	20.343	2.991	0.453
114.499	135.162	80.009	19.995	100.328	20.337	3.336	0.462
114.999	135.374	80.008	19.996	100.327	20.339	3.229	0.472
115.499	135.625	80.009	19.996	100.327	20.339	3.204	0.463
115.999	135.851	80.009	19.995	100.329	20.339	3.249	0.470
116.499	136.038	80.008	19.994	100.329	20.340	3.190	0.446
116.999	136.297	80.008	19.995	100.330	20.340	3.142	0.430
117.499	136.537	80.008	19.995	100.331	20.340	3.148	0.472
118.000	136.766	80.009	19.995	100.331	20.340	3.183	0.484
118.500	136.962	80.009	19.996	100.329	20.339	3.220	0.447
118.999	137.256	80.008	19.996	100.327	20.341	3.064	0.457
119.499	137.503	80.008	19.995	100.326	20.336	3.399	0.516
119.999	137.711	80.008	19.995	100.322	20.340	3.158	0.498
120.499	137.916	80.007	19.995	100.322	20.338	3.309	0.434
120.999	138.206	80.009	19.996	100.324	20.340	3.158	0.454
121.499	138.430	80.009	19.995	100.326	20.338	3.309	0.505
121.999	138.664	80.008	19.995	100.327	20.337	3.328	0.486
122.499	138.882	80.008	19.995	100.329	20.342	3.039	0.455
122.999	139.100	80.008	19.996	100.328	20.339	3.220	0.444
123.499	139.313	80.008	19.995	100.327	20.337	3.355	0.434
123.999	139.593	80.009	19.995	100.327	20.340	3.181	0.462
124.499	139.814	80.009	19.995	100.327	20.339	3.254	0.497
124.999	140.060	80.009	19.996	100.328	20.338	3.291	0.484
125.499	140.318	80.008	19.995	100.329	20.340	3.137	0.485
125.999	140.547	80.008	19.994	100.330	20.337	3.358	0.496
126.499	140.822	80.010	19.996	100.331	20.338	3.295	0.496
126.999	141.048	80.009	19.996	100.331	20.338	3.266	0.503
127.499	141.224	80.009	19.996	100.331	20.337	3.387	0.451
127.999	141.523	80.009	19.996	100.331	20.340	3.151	0.438
128.500	141.745	80.009	19.995	100.331	20.341	3.116	0.498
129.000	141.979	80.008	19.995	100.330	20.340	3.192	0.489
129.500	142.233	80.009	19.996	100.329	20.342	3.053	0.472
130.000	142.480	80.010	19.995	100.328	20.339	3.250	0.495
130.500	142.735	80.010	19.994	100.328	20.342	3.002	0.502
131.000	142.969	80.010	19.994	100.328	20.339	3.238	0.495
131.500	143.213	80.010	19.994	100.326	20.343	2.957	0.484
132.000	143.469	80.011	19.995	100.323	20.342	3.057	0.489
132.500	143.703	80.010	19.995	100.322	20.340	3.181	0.495
133.000	143.964	80.011	19.995	100.320	20.345	2.862	0.492
133.500	144.173	80.011	19.995	100.319	20.342	3.018	0.482
134.000	144.464	80.011	19.994	100.320	20.340	3.142	0.485
134.500	144.670	80.011	19.995	100.324	20.342	3.048	0.499
135.000	144.905	80.011	19.995	100.325	20.343	2.965	0.469
135.500	145.186	80.011	19.995	100.327	20.340	3.158	0.479
136.000	145.423	80.010	19.994	100.327	20.343	2.934	0.517
136.500	145.701	80.010	19.995	100.326	20.342	3.023	0.516
137.000	145.955	80.012	19.995	100.326	20.342	3.024	0.523
137.500	146.177	80.011	19.995	100.326	20.342	3.016	0.504
138.000	146.459	80.011	19.995	100.326	20.341	3.092	0.490
138.500	146.687	80.010	19.994	100.328	20.340	3.145	0.507
139.000	146.927	80.011	19.994	100.328	20.340	3.154	0.489
139.500	147.203	80.010	19.994	100.327	20.344	2.918	0.492
140.000	147.418	80.010	19.995	100.325	20.344	2.913	0.503
140.500	147.666	80.009	19.995	100.324	20.344	2.869	0.477
141.000	147.920	80.009	19.994	100.322	20.343	2.955	0.482
141.500	148.152	80.010	19.994	100.320	20.344	2.870	0.494
142.000	148.438	80.009	19.994	100.319	20.341	3.064	0.502
142.500	148.722	80.009	19.994	100.319	20.347	2.736	0.544
143.000	148.953	80.008	19.995	100.319	20.344	2.923	0.543
143.500	149.214	80.009	19.994	100.323	20.343	2.955	0.504
144.000	149.445	80.008	19.994	100.326	20.345	2.837	0.492
144.500	149.736	80.009	19.994	100.328	20.344	2.913	0.507
145.000	150.003	80.009	19.995	100.330	20.345	2.813	0.540
145.500	150.234	80.008	19.995	100.328	20.346	2.769	0.528
146.000	150.526	80.008	19.996	100.322	20.345	2.812	0.511
146.500	150.736	80.007	19.995	100.317	20.342	3.001	0.513
147.000	150.990	80.008	19.995	100.311	20.345	2.833	0.483
147.500	151.224	80.006	19.995	100.306	20.345	2.820	0.476
148.000	151.507	80.006	19.995	100.305	20.347	2.686	0.503
148.500	151.800	80.007	19.995	100.309	20.347	2.696	0.546
149.000	152.011	80.007	19.996	100.313	20.346	2.751	0.540
149.500	152.276	80.007	19.996	100.316	20.345	2.856	0.490
150.000	152.545	80.006	19.995	100.316	20.345	2.812	0.505
150.500	152.793	80.007	19.995	100.317	20.345	2.845	0.526
151.000	153.077	80.007	19.996	100.318	20.345	2.833	0.525
151.500	153.338	80.006	19.994	100.312	20.344	2.895	0.539
152.000	153.568	80.007	19.996	100.310	20.345	2.831	0.518
152.500	153.813	80.006	19.995	100.312	20.346	2.753	0.483
153.000	154.120	80.006	19.995	100.311	20.347	2.677	0.513
153.500	154.344	80.004	19.996	100.308	20.346	2.799	0.542
154.000	154.594	80.005	19.996	100.308	20.347	2.732	0.503
154.500	154.847	80.006	19.996	100.309	20.347	2.695	0.489
155.000	155.094	80.005	19.996	100.307	20.347	2.695	0.502
155.500	155.347	80.005	19.995	100.305	20.347	2.705	0.500
156.000	155.634	80.006	19.995	100.302	20.344	2.911	0.520
156.500	155.897	80.007	19.996	100.302	20.345	2.865	0.545
157.000	156.128	80.008	19.996	100.301	20.346	2.771	0.522
157.500	156.378	80.007	19.995	100.300	20.344	2.884	0.487
158.000	156.688	80.008	19.996	100.299	20.342	3.037	0.521
158.500	156.893	80.007	19.996	100.301	20.344	2.923	0.538
159.000	157.177	80.006	19.995	100.302	20.351	2.473	0.502
159.500	157.456	80.006	19.996	100.301	20.344	2.920	0.526
160.000	157.737	80.009	19.995	100.300	20.347	2.680	0.562
160.500	157.938	80.007	19.996	100.301	20.346	2.744	0.521
161.000	158.182	80.006	19.996	100.301	20.348	2.643	0.463
161.500	158.481	80.005	19.996	100.300	20.344	2.875	0.494
162.000	158.755	80.007	19.996	100.301	20.346	2.769	0.558
162.500	159.022	80.007	19.996	100.302	20.347	2.671	0.557
163.000	159.249	80.006	19.995	100.300	20.350	2.521	0.518
163.500	159.531	80.006	19.996	100.299	20.348	2.609	0.502
164.000	159.808	80.007	19.996	100.301	20.351	2.434	0.534
164.500	160.022	80.006	19.996	100.299	20.351	2.434	0.525
165.000	160.290	80.007	19.995	100.299	20.348	2.607	0.487
165.500	160.529	80.008	19.995	100.299	20.350	2.540	0.494
166.000	160.817	80.008	19.995	100.298	20.349	2.551	0.517
166.500	161.105	80.008	19.996	100.296	20.352	2.365	0.552
167.000	161.369	80.007	19.995	100.296	20.350	2.537	0.564
167.500	161.580	80.007	19.995	100.296	20.349	2.560	0.514
168.000	161.831	80.007	19.995	100.296	20.351	2.418	0.469
168.500	162.127	80.011	19.996	100.296	20.351	2.436	0.504
169.000	162.372	80.008	19.996	100.296	20.349	2.544	0.544
169.500	162.660	80.011	19.995	100.295	20.351	2.448	0.537
170.000	162.886	80.007	19.995	100.294	20.348	2.615	0.524
170.500	163.167	80.002	19.995	100.293	20.353	2.333	0.511
171.000	163.411	80.009	19.995	100.293	20.352	2.402	0.516
171.500	163.653	80.008	19.996	100.292	20.352	2.397	0.506
172.000	163.917	80.009	19.996	100.292	20.351	2.455	0.496
172.500	164.197	80.005	19.995	100.292	20.350	2.514	0.525
173.000	164.495	80.008	19.995	100.292	20.351	2.464	0.561
173.500	164.741	80.006	19.994	100.292	20.352	2.395	0.561
174.000	165.027	80.008	19.995	100.292	20.351	2.420	0.538
174.500	165.280	80.008	19.996	100.292	20.351	2.436	0.536
175.000	165.491	80.008	19.995	100.292	20.350	2.499	0.502
175.500	165.797	80.007	19.996	100.292	20.352	2.402	0.490
176.000	166.036	80.006	19.996	100.291	20.353	2.283	0.531
176.500	166.308	80.009	19.996	100.291	20.351	2.451	0.528
177.000	166.583	80.008	19.996	100.291	20.352	2.389	0.529
177.500	166.868	80.007	19.996	100.291	20.351	2.418	0.553
178.000	167.079	80.005	19.996	100.291	20.352	2.396	0.528
178.500	167.337	80.003	19.996	100.292	20.351	2.432	0.482
179.000	167.633	80.004	19.995	100.292	20.353	2.292	0.512
179.500	167.865	80.006	19.996	100.292	20.356	2.111	0.541
180.000	168.120	80.007	19.996	100.292	20.357	2.081	0.507
180.500	168.392	80.008	19.996	100.292	20.355	2.159	0.507
181.000	168.633	80.006	19.995	100.292	20.351	2.451	0.520
181.500	168.910	80.005	19.996	100.291	20.357	2.063	0.515
182.000	169.134	80.008	19.996	100.291	20.354	2.230	0.509
182.500	169.374	80.007	19.996	100.291	20.354	2.224	0.483
183.000	169.674	80.007	19.996	100.291	20.357	2.074	0.503
183.500	169.936	80.006	19.996	100.292	20.357	2.042	0.551
184.000	170.162	80.007	19.996	100.290	20.356	2.090	0.524
184.500	170.434	80.006	19.996	100.290	20.356	2.123	0.493
185.000	170.683	80.009	19.996	100.290	20.354	2.233	0.509
185.500	170.943	80.009	19.996	100.290	20.357	2.047	0.515
186.000	171.184	80.008	19.995	100.290	20.357	2.029	0.506
186.500	171.457	80.008	19.997	100.291	20.355	2.171	0.507
187.000	171.723	80.006	19.996	100.290	20.354	2.228	0.526
187.500	171.973	80.009	19.996	100.289	20.357	2.026	0.527
188.000	172.207	80.007	19.996	100.288	20.356	2.118	0.500
188.500	172.492	80.009	19.997	100.288	20.353	2.299	0.502
189.000	172.727	80.008	19.996	100.288	20.357	2.079	0.520
189.500	172.991	80.007	19.996	100.289	20.357	2.065	0.510
190.000	173.228	80.007	19.996	100.290	20.359	1.948	0.500
190.500	173.498	80.008	19.996	100.289	20.359	1.950	0.504
191.000	173.755	80.007	19.996	100.290	20.356	2.093	0.516
191.500	173.999	80.008	19.996	100.289	20.358	1.972	0.514
192.000	174.239	80.008	19.996	100.287	20.358	2.013	0.493
192.500	174.460	80.007	19.996	100.284	20.360	1.854	0.473
193.000	174.782	80.008	19.996	100.284	20.359	1.953	0.502
193.500	175.036	80.008	19.996	100.284	20.359	1.925	0.560
194.000	175.270	80.009	19.996	100.284	20.357	2.068	0.532
194.500	175.553	80.009	19.995	100.282	20.358	2.001	0.502
195.000	175.757	80.009	19.997	100.281	20.355	2.175	0.502
195.500	176.004	80.010	19.996	100.281	20.354	2.223	0.469
196.000	176.260	80.008	19.996	100.278	20.361	1.780	0.477
196.500	176.494	80.009	19.996	100.278	20.358	2.019	0.496
197.000	176.768	80.010	19.997	100.281	20.360	1.836	0.499
197.500	177.018	80.010	19.996	100.284	20.359	1.900	0.516
198.000	177.293	80.009	19.996	100.284	20.358	1.958	0.525
198.500	177.519	80.010	19.996	100.282	20.358	2.003	0.513
199.000	177.785	80.009	19.996	100.280	20.358	1.999	0.496
199.500	178.047	80.009	19.996	100.279	20.358	1.976	0.510
200.000	178.314	80.009	19.995	100.279	20.357	2.024	0.529
200.500	178.556	80.007	19.996	100.276	20.358	2.011	0.519
201.000	178.842	80.007	19.996	100.276	20.358	1.969	0.518
201.500	179.024	80.008	19.995	100.276	20.360	1.882	0.498
202.000	179.277	80.008	19.995	100.272	20.361	1.811	0.452
202.500	179.542	80.008	19.995	100.271	20.358	2.009	0.477
203.000	179.786	80.010	19.996	100.275	20.363	1.678	0.514
203.500	180.048	80.009	19.995	100.278	20.362	1.751	0.508
204.000	180.314	80.007	19.996	100.279	20.361	1.763	0.517
204.500	180.555	80.008	19.995	100.284	20.362	1.724	0.517
205.000	180.794	80.009	19.995	100.284	20.359	1.896	0.494
205.500	181.041	80.007	19.995	100.283	20.361	1.786	0.483
206.000	181.318	80.006	19.995	100.282	20.361	1.811	0.505
206.500	181.573	80.008	19.996	100.282	20.357	2.036	0.528
207.000	181.778	80.007	19.995	100.284	20.359	1.928	0.496
207.500	182.053	80.009	19.995	100.283	20.358	1.985	0.470
208.000	182.300	80.008	19.995	100.281	20.360	1.852	0.501
208.500	182.501	80.008	19.995	100.281	20.359	1.919	0.485
209.000	182.790	80.008	19.995	100.280	20.361	1.815	0.469
209.500	183.000	80.009	19.994	100.275	20.358	1.979	0.494
210.000	183.302	80.008	19.995	100.271	20.361	1.775	0.505
210.500	183.521	80.007	19.995	100.270	20.359	1.892	0.517
211.000	183.747	80.007	19.995	100.268	20.360	1.873	0.483
211.500	184.042	80.009	19.995	100.265	20.357	2.057	0.483
212.000	184.267	80.008	19.996	100.265	20.356	2.118	0.520
212.500	184.506	80.010	19.995	100.264	20.356	2.087	0.492
213.000	184.812	80.009	19.996	100.262	20.360	1.869	0.505
213.500	185.016	80.010	19.995	100.260	20.361	1.822	0.528
214.000	185.247	80.009	19.995	100.259	20.362	1.703	0.472
214.500	185.521	80.009	19.995	100.257	20.364	1.627	0.470
215.000	185.739	80.008	19.995	100.257	20.362	1.758	0.499
215.500	186.042	80.010	19.995	100.257	20.366	1.462	0.507
216.000	186.308	80.012	19.994	100.257	20.363	1.669	0.545
216.500	186.540	80.010	19.994	100.257	20.362	1.710	0.533
217.000	186.791	80.010	19.996	100.258	20.362	1.698	0.490
217.500	187.030	80.011	19.995	100.257	20.364	1.627	0.486
218.000	187.309	80.010	19.996	100.258	20.363	1.678	0.504
218.500	187.546	80.010	19.995	100.258	20.362	1.721	0.517
219.000	187.760	80.009	19.995	100.258	20.363	1.648	0.484
219.500	188.064	80.012	19.995	100.257	20.362	1.747	0.485
220.000	188.300	80.006	19.996	100.257	20.361	1.811	0.529
220.500	188.521	80.007	19.995	100.256	20.360	1.831	0.499
221.000	188.728	80.010	19.995	100.255	20.363	1.673	0.442
221.500	188.977	80.008	19.995	100.257	20.361	1.802	0.442
222.000	189.216	80.009	19.995	100.258	20.361	1.800	0.472
222.500	189.474	80.008	19.995	100.258	20.363	1.639	0.492
223.000	189.717	80.004	19.995	100.258	20.362	1.742	0.499
223.500	189.969	80.009	19.995	100.258	20.361	1.818	0.498
224.000	190.200	80.007	19.994	100.256	20.361	1.788	0.489
224.500	190.439	80.010	19.994	100.256	20.361	1.799	0.476
225.000	190.710	80.007	19.996	100.256	20.363	1.643	0.490
225.500	190.927	80.008	19.995	100.256	20.362	1.722	0.499
226.000	191.199	80.007	19.995	100.256	20.365	1.527	0.488
226.500	191.412	80.008	19.996	100.258	20.363	1.674	0.487
227.000	191.677	80.004	19.995	100.259	20.366	1.494	0.482
227.500	191.952	80.007	19.995	100.260	20.366	1.483	0.509
228.000	192.183	80.009	19.994	100.260	20.364	1.607	0.523
228.500	192.414	80.006	19.994	100.260	20.365	1.565	0.484
229.000	192.726	80.008	19.995	100.259	20.363	1.648	0.502
229.500	192.936	80.008	19.995	100.257	20.364	1.568	0.533
230.000	193.190	80.007	19.995	100.257	20.366	1.476	0.493
230.500	193.429	80.006	19.995	100.258	20.364	1.609	0.478
231.000	193.681	80.005	19.995	100.259	20.364	1.588	0.492
231.500	193.920	80.005	19.995	100.261	20.364	1.579	0.491
232.000	194.205	80.006	19.994	100.262	20.366	1.460	0.507
232.500	194.404	80.008	19.995	100.262	20.365	1.515	0.504
233.000	194.667	80.008	19.995	100.261	20.365	1.563	0.473
233.500	194.875	80.006	19.995	100.260	20.365	1.519	0.466
234.000	195.126	80.007	19.995	100.259	20.365	1.558	0.465
234.500	195.327	80.006	19.995	100.259	20.365	1.531	0.456
235.000	195.645	80.007	19.996	100.259	20.362	1.703	0.486
235.500	195.881	80.007	19.995	100.259	20.364	1.621	0.537
236.000	196.097	80.007	19.994	100.257	20.364	1.595	0.503
236.500	196.323	80.006	19.996	100.257	20.365	1.506	0.447
237.000	196.580	80.008	19.995	100.255	20.364	1.586	0.462
237.500	196.834	80.009	19.996	100.254	20.366	1.496	0.497
238.000	197.074	80.008	19.996	100.255	20.364	1.581	0.502
238.500	197.313	80.008	19.995	100.256	20.365	1.501	0.486
239.000	197.563	80.008	19.995	100.255	20.368	1.352	0.484
239.500	197.786	80.008	19.995	100.255	20.369	1.290	0.482
240.000	198.073	80.006	19.995	100.255	20.365	1.559	0.492
240.500	198.304	80.008	19.995	100.254	20.367	1.432	0.514
241.000	198.551	80.008	19.995	100.254	20.364	1.612	0.498
241.500	198.785	80.008	19.994	100.254	20.366	1.476	0.480
242.000	199.078	80.005	19.995	100.254	20.366	1.442	0.504
242.500	199.282	80.008	19.995	100.254	20.368	1.325	0.511
243.000	199.537	80.008	19.995	100.254	20.368	1.348	0.478
243.500	199.770	80.007	19.996	100.254	20.366	1.495	0.474
244.000	200.008	80.009	19.995	100.254	20.367	1.419	0.479
244.500	200.278	80.008	19.995	100.257	20.367	1.382	0.490
245.000	200.529	80.007	19.995	100.258	20.367	1.373	0.515
245.500	200.759	80.010	19.996	100.258	20.368	1.329	0.501
246.000	200.980	80.005	19.997	100.258	20.367	1.395	0.465
246.500	201.214	80.004	19.996	100.258	20.369	1.276	0.453
247.000	201.477	80.012	19.996	100.255	20.367	1.396	0.476
247.500	201.700	80.009	19.995	100.254	20.368	1.325	0.492
248.000	202.000	80.007	19.995	100.255	20.365	1.501	0.505
248.500	202.155	80.006	19.996	100.255	20.366	1.492	0.489
249.000	202.437	80.009	19.995	100.256	20.369	1.288	0.446
249.500	202.657	80.007	19.996	100.255	20.367	1.393	0.469
250.000	202.934	80.008	19.995	100.255	20.369	1.283	0.499
250.500	203.167	80.005	19.995	100.254	20.367	1.416	0.503
251.000	203.411	80.007	19.997	100.254	20.368	1.309	0.493
251.500	203.666	80.007	19.996	100.255	20.368	1.361	0.488
252.000	203.898	80.008	19.996	100.256	20.370	1.201	0.493
252.500	204.172	80.007	19.995	100.256	20.367	1.393	0.496
253.000	204.410	80.009	19.996	100.255	20.364	1.600	0.509
253.500	204.653	80.011	19.995	100.255	20.366	1.495	0.497
254.000	204.869	80.010	19.995	100.254	20.367	1.391	0.470
254.500	205.127	80.007	19.996	100.253	20.372	1.100	0.466
255.000	205.338	80.007	19.996	100.253	20.370	1.207	0.471
255.500	205.640	80.007	19.996	100.254	20.367	1.395	0.491
256.000	205.832	80.005	19.996	100.255	20.369	1.249	0.504
256.500	206.128	80.005	19.996	100.256	20.367	1.389	0.491
257.000	206.319	80.007	19.996	100.256	20.369	1.294	0.487
257.500	206.591	80.007	19.996	100.257	20.371	1.173	0.475
258.000	206.864	80.008	19.996	100.256	20.370	1.232	0.504
258.500	207.091	80.006	19.996	100.254	20.369	1.265	0.522
259.000	207.358	80.008	19.996	100.253	20.369	1.262	0.497
259.500	207.606	80.008	19.995	100.253	20.369	1.274	0.505
260.000	207.859	80.006	19.996	100.252	20.369	1.253	0.508
260.500	208.101	80.006	19.996	100.253	20.369	1.301	0.498
261.000	208.331	80.010	19.996	100.254	20.367	1.379	0.484
261.500	208.583	80.004	19.995	100.254	20.370	1.235	0.477
262.000	208.799	80.006	19.995	100.253	20.367	1.423	0.475
262.500	209.029	80.005	19.996	100.254	20.369	1.297	0.457
263.000	209.294	80.007	19.995	100.253	20.368	1.366	0.470
263.500	209.530	80.005	19.996	100.252	20.368	1.341	0.498
264.000	209.773	80.005	19.996	100.252	20.366	1.457	0.490
264.500	210.018	80.006	19.996	100.253	20.367	1.423	0.484
265.000	210.309	80.007	19.997	100.254	20.370	1.221	0.512
265.500	210.509	80.005	19.996	100.254	20.369	1.295	0.514
266.000	210.768	80.008	19.996	100.254	20.365	1.524	0.475
266.500	211.030	80.007	19.996	100.254	20.366	1.448	0.490
267.000	211.257	80.006	19.995	100.254	20.369	1.256	0.505
267.500	211.489	80.005	19.996	100.254	20.366	1.457	0.474
268.000	211.760	80.004	19.995	100.255	20.371	1.161	0.481
268.500	212.036	80.007	19.995	100.256	20.367	1.412	0.525
269.000	212.264	80.008	19.995	100.256	20.372	1.099	0.526
269.500	212.483	80.008	19.995	100.256	20.367	1.421	0.475
270.000	212.743	80.009	19.994	100.256	20.366	1.474	0.463
270.500	213.002	80.007	19.996	100.256	20.367	1.393	0.499
271.000	213.231	80.005	19.995	100.254	20.368	1.315	0.504
271.500	213.469	80.009	19.996	100.254	20.366	1.449	0.478
272.000	213.720	80.007	19.995	100.255	20.368	1.341	0.478
272.500	214.006	80.009	19.996	100.255	20.369	1.246	0.513
273.000	214.196	80.007	19.996	100.254	20.369	1.276	0.507
273.500	214.439	80.008	19.994	100.254	20.367	1.433	0.454
274.000	214.692	80.009	19.995	100.254	20.366	1.456	0.464
274.500	214.936	80.008	19.995	100.254	20.364	1.605	0.496
275.000	215.171	80.007	19.995	100.254	20.368	1.359	0.488
275.500	215.402	80.009	19.995	100.254	20.368	1.311	0.472
276.000	215.635	80.008	19.996	100.254	20.370	1.178	0.465
276.500	215.859	80.011	19.995	100.254	20.367	1.396	0.460
277.000	216.139	80.007	19.995	100.254	20.368	1.313	0.481
277.500	216.382	80.006	19.995	100.254	20.369	1.281	0.514
278.000	216.609	80.008	19.996	100.254	20.368	1.308	0.496
278.500	216.860	80.009	19.995	100.254	20.370	1.205	0.473
279.000	217.140	80.008	19.997	100.254	20.372	1.058	0.504
279.500	217.367	80.009	19.995	100.254	20.369	1.258	0.519
280.000	217.606	80.010	19.996	100.254	20.374	0.953	0.487
280.500	217.852	80.010	19.995	100.254	20.369	1.279	0.476
281.000	218.093	80.009	19.995	100.254	20.372	1.065	0.486
281.500	218.334	80.006	19.996	100.254	20.370	1.235	0.485
282.000	218.548	80.007	19.995	100.254	20.369	1.304	0.469
282.500	218.787	80.008	19.996	100.254	20.370	1.224	0.454
283.000	219.067	80.008	19.997	100.253	20.370	1.230	0.486
283.500	219.304	80.011	19.995	100.253	20.370	1.180	0.518
284.000	219.547	80.008	19.995	100.253	20.374	0.975	0.498
284.500	219.793	80.004	19.996	100.251	20.367	1.382	0.485
285.000	220.007	80.007	19.996	100.251	20.369	1.294	0.475
285.500	220.261	80.008	19.996	100.251	20.370	1.228	0.464
286.000	220.516	80.007	19.996	100.251	20.370	1.175	0.488
286.500	220.769	80.009	19.997	100.251	20.372	1.092	0.508
287.000	221.021	80.006	19.996	100.251	20.371	1.118	0.507
287.500	221.208	80.006	19.997	100.251	20.371	1.157	0.472
288.000	221.482	80.005	19.995	100.251	20.373	0.982	0.450
288.500	221.775	80.006	19.996	100.251	20.372	1.051	0.514
289.000	221.960	80.004	19.997	100.251	20.372	1.095	0.522
289.500	222.220	80.008	19.996	100.252	20.373	1.042	0.462
290.000	222.493	80.006	19.996	100.251	20.371	1.152	0.489
290.500	222.761	80.007	19.997	100.251	20.374	0.927	0.537
291.000	222.968	80.007	19.995	100.252	20.374	0.946	0.508
291.500	223.239	80.009	19.996	100.253	20.374	0.953	0.477
292.000	223.471	80.007	19.995	100.253	20.374	0.957	0.490
292.500	223.758	80.007	19.995	100.255	20.375	0.909	0.511
293.000	223.996	80.007	19.996	100.255	20.372	1.070	0.521
293.500	224.237	80.008	19.996	100.253	20.374	0.957	0.502
294.000	224.485	80.007	19.995	100.253	20.374	0.927	0.485
294.500	224.697	80.008	19.996	100.253	20.374	0.928	0.475
295.000	224.961	80.009	19.996	100.253	20.373	0.994	0.468
295.500	225.214	80.009	19.995	100.253	20.372	1.056	0.497
296.000	225.474	80.007	19.995	100.254	20.376	0.829	0.515
296.500	225.722	80.006	19.996	100.255	20.374	0.962	0.510
297.000	225.973	80.010	19.995	100.254	20.372	1.065	0.503
297.500	226.226	80.009	19.995	100.255	20.375	0.914	0.501
298.000	226.464	80.010	19.995	100.255	20.374	0.932	0.498
298.500	226.718	80.009	19.995	100.254	20.374	0.960	0.492
299.000	226.948	80.008	19.994	100.254	20.376	0.836	0.488
299.500	227.228	80.010	19.994	100.253	20.370	1.210	0.497
300.000	227.467	80.010	19.994	100.253	20.372	1.072	0.514
300.500	227.739	80.011	19.994	100.253	20.373	0.989	0.515
301.000	227.981	80.009	19.994	100.253	20.373	1.026	0.513
301.500	228.242	80.011	19.995	100.253	20.372	1.090	0.509
302.000	228.471	80.010	19.995	100.253	20.372	1.104	0.496
302.500	228.713	80.009	19.995	100.252	20.372	1.090	0.480
303.000	229.000	80.011	19.995	100.252	20.375	0.914	0.500
303.500	229.210	80.011	19.995	100.250	20.373	1.033	0.513
304.000	229.481	80.009	19.995	100.250	20.372	1.084	0.488
304.500	229.715	80.010	19.994	100.249	20.373	1.024	0.493
305.000	229.983	80.010	19.995	100.250	20.371	1.157	0.504
305.500	230.234	80.009	19.994	100.249	20.371	1.113	0.511
306.000	230.532	80.008	19.995	100.250	20.373	1.005	0.534
306.500	230.723	80.008	19.995	100.250	20.374	0.964	0.519
307.000	230.965	80.008	19.995	100.250	20.374	0.967	0.461
307.500	231.221	80.010	19.995	100.250	20.372	1.047	0.465
308.000	231.472	80.005	19.995	100.250	20.375	0.897	0.502
308.500	231.727	80.005	19.995	100.249	20.373	0.992	0.507
309.000	231.963	80.006	19.995	100.247	20.373	0.998	0.499
309.500	232.203	80.006	19.994	100.246	20.377	0.767	0.483
310.000	232.458	80.009	19.994	100.246	20.375	0.913	0.485
310.500	232.753	80.008	19.994	100.245	20.373	1.044	0.522
311.000	232.965	80.008	19.996	100.245	20.373	0.999	0.529
311.500	233.227	80.007	19.995	100.247	20.372	1.065	0.491
312.000	233.462	80.011	19.996	100.248	20.369	1.297	0.485
312.500	233.708	80.009	19.995	100.248	20.373	1.021	0.489
313.000	233.951	80.007	19.996	100.247	20.373	1.044	0.485
313.500	234.182	80.006	19.995	100.247	20.370	1.201	0.482
314.000	234.389	80.008	19.996	100.248	20.372	1.088	0.456
314.500	234.661	80.005	19.996	100.250	20.373	0.982	0.458
315.000	234.917	80.006	19.996	100.250	20.372	1.056	0.504
315.500	235.164	80.007	19.996	100.252	20.372	1.045	0.516
316.000	235.389	80.006	19.995	100.252	20.373	0.987	0.487
316.500	235.690	80.007	19.996	100.252	20.374	0.941	0.499
317.000	235.929	80.008	19.996	100.251	20.371	1.127	0.532
317.500	236.188	80.006	19.995	100.251	20.373	1.001	0.519
318.000	236.416	80.008	19.995	100.251	20.375	0.893	0.493
318.500	236.669	80.007	19.996	100.251	20.373	1.021	0.484
319.000	236.917	80.008	19.995	100.251	20.374	0.973	0.491
319.500	237.165	80.007	19.997	100.251	20.373	0.992	0.499
320.000	237.394	80.008	19.996	100.251	20.372	1.088	0.486
320.500	237.675	80.008	19.995	100.251	20.373	1.040	0.493
321.000	237.890	80.006	19.995	100.252	20.372	1.104	0.503
321.500	238.134	80.007	19.995	100.250	20.371	1.120	0.478
322.000	238.415	80.006	19.996	100.248	20.375	0.914	0.492
322.500	238.678	80.011	19.995	100.248	20.374	0.955	0.535
323.000	238.940	80.010	19.996	100.249	20.375	0.865	0.534
323.500	239.160	80.007	19.995	100.248	20.373	1.001	0.503
324.000	239.422	80.007	19.996	100.249	20.372	1.097	0.482
324.500	239.658	80.009	19.996	100.251	20.373	0.998	0.490
325.000	239.907	80.008	19.995	100.250	20.373	0.985	0.491
325.500	240.138	80.009	19.995	100.249	20.376	0.849	0.482
326.000	240.385	80.009	19.996	100.249	20.375	0.875	0.479
326.500	240.630	80.009	19.995	100.247	20.372	1.091	0.485
327.000	240.845	80.008	19.995	100.247	20.375	0.886	0.476
327.500	241.131	80.007	19.995	100.248	20.373	1.019	0.481
328.000	241.362	80.009	19.996	100.248	20.372	1.072	0.509
328.500	241.616	80.008	19.995	100.247	20.378	0.673	0.501
329.000	241.881	80.009	19.995	100.249	20.375	0.891	0.502
329.500	242.123	80.007	19.996	100.249	20.376	0.849	0.513
330.000	242.397	80.006	19.995	100.248	20.375	0.854	0.511
330.500	242.641	80.008	19.996	100.248	20.376	0.827	0.517
331.000	242.868	80.007	19.995	100.249	20.375	0.861	0.494
331.500	243.129	80.006	19.995	100.249	20.376	0.836	0.479
332.000	243.385	80.006	19.996	100.250	20.377	0.746	0.503
332.500	243.616	80.010	19.996	100.252	20.376	0.806	0.502
333.000	243.855	80.005	19.996	100.248	20.375	0.851	0.478
333.500	244.120	80.007	19.995	100.247	20.374	0.966	0.487
334.000	244.377	80.010	19.996	100.245	20.373	0.998	0.513
334.500	244.625	80.009	19.994	100.244	20.372	1.047	0.513
335.000	244.860	80.010	19.994	100.245	20.374	0.925	0.494
335.500	245.109	80.005	19.996	100.247	20.376	0.785	0.484
336.000	245.415	80.009	19.995	100.248	20.375	0.881	0.519
336.500	245.622	80.008	19.995	100.249	20.373	1.035	0.534
337.000	245.904	80.010	19.995	100.250	20.377	0.735	0.502
337.500	246.155	80.007	19.995	100.250	20.374	0.957	0.511
338.000	246.406	80.014	19.994	100.251	20.376	0.806	0.517
338.500	246.693	80.008	19.994	100.251	20.374	0.957	0.520
339.000	246.869	80.009	19.995	100.252	20.376	0.849	0.501
339.500	247.144	80.009	19.995	100.253	20.376	0.835	0.457
340.000	247.371	80.004	19.995	100.253	20.374	0.941	0.476
340.500	247.662	80.006	19.995	100.254	20.375	0.856	0.510
341.000	247.891	80.008	19.995	100.252	20.375	0.873	0.520
341.500	248.109	80.008	19.995	100.250	20.374	0.962	0.484
342.000	248.392	80.008	19.995	100.250	20.379	0.620	0.474
342.500	248.622	80.006	19.995	100.250	20.374	0.962	0.507
343.000	248.871	80.008	19.995	100.251	20.376	0.827	0.496
343.500	249.139	80.007	19.995	100.251	20.374	0.969	0.498
344.000	249.373	80.006	19.996	100.254	20.377	0.760	0.509
344.500	249.696	80.003	19.995	100.254	20.373	0.996	0.530
345.000	249.933	80.010	19.996	100.253	20.377	0.753	0.559
345.500	250.195	80.012	19.995	100.251	20.375	0.904	0.530
346.000	250.433	80.008	19.994	100.249	20.374	0.928	0.499
346.500	250.651	80.009	19.997	100.245	20.375	0.888	0.478
347.000	250.910	80.007	19.995	100.241	20.376	0.804	0.466
347.500	251.201	80.009	19.995	100.234	20.377	0.742	0.513
348.000	251.421	80.006	19.997	100.233	20.376	0.817	0.530
348.500	251.684	80.009	19.996	100.237	20.375	0.864	0.497
349.000	251.943	80.006	19.996	100.241	20.376	0.833	0.503
349.500	252.206	80.007	19.996	100.243	20.376	0.826	0.523
350.000	252.419	80.005	19.995	100.249	20.378	0.707	0.499
350.500	252.705	80.007	19.995	100.248	20.375	0.875	0.487
351.000	252.883	80.006	19.996	100.245	20.375	0.888	0.481
351.500	253.148	80.010	19.996	100.241	20.378	0.657	0.453
352.000	253.429	80.009	19.996	100.239	20.378	0.693	0.494
352.500	253.653	80.007	19.995	100.239	20.379	0.601	0.526
353.000	253.908	80.008	19.996	100.242	20.378	0.670	0.492
353.500	254.147	80.009	19.995	100.245	20.377	0.744	0.486
354.000	254.422	80.009	19.995	100.248	20.378	0.671	0.503
354.500	254.636	80.009	19.996	100.251	20.379	0.652	0.501
355.000	254.924	80.004	19.995	100.251	20.380	0.547	0.496
355.500	255.151	80.010	19.995	100.249	20.378	0.707	0.509
356.000	255.457	80.009	19.996	100.248	20.379	0.590	0.524
356.500	255.688	80.006	19.995	100.244	20.376	0.786	0.535
357.000	255.958	80.008	19.995	100.239	20.376	0.808	0.519
357.500	256.167	80.011	19.995	100.232	20.378	0.696	0.490
358.000	256.415	80.008	19.996	100.229	20.376	0.788	0.468
358.500	256.666	80.010	19.995	100.227	20.378	0.686	0.478
359.000	256.905	80.011	19.995	100.228	20.377	0.769	0.495
359.500	257.147	80.008	19.995	100.230	20.377	0.753	0.486
360.000	257.393	80.012	19.995	100.234	20.381	0.517	0.485
360.500	257.657	80.008	19.996	100.237	20.379	0.609	0.499
361.000	257.880	80.008	19.996	100.240	20.380	0.539	0.499
361.500	258.162	80.008	19.995	100.242	20.379	0.602	0.496
362.000	258.457	80.011	19.994	100.240	20.377	0.778	0.541
362.500	258.650	80.008	19.995	100.237	20.377	0.755	0.533
363.000	258.946	80.009	19.995	100.234	20.382	0.453	0.489
363.500	259.171	80.009	19.995	100.229	20.383	0.393	0.505
364.000	259.467	80.007	19.996	100.226	20.383	0.367	0.521
364.500	259.709	80.007	19.995	100.226	20.381	0.480	0.530
365.000	259.933	80.007	19.996	100.228	20.381	0.475	0.502
365.500	260.225	80.011	19.995	100.227	20.380	0.530	0.491
366.000	260.443	80.010	19.996	100.226	20.383	0.365	0.513
366.500	260.657	80.008	19.996	100.224	20.383	0.377	0.471
367.000	260.918	80.009	19.995	100.222	20.383	0.347	0.454
367.500	261.189	80.009	19.995	100.221	20.382	0.414	0.503
368.000	261.417	80.008	19.995	100.227	20.383	0.329	0.515
368.500	261.681	80.006	19.994	100.233	20.381	0.487	0.496
369.000	261.916	80.007	19.995	100.237	20.380	0.537	0.496
369.500	262.173	80.009	19.996	100.239	20.383	0.386	0.495
370.000	262.438	80.010	19.995	100.241	20.379	0.613	0.507
370.500	262.637	80.008	19.996	100.237	20.382	0.457	0.493
371.000	262.874	80.005	19.996	100.235	20.382	0.427	0.450
371.500	263.160	80.008	19.995	100.233	20.379	0.606	0.480
372.000	263.400	80.010	19.996	100.230	20.379	0.618	0.524
372.500	263.668	80.006	19.996	100.226	20.376	0.825	0.517
373.000	263.927	80.007	19.994	100.223	20.379	0.638	0.518
373.500	264.161	80.009	19.995	100.219	20.381	0.508	0.510
374.000	264.401	80.009	19.995	100.217	20.378	0.682	0.484
374.500	264.666	80.011	19.995	100.218	20.376	0.836	0.490
375.000	264.916	80.009	19.996	100.218	20.378	0.700	0.510
375.500	265.187	80.010	19.996	100.220	20.379	0.620	0.518
376.000	265.445	80.009	19.996	100.220	20.383	0.381	0.524
376.500	265.696	80.010	19.996	100.222	20.378	0.689	0.519
377.000	265.969	80.006	19.996	100.219	20.382	0.443	0.517
377.500	266.237	80.007	19.996	100.219	20.379	0.611	0.533
378.000	266.461	80.008	19.996	100.218	20.378	0.673	0.516
378.500	266.704	80.008	19.995	100.219	20.380	0.533	0.480
379.000	266.940	80.011	19.996	100.216	20.381	0.515	0.473
379.500	267.215	80.009	19.996	100.218	20.381	0.505	0.494
380.000	267.448	80.004	19.996	100.219	20.381	0.484	0.509
380.500	267.710	80.011	19.996	100.220	20.379	0.609	0.502
381.000	267.955	80.010	19.996	100.219	20.380	0.553	0.501
381.500	268.223	80.014	19.996	100.219	20.380	0.558	0.510
382.000	268.447	80.010	19.996	100.219	20.378	0.698	0.503
382.500	268.724	80.012	19.995	100.220	20.381	0.480	0.497
383.000	268.932	80.010	19.996	100.218	20.381	0.489	0.493
383.500	269.197	80.009	19.995	100.218	20.383	0.388	0.479
384.000	269.451	80.010	19.995	100.222	20.380	0.581	0.496
384.500	269.669	80.010	19.995	100.221	20.379	0.634	0.495
385.000	269.915	80.009	19.996	100.219	20.381	0.507	0.468
385.500	270.223	80.010	19.996	100.219	20.380	0.563	0.509
386.000	270.465	80.009	19.996	100.218	20.383	0.386	0.552
386.500	270.680	80.006	19.996	100.215	20.383	0.363	0.503
387.000	270.962	80.011	19.996	100.214	20.380	0.551	0.477
387.500	271.211	80.010	19.996	100.213	20.381	0.476	0.514
388.000	271.484	80.010	19.995	100.213	20.380	0.562	0.527
388.500	271.714	80.009	19.996	100.214	20.381	0.475	0.513
389.000	271.993	80.008	19.997	100.214	20.384	0.322	0.506
389.500	272.277	80.010	19.995	100.216	20.384	0.299	0.536
390.000	272.532	80.012	19.995	100.217	20.383	0.329	0.551
390.500	272.713	80.008	19.997	100.219	20.383	0.356	0.488
391.000	272.984	80.009	19.996	100.221	20.384	0.269	0.444
391.500	273.227	80.010	19.996	100.223	20.383	0.386	0.483
392.000	273.452	80.006	19.996	100.222	20.383	0.333	0.491
392.500	273.706	80.013	19.996	100.223	20.380	0.572	0.473
393.000	273.972	80.008	19.995	100.224	20.383	0.360	0.500
393.500	274.259	80.005	19.995	100.222	20.384	0.299	0.536
394.000	274.479	80.010	19.996	100.220	20.381	0.492	0.529
394.500	274.708	80.009	19.996	100.219	20.384	0.278	0.478
395.000	274.967	80.006	19.995	100.219	20.382	0.423	0.469
395.500	275.247	80.010	19.995	100.216	20.382	0.399	0.514
396.000	275.505	80.009	19.995	100.215	20.385	0.211	0.538
396.500	275.742	80.008	19.994	100.216	20.381	0.517	0.516
397.000	275.965	80.006	19.995	100.216	20.384	0.285	0.478
397.500	276.238	80.008	19.995	100.216	20.384	0.285	0.478
398.000	276.474	80.008	19.995	100.217	20.381	0.471	0.502
398.500	276.712	80.008	19.995	100.219	20.384	0.322	0.491
399.000	276.972	80.008	19.995	100.219	20.385	0.262	0.486
399.500	277.258	80.008	19.995	100.219	20.383	0.383	0.522
400.000	277.490	80.009	19.995	100.220	20.382	0.443	0.532
400.500	277.751	80.007	19.994	100.220	20.383	0.335	0.506
401.000	277.976	80.006	19.995	100.219	20.383	0.367	0.490
401.500	278.210	80.008	19.997	100.220	20.384	0.301	0.473
402.000	278.477	80.006	19.996	100.222	20.384	0.292	0.480
402.500	278.745	80.004	19.997	100.225	20.385	0.216	0.518
403.000	279.032	80.009	19.997	100.226	20.382	0.453	0.545
403.500	279.278	80.006	19.995	100.227	20.387	0.087	0.544
404.000	279.533	80.007	19.995	100.226	20.385	0.253	0.517
404.500	279.759	80.007	19.996	100.225	20.385	0.223	0.491
405.000	280.021	80.010	19.994	100.222	20.383	0.361	0.485
405.500	280.234	80.006	19.996	100.223	20.388	0.048	0.481
406.000	280.515	80.005	19.996	100.224	20.383	0.333	0.484
406.500	280.725	80.008	19.996	100.224	20.383	0.344	0.492
407.000	281.025	80.006	19.995	100.224	20.384	0.312	0.500
407.500	281.233	80.009	19.995	100.223	20.385	0.227	0.509
408.000	281.516	80.005	19.996	100.220	20.384	0.298	0.500
408.500	281.745	80.011	19.994	100.218	20.383	0.347	0.502
409.000	281.978	80.008	19.995	100.218	20.386	0.186	0.487
409.500	282.252	80.007	19.995	100.217	20.386	0.140	0.484
410.000	282.483	80.007	19.995	100.220	20.383	0.367	0.505
410.500	282.719	80.011	19.994	100.225	20.386	0.195	0.485
411.000	282.999	80.009	19.995	100.230	20.383	0.356	0.492
411.500	283.256	80.008	19.995	100.237	20.385	0.202	0.527
412.000	283.495	80.008	19.995	100.241	20.382	0.443	0.516
412.500	283.805	80.008	19.995	100.238	20.384	0.299	0.522
413.000	283.995	80.007	19.994	100.237	20.383	0.344	0.525
413.500	284.295	80.009	19.996	100.232	20.387	0.129	0.495
414.000	284.542	80.008	19.996	100.225	20.388	0.057	0.519
414.500	284.762	80.007	19.995	100.221	20.381	0.514	0.507
415.000	285.030	80.007	19.995	100.221	20.382	0.414	0.477
415.500	285.272	80.009	19.995	100.217	20.385	0.223	0.499
416.000	285.527	80.008	19.995	100.218	20.381	0.480	0.504
416.500	285.779	80.008	19.995	100.222	20.382	0.411	0.502
417.000	286.014	80.007	19.995	100.224	20.386	0.172	0.497
417.500	286.263	80.008	19.995	100.225	20.386	0.156	0.486
418.000	286.558	80.006	19.995	100.225	20.388	0.007	0.514
418.500	286.760	80.009	19.995	100.223	20.389	-0.004	0.520
419.000	287.034	80.006	19.996	100.219	20.385	0.221	0.486
419.500	287.284	80.005	19.995	100.217	20.384	0.308	0.500
420.000	287.568	80.008	19.995	100.216	20.390	-0.066	0.529
420.500	287.834	80.009	19.995	100.217	20.386	0.138	0.542
421.000	288.037	80.009	19.995	100.219	20.384	0.289	0.510
421.500	288.273	80.007	19.995	100.220	20.385	0.205	0.454
422.000	288.535	80.007	19.995	100.220	20.385	0.229	0.468
422.500	288.773	80.008	19.996	100.221	20.384	0.315	0.498
423.000	289.019	80.008	19.995	100.222	20.387	0.103	0.492
423.500	289.283	80.007	19.995	100.221	20.385	0.218	0.497
424.000	289.567	80.010	19.995	100.220	20.387	0.076	0.529
424.500	289.781	80.010	19.995	100.219	20.386	0.151	0.523
425.000	290.001	80.008	19.995	100.219	20.386	0.195	0.466
425.500	290.270	80.003	19.996	100.218	20.386	0.188	0.462
426.000	290.545	80.009	19.995	100.217	20.388	0.027	0.516
426.500	290.789	80.007	19.995	100.217	20.385	0.211	0.531
427.000	291.055	80.007	19.995	100.218	20.386	0.147	0.514
427.500	291.316	80.005	19.996	100.219	20.386	0.149	0.519
428.000	291.546	80.009	19.995	100.220	20.387	0.069	0.509
428.500	291.827	80.007	19.995	100.223	20.388	0.064	0.502
429.000	292.005	80.006	19.995	100.223	20.387	0.092	0.485
429.500	292.273	80.008	19.996	100.223	20.387	0.097	0.452
430.000	292.531	80.011	19.994	100.223	20.389	-0.041	0.486
430.500	292.768	80.010	19.995	100.222	20.386	0.174	0.511
431.000	293.101	80.011	19.994	100.219	20.387	0.099	0.533
431.500	293.307	80.006	19.995	100.218	20.386	0.156	0.554
432.000	293.607	80.004	19.995	100.219	20.387	0.073	0.522
432.500	293.843	80.008	19.995	100.220	20.389	-0.016	0.521
433.000	294.130	80.012	19.994	100.221	20.387	0.096	0.530
433.500	294.325	80.011	19.995	100.224	20.386	0.147	0.503
434.000	294.589	80.009	19.994	100.224	20.386	0.166	0.471
434.500	294.857	80.007	19.995	100.222	20.385	0.236	0.495
435.000	295.088	80.008	19.995	100.222	20.386	0.140	0.515
435.500	295.367	80.010	19.995	100.220	20.386	0.186	0.504
436.000	295.588	80.013	19.994	100.218	20.389	0.002	0.505
436.500	295.863	80.005	19.995	100.217	20.388	0.023	0.498
437.000	296.066	80.007	19.996	100.217	20.389	-0.012	0.487
437.500	296.362	80.010	19.994	100.217	20.384	0.273	0.489
438.000	296.569	80.011	19.995	100.216	20.384	0.308	0.501
438.500	296.843	80.008	19.995	100.215	20.384	0.287	0.492
439.000	297.080	80.012	19.995	100.215	20.382	0.413	0.496
439.500	297.351	80.010	19.995	100.215	20.389	-0.018	0.509
440.000	297.616	80.009	19.995	100.214	20.389	-0.035	0.522
440.500	297.850	80.009	19.994	100.214	20.386	0.154	0.518
441.000	298.097	80.011	19.995	100.214	20.386	0.168	0.490
441.500	298.389	80.015	19.995	100.214	20.388	0.037	0.509
442.000	298.604	80.007	19.996	100.214	20.385	0.221	0.523
442.500	298.866	80.008	19.995	100.214	20.385	0.252	0.492
443.000	299.106	80.009	19.994	100.214	20.386	0.147	0.490
443.500	299.337	80.007	19.995	100.214	20.388	0.021	0.486
444.000	299.605	80.009	19.995	100.214	20.390	-0.115	0.485
444.500	299.837	80.007	19.995	100.214	20.386	0.145	0.500
445.000	300.100	80.009	19.995	100.213	20.389	-0.002	0.497
445.500	300.356	80.004	19.995	100.212	20.386	0.198	0.507
446.000	300.616	80.009	19.995	100.213	20.387	0.101	0.518
446.500	300.841	80.007	19.995	100.213	20.385	0.241	0.501
447.000	301.110	80.009	19.995	100.213	20.385	0.236	0.489
447.500	301.363	80.010	19.997	100.213	20.389	-0.046	0.508
448.000	301.612	80.009	19.995	100.213	20.386	0.143	0.512
448.500	301.865	80.006	19.996	100.212	20.387	0.078	0.502
449.000	302.104	80.008	19.995	100.212	20.389	-0.037	0.497
449.500	302.359	80.007	19.996	100.212	20.388	0.057	0.493
450.000	302.574	80.006	19.996	100.212	20.388	0.012	0.482
450.500	302.859	80.007	19.995	100.212	20.388	0.037	0.485
451.000	303.122	80.007	19.995	100.212	20.389	0.004	0.524
451.500	303.397	80.006	19.996	100.213	20.389	-0.050	0.543
452.000	303.626	80.008	19.996	100.213	20.391	-0.161	0.521
452.500	303.858	80.005	19.996	100.214	20.390	-0.069	0.483
453.000	304.143	80.007	19.995	100.213	20.389	-0.005	0.489
453.500	304.358	80.008	19.996	100.214	20.392	-0.230	0.508
454.000	304.601	80.009	19.996	100.214	20.391	-0.179	0.479
454.500	304.828	80.007	19.996	100.214	20.389	0.002	0.464
455.000	305.078	80.009	19.996	100.214	20.390	-0.119	0.474
455.500	305.363	80.007	19.996	100.214	20.390	-0.099	0.506
456.000	305.578	80.005	19.996	100.213	20.388	0.030	0.517
456.500	305.885	80.009	19.996	100.213	20.384	0.328	0.511
457.000	306.107	80.007	19.995	100.212	20.389	-0.002	0.526
457.500	306.381	80.006	19.996	100.212	20.388	0.053	0.513
458.000	306.612	80.011	19.996	100.213	20.391	-0.184	0.501
458.500	306.896	80.012	19.995	100.214	20.391	-0.172	0.510
459.000	307.136	80.009	19.996	100.214	20.389	-0.002	0.519
459.500	307.368	80.012	19.995	100.214	20.387	0.076	0.498
460.000	307.636	80.007	19.997	100.214	20.388	0.032	0.485
460.500	307.855	80.011	19.996	100.213	20.390	-0.115	0.494
461.000	308.140	80.006	19.994	100.212	20.391	-0.128	0.496
461.500	308.362	80.011	19.996	100.212	20.390	-0.067	0.505
462.000	308.674	80.010	19.995	100.212	20.388	0.067	0.520
462.500	308.860	80.010	19.996	100.212	20.390	-0.066	0.516
463.000	309.163	80.012	19.995	100.212	20.389	-0.016	0.494
463.500	309.439	80.010	19.994	100.212	20.386	0.140	0.534
464.000	309.640	80.010	19.995	100.212	20.386	0.138	0.528
464.500	309.936	80.006	19.995	100.212	20.390	-0.062	0.487
465.000	310.159	80.008	19.996	100.212	20.386	0.135	0.508
465.500	310.443	80.011	19.995	100.213	20.388	0.027	0.513
466.000	310.664	80.010	19.995	100.213	20.388	0.019	0.506
466.500	310.937	80.015	19.995	100.212	20.389	-0.028	0.499
467.000	311.196	80.010	19.994	100.212	20.388	0.023	0.513
467.500	311.461	80.009	19.995	100.211	20.392	-0.243	0.528
468.000	311.709	80.009	19.996	100.210	20.388	0.058	0.518
468.500	311.962	80.011	19.995	100.210	20.392	-0.248	0.507
469.000	312.241	80.005	19.995	100.210	20.391	-0.142	0.516
469.500	312.475	80.011	19.995	100.210	20.389	-0.053	0.523
470.000	312.737	80.008	19.995	100.211	20.387	0.083	0.505
470.500	312.968	80.011	19.994	100.213	20.387	0.073	0.495
471.000	313.205	80.008	19.996	100.213	20.391	-0.131	0.481
471.500	313.469	80.006	19.995	100.213	20.389	-0.039	0.485
472.000	313.710	80.008	19.995	100.213	20.388	0.039	0.502
472.500	314.003	80.004	19.995	100.213	20.390	-0.085	0.519
473.000	314.255	80.006	19.996	100.213	20.389	-0.009	0.540
473.500	314.480	80.006	19.996	100.213	20.388	0.060	0.511
474.000	314.719	80.007	19.995	100.213	20.387	0.126	0.470
474.500	314.986	80.009	19.995	100.214	20.386	0.143	0.485
475.000	315.230	80.008	19.995	100.214	20.386	0.165	0.509
475.500	315.481	80.004	19.996	100.213	20.389	-0.043	0.503
476.000	315.713	80.003	19.996	100.214	20.387	0.089	0.489
476.500	315.983	80.004	19.996	100.215	20.388	0.060	0.493
477.000	316.229	80.009	19.996	100.215	20.385	0.234	0.510
477.500	316.475	80.009	19.996	100.215	20.387	0.128	0.504
478.000	316.689	80.005	19.996	100.214	20.388	0.051	0.476
478.500	316.980	80.008	19.995	100.215	20.388	0.016	0.482
479.000	317.223	80.007	19.996	100.214	20.387	0.099	0.519
479.500	317.443	80.006	19.996	100.214	20.387	0.069	0.498
480.000	317.713	80.006	19.996	100.213	20.389	-0.019	0.477
480.500	317.973	80.005	19.996	100.214	20.389	-0.007	0.510
481.000	318.242	80.010	19.996	100.214	20.389	-0.037	0.529
481.500	318.484	80.004	19.997	100.215	20.387	0.076	0.520
482.000	318.743	80.007	19.996	100.215	20.387	0.097	0.506
482.500	318.967	80.001	19.996	100.214	20.388	0.034	0.492
483.000	319.228	80.007	19.996	100.214	20.388	0.012	0.484
483.500	319.480	80.007	19.996	100.214	20.386	0.170	0.499
484.000	319.741	80.006	19.996	100.213	20.390	-0.074	0.513
484.500	319.984	80.006	19.995	100.211	20.387	0.115	0.509
485.000	320.241	80.007	19.996	100.212	20.387	0.094	0.502
485.500	320.469	80.007	19.995	100.212	20.387	0.094	0.493
486.000	320.743	80.004	19.996	100.212	20.388	0.053	0.494
486.500	320.977	80.007	19.996	100.213	20.384	0.317	0.505
487.000	321.232	80.006	19.996	100.214	20.387	0.131	0.499
487.500	321.512	80.005	19.997	100.213	20.385	0.220	0.512
488.000	321.716	80.008	19.996	100.213	20.387	0.087	0.509
488.500	321.964	80.006	19.997	100.214	20.387	0.080	0.468
489.000	322.242	80.006	19.996	100.214	20.389	-0.034	0.489
489.500	322.502	80.009	19.996	100.214	20.390	-0.124	0.531
490.000	322.738	80.007	19.996	100.215	20.389	-0.037	0.517
490.500	322.968	80.009	19.995	100.215	20.389	-0.002	0.481
491.000	323.193	80.006	19.996	100.215	20.388	0.060	0.461
491.500	323.454	80.006	19.996	100.215	20.390	-0.087	0.470
492.000	323.717	80.008	19.996	100.216	20.390	-0.122	0.505
492.500	323.975	80.008	19.995	100.215	20.389	-0.043	0.522
493.000	324.250	80.007	19.994	100.216	20.391	-0.135	0.527
493.500	324.484	80.009	19.996	100.215	20.390	-0.113	0.521
494.000	324.712	80.008	19.995	100.216	20.390	-0.071	0.485
494.500	324.971	80.007	19.995	100.215	20.388	0.016	0.475
495.000	325.259	80.006	19.995	100.215	20.389	-0.004	0.517
495.500	325.492	80.004	19.995	100.216	20.389	-0.044	0.534
496.000	325.726	80.011	19.996	100.217	20.389	-0.060	0.494
496.500	325.965	80.004	19.995	100.217	20.390	-0.122	0.470
497.000	326.227	80.007	19.995	100.218	20.389	0.002	0.487
497.500	326.479	80.007	19.994	100.217	20.391	-0.147	0.508
498.000	326.752	80.006	19.995	100.217	20.389	-0.002	0.520
498.500	326.944	80.008	19.995	100.217	20.391	-0.136	0.495
499.000	327.180	80.008	19.995	100.217	20.390	-0.073	0.446
499.500	327.435	80.007	19.994	100.216	20.391	-0.129	0.459
500.000	327.700	80.011	19.995	100.217	20.390	-0.062	0.505
500.500	327.934	80.009	19.995	100.217	20.388	0.012	0.509
501.000	328.204	80.007	19.995	100.216	20.389	-0.025	0.502
501.500	328.469	80.005	19.995	100.216	20.389	-0.057	0.520
502.000	328.698	80.006	19.996	100.214	20.389	-0.041	0.514
502.500	328.974	80.007	19.995	100.214	20.387	0.081	0.499
503.000	329.185	80.008	19.995	100.214	20.389	-0.035	0.496
503.500	329.483	80.009	19.995	100.214	20.389	-0.032	0.498
504.000	329.737	80.008	19.994	100.213	20.393	-0.266	0.530
504.500	329.991	80.007	19.995	100.214	20.391	-0.163	0.530
505.000	330.243	80.006	19.995	100.214	20.392	-0.204	0.507
505.500	330.484	80.005	19.995	100.214	20.391	-0.166	0.500
506.000	330.751	80.007	19.995	100.213	20.390	-0.090	0.501
506.500	330.968	80.006	19.995	100.214	20.389	0.002	0.496
507.000	331.272	80.009	19.996	100.214	20.389	-0.053	0.503
507.500	331.505	80.007	19.995	100.214	20.391	-0.135	0.529
508.000	331.741	80.006	19.995	100.214	20.391	-0.181	0.503
508.500	332.045	80.006	19.996	100.214	20.392	-0.218	0.504
509.000	332.287	80.009	19.995	100.214	20.392	-0.225	0.543
509.500	332.523	80.007	19.996	100.213	20.390	-0.110	0.512
510.000	332.793	80.010	19.995	100.211	20.392	-0.246	0.492
510.500	333.020	80.007	19.996	100.211	20.390	-0.073	0.501
511.000	333.294	80.007	19.995	100.210	20.389	-0.011	0.499
511.500	333.552	80.007	19.996	100.210	20.392	-0.218	0.517
512.000	333.806	80.005	19.995	100.211	20.393	-0.262	0.523
512.500	334.084	80.010	19.996	100.212	20.394	-0.338	0.522
513.000	334.306	80.007	19.995	100.211	20.392	-0.200	0.515
513.500	334.551	80.008	19.996	100.212	20.392	-0.230	0.483
514.000	334.834	80.011	19.995	100.212	20.392	-0.191	0.498
514.500	335.082	80.009	19.995	100.212	20.389	-0.041	0.530
515.000	335.313	80.010	19.995	100.212	20.388	0.066	0.505
515.500	335.536	80.007	19.996	100.212	20.389	-0.058	0.467
516.000	335.849	80.007	19.995	100.211	20.392	-0.236	0.495
516.500	336.075	80.008	19.995	100.211	20.393	-0.262	0.537
517.000	336.318	80.009	19.996	100.210	20.395	-0.388	0.504
517.500	336.555	80.008	19.995	100.211	20.392	-0.230	0.475
518.000	336.822	80.010	19.996	100.212	20.394	-0.363	0.492
518.500	337.069	80.009	19.995	100.211	20.391	-0.156	0.509
519.000	337.337	80.008	19.996	100.211	20.393	-0.294	0.514
519.500	337.614	80.007	19.995	100.211	20.393	-0.287	0.530
520.000	337.847	80.011	19.995	100.208	20.393	-0.305	0.528
520.500	338.082	80.010	19.995	100.207	20.391	-0.190	0.489
521.000	338.336	80.008	19.995	100.206	20.393	-0.319	0.479
521.500	338.588	80.010	19.995	100.206	20.392	-0.252	0.498
522.000	338.879	80.008	19.995	100.207	20.390	-0.103	0.524
522.500	339.099	80.010	19.995	100.209	20.392	-0.239	0.527
523.000	339.369	80.010	19.996	100.211	20.392	-0.253	0.501
523.500	339.608	80.009	19.996	100.212	20.393	-0.289	0.500
524.000	339.846	80.007	19.995	100.213	20.392	-0.209	0.493
524.500	340.078	80.009	19.995	100.213	20.393	-0.292	0.473
525.000	340.367	80.011	19.995	100.212	20.393	-0.296	0.496
525.500	340.597	80.011	19.995	100.211	20.392	-0.244	0.521
526.000	340.861	80.011	19.996	100.211	20.393	-0.278	0.506
526.500	341.151	80.012	19.996	100.211	20.394	-0.326	0.524
527.000	341.377	80.010	19.995	100.210	20.394	-0.326	0.535
527.500	341.617	80.008	19.996	100.210	20.390	-0.066	0.491
528.000	341.848	80.010	19.995	100.210	20.391	-0.182	0.469
528.500	342.082	80.012	19.995	100.210	20.393	-0.310	0.468
529.000	342.353	80.009	19.994	100.209	20.393	-0.290	0.485
529.500	342.603	80.008	19.995	100.210	20.391	-0.140	0.513
530.000	342.847	80.009	19.994	100.210	20.391	-0.128	0.508
530.500	343.104	80.010	19.994	100.211	20.393	-0.260	0.498
531.000	343.368	80.006	19.996	100.211	20.393	-0.278	0.511
531.500	343.607	80.009	19.994	100.212	20.394	-0.365	0.511
532.000	343.858	80.008	19.995	100.212	20.392	-0.248	0.496
532.500	344.119	80.008	19.996	100.213	20.392	-0.241	0.501
533.000	344.374	80.009	19.996	100.212	20.391	-0.179	0.514
533.500	344.635	80.012	19.995	100.213	20.392	-0.244	0.516
534.000	344.852	80.011	19.995	100.213	20.393	-0.303	0.497
534.500	345.121	80.010	19.995	100.213	20.392	-0.207	0.483
535.000	345.383	80.008	19.994	100.213	20.393	-0.308	0.509
535.500	345.639	80.005	19.995	100.213	20.391	-0.143	0.524
536.000	345.861	80.007	19.994	100.213	20.394	-0.340	0.498
536.500	346.136	80.009	19.994	100.214	20.392	-0.193	0.488
537.000	346.358	80.010	19.995	100.214	20.392	-0.250	0.498
537.500	346.619	80.007	19.995	100.214	20.392	-0.237	0.490
538.000	346.861	80.008	19.994	100.211	20.394	-0.358	0.493
538.500	347.129	80.008	19.995	100.207	20.393	-0.269	0.507
539.000	347.366	80.009	19.995	100.204	20.394	-0.335	0.507
539.500	347.638	80.009	19.995	100.201	20.392	-0.221	0.507
540.000	347.854	80.012	19.995	100.199	20.393	-0.264	0.499
540.500	348.152	80.006	19.994	100.203	20.393	-0.273	0.501
541.000	348.356	80.009	19.995	100.207	20.392	-0.251	0.508
541.500	348.618	80.010	19.994	100.209	20.395	-0.391	0.484
542.000	348.849	80.010	19.995	100.210	20.396	-0.487	0.480
542.500	349.149	80.009	19.995	100.210	20.394	-0.328	0.512
543.000	349.357	80.010	19.994	100.210	20.393	-0.296	0.520
543.500	349.610	80.011	19.995	100.207	20.392	-0.228	0.484
544.000	349.886	80.009	19.994	100.207	20.393	-0.259	0.495
544.500	350.147	80.013	19.994	100.208	20.392	-0.236	0.533
545.000	350.372	80.009	19.994	100.207	20.392	-0.239	0.512
545.500	350.648	80.009	19.994	100.206	20.393	-0.303	0.494
546.000	350.894	80.010	19.994	100.209	20.394	-0.328	0.511
546.500	351.145	80.012	19.995	100.209	20.386	0.143	0.510
547.000	351.393	80.011	19.995	100.211	20.387	0.101	0.498
547.500	351.668	80.010	19.995	100.212	20.389	0.002	0.511
548.000	351.898	80.010	19.995	100.213	20.391	-0.140	0.514
548.500	352.163	80.011	19.996	100.212	20.388	0.009	0.500
549.000	352.436	80.012	19.995	100.211	20.389	-0.039	0.516
549.500	352.687	80.010	19.995	100.208	20.390	-0.073	0.530
550.000	352.952	80.013	19.995	100.206	20.388	0.057	0.520
550.500	353.147	80.012	19.995	100.206	20.392	-0.246	0.488
551.000	353.429	80.012	19.995	100.205	20.391	-0.131	0.469
551.500	353.717	80.013	19.995	100.202	20.388	0.034	0.524
552.000	353.966	80.010	19.995	100.203	20.390	-0.120	0.554
552.500	354.149	80.010	19.995	100.203	20.391	-0.177	0.484
553.000	354.448	80.010	19.995	100.204	20.393	-0.290	0.457
553.500	354.696	80.008	19.996	100.201	20.391	-0.170	0.515
554.000	354.928	80.009	19.995	100.201	20.392	-0.248	0.514
554.500	355.213	80.008	19.996	100.200	20.391	-0.172	0.498
555.000	355.458	80.011	19.996	100.201	20.395	-0.393	0.523
555.500	355.700	80.009	19.996	100.202	20.391	-0.170	0.509
556.000	355.964	80.009	19.995	100.205	20.392	-0.228	0.497
556.500	356.209	80.006	19.995	100.208	20.394	-0.328	0.507
557.000	356.425	80.006	19.995	100.208	20.392	-0.251	0.485
557.500	356.696	80.006	19.995	100.205	20.391	-0.174	0.474
558.000	356.918	80.008	19.995	100.202	20.392	-0.198	0.490
558.500	357.226	80.006	19.995	100.202	20.396	-0.492	0.511
559.000	357.435	80.007	19.994	100.202	20.392	-0.228	0.524
559.500	357.702	80.007	19.995	100.205	20.392	-0.216	0.497
560.000	357.973	80.006	19.995	100.207	20.392	-0.255	0.507
560.500	358.182	80.006	19.995	100.209	20.391	-0.188	0.508
561.000	358.433	80.007	19.996	100.208	20.393	-0.301	0.469
561.500	358.722	80.009	19.994	100.209	20.394	-0.338	0.500
562.000	358.936	80.005	19.995	100.209	20.395	-0.425	0.522
562.500	359.223	80.006	19.996	100.206	20.392	-0.209	0.502
563.000	359.453	80.007	19.994	100.206	20.392	-0.250	0.510
563.500	359.699	80.006	19.995	100.206	20.393	-0.306	0.497
564.000	359.975	80.007	19.995	100.205	20.393	-0.315	0.499
564.500	360.203	80.006	19.995	100.205	20.393	-0.313	0.513
565.000	360.452	80.006	19.995	100.208	20.393	-0.285	0.490
565.500	360.701	80.007	19.995	100.207	20.393	-0.267	0.487
566.000	360.951	80.008	19.995	100.206	20.393	-0.278	0.499
566.500	361.223	80.007	19.995	100.206	20.394	-0.324	0.510
567.000	361.485	80.007	19.996	100.203	20.392	-0.213	0.528
567.500	361.721	80.007	19.996	100.203	20.392	-0.191	0.516
568.000	361.955	80.005	19.995	100.206	20.394	-0.352	0.484
568.500	362.241	80.008	19.995	100.209	20.390	-0.096	0.495
569.000	362.504	80.006	19.995	100.209	20.393	-0.264	0.534
569.500	362.719	80.005	19.996	100.212	20.393	-0.276	0.513
570.000	362.979	80.006	19.996	100.212	20.391	-0.161	0.476
570.500	363.237	80.008	19.995	100.210	20.396	-0.462	0.497
571.000	363.471	80.008	19.995	100.210	20.393	-0.260	0.505
571.500	363.752	80.007	19.995	100.209	20.395	-0.436	0.503
572.000	363.994	80.008	19.995	100.207	20.392	-0.250	0.519
572.500	364.260	80.005	19.996	100.207	20.392	-0.227	0.515
573.000	364.485	80.007	19.995	100.205	20.393	-0.313	0.499
573.500	364.712	80.006	19.996	100.203	20.391	-0.172	0.472
574.000	364.987	80.007	19.997	100.203	20.392	-0.243	0.477
574.500	365.223	80.008	19.996	100.205	20.393	-0.289	0.506
575.000	365.478	80.008	19.996	100.207	20.393	-0.315	0.501
575.500	365.793	80.007	19.996	100.208	20.393	-0.298	0.531
576.000	366.020	80.009	19.995	100.208	20.392	-0.213	0.556
576.500	366.239	80.007	19.995	100.205	20.391	-0.143	0.494
577.000	366.500	80.007	19.996	100.202	20.389	-0.043	0.463
577.500	366.762	80.007	19.996	100.200	20.391	-0.161	0.501
578.000	366.996	80.006	19.996	100.202	20.390	-0.092	0.510
578.500	367.261	80.006	19.995	100.203	20.390	-0.094	0.498
579.000	367.496	80.008	19.996	100.206	20.389	-0.060	0.499
579.500	367.783	80.007	19.996	100.208	20.389	-0.016	0.511
580.000	367.991	80.008	19.996	100.207	20.390	-0.087	0.509
580.500	368.245	80.007	19.996	100.205	20.386	0.136	0.479
581.000	368.489	80.006	19.996	100.204	20.390	-0.124	0.480
581.500	368.745	80.009	19.996	100.201	20.392	-0.234	0.499
582.000	368.995	80.006	19.995	100.202	20.390	-0.108	0.503
582.500	369.240	80.007	19.997	100.205	20.390	-0.074	0.500
583.000	369.509	80.007	19.997	100.206	20.394	-0.340	0.505
583.500	369.770	80.010	19.996	100.207	20.394	-0.342	0.522
584.000	370.019	80.006	19.997	100.209	20.394	-0.344	0.520
584.500	370.261	80.008	19.996	100.209	20.392	-0.207	0.500
585.000	370.531	80.007	19.995	100.207	20.392	-0.244	0.501
585.500	370.755	80.006	19.995	100.205	20.393	-0.292	0.503
586.000	371.008	80.008	19.996	100.204	20.392	-0.218	0.486
586.500	371.276	80.008	19.997	100.201	20.391	-0.128	0.499
587.000	371.538	80.007	19.996	100.197	20.392	-0.198	0.525
587.500	371.774	80.007	19.996	100.198	20.395	-0.400	0.515
588.000	372.039	80.008	19.996	100.201	20.392	-0.204	0.499
588.500	372.312	80.006	19.996	100.201	20.396	-0.469	0.519
589.000	372.525	80.008	19.997	100.203	20.391	-0.159	0.512
589.500	372.803	80.008	19.996	100.206	20.393	-0.299	0.489
590.000	373.053	80.005	19.996	100.207	20.391	-0.175	0.509
590.500	373.284	80.002	19.996	100.206	20.390	-0.096	0.504
591.000	373.516	80.004	19.996	100.208	20.391	-0.184	0.472
591.500	373.812	80.007	19.995	100.209	20.392	-0.204	0.495
592.000	374.018	80.004	19.996	100.208	20.392	-0.223	0.515
592.500	374.264	80.008	19.995	100.209	20.392	-0.213	0.477
593.000	374.565	80.003	19.995	100.210	20.391	-0.138	0.500
593.500	374.793	80.006	19.996	100.209	20.393	-0.273	0.538
594.000	375.055	80.008	19.995	100.209	20.397	-0.531	0.509
594.500	375.284	80.011	19.995	100.210	20.396	-0.503	0.491
595.000	375.546	80.006	19.995	100.207	20.395	-0.423	0.491
595.500	375.794	80.003	19.996	100.206	20.395	-0.407	0.501
596.000	376.077	80.006	19.995	100.205	20.393	-0.282	0.520
596.500	376.313	80.009	19.995	100.205	20.396	-0.478	0.525
597.000	376.587	80.008	19.995	100.205	20.396	-0.498	0.515
597.500	376.857	80.008	19.995	100.207	20.395	-0.386	0.527
598.000	377.091	80.005	19.995	100.209	20.394	-0.367	0.524
598.500	377.316	80.009	19.995	100.210	20.393	-0.262	0.482
599.000	377.562	80.010	19.995	100.211	20.393	-0.313	0.465
599.500	377.833	80.007	19.995	100.212	20.394	-0.377	0.494
600.000	378.068	80.008	19.995	100.212	20.394	-0.384	0.512
600.500	378.325	80.011	19.995	100.212	20.393	-0.282	0.499
601.000	378.570	80.008	19.995	100.212	20.396	-0.491	0.497
601.500	378.840	80.008	19.995	100.211	20.394	-0.363	0.508
602.000	379.073	80.011	19.995	100.211	20.395	-0.416	0.509
602.500	379.335	80.008	19.995	100.211	20.395	-0.422	0.499
603.000	379.572	80.010	19.994	100.209	20.397	-0.519	0.497
603.500	379.835	80.010	19.995	100.209	20.397	-0.553	0.500
604.000	380.095	80.006	19.995	100.210	20.395	-0.416	0.512
604.500	380.318	80.008	19.994	100.209	20.396	-0.503	0.503
605.000	380.570	80.007	19.995	100.209	20.396	-0.457	0.479
605.500	380.846	80.010	19.995	100.211	20.396	-0.459	0.501
606.000	381.111	80.011	19.994	100.210	20.395	-0.397	0.534
606.500	381.353	80.008	19.994	100.208	20.395	-0.388	0.524
607.000	381.589	80.006	19.994	100.206	20.395	-0.434	0.493
607.500	381.885	80.008	19.995	100.206	20.395	-0.402	0.505
608.000	382.123	80.009	19.995	100.205	20.399	-0.671	0.533
608.500	382.364	80.007	19.995	100.204	20.394	-0.340	0.507
609.000	382.632	80.009	19.995	100.205	20.392	-0.255	0.494
609.500	382.914	80.008	19.995	100.208	20.396	-0.507	0.529
610.000	383.152	80.009	19.995	100.210	20.396	-0.453	0.534
610.500	383.421	80.007	19.995	100.210	20.393	-0.262	0.513
611.000	383.687	80.012	19.995	100.209	20.395	-0.404	0.521
611.500	383.919	80.009	19.995	100.206	20.395	-0.407	0.517
612.000	384.152	80.009	19.995	100.206	20.395	-0.406	0.482
612.500	384.423	80.010	19.995	100.205	20.395	-0.407	0.485
613.000	384.649	80.008	19.995	100.203	20.396	-0.459	0.500
613.500	384.897	80.009	19.995	100.204	20.394	-0.333	0.486
614.000	385.186	80.007	19.995	100.208	20.395	-0.420	0.506
614.500	385.395	80.007	19.995	100.208	20.396	-0.455	0.518
615.000	385.635	80.009	19.994	100.211	20.398	-0.606	0.474
615.500	385.921	80.007	19.996	100.214	20.397	-0.531	0.488
616.000	386.173	80.008	19.995	100.215	20.394	-0.349	0.532
616.500	386.389	80.009	19.995	100.215	20.392	-0.239	0.503
617.000	386.696	80.008	19.995	100.215	20.393	-0.296	0.495
617.500	386.933	80.011	19.995	100.215	20.397	-0.553	0.534
618.000	387.161	80.007	19.996	100.215	20.394	-0.360	0.505
618.500	387.438	80.009	19.994	100.214	20.395	-0.390	0.485
619.000	387.700	80.009	19.995	100.214	20.393	-0.317	0.522
619.500	387.924	80.007	19.996	100.212	20.392	-0.191	0.512
620.000	388.198	80.009	19.995	100.212	20.395	-0.393	0.492
620.500	388.451	80.008	19.995	100.212	20.394	-0.374	0.513
621.000	388.702	80.007	19.995	100.210	20.392	-0.244	0.516
621.500	388.958	80.007	19.994	100.208	20.393	-0.280	0.505
622.000	389.227	80.006	19.995	100.207	20.394	-0.358	0.516
622.500	389.457	80.009	19.994	100.201	20.393	-0.289	0.512
623.000	389.691	80.011	19.995	100.199	20.393	-0.271	0.482
623.500	389.959	80.009	19.994	100.199	20.396	-0.461	0.483
624.000	390.229	80.009	19.995	100.198	20.397	-0.528	0.519
624.500	390.440	80.008	19.994	100.195	20.397	-0.530	0.509
625.000	390.694	80.010	19.994	100.197	20.397	-0.540	0.473
625.500	390.924	80.009	19.994	100.196	20.394	-0.342	0.475
626.000	391.207	80.009	19.994	100.198	20.392	-0.230	0.498
626.500	391.490	80.008	19.994	100.203	20.393	-0.273	0.540
627.000	391.741	80.011	19.995	100.208	20.396	-0.471	0.550
627.500	392.012	80.010	19.994	100.211	20.394	-0.354	0.528
628.000	392.241	80.010	19.994	100.215	20.395	-0.386	0.511
628.500	392.509	80.011	19.993	100.216	20.390	-0.113	0.499
629.000	392.732	80.010	19.994	100.213	20.390	-0.122	0.494
629.500	393.008	80.012	19.994	100.212	20.390	-0.104	0.495
630.000	393.259	80.011	19.994	100.210	20.391	-0.135	0.513
630.500	393.524	80.010	19.993	100.208	20.392	-0.241	0.522
631.000	393.758	80.010	19.994	100.206	20.391	-0.166	0.508
631.500	394.028	80.009	19.994	100.209	20.393	-0.303	0.501
632.000	394.283	80.011	19.994	100.210	20.393	-0.294	0.514
632.500	394.529	80.009	19.994	100.211	20.393	-0.267	0.513
633.000	394.770	80.010	19.994	100.213	20.392	-0.232	0.494
633.500	395.026	80.010	19.995	100.214	20.392	-0.216	0.492
634.000	395.283	80.012	19.994	100.213	20.389	-0.060	0.504
634.500	395.502	80.011	19.994	100.210	20.393	-0.287	0.494
635.000	395.786	80.008	19.995	100.207	20.391	-0.177	0.490
635.500	396.038	80.011	19.994	100.204	20.390	-0.067	0.520
636.000	396.330	80.010	19.994	100.202	20.388	0.005	0.540
636.500	396.574	80.009	19.995	100.203	20.391	-0.135	0.539
637.000	396.818	80.010	19.994	100.204	20.390	-0.120	0.512
637.500	397.089	80.010	19.995	100.206	20.387	0.129	0.502
638.000	397.299	80.008	19.995	100.209	20.391	-0.140	0.498
638.500	397.564	80.010	19.994	100.211	20.389	-0.044	0.478
639.000	397.805	80.008	19.995	100.211	20.390	-0.076	0.491
639.500	398.069	80.009	19.994	100.212	20.389	-0.053	0.506
640.000	398.299	80.008	19.995	100.212	20.385	0.227	0.499
640.500	398.555	80.006	19.995	100.211	20.387	0.106	0.490
641.000	398.844	80.007	19.993	100.208	20.386	0.184	0.515
641.500	399.100	80.007	19.996	100.205	20.389	-0.041	0.545
642.000	399.321	80.007	19.994	100.204	20.388	0.051	0.511
642.500	399.558	80.005	19.996	100.204	20.382	0.422	0.468
643.000	399.805	80.010	19.996	100.204	20.382	0.400	0.471
643.500	400.048	80.008	19.995	100.206	20.383	0.351	0.487
644.000	400.319	80.007	19.995	100.209	20.383	0.338	0.502
644.500	400.577	80.008	19.995	100.210	20.382	0.432	0.522
645.000	400.805	80.007	19.996	100.210	20.384	0.312	0.507
645.500	401.057	80.008	19.995	100.210	20.381	0.494	0.483
646.000	401.313	80.007	19.995	100.211	20.381	0.510	0.494
646.500	401.575	80.010	19.996	100.211	20.383	0.347	0.513
647.000	401.830	80.009	19.996	100.212	20.382	0.423	0.517
647.500	402.088	80.005	19.996	100.213	20.382	0.406	0.515
648.000	402.342	80.007	19.997	100.209	20.381	0.503	0.513
648.500	402.556	80.008	19.996	100.207	20.380	0.565	0.490
649.000	402.828	80.009	19.996	100.207	20.380	0.554	0.477
649.500	403.066	80.010	19.995	100.207	20.380	0.567	0.498
650.000	403.353	80.009	19.997	100.206	20.379	0.650	0.517
650.500	403.600	80.008	19.996	100.209	20.378	0.655	0.529
651.000	403.845	80.008	19.996	100.210	20.380	0.546	0.513
651.500	404.095	80.008	19.996	100.209	20.380	0.583	0.494
652.000	404.335	80.008	19.996	100.209	20.378	0.661	0.492
652.500	404.552	80.009	19.995	100.208	20.377	0.767	0.474
653.000	404.851	80.008	19.996	100.207	20.377	0.774	0.487
653.500	405.050	80.007	19.996	100.207	20.379	0.609	0.507
654.000	405.301	80.009	19.996	100.206	20.379	0.613	0.473
654.500	405.599	80.008	19.995	100.206	20.377	0.746	0.499
655.000	405.804	80.009	19.995	100.207	20.375	0.878	0.526
655.500	406.091	80.010	19.995	100.209	20.375	0.864	0.498
656.000	406.320	80.008	19.996	100.209	20.375	0.855	0.504
656.500	406.569	80.008	19.996	100.210	20.372	1.045	0.497
657.000	406.827	80.009	19.994	100.211	20.371	1.111	0.493
657.500	407.052	80.008	19.996	100.211	20.373	1.015	0.495
658.000	407.314	80.009	19.996	100.211	20.375	0.887	0.485
658.500	407.592	80.008	19.995	100.212	20.370	1.196	0.513
659.000	407.836	80.011	19.996	100.211	20.373	1.022	0.531
659.500	408.071	80.007	19.996	100.209	20.371	1.111	0.500
660.000	408.324	80.009	19.995	100.209	20.372	1.061	0.483
660.500	408.569	80.008	19.996	100.209	20.374	0.935	0.493
661.000	408.810	80.009	19.995	100.209	20.372	1.086	0.492
661.500	409.047	80.009	19.996	100.210	20.371	1.126	0.482
662.000	409.288	80.010	19.995	100.211	20.370	1.219	0.479
662.500	409.575	80.011	19.995	100.211	20.371	1.137	0.503
663.000	409.804	80.008	19.995	100.211	20.370	1.206	0.522
663.500	410.034	80.010	19.995	100.210	20.367	1.405	0.488
664.000	410.334	80.009	19.995	100.209	20.370	1.176	0.494
664.500	410.575	80.010	19.995	100.210	20.367	1.398	0.535
665.000	410.823	80.008	19.996	100.210	20.368	1.332	0.515
665.500	411.034	80.007	19.996	100.209	20.366	1.463	0.474
666.000	411.319	80.006	19.995	100.207	20.369	1.298	0.478
666.500	411.573	80.005	19.995	100.209	20.367	1.398	0.518
667.000	411.792	80.007	19.996	100.209	20.369	1.298	0.506
667.500	412.052	80.007	19.995	100.210	20.364	1.585	0.476
668.000	412.281	80.007	19.996	100.211	20.367	1.399	0.484
668.500	412.569	80.008	19.995	100.213	20.364	1.607	0.503
669.000	412.797	80.007	19.996	100.213	20.362	1.736	0.517
669.500	413.076	80.006	19.996	100.213	20.364	1.587	0.512
670.000	413.320	80.008	19.995	100.212	20.362	1.718	0.515
670.500	413.566	80.005	19.995	100.212	20.362	1.695	0.506
671.000	413.808	80.006	19.995	100.214	20.358	1.955	0.489
671.500	414.023	80.007	19.996	100.213	20.359	1.929	0.472
672.000	414.257	80.007	19.996	100.214	20.359	1.915	0.453
672.500	414.516	80.006	19.996	100.214	20.359	1.920	0.471
673.000	414.759	80.006	19.996	100.215	20.354	2.241	0.497
673.500	415.031	80.006	19.995	100.215	20.354	2.264	0.508
674.000	415.257	80.008	19.997	100.215	20.353	2.283	0.507
674.500	415.519	80.008	19.995	100.216	20.351	2.423	0.493
675.000	415.772	80.008	19.996	100.217	20.355	2.198	0.501
675.500	416.022	80.007	19.995	100.216	20.353	2.306	0.509
676.000	416.245	80.007	19.996	100.217	20.353	2.320	0.488
676.500	416.538	80.008	19.995	100.216	20.349	2.554	0.494
677.000	416.781	80.006	19.996	100.216	20.346	2.740	0.526
677.500	417.004	80.004	19.997	100.215	20.349	2.598	0.501
678.000	417.279	80.004	19.996	100.216	20.349	2.597	0.482
678.500	417.524	80.007	19.996	100.216	20.347	2.698	0.509
679.000	417.784	80.006	19.996	100.216	20.348	2.662	0.512
679.500	418.050	80.007	19.996	100.216	20.346	2.758	0.516
680.000	418.305	80.006	19.996	100.216	20.345	2.800	0.524
680.500	418.577	80.006	19.997	100.216	20.343	2.954	0.524
681.000	418.792	80.005	19.997	100.216	20.342	3.048	0.506
681.500	419.034	80.006	19.996	100.216	20.341	3.080	0.472
682.000	419.304	80.007	19.996	100.215	20.341	3.112	0.485
682.500	419.544	80.007	19.996	100.216	20.341	3.121	0.511
683.000	419.809	80.010	19.996	100.215	20.340	3.152	0.508
683.500	420.052	80.006	19.997	100.215	20.339	3.194	0.506
684.000	420.296	80.008	19.997	100.214	20.331	3.732	0.498
684.500	420.554	80.007	19.996	100.214	20.332	3.709	0.495
685.000	420.807	80.010	19.996	100.214	20.328	3.936	0.506
685.500	421.069	80.010	19.997	100.214	20.328	3.957	0.513
686.000	421.295	80.008	19.996	100.215	20.326	4.062	0.502
686.500	421.522	80.012	19.996	100.215	20.326	4.076	0.470
687.000	421.774	80.008	19.996	100.216	20.320	4.482	0.466
687.500	422.052	80.011	19.995	100.216	20.315	4.780	0.504
688.000	422.244	80.007	19.995	100.216	20.316	4.727	0.500
688.500	422.539	80.008	19.996	100.216	20.313	4.888	0.478
689.000	422.773	80.010	19.996	100.216	20.311	5.063	0.508
689.500	423.043	80.009	19.996	100.215	20.306	5.380	0.517
690.000	423.306	80.010	19.995	100.215	20.304	5.517	0.519
690.500	423.533	80.006	19.996	100.215	20.300	5.754	0.511
691.000	423.802	80.011	19.995	100.214	20.298	5.891	0.493
691.500	424.051	80.008	19.996	100.215	20.300	5.762	0.507
692.000	424.260	80.009	19.996	100.220	20.293	6.242	0.488
692.500	424.547	80.009	19.995	100.223	20.290	6.410	0.477
693.000	424.815	80.010	19.995	100.224	20.290	6.433	0.526
693.500	425.067	80.010	19.995	100.226	20.288	6.531	0.538
694.000	425.322	80.009	19.994	100.230	20.284	6.812	0.513
694.500	425.528	80.008	19.995	100.227	20.281	6.997	0.484
695.000	425.795	80.008	19.995	100.225	20.279	7.100	0.467
695.500	426.089	80.009	19.994	100.225	20.277	7.229	0.517
696.000	426.315	80.008	19.996	100.227	20.274	7.477	0.541
696.500	426.541	80.008	19.995	100.223	20.270	7.727	0.486
697.000	426.837	80.008	19.995	100.226	20.270	7.731	0.487
697.500	427.078	80.010	19.994	100.230	20.268	7.839	0.529
698.000	427.335	80.008	19.995	100.232	20.266	7.984	0.517
698.500	427.556	80.008	19.994	100.233	20.265	8.048	0.488
699.000	427.806	80.009	19.995	100.235	20.259	8.423	0.475
699.500	428.053	80.010	19.995	100.231	20.258	8.468	0.484
700.000	428.356	80.008	19.995	100.233	20.252	8.912	0.523
700.500	428.571	80.008	19.995	100.233	20.251	8.932	0.534
701.000	428.851	80.008	19.993	100.235	20.247	9.193	0.507
701.500	429.078	80.010	19.995	100.240	20.245	9.320	0.501
702.000	429.348	80.007	19.995	100.246	20.242	9.520	0.502
702.500	429.561	80.008	19.995	100.247	20.240	9.687	0.490
703.000	429.824	80.009	19.996	100.246	20.236	9.891	0.479
703.500	430.079	80.009	19.996	100.248	20.232	10.158	0.497
704.000	430.334	80.008	19.995	100.246	20.226	10.559	0.514
704.500	430.570	80.008	19.996	100.245	20.225	10.628	0.501
705.000	430.833	80.010	19.996	100.245	20.221	10.895	0.495
705.500	431.098	80.010	19.995	100.248	20.216	11.243	0.513
706.000	431.315	80.009	19.995	100.248	20.217	11.168	0.505
706.500	431.555	80.009	19.995	100.249	20.212	11.507	0.470
707.000	431.838	80.009	19.996	100.249	20.206	11.854	0.490
707.500	432.100	80.009	19.995	100.250	20.206	11.865	0.534
708.000	432.370	80.009	19.996	100.251	20.199	12.308	0.539
708.500	432.585	80.010	19.994	100.252	20.193	12.708	0.509
709.000	432.840	80.009	19.996	100.251	20.193	12.730	0.477
709.500	433.069	80.013	19.995	100.251	20.188	13.071	0.477
710.000	433.324	80.011	19.995	100.251	20.181	13.507	0.485
710.500	433.589	80.011	19.996	100.251	20.178	13.689	0.502
711.000	433.797	80.011	19.995	100.250	20.175	13.878	0.496
711.500	434.095	80.010	19.995	100.251	20.169	14.256	0.489
712.000	434.321	80.010	19.995	100.252	20.168	14.352	0.515
712.500	434.589	80.008	19.995	100.252	20.165	14.538	0.509
713.000	434.802	80.009	19.995	100.252	20.159	14.902	0.488
713.500	435.109	80.012	19.994	100.251	20.155	15.180	0.500
714.000	435.331	80.012	19.995	100.251	20.153	15.308	0.524
714.500	435.610	80.011	19.995	100.251	20.147	15.723	0.515
715.000	435.835	80.009	19.994	100.251	20.143	15.965	0.502
715.500	436.080	80.011	19.994	100.251	20.136	16.399	0.488
716.000	436.303	80.011	19.995	100.252	20.133	16.592	0.469
716.500	436.601	80.011	19.994	100.252	20.128	16.915	0.494
717.000	436.822	80.011	19.996	100.254	20.125	17.151	0.519
717.500	437.065	80.010	19.995	100.255	20.117	17.649	0.491
718.000	437.303	80.008	19.995	100.256	20.117	17.672	0.473
718.500	437.554	80.009	19.995	100.256	20.111	18.057	0.485
719.000	437.814	80.009	19.995	100.256	20.108	18.215	0.500
719.500	438.029	80.009	19.995	100.254	20.102	18.603	0.493
720.000	438.312	80.009	19.995	100.254	20.098	18.921	0.486
720.500	438.562	80.009	19.994	100.253	20.093	19.228	0.515
721.000	438.827	80.007	19.995	100.254	20.090	19.438	0.524
721.500	439.040	80.008	19.995	100.260	20.085	19.710	0.496
722.000	439.300	80.008	19.995	100.267	20.085	19.728	0.476
722.500	439.568	80.007	19.995	100.270	20.083	19.874	0.501
723.000	439.797	80.007	19.995	100.272	20.080	20.046	0.512
723.500	440.072	80.009	19.995	100.275	20.080	20.068	0.500
724.000	440.280	80.006	19.996	100.269	20.082	19.912	0.494
724.500	440.561	80.008	19.995	100.262	20.079	20.102	0.486
725.000	440.808	80.008	19.995	100.258	20.078	20.208	0.508
725.500	441.053	80.007	19.996	100.255	20.074	20.431	0.510
726.000	441.303	80.008	19.995	100.252	20.075	20.424	0.494
726.500	441.573	80.008	19.994	100.252	20.073	20.514	0.508
727.000	441.804	80.008	19.995	100.254	20.072	20.599	0.511
727.500	442.081	80.007	19.995	100.255	20.075	20.382	0.505
728.000	442.282	80.009	19.995	100.255	20.079	20.148	0.493
728.500	442.553	80.007	19.994	100.256	20.088	19.560	0.475
729.000	442.800	80.008	19.995	100.257	20.094	19.201	0.495
729.500	443.042	80.006	19.995	100.251	20.103	18.610	0.503
730.000	443.292	80.007	19.995	100.243	20.112	18.018	0.491
730.500	443.559	80.008	19.996	100.239	20.119	17.569	0.505
731.000	443.822	80.008	19.995	100.236	20.128	16.975	0.524
731.500	444.060	80.008	19.995	100.231	20.136	16.422	0.516
732.000	444.320	80.009	19.995	100.235	20.139	16.246	0.499
732.500	444.616	80.008	19.996	100.239	20.143	15.968	0.527
733.000	444.832	80.008	19.995	100.242	20.147	15.736	0.535
733.500	445.081	80.007	19.995	100.244	20.151	15.460	0.489
734.000	445.269	80.008	19.994	100.247	20.148	15.613	0.451
734.500	445.525	80.007	19.995	100.249	20.146	15.792	0.440
735.000	445.775	80.009	19.994	100.258	20.145	15.846	0.475
735.500	446.043	80.005	19.995	100.267	20.134	16.583	0.512
736.000	446.279	80.007	19.996	100.277	20.132	16.669	0.511
736.500	446.529	80.007	19.996	100.292	20.125	17.169	0.494
737.000	446.801	80.007	19.995	100.309	20.111	18.078	0.504
737.500	447.019	80.007	19.996	100.326	20.102	18.660	0.507
738.000	447.293	80.006	19.994	100.342	20.093	19.235	0.491
738.500	447.538	80.007	19.995	100.357	20.083	19.873	0.505
739.000	447.810	80.008	19.994	100.366	20.080	20.125	0.518
739.500	448.090	80.007	19.995	100.370	20.080	20.114	0.535
740.000	448.297	80.009	19.995	100.366	20.077	20.266	0.519
740.500	448.572	80.008	19.995	100.354	20.076	20.378	0.484
741.000	448.830	80.008	19.996	100.331	20.076	20.331	0.508
741.500	449.088	80.008	19.996	100.306	20.074	20.452	0.525
742.000	449.329	80.008	19.996	100.283	20.074	20.467	0.507
742.500	449.580	80.008	19.995	100.262	20.066	20.980	0.496
743.000	449.816	80.007	19.996	100.249	20.057	21.572	0.489
743.500	450.054	80.008	19.994	100.249	20.049	22.066	0.480
744.000	450.282	80.006	19.995	100.249	20.039	22.742	0.470
744.500	450.586	80.008	19.995	100.251	20.027	23.496	0.499
745.000	450.854	80.006	19.994	100.257	20.011	24.533	0.551
745.500	451.095	80.007	19.996	100.266	19.996	25.524	0.541
746.000	451.328	80.008	19.995	100.274	19.980	26.545	0.492
746.500	451.574	80.007	19.996	100.285	19.965	27.524	0.477
747.000	451.805	80.007	19.996	100.302	19.949	28.586	0.478
747.500	452.085	80.007	19.995	100.319	19.930	29.832	0.494
748.000	452.344	80.008	19.996	100.336	19.912	31.034	0.525
748.500	452.593	80.008	19.995	100.357	19.894	32.217	0.523
749.000	452.809	80.006	19.996	100.378	19.870	33.761	0.486
749.500	453.094	80.008	19.996	100.392	19.850	35.062	0.483
750.000	453.320	80.005	19.995	100.404	19.832	36.282	0.506
750.500	453.589	80.006	19.996	100.409	19.816	37.332	0.503
751.000	453.839	80.007	19.996	100.406	19.806	37.973	0.507
751.500	454.063	80.006	19.996	100.398	19.802	38.254	0.496
752.000	454.325	80.005	19.996	100.384	19.804	38.141	0.480
752.500	454.544	80.007	19.996	100.368	19.810	37.723	0.484
753.000	454.838	80.006	19.996	100.347	19.813	37.498	0.497
753.500	455.076	80.005	19.997	100.316	19.818	37.159	0.522
754.000	455.311	80.007	19.996	100.282	19.821	36.881	0.503
754.500	455.575	80.006	19.996	100.256	19.824	36.717	0.486
755.000	455.859	80.008	19.995	100.233	19.821	36.868	0.523
755.500	456.100	80.002	19.996	100.216	19.814	37.321	0.536
756.000	456.388	80.004	19.996	100.221	19.804	37.978	0.527
756.500	456.627	80.007	19.996	100.232	19.789	38.981	0.528
757.000	456.879	79.999	19.995	100.248	19.772	40.118	0.509
757.500	457.115	80.005	19.996	100.269	19.750	41.577	0.490
758.000	457.373	80.006	19.995	100.297	19.727	43.068	0.491
758.500	457.604	80.004	19.995	100.325	19.704	44.593	0.492
759.000	457.859	80.006	19.995	100.358	19.676	46.474	0.487
759.500	458.107	80.008	19.995	100.391	19.647	48.361	0.494
760.000	458.326	80.007	19.995	100.425	19.627	49.700	0.485
760.500	458.592	80.003	19.995	100.460	19.613	50.620	0.476
761.000	458.869	80.010	19.994	100.494	19.599	51.492	0.514
761.500	459.112	80.026	19.995	100.523	19.597	51.593	0.531
762.000	459.378	80.029	19.996	100.538	19.599	51.438	0.515
762.500	459.638	80.027	19.996	100.541	19.601	51.239	0.518
763.000	459.865	80.026	19.995	100.512	19.607	50.865	0.506
763.500	460.148	80.028	19.996	100.454	19.605	50.969	0.499
764.000	460.375	80.025	19.995	100.388	19.602	51.165	0.510
764.500	460.611	80.027	19.996	100.324	19.597	51.489	0.486
765.000	460.912	80.028	19.995	100.263	19.587	52.126	0.500
765.500	461.149	80.028	19.996	100.227	19.573	53.086	0.538
766.000	461.408	80.028	19.995	100.215	19.553	54.436	0.517
766.500	461.669	80.028	19.995	100.222	19.525	56.236	0.509
767.000	461.936	80.027	19.995	100.240	19.497	58.147	0.524
767.500	462.159	80.027	19.996	100.269	19.465	60.271	0.508
768.000	462.441	80.023	19.995	100.310	19.437	62.108	0.498
768.500	462.680	80.022	19.995	100.357	19.408	64.041	0.514
769.000	462.904	80.019	19.996	100.405	19.389	65.269	0.492
769.500	463.197	80.015	19.995	100.459	19.377	66.074	0.490
770.000	463.398	80.016	19.996	100.510	19.372	66.399	0.506
770.500	463.661	80.015	19.996	100.549	19.370	66.487	0.479
771.000	463.918	80.015	19.996	100.579	19.375	66.138	0.492
771.500	464.182	80.016	19.995	100.573	19.378	65.854	0.521
772.000	464.414	80.019	19.997	100.530	19.375	66.021	0.508
772.500	464.667	80.021	19.996	100.474	19.371	66.233	0.490
773.000	464.933	80.017	19.996	100.411	19.360	66.943	0.502
773.500	465.150	80.014	19.996	100.341	19.343	68.030	0.502
774.000	465.456	80.015	19.997	100.296	19.322	69.353	0.503
774.500	465.690	80.017	19.996	100.274	19.294	71.190	0.531
775.000	465.910	80.015	19.996	100.269	19.264	73.135	0.497
775.500	466.163	80.018	19.996	100.279	19.223	75.808	0.463
776.000	466.418	80.016	19.996	100.304	19.187	78.216	0.490
776.500	466.700	80.011	19.996	100.340	19.145	80.935	0.523
777.000	466.957	80.008	19.996	100.389	19.102	83.719	0.538
777.500	467.189	80.011	19.997	100.441	19.059	86.528	0.514
778.000	467.477	80.008	19.996	100.498	19.023	88.912	0.505
778.500	467.709	80.008	19.996	100.559	18.980	91.691	0.520
779.000	467.936	80.007	19.997	100.616	18.943	94.103	0.489
779.500	468.217	80.007	19.997	100.655	18.909	96.318	0.483
780.000	468.453	80.009	19.997	100.680	18.879	98.233	0.513
780.500	468.723	80.008	19.997	100.681	18.852	99.995	0.512
781.000	468.990	80.008	19.996	100.656	18.830	101.420	0.521
781.500	469.231	80.008	19.996	100.614	18.811	102.641	0.522
782.000	469.504	80.008	19.997	100.559	18.797	103.585	0.511
782.500	469.762	80.007	19.996	100.492	18.784	104.415	0.523
783.000	470.025	80.010	19.996	100.428	18.776	104.948	0.526
783.500	470.254	80.009	19.996	100.373	18.762	105.872	0.506
784.000	470.515	80.008	19.997	100.330	18.760	106.069	0.490
784.500	470.770	80.007	19.996	100.304	18.755	106.403	0.503
785.000	471.013	80.007	19.996	100.292	18.754	106.497	0.508
785.500	471.273	80.008	19.996	100.291	18.751	106.687	0.501
786.000	471.500	80.005	19.997	100.298	18.759	106.209	0.495
786.500	471.794	80.006	19.996	100.307	18.769	105.637	0.504
787.000	472.059	80.008	19.996	100.322	18.784	104.676	0.539
787.500	472.324	80.008	19.995	100.338	18.804	103.430	0.544
788.000	472.617	80.010	19.996	100.351	18.832	101.577	0.545
788.500	472.823	80.009	19.996	100.361	18.860	99.815	0.529
789.000	473.087	80.010	19.997	100.368	18.893	97.625	0.485
789.500	473.391	80.010	19.996	100.359	18.924	95.662	0.519
790.000	473.663	80.011	19.995	100.350	18.955	93.594	0.571
790.500	473.904	80.010	19.995	100.340	18.991	91.273	0.544
791.000	474.168	80.011	19.995	100.329	19.021	89.290	0.509
791.500	474.436	80.014	19.995	100.322	19.048	87.487	0.519
792.000	474.682	80.011	19.996	100.324	19.080	85.350	0.523
792.500	474.930	80.011	19.995	100.327	19.107	83.525	0.504
793.000	475.206	80.012	19.995	100.334	19.133	81.789	0.509
793.500	475.434	80.011	19.994	100.343	19.155	80.310	0.514
794.000	475.705	80.011	19.995	100.351	19.173	79.082	0.502
794.500	475.972	80.012	19.995	100.363	19.186	78.194	0.518
795.000	476.222	80.011	19.995	100.379	19.192	77.810	0.527
795.500	476.488	80.011	19.994	100.398	19.195	77.579	0.517
796.000	476.752	80.012	19.995	100.423	19.188	78.039	0.523
796.500	476.982	80.010	19.994	100.458	19.176	78.846	0.512
797.000	477.257	80.010	19.995	100.495	19.147	80.759	0.499
797.500	477.502	80.011	19.995	100.533	19.119	82.669	0.513
798.000	477.752	80.010	19.994	100.571	19.084	85.017	0.508
798.500	478.042	80.009	19.994	100.602	19.049	87.377	0.518
799.000	478.271	80.010	19.995	100.629	19.014	89.693	0.530
799.500	478.521	80.011	19.995	100.642	18.988	91.500	0.499
800.000	478.788	80.010	19.995	100.649	18.963	93.173	0.498
800.500	479.000	80.011	19.995	100.669	18.947	94.241	0.498
801.000	479.293	80.011	19.995	100.676	18.941	94.615	0.492
801.500	479.564	80.009	19.995	100.652	18.939	94.716	0.534
802.000	479.810	80.009	19.995	100.623	18.941	94.537	0.540
802.500	480.062	80.010	19.996	100.584	18.947	94.048	0.508
803.000	480.328	80.008	19.995	100.516	18.953	93.601	0.509
803.500	480.621	80.008	19.995	100.452	18.960	93.132	0.539
804.000	480.846	80.007	19.994	100.405	18.966	92.673	0.538
804.500	481.102	80.007	19.996	100.362	18.973	92.217	0.500
805.000	481.335	80.009	19.995	100.317	18.970	92.377	0.485
805.500	481.618	80.007	19.994	100.275	18.964	92.749	0.502
806.000	481.892	80.008	19.995	100.242	18.958	93.103	0.537
806.500	482.091	80.008	19.995	100.224	18.938	94.422	0.515
807.000	482.382	80.008	19.996	100.224	18.916	95.862	0.481
807.500	482.622	80.008	19.996	100.248	18.881	98.152	0.510
808.000	482.807	80.007	19.995	100.297	18.841	100.797	0.478
808.500	483.117	80.008	19.995	100.365	18.796	103.765	0.460
809.000	483.346	80.008	19.995	100.443	18.755	106.471	0.517
809.500	483.619	80.006	19.996	100.525	18.716	109.066	0.520
810.000	483.876	80.008	19.996	100.607	18.682	111.357	0.516
810.500	484.153	80.005	19.995	100.693	18.652	113.324	0.532
811.000	484.386	80.009	19.996	100.771	18.628	114.904	0.522
811.500	484.627	80.007	19.995	100.797	18.608	116.216	0.492
812.000	484.871	80.006	19.995	100.782	18.588	117.470	0.479
812.500	485.151	80.007	19.996	100.745	18.574	118.377	0.505
813.000	485.390	80.009	19.995	100.678	18.560	119.294	0.522
813.500	485.661	80.009	19.994	100.593	18.541	120.518	0.515
814.000	485.936	80.007	19.995	100.538	18.529	121.256	0.528
814.500	486.185	80.008	19.996	100.500	18.516	122.080	0.535
815.000	486.456	80.007	19.995	100.464	18.503	122.927	0.522
815.500	486.688	80.008	19.995	100.428	18.488	123.893	0.511
816.000	486.959	80.008	19.995	100.394	18.479	124.491	0.503
816.500	487.228	80.007	19.994	100.366	18.470	125.081	0.521
817.000	487.483	80.008	19.995	100.346	18.460	125.704	0.532
817.500	487.729	80.008	19.995	100.336	18.452	126.258	0.513
818.000	487.966	80.008	19.995	100.341	18.437	127.257	0.492
818.500	488.213	80.009	19.995	100.361	18.427	127.877	0.483
819.000	488.492	80.008	19.995	100.391	18.415	128.704	0.505
819.500	488.749	80.010	19.995	100.430	18.406	129.289	0.532
820.000	488.983	80.008	19.995	100.479	18.394	130.095	0.513
820.500	489.292	80.009	19.995	100.529	18.382	130.874	0.517
821.000	489.543	80.008	19.994	100.573	18.369	131.703	0.552
821.500	489.752	80.008	19.996	100.600	18.362	132.158	0.510
822.000	490.023	80.007	19.995	100.616	18.352	132.843	0.470
822.500	490.276	80.010	19.995	100.614	18.348	133.136	0.502
823.000	490.545	80.008	19.995	100.600	18.344	133.395	0.523
823.500	490.761	80.009	19.995	100.578	18.337	133.841	0.504
824.000	491.047	80.008	19.996	100.560	18.333	134.107	0.494
824.500	491.296	80.009	19.995	100.544	18.334	134.044	0.519
825.000	491.573	80.009	19.996	100.536	18.328	134.420	0.531
825.500	491.833	80.009	19.995	100.529	18.327	134.506	0.531
826.000	492.073	80.008	19.995	100.528	18.321	134.851	0.519
826.500	492.327	80.009	19.994	100.523	18.322	134.824	0.497
827.000	492.565	80.007	19.995	100.518	18.315	135.269	0.493
827.500	492.805	80.007	19.995	100.512	18.313	135.411	0.485
828.000	493.063	80.009	19.995	100.506	18.306	135.827	0.488
828.500	493.340	80.008	19.994	100.501	18.304	135.965	0.517
829.000	493.576	80.007	19.994	100.504	18.299	136.340	0.524
829.500	493.826	80.008	19.995	100.509	18.293	136.705	0.499
830.000	494.074	80.007	19.994	100.517	18.291	136.840	0.492
830.500	494.335	80.008	19.995	100.527	18.288	137.057	0.503
831.000	494.643	80.008	19.994	100.537	18.286	137.137	0.539
831.500	494.898	80.008	19.996	100.547	18.281	137.464	0.566
832.000	495.153	80.008	19.995	100.555	18.277	137.732	0.536
832.500	495.392	80.008	19.995	100.562	18.271	138.139	0.502
833.000	495.656	80.010	19.995	100.567	18.265	138.550	0.499
833.500	495.928	80.009	19.995	100.569	18.261	138.793	0.519
834.000	496.199	80.009	19.995	100.568	18.254	139.229	0.540
834.500	496.430	80.008	19.995	100.568	18.245	139.855	0.523
835.000	496.693	80.007	19.995	100.568	18.241	140.098	0.498
835.500	496.935	80.007	19.994	100.568	18.229	140.921	0.499
836.000	497.218	80.006	19.995	100.568	18.224	141.234	0.515
836.500	497.442	80.008	19.995	100.567	18.216	141.729	0.516
837.000	497.729	80.008	19.996	100.567	18.207	142.324	0.509
837.500	497.964	80.009	19.995	100.568	18.200	142.803	0.517
838.000	498.242	80.008	19.995	100.569	18.188	143.560	0.517
838.500	498.488	80.008	19.995	100.572	18.182	144.015	0.518
839.000	498.700	80.007	19.995	100.573	18.176	144.369	0.491
839.500	499.000	80.006	19.995	100.573	18.166	145.067	0.485
840.000	499.275	80.007	19.995	100.573	18.159	145.499	0.543
840.500	499.514	80.008	19.996	100.573	18.151	146.032	0.544
841.000	499.770	80.008	19.996	100.570	18.139	146.790	0.505
841.500	500.019	80.008	19.995	100.570	18.130	147.405	0.500
842.000	500.263	80.007	19.996	100.569	18.123	147.874	0.498
842.500	500.490	80.009	19.996	100.568	18.116	148.342	0.482
843.000	500.736	80.008	19.996	100.567	18.105	149.008	0.472
843.500	501.008	80.009	19.995	100.566	18.097	149.551	0.496
844.000	501.288	80.008	19.996	100.566	18.087	150.172	0.535
844.500	501.531	80.009	19.996	100.570	18.077	150.835	0.537
845.000	501.811	80.009	19.996	100.571	18.066	151.562	0.523
845.500	502.039	80.008	19.996	100.573	18.056	152.214	0.516
846.000	502.312	80.009	19.996	100.579	18.047	152.816	0.505
846.500	502.562	80.009	19.996	100.583	18.036	153.534	0.512
847.000	502.807	80.007	19.995	100.584	18.028	154.066	0.509
847.500	503.053	80.008	19.995	100.587	18.018	154.697	0.493
848.000	503.302	80.007	19.996	100.593	18.007	155.430	0.493
848.500	503.586	80.011	19.997	100.595	17.998	156.010	0.514
849.000	503.815	80.009	19.997	100.597	17.986	156.814	0.523
849.500	504.061	80.010	19.996	100.601	17.975	157.499	0.494
850.000	504.299	80.011	19.997	100.604	17.961	158.445	0.479
850.500	504.547	80.009	19.996	100.604	17.950	159.107	0.485
851.000	504.848	80.010	19.996	100.604	17.940	159.805	0.517
851.500	505.091	80.009	19.997	100.603	17.926	160.672	0.547
852.000	505.317	80.010	19.996	100.604	17.914	161.498	0.507
852.500	505.598	80.012	19.995	100.606	17.904	162.169	0.488
853.000	505.845	80.009	19.995	100.611	17.890	163.083	0.517
853.500	506.111	80.011	19.995	100.614	17.879	163.762	0.520
854.000	506.381	80.011	19.995	100.615	17.870	164.346	0.524
854.500	506.643	80.010	19.995	100.614	17.858	165.141	0.534
855.000	506.871	80.011	19.995	100.612	17.851	165.632	0.511
855.500	507.121	80.009	19.996	100.607	17.842	166.236	0.484
856.000	507.417	80.007	19.995	100.605	17.833	166.797	0.512
856.500	507.646	80.009	19.994	100.604	17.823	167.416	0.535
857.000	507.896	80.010	19.995	100.605	17.815	167.968	0.502
857.500	508.174	80.008	19.995	100.604	17.805	168.623	0.504
858.000	508.447	80.009	19.996	100.605	17.799	169.053	0.540
858.500	508.668	80.008	19.995	100.605	17.792	169.469	0.523
859.000	508.938	80.008	19.997	100.605	17.785	169.954	0.492
859.500	509.164	80.008	19.996	100.605	17.780	170.223	0.494
860.000	509.468	80.010	19.995	100.605	17.773	170.705	0.513
860.500	509.726	80.007	19.996	100.606	17.767	171.068	0.546
861.000	509.980	80.009	19.995	100.605	17.763	171.363	0.537
861.500	510.189	80.010	19.996	100.606	17.756	171.802	0.487
862.000	510.480	80.009	19.996	100.606	17.751	172.113	0.482
862.500	510.765	80.011	19.996	100.606	17.750	172.181	0.538
863.000	510.973	80.011	19.996	100.607	17.742	172.671	0.534
863.500	511.194	80.008	19.996	100.609	17.740	172.827	0.461
864.000	511.490	80.009	19.996	100.610	17.737	173.014	0.473
864.500	511.732	80.009	19.996	100.614	17.729	173.531	0.527
865.000	511.984	80.009	19.996	100.618	17.727	173.654	0.516
865.500	512.236	80.009	19.996	100.620	17.726	173.699	0.499
866.000	512.484	80.009	19.997	100.622	17.720	174.083	0.502
866.500	512.738	80.009	19.996	100.623	17.718	174.216	0.501
867.000	512.962	80.009	19.995	100.620	17.716	174.333	0.490
867.500	513.266	80.009	19.996	100.621	17.717	174.252	0.503
868.000	513.531	80.008	19.996	100.626	17.713	174.509	0.549
868.500	513.828	80.009	19.996	100.626	17.716	174.315	0.566
869.000	514.040	80.010	19.996	100.629	17.715	174.398	0.536
869.500	514.332	80.009	19.995	100.629	17.716	174.315	0.506
870.000	514.580	80.007	19.995	100.624	17.718	174.206	0.522
870.500	514.834	80.008	19.995	100.618	17.721	174.032	0.521
871.000	515.107	80.008	19.996	100.614	17.726	173.688	0.515
871.500	515.381	80.011	19.996	100.609	17.728	173.529	0.537
872.000	515.629	80.010	19.996	100.607	17.733	173.201	0.535
872.500	515.888	80.011	19.997	100.607	17.740	172.739	0.515
873.000	516.123	80.008	19.996	100.605	17.747	172.273	0.500
873.500	516.400	80.009	19.997	100.603	17.754	171.844	0.503
874.000	516.665	80.009	19.996	100.600	17.760	171.435	0.527
874.500	516.906	80.011	19.996	100.599	17.772	170.614	0.523
875.000	517.167	80.012	19.996	100.592	17.783	169.868	0.504
875.500	517.429	80.011	19.996	100.588	17.792	169.332	0.512
876.000	517.688	80.009	19.996	100.590	17.802	168.619	0.522
876.500	517.978	80.011	19.996	100.586	17.815	167.768	0.535
877.000	518.184	80.011	19.996	100.581	17.829	166.867	0.523
877.500	518.481	80.011	19.997	100.578	17.841	166.073	0.500
878.000	518.714	80.010	19.996	100.575	17.859	164.913	0.516
878.500	518.969	80.010	19.995	100.568	17.873	163.958	0.509
879.000	519.202	80.010	19.996	100.567	17.891	162.818	0.488
879.500	519.455	80.010	19.996	100.565	17.906	161.810	0.487
880.000	519.750	80.010	19.996	100.565	17.928	160.348	0.517
880.500	519.974	80.011	19.996	100.566	17.942	159.449	0.534
881.000	520.238	80.010	19.995	100.565	17.964	158.027	0.504
881.500	520.534	80.011	19.996	100.564	17.984	156.719	0.524
882.000	520.725	80.009	19.995	100.559	18.000	155.658	0.524
882.500	521.015	80.009	19.995	100.555	18.023	154.149	0.484
883.000	521.269	80.008	19.996	100.551	18.047	152.582	0.512
883.500	521.507	80.010	19.995	100.549	18.065	151.384	0.518
884.000	521.752	80.008	19.995	100.543	18.092	149.622	0.488
884.500	522.070	80.010	19.996	100.541	18.111	148.373	0.523
885.000	522.251	80.008	19.996	100.536	18.139	146.570	0.531
885.500	522.529	80.009	19.995	100.533	18.162	145.027	0.479
886.000	522.776	80.007	19.996	100.527	18.189	143.284	0.492
886.500	523.028	80.005	19.995	100.524	18.213	141.724	0.512
887.000	523.284	80.008	19.995	100.519	18.240	139.958	0.504
887.500	523.531	80.006	19.995	100.514	18.266	138.238	0.506
888.000	523.796	80.007	19.995	100.506	18.293	136.493	0.508
888.500	524.038	80.007	19.996	100.499	18.319	134.777	0.509
889.000	524.323	80.009	19.994	100.493	18.348	132.921	0.517
889.500	524.588	80.008	19.995	100.490	18.377	131.024	0.538
890.000	524.848	80.008	19.995	100.485	18.403	129.307	0.538
890.500	525.107	80.007	19.995	100.484	18.432	127.429	0.522
891.000	525.339	80.007	19.995	100.478	18.464	125.309	0.505
891.500	525.617	80.007	19.995	100.472	18.496	123.252	0.501
892.000	525.852	80.007	19.995	100.467	18.532	120.879	0.512
892.500	526.127	80.008	19.995	100.462	18.561	119.000	0.511
893.000	526.397	80.007	19.995	100.457	18.589	117.144	0.527
893.500	526.648	80.006	19.995	100.456	18.620	115.119	0.533
894.000	526.903	80.008	19.995	100.453	18.649	113.257	0.513
894.500	527.123	80.007	19.995	100.448	18.682	111.074	0.491
895.000	527.404	80.007	19.995	100.441	18.714	109.011	0.489
895.500	527.655	80.008	19.995	100.434	18.745	106.997	0.517
896.000	527.900	80.006	19.995	100.430	18.776	104.942	0.514
896.500	528.172	80.008	19.995	100.424	18.803	103.186	0.506
897.000	528.448	80.006	19.994	100.421	18.833	101.260	0.532
897.500	528.712	80.008	19.995	100.418	18.864	99.194	0.544
898.000	528.975	80.007	19.995	100.416	18.891	97.456	0.533
898.500	529.237	80.007	19.995	100.413	18.923	95.352	0.526
899.000	529.470	80.008	19.995	100.410	18.953	93.387	0.510
899.500	529.736	80.009	19.996	100.409	18.981	91.584	0.497
900.000	529.965	80.007	19.995	100.406	19.013	89.491	0.496
900.500	530.231	80.007	19.995	100.401	19.045	87.432	0.495
901.000	530.466	80.008	19.995	100.398	19.075	85.485	0.499
901.500	530.731	80.008	19.996	100.391	19.102	83.685	0.500
902.000	530.993	80.008	19.995	100.384	19.128	82.003	0.513
902.500	531.242	80.008	19.995	100.378	19.158	80.053	0.519
903.000	531.477	80.007	19.995	100.375	19.185	78.324	0.497
903.500	531.766	80.007	19.995	100.369	19.213	76.452	0.503
904.000	531.995	80.009	19.996	100.364	19.238	74.820	0.521
904.500	532.284	80.007	19.995	100.360	19.267	72.931	0.518
905.000	532.528	80.010	19.996	100.353	19.293	71.292	0.526
905.500	532.786	80.009	19.996	100.346	19.317	69.695	0.518
906.000	533.055	80.009	19.996	100.339	19.343	68.016	0.515
906.500	533.302	80.010	19.995	100.337	19.368	66.388	0.522
907.000	533.586	80.010	19.996	100.333	19.393	64.749	0.524
907.500	533.825	80.010	19.995	100.331	19.416	63.280	0.527
908.000	534.061	80.009	19.995	100.331	19.438	61.824	0.499
908.500	534.341	80.009	19.994	100.330	19.459	60.431	0.495
909.000	534.603	80.011	19.995	100.325	19.480	59.052	0.529
909.500	534.838	80.009	19.995	100.322	19.502	57.667	0.519
910.000	535.119	80.011	19.995	100.320	19.522	56.329	0.506
910.500	535.380	80.008	19.995	100.316	19.540	55.160	0.529
911.000	535.654	80.008	19.995	100.309	19.561	53.836	0.539
911.500	535.908	80.009	19.996	100.306	19.580	52.571	0.531
912.000	536.153	80.007	19.996	100.302	19.602	51.146	0.514
912.500	536.400	80.008	19.996	100.297	19.617	50.148	0.496
913.000	536.646	80.009	19.995	100.293	19.637	48.881	0.493
913.500	536.918	80.008	19.995	100.293	19.655	47.706	0.505
914.000	537.190	80.009	19.994	100.292	19.672	46.573	0.531
914.500	537.404	80.008	19.995	100.289	19.688	45.527	0.515
915.000	537.675	80.009	19.996	100.288	19.702	44.635	0.485
915.500	537.924	80.007	19.995	100.288	19.720	43.465	0.503
916.000	538.193	80.009	19.996	100.285	19.736	42.451	0.519
916.500	538.439	80.006	19.996	100.284	19.751	41.436	0.516
917.000	538.694	80.009	19.996	100.284	19.768	40.310	0.508
917.500	538.956	80.009	19.996	100.279	19.783	39.355	0.509
918.000	539.236	80.009	19.995	100.271	19.797	38.472	0.529
918.500	539.492	80.008	19.996	100.266	19.812	37.474	0.539
919.000	539.682	80.008	19.996	100.260	19.826	36.599	0.491
919.500	540.008	80.009	19.995	100.254	19.834	36.020	0.481
920.000	540.261	80.008	19.995	100.253	19.847	35.212	0.547
920.500	540.495	80.010	19.995	100.253	19.860	34.342	0.533
921.000	540.736	80.007	19.995	100.253	19.872	33.563	0.481
921.500	541.045	80.009	19.995	100.253	19.880	33.035	0.513
922.000	541.230	80.008	19.995	100.254	19.894	32.126	0.522
922.500	541.540	80.007	19.995	100.253	19.903	31.570	0.495
923.000	541.801	80.008	19.995	100.253	19.915	30.791	0.533
923.500	542.033	80.010	19.995	100.252	19.927	29.997	0.532
924.000	542.292	80.008	19.995	100.252	19.936	29.393	0.492
924.500	542.528	80.008	19.996	100.248	19.945	28.844	0.493
925.000	542.764	80.007	19.996	100.245	19.957	28.081	0.484
925.500	543.039	80.008	19.994	100.239	19.969	27.270	0.492
926.000	543.292	80.008	19.995	100.235	19.976	26.825	0.520
926.500	543.536	80.007	19.995	100.227	19.985	26.232	0.512
927.000	543.779	80.008	19.995	100.226	19.992	25.803	0.492
927.500	544.041	80.009	19.995	100.223	20.001	25.172	0.496
928.000	544.296	80.010	19.996	100.221	20.011	24.531	0.511
928.500	544.552	80.008	19.995	100.218	20.017	24.168	0.514
929.000	544.799	80.008	19.995	100.218	20.023	23.792	0.507
929.500	545.075	80.010	19.995	100.216	20.033	23.088	0.513
930.000	545.323	80.009	19.995	100.214	20.040	22.685	0.523
930.500	545.596	80.009	19.996	100.214	20.050	22.029	0.523
931.000	545.835	80.010	19.995	100.215	20.055	21.663	0.517
931.500	546.094	80.011	19.994	100.214	20.059	21.438	0.505
932.000	546.363	80.010	19.995	100.214	20.067	20.876	0.513
932.500	546.611	80.010	19.995	100.214	20.075	20.393	0.523
933.000	546.881	80.011	19.996	100.213	20.074	20.469	0.517
933.500	547.103	80.010	19.996	100.213	20.082	19.904	0.505
934.000	547.365	80.010	19.995	100.213	20.089	19.456	0.488
934.500	547.646	80.009	19.995	100.213	20.093	19.209	0.513
935.000	547.842	80.010	19.996	100.213	20.099	18.828	0.510
935.500	548.162	80.010	19.995	100.214	20.101	18.714	0.497
936.000	548.400	80.010	19.996	100.215	20.108	18.254	0.537
936.500	548.649	80.008	19.994	100.215	20.112	17.953	0.522
937.000	548.883	80.010	19.995	100.215	20.115	17.788	0.485
937.500	549.164	80.011	19.995	100.215	20.119	17.513	0.499
938.000	549.421	80.010	19.995	100.212	20.123	17.277	0.527
938.500	549.708	80.008	19.996	100.212	20.128	16.915	0.541
939.000	549.941	80.011	19.995	100.211	20.136	16.435	0.532
939.500	550.195	80.010	19.995	100.212	20.139	16.194	0.504
940.000	550.419	80.008	19.996	100.212	20.141	16.102	0.482
940.500	550.686	80.009	19.995	100.214	20.147	15.724	0.485
941.000	550.953	80.009	19.995	100.212	20.150	15.489	0.513
941.500	551.201	80.010	19.995	100.210	20.154	15.258	0.524
942.000	551.421	80.009	19.995	100.209	20.156	15.083	0.491
942.500	551.705	80.007	19.995	100.210	20.160	14.880	0.486
943.000	551.998	80.008	19.996	100.206	20.164	14.592	0.541
943.500	552.254	80.008	19.996	100.209	20.167	14.401	0.563
944.000	552.488	80.009	19.996	100.211	20.171	14.149	0.519
944.500	552.729	80.007	19.996	100.210	20.178	13.653	0.483
945.000	553.003	80.008	19.995	100.209	20.179	13.638	0.495
945.500	553.268	80.009	19.996	100.212	20.182	13.457	0.527
946.000	553.518	80.006	19.996	100.213	20.183	13.328	0.527
946.500	553.783	80.010	19.997	100.212	20.190	12.932	0.515
947.000	553.992	80.008	19.996	100.210	20.191	12.852	0.495
947.500	554.261	80.009	19.996	100.212	20.191	12.864	0.476
948.000	554.504	80.009	19.996	100.211	20.196	12.542	0.495
948.500	554.732	80.008	19.996	100.208	20.199	12.314	0.492
949.000	555.017	80.010	19.996	100.204	20.202	12.116	0.492
949.500	555.298	80.007	19.996	100.205	20.204	12.022	0.539
950.000	555.556	80.009	19.996	100.203	20.205	11.937	0.552
950.500	555.814	80.009	19.996	100.202	20.204	11.995	0.528
951.000	556.066	80.007	19.996	100.203	20.210	11.605	0.513
951.500	556.301	80.008	19.996	100.205	20.208	11.720	0.499
952.000	556.534	80.009	19.995	100.200	20.213	11.380	0.477
952.500	556.775	80.008	19.995	100.198	20.215	11.262	0.471
953.000	557.053	80.010	19.994	100.197	20.217	11.124	0.497
953.500	557.314	80.009	19.994	100.193	20.217	11.124	0.529
954.000	557.569	80.010	19.996	100.193	20.219	11.041	0.527
954.500	557.809	80.009	19.995	100.196	20.222	10.852	0.506
955.000	558.068	80.010	19.995	100.194	20.226	10.588	0.497
955.500	558.328	80.008	19.995	100.191	20.226	10.567	0.509
956.000	558.573	80.011	19.996	100.195	20.228	10.419	0.512
956.500	558.822	80.010	19.996	100.198	20.231	10.263	0.499
957.000	559.068	80.012	19.996	100.196	20.232	10.167	0.494
957.500	559.319	80.010	19.995	100.199	20.236	9.923	0.496
958.000	559.559	80.008	19.995	100.201	20.235	9.980	0.494
958.500	559.834	80.009	19.995	100.200	20.234	10.021	0.503
959.000	560.113	80.010	19.995	100.198	20.236	9.910	0.535
959.500	560.348	80.009	19.995	100.203	20.241	9.588	0.534
960.000	560.576	80.011	19.995	100.204	20.243	9.464	0.489
960.500	560.868	80.010	19.995	100.204	20.245	9.333	0.492
961.000	561.115	80.010	19.994	100.205	20.247	9.209	0.529
961.500	561.363	80.009	19.996	100.203	20.247	9.226	0.516
962.000	561.614	80.011	19.994	100.200	20.246	9.290	0.497
962.500	561.904	80.011	19.996	100.197	20.248	9.125	0.521
963.000	562.155	80.011	19.995	100.193	20.249	9.047	0.541
963.500	562.371	80.011	19.996	100.191	20.251	8.948	0.503
964.000	562.640	80.010	19.995	100.190	20.249	9.089	0.476
964.500	562.886	80.010	19.995	100.189	20.251	8.966	0.500
965.000	563.156	80.011	19.996	100.190	20.253	8.793	0.516
965.500	563.391	80.011	19.996	100.195	20.253	8.777	0.511
966.000	563.582	80.010	19.995	100.194	20.257	8.570	0.466
966.500	563.885	80.010	19.996	100.193	20.257	8.519	0.460
967.000	564.118	80.008	19.995	100.190	20.261	8.298	0.514
967.500	564.374	80.009	19.995	100.186	20.258	8.490	0.512
968.000	564.615	80.008	19.996	100.183	20.263	8.160	0.493
968.500	564.853	80.008	19.995	100.182	20.262	8.226	0.488
969.000	565.130	80.008	19.997	100.185	20.266	7.965	0.498
969.500	565.369	80.008	19.996	100.191	20.263	8.152	0.515
970.000	565.608	80.007	19.996	100.194	20.268	7.851	0.496
970.500	565.890	80.009	19.997	100.196	20.268	7.846	0.500
971.000	566.139	80.007	19.997	100.197	20.265	8.001	0.526
971.500	566.402	80.007	19.997	100.197	20.270	7.702	0.521
972.000	566.659	80.006	19.997	100.196	20.270	7.729	0.516
972.500	566.884	80.008	19.995	100.196	20.271	7.618	0.501
973.000	567.131	80.006	19.997	100.196	20.271	7.620	0.477
973.500	567.373	80.008	19.996	100.196	20.272	7.569	0.481
974.000	567.631	80.007	19.996	100.192	20.271	7.615	0.495
974.500	567.895	80.007	19.997	100.187	20.273	7.480	0.511
975.000	568.166	80.007	19.997	100.181	20.273	7.485	0.528
975.500	568.384	80.008	19.996	100.179	20.277	7.264	0.512
976.000	568.650	80.008	19.996	100.175	20.275	7.393	0.487
976.500	568.899	80.008	19.997	100.180	20.277	7.276	0.499
977.000	569.155	80.008	19.997	100.185	20.278	7.202	0.510
977.500	569.414	80.008	19.997	100.192	20.278	7.200	0.510
978.000	569.654	80.009	19.998	100.194	20.279	7.113	0.507
978.500	569.908	80.007	19.996	100.197	20.274	7.469	0.496
979.000	570.181	80.008	19.996	100.196	20.277	7.243	0.510
979.500	570.439	80.007	19.996	100.195	20.276	7.292	0.529
980.000	570.681	80.008	19.996	100.189	20.278	7.177	0.515
980.500	570.951	80.008	19.997	100.187	20.280	7.062	0.506
981.000	571.195	80.007	19.996	100.183	20.285	6.717	0.513
981.500	571.454	80.008	19.997	100.179	20.281	7.002	0.508
982.000	571.701	80.008	19.996	100.176	20.282	6.936	0.505
982.500	571.982	80.008	19.996	100.178	20.282	6.918	0.517
983.000	572.209	80.008	19.996	100.184	20.286	6.674	0.518
983.500	572.486	80.007	19.997	100.187	20.286	6.662	0.506
984.000	572.732	80.008	19.995	100.191	20.286	6.694	0.513
984.500	572.989	80.008	19.996	100.194	20.286	6.653	0.513
985.000	573.265	80.009	19.997	100.194	20.285	6.699	0.518
985.500	573.510	80.009	19.996	100.190	20.285	6.761	0.527
986.000	573.764	80.007	19.995	100.192	20.287	6.591	0.510
986.500	574.039	80.009	19.996	100.191	20.288	6.525	0.514
987.000	574.297	80.009	19.997	100.190	20.287	6.605	0.531
987.500	574.598	80.010	19.996	100.190	20.291	6.366	0.546
988.000	574.814	80.009	19.995	100.194	20.290	6.394	0.538
988.500	575.079	80.009	19.996	100.193	20.289	6.463	0.499
989.000	575.344	80.010	19.996	100.191	20.287	6.578	0.506
989.500	575.593	80.009	19.995	100.192	20.291	6.353	0.522
990.000	575.843	80.008	19.996	100.192	20.293	6.183	0.506
990.500	576.082	80.010	19.996	100.191	20.289	6.484	0.494
991.000	576.353	80.009	19.996	100.189	20.292	6.275	0.500
991.500	576.583	80.009	19.995	100.192	20.292	6.243	0.506
992.000	576.836	80.008	19.996	100.193	20.295	6.113	0.492
992.500	577.090	80.009	19.995	100.190	20.294	6.136	0.495
993.000	577.322	80.008	19.995	100.187	20.292	6.303	0.497
993.500	577.584	80.009	19.995	100.189	20.295	6.056	0.490
994.000	577.830	80.009	19.996	100.191	20.292	6.274	0.501
994.500	578.099	80.009	19.996	100.193	20.293	6.225	0.512
995.000	578.356	80.009	19.996	100.194	20.296	6.040	0.520
995.500	578.615	80.009	19.996	100.193	20.292	6.293	0.521
996.000	578.850	80.009	19.997	100.190	20.293	6.192	0.505
996.500	579.116	80.009	19.996	100.190	20.296	6.031	0.497
997.000	579.380	80.008	19.996	100.189	20.298	5.905	0.515
997.500	579.606	80.007	19.996	100.190	20.297	5.962	0.510
998.000	579.905	80.008	19.996	100.191	20.299	5.828	0.508
998.500	580.123	80.009	19.995	100.191	20.297	5.935	0.521
999.000	580.372	80.009	19.995	100.185	20.296	6.025	0.491
999.500	580.625	80.010	19.996	100.180	20.297	5.927	0.484
1000.000	580.925	80.008	19.996	100.178	20.297	5.964	0.528
1000.500	581.158	80.008	19.995	100.177	20.300	5.775	0.543
1001.000	581.409	80.008	19.995	100.177	20.298	5.902	0.509
1001.500	581.628	80.008	19.996	100.178	20.300	5.787	0.477
1002.000	581.896	80.009	19.996	100.182	20.299	5.834	0.479
1002.500	582.172	80.008	19.996	100.183	20.298	5.901	0.516
1003.000	582.421	80.008	19.997	100.185	20.301	5.709	0.534
1003.500	582.682	80.008	19.996	100.192	20.304	5.488	0.518
1004.000	582.920	80.008	19.996	100.194	20.302	5.600	0.504
1004.500	583.165	80.009	19.996	100.194	20.303	5.539	0.491
1005.000	583.436	80.009	19.996	100.198	20.300	5.757	0.499
1005.500	583.693	80.008	19.995	100.198	20.300	5.761	0.522
1006.000	583.938	80.009	19.995	100.193	20.306	5.382	0.515
1006.500	584.167	80.009	19.996	100.190	20.303	5.553	0.488
1007.000	584.435	80.007	19.995	100.190	20.301	5.697	0.486
1007.500	584.671	80.009	19.996	100.187	20.304	5.488	0.501
1008.000	584.916	80.009	19.995	100.185	20.303	5.592	0.492
1008.500	585.175	80.008	19.995	100.185	20.304	5.480	0.492
1009.000	585.418	80.009	19.995	100.192	20.304	5.519	0.503
1009.500	585.704	80.009	19.995	100.203	20.307	5.275	0.516
1010.000	585.952	80.008	19.995	100.195	20.304	5.477	0.532
1010.500	586.212	80.009	19.995	100.193	20.307	5.274	0.521
1011.000	586.441	80.009	19.996	100.195	20.309	5.148	0.499
1011.500	586.682	80.009	19.996	100.194	20.308	5.262	0.479
1012.000	586.956	80.010	19.996	100.187	20.308	5.244	0.492
1012.500	587.213	80.009	19.996	100.196	20.307	5.268	0.523
1013.000	587.476	80.010	19.996	100.201	20.306	5.390	0.526
1013.500	587.663	80.009	19.995	100.201	20.310	5.105	0.485
1014.000	587.986	80.010	19.995	100.196	20.312	4.955	0.480
1014.500	588.206	80.010	19.996	100.192	20.315	4.776	0.526
1015.000	588.433	80.008	19.996	100.196	20.313	4.897	0.495
1015.500	588.687	80.011	19.996	100.197	20.310	5.123	0.464
1016.000	588.946	80.011	19.996	100.197	20.311	5.014	0.497
1016.500	589.205	80.012	19.995	100.199	20.315	4.785	0.515
1017.000	589.478	80.010	19.996	100.196	20.312	4.985	0.525
1017.500	589.739	80.010	19.995	100.191	20.314	4.855	0.532
1018.000	590.007	80.010	19.996	100.188	20.313	4.924	0.531
1018.500	590.209	80.010	19.995	100.186	20.313	4.898	0.500
1019.000	590.495	80.010	19.996	100.182	20.311	5.062	0.480
1019.500	590.737	80.011	19.995	100.182	20.312	4.958	0.508
1020.000	590.982	80.010	19.996	100.186	20.315	4.770	0.507
1020.500	591.270	80.009	19.996	100.188	20.316	4.742	0.510
1021.000	591.502	80.010	19.996	100.193	20.316	4.701	0.526
1021.500	591.732	80.010	19.996	100.200	20.317	4.623	0.491
1022.000	592.022	80.010	19.996	100.202	20.316	4.737	0.491
1022.500	592.227	80.010	19.996	100.200	20.318	4.607	0.508
1023.000	592.512	80.011	19.995	100.198	20.314	4.827	0.493
1023.500	592.756	80.009	19.996	100.195	20.316	4.719	0.509
1024.000	593.020	80.009	19.995	100.188	20.315	4.802	0.519
1024.499	593.294	80.009	19.995	100.187	20.317	4.661	0.523
1024.999	593.550	80.010	19.995	100.187	20.319	4.503	0.534
1025.499	593.798	80.010	19.995	100.191	20.319	4.503	0.517
1026.000	594.031	80.010	19.995	100.196	20.320	4.466	0.492
1026.500	594.331	80.009	19.995	100.196	20.320	4.483	0.507
1026.999	594.609	80.009	19.995	100.200	20.321	4.398	0.556
1027.499	594.843	80.009	19.995	100.198	20.320	4.434	0.545
1028.000	595.095	80.008	19.996	100.192	20.321	4.393	0.499
1028.500	595.340	80.009	19.994	100.186	20.324	4.186	0.491
1028.999	595.603	80.009	19.996	100.185	20.323	4.266	0.503
1029.499	595.887	80.010	19.996	100.182	20.321	4.386	0.528
1029.999	596.124	80.009	19.994	100.181	20.321	4.398	0.534
1030.499	596.395	80.009	19.994	100.181	20.327	3.986	0.514
1030.999	596.598	80.010	19.994	100.181	20.327	3.991	0.491
1031.499	596.900	80.010	19.996	100.182	20.327	4.010	0.490
1031.999	597.111	80.010	19.995	100.183	20.325	4.108	0.509
1032.499	597.348	80.010	19.995	100.183	20.329	3.869	0.480
1032.999	597.644	80.011	19.995	100.183	20.325	4.099	0.491
1033.499	597.882	80.011	19.995	100.183	20.329	3.892	0.534
1033.999	598.146	80.011	19.996	100.183	20.327	3.978	0.518
1034.499	598.401	80.010	19.996	100.183	20.327	4.010	0.510
1034.999	598.630	80.010	19.996	100.183	20.328	3.941	0.502
1035.500	598.897	80.011	19.996	100.185	20.329	3.892	0.490
1036.000	599.160	80.012	19.996	100.186	20.331	3.764	0.513
1036.499	599.403	80.011	19.997	100.185	20.330	3.791	0.518
1036.999	599.678	80.011	19.996	100.184	20.331	3.757	0.512
1037.499	599.937	80.012	19.996	100.181	20.329	3.867	0.526
1037.999	600.162	80.011	19.997	100.181	20.328	3.908	0.509
1038.499	600.433	80.012	19.996	100.182	20.333	3.642	0.490
1038.999	600.679	80.012	19.995	100.185	20.330	3.828	0.506
1039.499	600.938	80.012	19.997	100.185	20.329	3.863	0.511
1039.999	601.183	80.012	19.995	100.187	20.331	3.717	0.504
1040.499	601.443	80.012	19.996	100.185	20.330	3.780	0.504
1040.999	601.681	80.012	19.997	100.184	20.328	3.933	0.502
1041.499	601.940	80.012	19.996	100.181	20.331	3.720	0.498
1041.999	602.188	80.011	19.995	100.181	20.332	3.685	0.502
1042.499	602.480	80.012	19.997	100.180	20.329	3.853	0.524
1043.000	602.738	80.011	19.996	100.180	20.331	3.761	0.545
1043.500	602.965	80.011	19.996	100.178	20.331	3.722	0.517
1043.999	603.226	80.010	19.996	100.177	20.330	3.832	0.486
1044.499	603.523	80.011	19.996	100.176	20.335	3.483	0.523
1044.999	603.744	80.012	19.996	100.177	20.335	3.479	0.538
1045.499	604.021	80.011	19.996	100.175	20.332	3.647	0.508
1045.999	604.290	80.012	19.996	100.176	20.331	3.736	0.522
1046.499	604.508	80.011	19.996	100.176	20.331	3.770	0.516
1046.999	604.794	80.010	19.996	100.175	20.330	3.823	0.495
1047.499	605.050	80.011	19.996	100.173	20.332	3.704	0.523
1047.999	605.279	80.009	19.996	100.173	20.331	3.729	0.514
1048.499	605.549	80.011	19.996	100.173	20.332	3.683	0.492
1048.999	605.801	80.011	19.996	100.174	20.332	3.706	0.511
1049.499	606.082	80.009	19.996	100.175	20.332	3.695	0.528
1049.999	606.324	80.009	19.995	100.175	20.332	3.651	0.528
1050.499	606.547	80.008	19.996	100.179	20.337	3.375	0.493
1050.999	606.821	80.008	19.995	100.180	20.333	3.603	0.481
1051.499	607.065	80.009	19.996	100.180	20.337	3.334	0.508
1051.999	607.331	80.008	19.996	100.183	20.335	3.465	0.514
1052.500	607.577	80.008	19.995	100.183	20.336	3.412	0.511
1053.000	607.787	80.007	19.996	100.179	20.339	3.192	0.484
1053.499	608.049	80.007	19.996	100.179	20.337	3.321	0.464
1053.999	608.335	80.008	19.996	100.178	20.338	3.267	0.510
1054.499	608.600	80.010	19.995	100.177	20.336	3.415	0.550
1054.999	608.859	80.008	19.996	100.177	20.337	3.320	0.537
1055.499	609.090	80.007	19.996	100.179	20.339	3.240	0.506
1055.999	609.326	80.009	19.996	100.178	20.339	3.208	0.478
1056.500	609.580	80.008	19.997	100.177	20.341	3.075	0.479
1057.000	609.825	80.008	19.996	100.176	20.340	3.145	0.495
1057.500	610.102	80.009	19.996	100.177	20.342	3.026	0.511
1058.000	610.366	80.007	19.996	100.177	20.339	3.217	0.531
1058.499	610.599	80.008	19.996	100.177	20.344	2.888	0.519
1058.999	610.866	80.009	19.996	100.178	20.341	3.074	0.499
1059.499	611.099	80.008	19.996	100.178	20.340	3.159	0.500
1059.999	611.342	80.009	19.996	100.177	20.342	3.049	0.488
1060.499	611.600	80.008	19.997	100.175	20.342	3.026	0.488
1060.999	611.879	80.009	19.996	100.175	20.340	3.164	0.518
1061.499	612.181	80.009	19.996	100.174	20.342	3.040	0.559
1061.999	612.420	80.008	19.996	100.175	20.341	3.086	0.562
1062.499	612.637	80.010	19.996	100.175	20.343	2.934	0.499
1062.999	612.890	80.009	19.996	100.175	20.344	2.879	0.463
1063.499	613.141	80.007	19.996	100.174	20.341	3.100	0.486
1063.999	613.396	80.008	19.996	100.174	20.344	2.927	0.505
1064.499	613.644	80.008	19.996	100.174	20.342	3.026	0.505
1064.999	613.911	80.007	19.996	100.176	20.343	2.990	0.509
1065.499	614.182	80.009	19.997	100.176	20.345	2.826	0.527
1065.999	614.439	80.009	19.996	100.177	20.347	2.727	0.533
1066.499	614.726	80.009	19.997	100.178	20.346	2.771	0.535
1066.999	614.992	80.008	19.998	100.178	20.347	2.704	0.549
1067.499	615.235	80.009	19.995	100.176	20.347	2.688	0.531
1067.999	615.525	80.008	19.996	100.177	20.347	2.730	0.521
1068.499	615.781	80.008	19.996	100.176	20.348	2.663	0.540
1068.999	616.067	80.007	19.996	100.175	20.347	2.723	0.544
1069.500	616.259	80.007	19.997	100.174	20.348	2.629	0.510
1070.000	616.524	80.006	19.997	100.175	20.352	2.385	0.467
1070.499	616.801	80.008	19.996	100.175	20.350	2.486	0.500
1070.999	617.021	80.008	19.996	100.176	20.349	2.569	0.520
1071.499	617.294	80.007	19.995	100.176	20.348	2.650	0.495
1071.999	617.548	80.008	19.997	100.176	20.351	2.438	0.509
1072.499	617.826	80.008	19.996	100.175	20.348	2.617	0.529
1073.000	618.066	80.007	19.996	100.175	20.347	2.697	0.526
1073.501	618.319	80.007	19.998	100.175	20.350	2.474	0.506
1074.001	618.564	80.008	19.996	100.174	20.351	2.447	0.495
1074.501	618.826	80.007	19.997	100.174	20.349	2.585	0.502
1075.000	619.081	80.008	19.997	100.174	20.353	2.298	0.512
1075.499	619.337	80.007	19.997	100.174	20.354	2.275	0.514
1075.999	619.611	80.008	19.998	100.174	20.351	2.449	0.521
1076.500	619.832	80.007	19.997	100.174	20.349	2.594	0.512
1077.000	620.078	80.008	19.997	100.174	20.351	2.429	0.481
1077.499	620.343	80.008	19.997	100.174	20.349	2.550	0.489
1077.999	620.621	80.008	19.997	100.174	20.351	2.465	0.527
1078.500	620.849	80.006	19.997	100.174	20.354	2.252	0.524
1079.000	621.089	80.007	19.998	100.174	20.351	2.449	0.487
1079.500	621.345	80.006	19.997	100.174	20.355	2.178	0.482
1080.000	621.614	80.007	19.998	100.175	20.358	2.013	0.510
1080.500	621.862	80.007	19.996	100.175	20.355	2.210	0.521
1081.000	622.126	80.008	19.996	100.176	20.359	1.918	0.515
1081.500	622.380	80.007	19.998	100.176	20.357	2.054	0.515
1082.000	622.645	80.008	19.997	100.175	20.355	2.181	0.518
1082.499	622.929	80.006	19.997	100.175	20.356	2.146	0.534
1082.999	623.148	80.008	19.996	100.176	20.356	2.109	0.526
1083.499	623.393	80.007	19.998	100.176	20.358	1.965	0.484
1083.999	623.660	80.006	19.997	100.176	20.355	2.162	0.488
1084.499	623.880	80.008	19.997	100.181	20.359	1.942	0.499
1084.999	624.136	80.007	19.996	100.183	20.357	2.034	0.482
1085.499	624.409	80.007	19.996	100.183	20.358	1.971	0.502
1085.999	624.647	80.007	19.997	100.183	20.357	2.038	0.520
1086.499	624.894	80.007	19.996	100.182	20.359	1.948	0.498
1087.000	625.149	80.006	19.996	100.178	20.358	1.969	0.493
1087.500	625.391	80.007	19.995	100.176	20.358	1.995	0.500
1087.999	625.636	80.006	19.996	100.176	20.359	1.937	0.492
1088.499	625.923	80.008	19.996	100.176	20.358	1.974	0.509
1088.999	626.165	80.007	19.996	100.176	20.362	1.756	0.531
1089.500	626.430	80.008	19.995	100.177	20.359	1.893	0.518
1090.000	626.653	80.007	19.996	100.177	20.358	1.964	0.497
1090.499	626.911	80.007	19.996	100.178	20.360	1.827	0.485
1090.999	627.158	80.008	19.995	100.179	20.360	1.841	0.494
1091.499	627.406	80.008	19.996	100.179	20.362	1.753	0.500
1092.000	627.620	80.007	19.994	100.178	20.360	1.868	0.478
1092.500	627.918	80.008	19.994	100.178	20.362	1.732	0.486
1092.999	628.185	80.008	19.995	100.178	20.361	1.809	0.538
1093.499	628.416	80.008	19.995	100.178	20.362	1.746	0.532
1093.999	628.698	80.009	19.995	100.178	20.362	1.701	0.506
1094.499	628.917	80.007	19.995	100.176	20.364	1.592	0.507
1094.999	629.184	80.009	19.996	100.175	20.363	1.693	0.493
1095.500	629.416	80.008	19.995	100.175	20.361	1.785	0.493
1096.000	629.658	80.010	19.995	100.176	20.363	1.641	0.487
1096.500	629.923	80.009	19.995	100.176	20.362	1.703	0.491
1097.000	630.158	80.009	19.995	100.178	20.360	1.827	0.504
1097.499	630.389	80.009	19.996	100.178	20.364	1.602	0.483
1097.999	630.712	80.010	19.996	100.178	20.361	1.792	0.510
1098.499	630.925	80.008	19.995	100.177	20.365	1.500	0.545
1098.999	631.204	80.009	19.995	100.177	20.363	1.663	0.514
1099.499	631.449	80.010	19.996	100.177	20.365	1.556	0.508
1099.999	631.693	80.009	19.996	100.176	20.362	1.739	0.507
1100.499	631.911	80.009	19.995	100.176	20.366	1.455	0.475
1100.999	632.187	80.009	19.995	100.176	20.364	1.595	0.477
1101.499	632.404	80.009	19.995	100.175	20.363	1.638	0.493
1101.999	632.696	80.011	19.996	100.176	20.362	1.707	0.501
1102.499	632.918	80.009	19.996	100.176	20.364	1.613	0.512
1102.999	633.172	80.009	19.996	100.176	20.366	1.482	0.495
1103.499	633.440	80.008	19.995	100.175	20.363	1.636	0.499
1103.999	633.639	80.009	19.996	100.175	20.363	1.675	0.495
1104.499	633.944	80.008	19.996	100.174	20.365	1.540	0.486
1104.999	634.176	80.009	19.996	100.173	20.365	1.547	0.520
1105.499	634.465	80.009	19.996	100.173	20.364	1.588	0.529
1105.999	634.718	80.011	19.996	100.173	20.365	1.554	0.532
1106.500	634.972	80.009	19.995	100.174	20.364	1.597	0.525
1107.000	635.234	80.009	19.996	100.174	20.363	1.654	0.511
1107.499	635.480	80.009	19.996	100.174	20.366	1.477	0.512
1107.999	635.724	80.008	19.995	100.175	20.365	1.554	0.499
1108.499	635.973	80.010	19.995	100.177	20.366	1.445	0.492
1108.999	636.242	80.008	19.995	100.176	20.363	1.682	0.506
1109.500	636.495	80.009	19.996	100.176	20.366	1.477	0.520
1110.000	636.732	80.008	19.996	100.176	20.365	1.519	0.506
1110.499	636.986	80.010	19.996	100.175	20.363	1.693	0.490
1110.999	637.197	80.009	19.995	100.173	20.365	1.560	0.478
1111.499	637.467	80.009	19.996	100.172	20.368	1.328	0.473
1112.000	637.752	80.008	19.995	100.172	20.367	1.413	0.518
1112.500	637.984	80.009	19.997	100.172	20.367	1.420	0.536
1112.999	638.258	80.008	19.996	100.173	20.367	1.374	0.512
1113.499	638.470	80.009	19.996	100.173	20.369	1.294	0.496
1113.999	638.727	80.009	19.996	100.171	20.368	1.354	0.477
1114.500	638.999	80.010	19.996	100.168	20.367	1.372	0.499
1115.000	639.224	80.009	19.996	100.167	20.367	1.416	0.513
1115.499	639.508	80.010	19.996	100.167	20.367	1.388	0.503
1115.999	639.710	80.009	19.995	100.167	20.369	1.269	0.497
1116.500	639.975	80.010	19.996	100.170	20.368	1.314	0.476
1117.000	640.242	80.010	19.995	100.171	20.367	1.418	0.499
1117.499	640.484	80.010	19.996	100.170	20.366	1.457	0.521
1117.999	640.723	80.011	19.996	100.170	20.368	1.307	0.495
1118.499	640.987	80.011	19.996	100.170	20.368	1.323	0.492
1119.000	641.265	80.012	19.996	100.170	20.369	1.303	0.523
1119.500	641.464	80.010	19.995	100.171	20.368	1.367	0.509
1119.999	641.752	80.011	19.995	100.173	20.371	1.170	0.482
1120.499	641.983	80.012	19.996	100.173	20.372	1.050	0.503
1120.999	642.214	80.011	19.995	100.175	20.371	1.121	0.490
1121.499	642.466	80.011	19.996	100.176	20.370	1.231	0.472
1121.999	642.740	80.011	19.995	100.179	20.371	1.169	0.504
1122.499	642.984	80.010	19.996	100.181	20.372	1.108	0.522
1122.999	643.206	80.012	19.994	100.181	20.369	1.287	0.493
1123.499	643.454	80.010	19.995	100.179	20.369	1.241	0.468
1123.999	643.726	80.012	19.995	100.177	20.372	1.085	0.495
1124.499	643.992	80.010	19.996	100.174	20.374	0.954	0.529
1124.999	644.206	80.011	19.994	100.173	20.375	0.880	0.509
1125.499	644.471	80.011	19.995	100.173	20.377	0.776	0.479
1126.000	644.726	80.011	19.995	100.173	20.374	0.938	0.500
1126.500	644.975	80.011	19.995	100.173	20.375	0.894	0.512
1126.999	645.201	80.011	19.996	100.173	20.375	0.885	0.490
1127.499	645.449	80.010	19.996	100.172	20.373	0.988	0.475
1128.000	645.714	80.011	19.995	100.172	20.376	0.829	0.494
1128.500	645.992	80.011	19.994	100.173	20.375	0.905	0.528
1128.999	646.230	80.010	19.995	100.173	20.375	0.857	0.529
1129.499	646.476	80.011	19.995	100.173	20.376	0.829	0.499
1130.000	646.715	80.012	19.995	100.173	20.378	0.664	0.484
1130.500	647.008	80.010	19.994	100.173	20.378	0.701	0.509
1131.000	647.241	80.010	19.995	100.173	20.379	0.595	0.529
1131.500	647.498	80.009	19.995	100.173	20.378	0.694	0.507
1131.999	647.788	80.009	19.995	100.173	20.380	0.586	0.518
1132.499	647.996	80.009	19.996	100.174	20.377	0.731	0.523
1132.999	648.243	80.007	19.995	100.175	20.376	0.848	0.477
1133.499	648.489	80.009	19.994	100.175	20.374	0.967	0.474
1133.999	648.737	80.007	19.995	100.175	20.378	0.712	0.494
1134.499	649.006	80.008	19.995	100.176	20.373	0.997	0.505
1134.999	649.285	80.007	19.996	100.177	20.377	0.756	0.532
1135.499	649.517	80.008	19.996	100.178	20.377	0.761	0.529
1136.000	649.782	80.008	19.996	100.178	20.374	0.931	0.504
1136.500	650.042	80.007	19.996	100.178	20.379	0.650	0.511
1136.999	650.271	80.007	19.996	100.178	20.379	0.629	0.507
1137.499	650.537	80.009	19.996	100.178	20.376	0.788	0.492
1137.999	650.835	80.008	19.996	100.176	20.380	0.563	0.529
1138.499	651.066	80.008	19.996	100.175	20.380	0.568	0.546
1138.999	651.307	80.006	19.996	100.175	20.381	0.492	0.501
1139.499	651.590	80.007	19.996	100.175	20.378	0.671	0.498
1139.999	651.840	80.008	19.996	100.176	20.380	0.540	0.528
1140.499	652.067	80.008	19.997	100.175	20.381	0.480	0.505
1141.000	652.335	80.007	19.996	100.175	20.379	0.632	0.486
1141.500	652.588	80.007	19.995	100.176	20.381	0.519	0.507
1142.000	652.856	80.008	19.996	100.177	20.379	0.637	0.521
1142.499	653.107	80.008	19.996	100.178	20.381	0.473	0.520
1143.000	653.345	80.007	19.996	100.180	20.378	0.657	0.504
1143.500	653.610	80.008	19.996	100.182	20.384	0.289	0.496
1143.999	653.883	80.009	19.996	100.183	20.381	0.489	0.520
1144.499	654.146	80.007	19.996	100.182	20.382	0.427	0.537
1144.999	654.379	80.009	19.995	100.180	20.379	0.641	0.517
1145.499	654.636	80.009	19.995	100.179	20.378	0.694	0.493
1145.999	654.882	80.007	19.995	100.178	20.380	0.583	0.496
1146.499	655.141	80.008	19.995	100.177	20.381	0.505	0.504
1146.999	655.429	80.007	19.997	100.177	20.383	0.390	0.526
1147.499	655.633	80.008	19.995	100.177	20.381	0.485	0.520
1147.999	655.894	80.007	19.996	100.176	20.381	0.521	0.479
1148.499	656.140	80.009	19.996	100.177	20.384	0.303	0.486
1148.999	656.413	80.008	19.995	100.177	20.381	0.490	0.513
1149.499	656.657	80.007	19.995	100.176	20.384	0.280	0.518
1149.999	656.937	80.008	19.996	100.177	20.382	0.446	0.520
1150.499	657.162	80.009	19.996	100.177	20.383	0.374	0.515
1150.999	657.433	80.008	19.995	100.175	20.381	0.476	0.501
1151.500	657.655	80.008	19.995	100.175	20.381	0.522	0.495
1152.000	657.907	80.009	19.995	100.175	20.382	0.432	0.483
1152.499	658.196	80.010	19.996	100.175	20.380	0.544	0.507
1152.999	658.472	80.009	19.995	100.175	20.383	0.381	0.553
1153.499	658.707	80.008	19.996	100.176	20.382	0.451	0.538
1153.999	658.978	80.008	19.995	100.176	20.380	0.533	0.509
1154.500	659.189	80.008	19.997	100.176	20.381	0.490	0.494
1155.000	659.496	80.008	19.996	100.176	20.384	0.312	0.500
1155.499	659.736	80.007	19.995	100.177	20.383	0.363	0.533
1155.999	660.004	80.008	19.996	100.176	20.383	0.365	0.527
1156.499	660.246	80.008	19.995	100.177	20.385	0.264	0.509
1156.999	660.493	80.009	19.994	100.177	20.385	0.228	0.500
1157.499	660.773	80.007	19.996	100.178	20.380	0.529	0.508
1157.999	661.029	80.007	19.996	100.178	20.384	0.282	0.531
1158.500	661.282	80.007	19.996	100.177	20.384	0.326	0.523
1159.000	661.548	80.008	19.995	100.177	20.381	0.469	0.514
1159.499	661.818	80.007	19.995	100.177	20.385	0.202	0.527
1159.999	662.043	80.007	19.996	100.177	20.386	0.191	0.515
1160.499	662.280	80.008	19.995	100.177	20.385	0.200	0.479
1160.999	662.553	80.004	19.996	100.178	20.387	0.078	0.486
1161.499	662.802	80.007	19.995	100.178	20.384	0.292	0.516
1161.999	663.039	80.007	19.995	100.178	20.383	0.333	0.504
1162.499	663.316	80.008	19.995	100.178	20.382	0.434	0.501
1162.999	663.556	80.007	19.996	100.178	20.382	0.436	0.515
1163.499	663.825	80.007	19.996	100.177	20.385	0.218	0.513
1163.999	664.076	80.006	19.995	100.177	20.383	0.374	0.515
1164.499	664.369	80.008	19.996	100.177	20.385	0.235	0.532
1164.999	664.607	80.007	19.997	100.177	20.384	0.301	0.537
1165.500	664.822	80.007	19.996	100.177	20.385	0.241	0.492
1166.000	665.080	80.007	19.996	100.177	20.384	0.296	0.463
1166.500	665.368	80.008	19.996	100.176	20.386	0.142	0.510
1167.000	665.622	80.007	19.997	100.174	20.383	0.358	0.544
1167.500	665.861	80.006	19.997	100.173	20.382	0.400	0.517
1168.000	666.104	80.009	19.996	100.173	20.384	0.319	0.487
1168.499	666.390	80.006	19.997	100.173	20.384	0.271	0.506
1168.999	666.659	80.008	19.997	100.173	20.382	0.436	0.542
1169.499	666.919	80.007	19.996	100.174	20.386	0.161	0.542
1169.999	667.188	80.007	19.997	100.175	20.384	0.322	0.529
1170.499	667.461	80.007	19.997	100.174	20.386	0.140	0.536
1170.999	667.708	80.007	19.997	100.174	20.381	0.485	0.531
1171.500	667.911	80.007	19.998	100.174	20.380	0.584	0.485
1172.000	668.155	80.007	19.996	100.174	20.383	0.375	0.448
1172.499	668.429	80.009	19.996	100.173	20.383	0.338	0.482
1172.999	668.673	80.008	19.996	100.173	20.383	0.356	0.518
1173.499	668.944	80.008	19.996	100.172	20.385	0.255	0.517
1173.999	669.218	80.007	19.997	100.169	20.386	0.195	0.530
1174.500	669.451	80.007	19.997	100.169	20.385	0.237	0.527
1175.000	669.686	80.009	19.996	100.170	20.386	0.140	0.488
1175.499	669.979	80.009	19.998	100.169	20.385	0.200	0.498
1175.999	670.211	80.010	19.997	100.170	20.384	0.294	0.527
1176.499	670.470	80.008	19.997	100.171	20.385	0.232	0.508
1176.999	670.731	80.010	19.997	100.171	20.388	0.058	0.505
1177.499	670.954	80.007	19.998	100.171	20.385	0.207	0.502
1177.999	671.254	80.008	19.996	100.171	20.387	0.115	0.504
1178.499	671.486	80.009	19.996	100.171	20.385	0.234	0.527
1178.999	671.722	80.010	19.997	100.171	20.384	0.297	0.500
1179.499	671.972	80.009	19.997	100.172	20.387	0.087	0.477
1179.999	672.271	80.011	19.997	100.172	20.389	-0.028	0.517
1180.500	672.540	80.010	19.996	100.171	20.386	0.142	0.558
1181.000	672.764	80.008	19.996	100.171	20.385	0.230	0.531
1181.499	672.993	80.009	19.997	100.172	20.384	0.273	0.474
1181.999	673.288	80.010	19.996	100.171	20.386	0.197	0.489
1182.500	673.518	80.010	19.996	100.172	20.386	0.161	0.525
1183.000	673.790	80.010	19.996	100.171	20.386	0.165	0.514
1183.500	674.038	80.010	19.996	100.171	20.390	-0.092	0.511
1184.000	674.317	80.009	19.996	100.171	20.387	0.108	0.524
1184.499	674.566	80.011	19.996	100.172	20.389	-0.027	0.528
1184.999	674.796	80.009	19.995	100.172	20.386	0.166	0.503
1185.499	675.071	80.010	19.996	100.172	20.389	-0.050	0.492
1185.999	675.312	80.009	19.996	100.172	20.386	0.165	0.510
1186.499	675.530	80.009	19.996	100.172	20.390	-0.087	0.487
1186.999	675.807	80.009	19.996	100.173	20.386	0.147	0.477
1187.500	676.118	80.010	19.996	100.173	20.392	-0.214	0.542
1188.000	676.364	80.009	19.995	100.174	20.390	-0.062	0.573
1188.500	676.638	80.010	19.996	100.174	20.390	-0.076	0.538
1189.000	676.883	80.010	19.995	100.174	20.390	-0.073	0.519
1189.500	677.112	80.009	19.996	100.172	20.389	-0.032	0.497
1189.999	677.387	80.009	19.996	100.173	20.387	0.083	0.489
1190.499	677.642	80.010	19.995	100.172	20.387	0.090	0.517
1191.000	677.906	80.009	19.996	100.172	20.389	0.002	0.524
1191.500	678.156	80.010	19.995	100.171	20.389	-0.034	0.517
1191.999	678.393	80.009	19.995	100.172	20.386	0.152	0.500
1192.499	678.662	80.010	19.995	100.172	20.384	0.324	0.496
1192.999	678.933	80.009	19.996	100.173	20.383	0.384	0.523
1193.499	679.188	80.009	19.996	100.173	20.391	-0.131	0.533
1193.999	679.434	80.009	19.995	100.173	20.387	0.110	0.514
1194.499	679.659	80.010	19.996	100.173	20.389	-0.028	0.486
1194.999	679.922	80.010	19.996	100.173	20.388	0.046	0.479
1195.499	680.195	80.010	19.996	100.172	20.388	0.025	0.512
1195.999	680.417	80.009	19.996	100.173	20.386	0.193	0.515
1196.499	680.691	80.009	19.995	100.172	20.392	-0.241	0.496
1196.999	680.953	80.010	19.997	100.172	20.381	0.474	0.516
1197.499	681.194	80.009	19.995	100.171	20.389	0.002	0.520
1198.000	681.470	80.010	19.996	100.172	20.390	-0.087	0.510
1198.500	681.747	80.009	19.995	100.172	20.391	-0.172	0.535
1199.000	682.009	80.011	19.995	100.172	20.388	0.050	0.546
1199.499	682.226	80.010	19.995	100.172	20.389	-0.005	0.509
1199.999	682.452	80.011	19.995	100.172	20.388	0.016	0.461
1200.499	682.733	80.009	19.996	100.171	20.389	-0.009	0.475
1201.000	683.010	80.009	19.996	100.170	20.388	0.051	0.533
1201.500	683.227	80.010	19.995	100.170	20.389	-0.011	0.526
1201.999	683.472	80.010	19.996	100.169	20.390	-0.078	0.478
1202.499	683.787	80.009	19.995	100.169	20.386	0.177	0.511
1202.999	684.002	80.010	19.995	100.170	20.386	0.195	0.545
1203.499	684.223	80.010	19.995	100.171	20.390	-0.117	0.483
1203.999	684.482	80.011	19.995	100.171	20.391	-0.149	0.458
1204.499	684.748	80.010	19.995	100.172	20.388	0.062	0.502
1204.999	684.961	80.012	19.995	100.173	20.389	-0.005	0.502
1205.499	685.426	80.011	19.996	100.173	20.388	0.055	0.579
1205.999	685.389	80.011	19.995	100.173	20.390	-0.064	0.554
1206.499	686.635	80.012	19.997	100.174	20.388	0.018	0.819
1206.999	685.948	80.011	19.995	100.174	20.389	-0.058	0.883
1207.499	686.385	80.011	19.995	100.174	20.389	-0.053	0.154
1207.999	686.546	80.011	19.995	100.174	20.389	-0.012	0.174
1208.499	686.772	80.010	19.995	100.175	20.390	-0.073	0.493
1208.999	686.982	80.012	19.995	100.174	20.386	0.156	0.412
1209.499	687.265	80.011	19.996	100.175	20.386	0.135	0.464
1209.999	687.498	80.010	19.995	100.174	20.388	0.064	0.504
1210.500	687.876	80.011	19.995	100.174	20.388	0.012	0.563
1211.000	688.125	80.011	19.995	100.173	20.386	0.179	0.619
1211.499	688.222	80.011	19.995	100.173	20.389	-0.030	0.487
1211.999	688.502	80.011	19.995	100.173	20.386	0.136	0.361
1212.499	688.785	80.010	19.995	100.173	20.388	0.060	0.470
1213.000	688.992	80.011	19.995	100.174	20.389	-0.014	0.527
1213.500	689.241	80.011	19.995	100.173	20.386	0.191	0.473
1213.999	689.500	80.010	19.995	100.174	20.386	0.165	0.482
1214.500	689.734	80.009	19.994	100.174	20.386	0.163	0.501
1215.000	689.995	80.009	19.995	100.173	20.385	0.200	0.494
1215.500	690.272	80.009	19.995	100.173	20.391	-0.140	0.516
1216.000	690.460	80.008	19.996	100.175	20.387	0.073	0.501
1216.500	690.792	80.008	19.995	100.175	20.387	0.092	0.492
1216.999	691.002	80.008	19.994	100.175	20.389	-0.019	0.531
1217.499	691.228	80.008	19.995	100.177	20.390	-0.090	0.489
1217.999	691.481	80.008	19.995	100.177	20.391	-0.184	0.457
1218.499	691.715	80.008	19.994	100.176	20.391	-0.147	0.483
1218.999	691.971	80.008	19.996	100.177	20.389	-0.030	0.489
1219.499	692.193	80.009	19.995	100.176	20.391	-0.152	0.485
1219.999	692.499	80.008	19.995	100.176	20.391	-0.142	0.503
1220.499	692.736	80.010	19.995	100.176	20.390	-0.074	0.535
1221.000	692.980	80.009	19.996	100.176	20.392	-0.200	0.512
1221.500	693.246	80.009	19.994	100.176	20.392	-0.198	0.496
1222.000	693.466	80.008	19.995	100.173	20.391	-0.127	0.498
1222.499	693.705	80.008	19.994	100.170	20.391	-0.166	0.472
1222.999	693.960	80.008	19.995	100.170	20.388	0.058	0.477
1223.499	694.205	80.009	19.994	100.170	20.388	0.027	0.497
1223.999	694.452	80.009	19.995	100.170	20.386	0.145	0.496
1224.499	694.667	80.008	19.994	100.175	20.388	0.062	0.477
1225.000	694.936	80.010	19.994	100.178	20.388	0.048	0.473
1225.500	695.164	80.009	19.995	100.178	20.391	-0.158	0.490
1225.999	695.412	80.008	19.994	100.176	20.388	0.023	0.486
1226.499	695.692	80.008	19.994	100.174	20.389	-0.027	0.502
1226.999	695.953	80.008	19.996	100.169	20.388	0.034	0.535
1227.499	696.141	80.007	19.994	100.168	20.387	0.073	0.496
1227.999	696.384	80.009	19.995	100.168	20.392	-0.198	0.440
1228.499	696.648	80.008	19.994	100.169	20.390	-0.092	0.468
1228.999	696.908	80.009	19.994	100.171	20.388	0.039	0.515
1229.499	697.149	80.009	19.995	100.176	20.388	0.067	0.513
1229.999	697.412	80.011	19.996	100.176	20.386	0.159	0.503
1230.499	697.652	80.008	19.995	100.177	20.388	0.032	0.503
1231.000	697.875	80.010	19.996	100.177	20.389	0.000	0.483
1231.500	698.122	80.008	19.995	100.177	20.390	-0.097	0.467
1231.999	698.327	80.009	19.995	100.177	20.389	0.002	0.461
1232.499	698.656	80.008	19.996	100.176	20.387	0.097	0.493
1232.999	698.866	80.009	19.995	100.176	20.389	-0.032	0.537
1233.500	699.129	80.009	19.996	100.177	20.387	0.076	0.507
1234.000	699.347	80.009	19.995	100.176	20.391	-0.189	0.477
1234.499	699.612	80.009	19.996	100.176	20.387	0.099	0.481
1235.000	699.844	80.010	19.996	100.177	20.388	0.057	0.490
1235.500	700.057	80.010	19.996	100.176	20.390	-0.096	0.471
1235.999	700.306	80.009	19.996	100.176	20.387	0.096	0.454
1236.499	700.564	80.008	19.996	100.174	20.388	0.028	0.485
1237.000	700.803	80.009	19.995	100.172	20.390	-0.104	0.502
1237.500	701.048	80.008	19.995	100.172	20.387	0.074	0.490
1238.000	701.284	80.009	19.997	100.171	20.388	0.032	0.483
1238.500	701.500	80.008	19.995	100.172	20.390	-0.099	0.467
1238.999	701.763	80.009	19.996	100.173	20.392	-0.248	0.466
1239.499	702.017	80.009	19.996	100.173	20.390	-0.126	0.498
1239.999	702.246	80.008	19.996	100.172	20.391	-0.168	0.500
1240.499	702.509	80.009	19.996	100.172	20.390	-0.094	0.487
1240.999	702.724	80.007	19.996	100.172	20.392	-0.207	0.485
1241.499	702.966	80.008	19.997	100.171	20.390	-0.096	0.468
1241.999	703.239	80.008	19.996	100.172	20.389	0.002	0.486
1242.499	703.468	80.009	19.997	100.173	20.386	0.143	0.509
1242.999	703.700	80.007	19.996	100.173	20.392	-0.209	0.482
1243.500	703.970	80.007	19.996	100.173	20.390	-0.112	0.481
1244.000	704.207	80.009	19.996	100.173	20.391	-0.138	0.504
1244.499	704.437	80.007	19.996	100.172	20.388	0.039	0.487
1245.000	704.682	80.007	19.996	100.173	20.388	0.009	0.471
1245.500	704.915	80.009	19.996	100.173	20.389	-0.034	0.477
1245.999	705.111	80.008	19.996	100.173	20.386	0.147	0.454
1246.499	705.378	80.009	19.996	100.173	20.388	0.053	0.446
1246.999	705.635	80.008	19.997	100.173	20.391	-0.184	0.493
1247.499	705.864	80.009	19.996	100.173	20.388	0.005	0.505
1247.999	706.121	80.008	19.997	100.173	20.390	-0.119	0.486
1248.499	706.347	80.008	19.996	100.173	20.388	0.066	0.484
1248.999	706.637	80.009	19.996	100.173	20.390	-0.081	0.500
1249.499	706.847	80.008	19.996	100.174	20.389	-0.019	0.508
1250.000	707.101	80.006	19.996	100.173	20.388	0.014	0.482
1250.500	707.349	80.009	19.997	100.173	20.388	0.058	0.483
1251.000	707.598	80.007	19.996	100.172	20.391	-0.143	0.500
1251.500	707.830	80.009	19.996	100.171	20.390	-0.101	0.490
1252.000	708.071	80.007	19.997	100.170	20.390	-0.062	0.477
1252.500	708.342	80.009	19.996	100.169	20.388	0.027	0.492
1253.000	708.575	80.008	19.996	100.169	20.388	0.037	0.508
1253.500	708.800	80.008	19.996	100.169	20.388	0.005	0.482
1253.999	709.107	80.010	19.996	100.170	20.389	-0.041	0.495
1254.499	709.293	80.009	19.997	100.171	20.389	-0.034	0.512
1254.999	709.560	80.009	19.997	100.170	20.389	-0.032	0.473
1255.499	709.814	80.009	19.995	100.172	20.387	0.108	0.487
1255.999	710.012	80.008	19.995	100.172	20.389	-0.050	0.487
1256.499	710.273	80.009	19.996	100.172	20.386	0.142	0.456
1256.999	710.524	80.009	19.996	100.172	20.388	0.030	0.486
1257.499	710.781	80.009	19.996	100.169	20.388	0.041	0.510
1257.999	711.033	80.010	19.997	100.165	20.387	0.099	0.508
1258.500	711.285	80.009	19.997	100.164	20.389	-0.002	0.507
1259.000	711.512	80.009	19.996	100.163	20.387	0.092	0.492
1259.499	711.694	80.011	19.997	100.164	20.387	0.081	0.444
1260.000	711.985	80.011	19.997	100.168	20.388	0.062	0.441
1260.500	712.221	80.009	19.996	100.169	20.387	0.071	0.500
1261.000	712.485	80.010	19.996	100.169	20.389	-0.005	0.514
1261.500	712.714	80.011	19.995	100.170	20.387	0.110	0.497
1261.999	712.969	80.011	19.996	100.170	20.388	0.053	0.488
1262.499	713.210	80.010	19.996	100.170	20.390	-0.094	0.490
1262.999	713.472	80.011	19.996	100.172	20.387	0.129	0.499
1263.499	713.704	80.011	19.996	100.172	20.386	0.191	0.499
1263.999	713.976	80.010	19.997	100.172	20.385	0.207	0.500
1264.499	714.233	80.011	19.997	100.172	20.389	-0.016	0.517
1265.000	714.484	80.009	19.997	100.172	20.386	0.136	0.519
1265.500	714.705	80.010	19.996	100.172	20.388	0.064	0.490
1265.999	714.973	80.011	19.996	100.171	20.388	0.058	0.480
1266.500	715.209	80.010	19.996	100.171	20.387	0.124	0.497
1267.000	715.460	80.009	19.996	100.172	20.387	0.112	0.496
1267.499	715.727	80.009	19.996	100.172	20.388	0.035	0.502
1267.999	715.960	80.009	19.996	100.172	20.389	-0.012	0.509
1268.500	716.233	80.009	19.996	100.171	20.390	-0.085	0.503
1269.000	716.441	80.009	19.996	100.171	20.389	-0.051	0.493
1269.499	716.674	80.010	19.997	100.170	20.389	0.004	0.461
1269.999	716.955	80.008	19.996	100.167	20.387	0.087	0.478
1270.499	717.223	80.008	19.998	100.168	20.388	0.055	0.531
1270.999	717.470	80.009	19.997	100.169	20.386	0.191	0.532
1271.499	717.706	80.010	19.997	100.169	20.386	0.163	0.499
1271.999	717.955	80.008	19.997	100.170	20.389	-0.016	0.484
1272.499	718.195	80.009	19.997	100.173	20.388	0.016	0.487
1272.999	718.478	80.009	19.997	100.173	20.390	-0.074	0.506
1273.499	718.671	80.007	19.997	100.173	20.390	-0.085	0.500
1273.999	718.931	80.009	19.996	100.174	20.389	-0.025	0.464
1274.500	719.203	80.009	19.996	100.174	20.384	0.271	0.492
1275.000	719.463	80.010	19.996	100.174	20.387	0.112	0.532
1275.499	719.697	80.008	19.998	100.174	20.388	0.034	0.513
1275.999	719.949	80.009	19.996	100.175	20.385	0.228	0.490
1276.499	720.217	80.009	19.996	100.174	20.384	0.315	0.503
1276.999	720.469	80.009	19.996	100.174	20.389	-0.002	0.520
1277.499	720.696	80.008	19.997	100.175	20.385	0.241	0.500
1277.999	720.960	80.009	19.997	100.175	20.390	-0.089	0.485
1278.499	721.186	80.009	19.996	100.175	20.390	-0.119	0.490
1278.999	721.451	80.009	19.997	100.175	20.386	0.197	0.491
1279.499	721.718	80.010	19.996	100.175	20.384	0.278	0.512
1279.999	721.954	80.009	19.996	100.175	20.391	-0.163	0.517
1280.500	722.189	80.010	19.997	100.175	20.387	0.092	0.487
1281.000	722.472	80.009	19.996	100.175	20.385	0.209	0.494
1281.499	722.741	80.009	19.995	100.175	20.387	0.101	0.535
1281.999	722.988	80.010	19.996	100.175	20.389	-0.011	0.534
1282.499	723.232	80.010	19.996	100.174	20.388	0.060	0.504
1283.000	723.490	80.010	19.995	100.175	20.388	0.048	0.496
1283.500	723.774	80.010	19.996	100.174	20.388	0.005	0.522
1283.999	723.969	80.011	19.995	100.174	20.390	-0.067	0.511
1284.499	724.232	80.009	19.996	100.175	20.386	0.143	0.469
1284.999	724.511	80.010	19.996	100.175	20.391	-0.158	0.500
1285.499	724.755	80.011	19.995	100.174	20.391	-0.135	0.532
1285.999	725.011	80.012	19.994	100.175	20.389	-0.002	0.512
1286.499	725.278	80.012	19.995	100.176	20.387	0.110	0.512
1286.999	725.483	80.011	19.996	100.177	20.387	0.087	0.497
1287.499	725.752	80.011	19.996	100.176	20.391	-0.149	0.473
1288.000	725.988	80.009	19.996	100.176	20.385	0.212	0.490
1288.500	726.240	80.012	19.994	100.176	20.388	0.066	0.496
1288.999	726.490	80.011	19.995	100.174	20.389	-0.057	0.494
1289.499	726.749	80.011	19.994	100.174	20.390	-0.080	0.505
1290.000	727.011	80.012	19.995	100.175	20.388	0.016	0.515
1290.500	727.246	80.011	19.995	100.174	20.386	0.143	0.509
1290.999	727.532	80.011	19.994	100.174	20.390	-0.120	0.509
1291.499	727.761	80.010	19.994	100.174	20.386	0.188	0.518
1291.999	728.026	80.010	19.995	100.175	20.386	0.154	0.505
1292.499	728.325	80.011	19.995	100.174	20.386	0.143	0.530
1292.999	728.543	80.010	19.994	100.175	20.387	0.119	0.541
1293.499	728.778	80.011	19.995	100.176	20.386	0.140	0.485
1293.999	729.066	80.009	19.996	100.176	20.385	0.218	0.487
1294.499	729.293	80.009	19.994	100.176	20.385	0.200	0.518
1294.999	729.570	80.009	19.994	100.176	20.387	0.097	0.510
1295.500	729.812	80.009	19.995	100.175	20.387	0.074	0.512
1296.000	730.043	80.008	19.995	100.175	20.385	0.228	0.496
1296.499	730.313	80.010	19.995	100.175	20.388	0.018	0.487
1296.999	730.585	80.008	19.995	100.175	20.385	0.223	0.521
1297.499	730.806	80.009	19.995	100.174	20.384	0.266	0.518
1297.999	731.106	80.008	19.995	100.175	20.383	0.366	0.507
1298.499	731.312	80.009	19.996	100.175	20.386	0.197	0.513
1298.999	731.586	80.008	19.995	100.176	20.385	0.228	0.493
1299.499	731.834	80.009	19.995	100.175	20.386	0.154	0.501
1299.999	732.090	80.009	19.995	100.173	20.384	0.322	0.513
1300.499	732.331	80.008	19.995	100.173	20.385	0.237	0.500
1300.999	732.591	80.008	19.994	100.172	20.386	0.168	0.499
1301.499	732.854	80.010	19.996	100.172	20.389	-0.019	0.512
1301.999	733.117	80.009	19.995	100.172	20.387	0.069	0.525
1302.499	733.350	80.008	19.996	100.175	20.388	0.014	0.511
1302.999	733.604	80.008	19.996	100.176	20.389	0.002	0.492
1303.499	733.862	80.008	19.996	100.176	20.386	0.174	0.500
1303.999	734.131	80.009	19.995	100.175	20.383	0.366	0.519
1304.499	734.351	80.008	19.996	100.174	20.382	0.398	0.508
1304.999	734.600	80.009	19.995	100.173	20.386	0.163	0.479
1305.499	734.858	80.009	19.995	100.173	20.387	0.083	0.488
1305.999	735.079	80.009	19.996	100.172	20.389	-0.007	0.493
1306.499	735.317	80.008	19.996	100.173	20.384	0.285	0.469
1307.000	735.569	80.009	19.996	100.173	20.385	0.244	0.475
1307.500	735.846	80.009	19.996	100.173	20.385	0.264	0.510
1307.999	736.086	80.009	19.995	100.173	20.387	0.124	0.523
1308.499	736.309	80.010	19.996	100.171	20.386	0.163	0.490
1308.999	736.610	80.008	19.996	100.170	20.384	0.282	0.494
1309.499	736.854	80.008	19.996	100.170	20.388	0.041	0.535
1309.999	737.099	80.007	19.996	100.170	20.387	0.117	0.517
1310.500	737.328	80.009	19.996	100.171	20.388	0.041	0.481
1311.000	737.579	80.010	19.996	100.172	20.386	0.152	0.477
1311.500	737.811	80.009	19.995	100.173	20.385	0.200	0.481
1311.999	738.065	80.009	19.996	100.173	20.384	0.289	0.484
1312.499	738.304	80.010	19.995	100.173	20.388	0.053	0.490
1312.999	738.571	80.010	19.995	100.171	20.386	0.150	0.500
1313.499	738.826	80.010	19.996	100.170	20.387	0.127	0.514
1313.999	739.073	80.009	19.996	100.171	20.389	-0.019	0.512
1314.499	739.331	80.011	19.996	100.171	20.388	0.016	0.504
1315.000	739.556	80.010	19.996	100.170	20.389	-0.014	0.494
1315.500	739.837	80.011	19.996	100.171	20.388	0.011	0.494
1316.000	740.102	80.010	19.995	100.172	20.389	-0.014	0.526
1316.499	740.331	80.009	19.995	100.171	20.386	0.156	0.520
1316.999	740.572	80.008	19.996	100.170	20.386	0.193	0.482
1317.499	740.819	80.009	19.996	100.170	20.385	0.223	0.479
1317.999	741.109	80.008	19.996	100.169	20.384	0.299	0.513
1318.500	741.347	80.010	19.995	100.169	20.384	0.322	0.532
1319.000	741.573	80.009	19.996	100.170	20.387	0.126	0.496
1319.500	741.850	80.008	19.995	100.172	20.385	0.216	0.483
1319.999	742.077	80.010	19.995	100.173	20.389	0.002	0.504
1320.499	742.308	80.010	19.995	100.173	20.387	0.073	0.482
1320.999	742.597	80.009	19.996	100.174	20.386	0.149	0.489
1321.499	742.842	80.010	19.996	100.173	20.385	0.258	0.527
1321.999	743.110	80.010	19.996	100.173	20.387	0.074	0.523
1322.499	743.339	80.009	19.995	100.173	20.387	0.110	0.505
1322.999	743.614	80.011	19.995	100.174	20.385	0.239	0.501
