Sample ID:	C:\MCC\MCC Cal\Test\PC_MCC_30K_min_210921_R1.txt
Sample Weight (mg):	4.34
Heating Rate (C/s):	0.5
Combustor Temp (C):	900
N2 Flow Rate (cc/min):	80
O2 Flow Rate (cc/min):	20
Calibration File:	C:\MCC\MCC Cal\Coeff1 JN10440_30_210304.txt.txt
T Correction Coefficients:	0	1.024463	0
Time Shift (s):	14
*
Time (s)	Temperature (C)	N2 flow rate (cc/min)	O2 flow rate (cc/min)	Flow Rate (cc/min)	Oxygen (%)	HRR (W/g)	Heating rate (C/s)
0.000	106.785	79.994	19.995	99.866	20.008	0.008	0.020
0.500	106.732	79.994	19.995	99.868	20.010	-0.135	-0.024
1.000	106.783	79.994	19.995	99.865	20.007	0.054	-0.039
1.500	106.766	79.994	19.994	99.865	20.008	-0.029	0.016
2.000	106.763	79.996	19.995	99.862	20.011	-0.250	0.007
2.500	106.767	79.996	19.995	99.860	20.007	0.043	-0.009
3.000	106.737	79.995	19.995	99.864	20.008	-0.004	-0.012
3.500	106.744	79.995	19.995	99.872	20.008	-0.021	-0.025
4.001	106.752	79.995	19.995	99.875	20.005	0.163	-0.004
4.500	106.760	79.994	19.995	99.877	20.010	-0.155	0.016
5.000	106.771	79.993	19.995	99.878	20.009	-0.079	0.017
5.500	106.737	79.994	19.995	99.874	20.008	-0.021	-0.002
6.000	106.771	79.995	19.995	99.867	20.008	-0.008	-0.011
6.500	106.743	79.995	19.994	99.864	20.006	0.122	0.003
7.000	106.782	79.994	19.995	99.865	20.006	0.085	0.008
7.500	106.774	79.996	19.994	99.862	20.008	-0.045	0.021
8.000	106.787	79.994	19.994	99.864	20.007	0.017	0.018
8.500	106.741	79.995	19.995	99.868	20.007	0.048	-0.014
9.000	106.748	79.995	19.995	99.872	20.005	0.188	-0.036
9.500	106.746	79.995	19.994	99.875	20.006	0.126	-0.017
10.000	106.742	79.994	19.995	99.876	20.004	0.271	-0.000
10.500	106.733	79.995	19.995	99.875	20.005	0.219	-0.010
11.000	106.755	79.995	19.994	99.877	20.001	0.513	-0.000
11.500	106.769	79.996	19.995	99.877	20.002	0.416	0.025
12.000	106.768	79.996	19.995	99.879	20.001	0.471	0.025
12.500	106.719	79.996	19.994	99.886	20.004	0.258	-0.019
13.000	106.760	79.996	19.995	99.888	20.002	0.409	-0.029
13.500	106.762	79.996	19.996	99.889	20.005	0.163	0.018
14.000	106.726	79.995	19.995	99.889	20.003	0.327	0.005
14.500	106.719	79.995	19.994	99.888	20.001	0.501	-0.038
15.000	106.735	79.995	19.994	99.886	19.999	0.598	-0.017
15.500	106.753	79.997	19.995	99.886	20.001	0.463	0.021
16.000	106.814	79.996	19.994	99.892	20.000	0.521	0.057
16.500	106.784	79.996	19.995	99.900	20.000	0.575	0.055
17.000	106.791	79.996	19.994	99.907	19.999	0.624	0.004
17.500	106.773	79.996	19.995	99.915	19.998	0.701	-0.017
18.000	106.780	79.997	19.994	99.921	20.001	0.449	-0.011
18.500	106.782	79.996	19.994	99.923	19.997	0.794	-0.001
19.000	106.796	79.997	19.995	99.923	19.999	0.637	0.013
19.500	106.797	79.997	19.994	99.921	19.998	0.725	0.016
20.000	106.803	79.994	19.995	99.920	19.994	0.959	0.011
20.500	106.811	79.996	19.995	99.921	19.995	0.938	0.010
21.000	106.789	79.997	19.994	99.924	19.995	0.889	-0.001
21.500	106.819	79.995	19.995	99.930	19.996	0.828	-0.003
22.000	106.837	79.996	19.994	99.939	19.996	0.810	0.028
22.500	106.865	79.996	19.994	99.947	19.991	1.182	0.047
23.000	106.870	79.996	19.995	99.954	19.994	0.973	0.039
23.500	106.909	79.995	19.995	99.952	19.992	1.111	0.039
24.000	106.890	79.996	19.996	99.949	19.991	1.227	0.032
24.500	106.931	79.995	19.995	99.949	19.991	1.216	0.021
25.000	106.913	79.995	19.995	99.949	19.989	1.314	0.022
25.501	106.920	79.995	19.995	99.949	19.988	1.382	0.006
26.000	106.942	79.995	19.995	99.956	19.990	1.250	0.009
26.500	107.023	79.996	19.995	99.963	19.990	1.303	0.066
27.000	106.974	79.996	19.995	99.964	19.986	1.578	0.068
27.500	107.026	79.995	19.995	99.964	19.987	1.501	0.018
28.000	107.056	79.995	19.995	99.964	19.984	1.710	0.043
28.500	107.089	79.995	19.995	99.970	19.987	1.501	0.072
29.000	107.118	79.993	19.995	99.978	19.985	1.641	0.062
29.500	107.128	79.994	19.995	99.988	19.984	1.734	0.051
30.000	107.183	79.995	19.995	100.002	19.980	1.963	0.052
30.500	107.165	79.995	19.996	100.016	19.980	1.970	0.051
31.000	107.205	79.994	19.996	100.025	19.978	2.168	0.030
31.500	107.247	79.996	19.997	100.033	19.978	2.133	0.052
32.000	107.288	79.995	19.995	100.041	19.978	2.108	0.082
32.500	107.295	79.994	19.996	100.050	19.977	2.207	0.065
33.000	107.355	79.995	19.996	100.059	19.977	2.209	0.057
33.500	107.447	79.996	19.998	100.067	19.973	2.484	0.110
34.000	107.475	79.996	19.998	100.075	19.973	2.507	0.136
34.500	107.516	79.994	19.998	100.080	19.972	2.566	0.094
35.000	107.527	79.995	19.997	100.080	19.971	2.628	0.060
35.500	107.617	79.995	19.996	100.080	19.971	2.667	0.077
36.000	107.693	79.996	19.996	100.079	19.970	2.723	0.134
36.500	107.738	79.994	19.996	100.078	19.966	2.998	0.143
37.000	107.760	79.994	19.996	100.079	19.968	2.888	0.094
37.500	107.859	79.996	19.996	100.081	19.967	2.942	0.094
38.000	107.955	79.995	19.996	100.088	19.965	3.059	0.158
38.500	107.987	79.995	19.995	100.096	19.961	3.330	0.162
39.000	108.069	79.996	19.996	100.104	19.964	3.150	0.121
39.500	108.128	79.996	19.995	100.109	19.963	3.188	0.128
40.000	108.184	79.996	19.994	100.112	19.964	3.146	0.129
40.500	108.294	79.996	19.995	100.113	19.962	3.254	0.140
41.000	108.321	79.996	19.995	100.113	19.962	3.309	0.151
41.500	108.446	79.996	19.995	100.111	19.960	3.404	0.144
42.000	108.501	79.997	19.994	100.109	19.957	3.652	0.166
42.500	108.620	79.997	19.995	100.112	19.960	3.443	0.177
43.000	108.660	79.996	19.995	100.112	19.961	3.361	0.167
43.500	108.774	79.996	19.995	100.106	19.955	3.766	0.156
44.000	108.860	79.997	19.994	100.105	19.958	3.545	0.177
44.500	108.956	79.996	19.994	100.106	19.957	3.658	0.191
45.000	109.078	79.997	19.995	100.105	19.958	3.582	0.200
45.500	109.160	79.997	19.996	100.107	19.958	3.587	0.211
46.000	109.273	79.998	19.994	100.113	19.959	3.535	0.199
46.500	109.364	79.998	19.996	100.116	19.958	3.568	0.199
47.000	109.449	79.998	19.994	100.119	19.959	3.537	0.190
47.500	109.551	79.998	19.994	100.120	19.957	3.655	0.181
48.000	109.640	79.997	19.995	100.120	19.956	3.756	0.189
48.500	109.746	79.996	19.995	100.120	19.957	3.637	0.194
49.000	109.847	79.997	19.995	100.121	19.958	3.605	0.201
49.500	109.973	79.995	19.994	100.121	19.953	3.937	0.217
50.000	110.077	79.996	19.995	100.122	19.955	3.774	0.229
50.500	110.202	79.998	19.996	100.121	19.953	3.933	0.229
51.000	110.297	79.996	19.995	100.122	19.953	3.962	0.224
51.500	110.443	79.996	19.995	100.121	19.952	3.979	0.230
52.000	110.548	79.996	19.994	100.121	19.949	4.257	0.246
52.500	110.687	79.995	19.996	100.121	19.951	4.100	0.248
53.000	110.782	79.997	19.995	100.121	19.951	4.074	0.239
53.501	110.915	79.996	19.995	100.121	19.951	4.059	0.231
54.001	111.042	79.995	19.995	100.121	19.950	4.160	0.244
54.500	111.143	79.995	19.996	100.121	19.953	3.934	0.244
55.000	111.294	79.995	19.995	100.120	19.949	4.249	0.240
55.500	111.394	79.995	19.996	100.120	19.949	4.249	0.251
56.001	111.548	79.996	19.996	100.129	19.949	4.241	0.253
56.501	111.702	79.996	19.995	100.137	19.950	4.130	0.281
57.000	111.808	79.995	19.996	100.144	19.949	4.220	0.284
57.500	111.940	79.994	19.995	100.150	19.948	4.313	0.249
58.000	112.099	79.995	19.996	100.150	19.947	4.355	0.264
58.500	112.224	79.995	19.996	100.149	19.947	4.380	0.288
59.000	112.364	79.995	19.996	100.149	19.950	4.146	0.275
59.500	112.524	79.993	19.995	100.148	19.947	4.351	0.282
60.000	112.686	79.995	19.997	100.151	19.945	4.504	0.311
60.500	112.847	79.994	19.996	100.158	19.948	4.275	0.322
61.000	112.964	79.996	19.997	100.159	19.951	4.064	0.301
61.500	113.116	79.996	19.996	100.159	19.951	4.101	0.274
62.000	113.273	79.995	19.996	100.158	19.949	4.246	0.289
62.500	113.433	79.996	19.997	100.158	19.948	4.278	0.313
63.000	113.549	79.995	19.997	100.157	19.951	4.105	0.297
63.500	113.720	79.994	19.997	100.157	19.948	4.301	0.282
64.000	113.869	79.996	19.996	100.157	19.949	4.204	0.303
64.500	114.025	79.996	19.995	100.157	19.950	4.155	0.312
65.000	114.204	79.997	19.996	100.155	19.948	4.281	0.320
65.500	114.361	79.997	19.996	100.153	19.950	4.157	0.336
66.000	114.540	79.996	19.995	100.150	19.949	4.204	0.336
66.500	114.656	79.995	19.996	100.150	19.949	4.190	0.315
67.000	114.852	79.997	19.995	100.150	19.951	4.060	0.303
67.500	114.996	79.997	19.994	100.151	19.949	4.204	0.326
68.001	115.161	79.998	19.996	100.151	19.950	4.144	0.325
68.501	115.326	79.998	19.996	100.152	19.946	4.466	0.319
69.000	115.493	79.998	19.995	100.148	19.952	4.035	0.331
69.500	115.681	79.997	19.995	100.144	19.948	4.270	0.344
70.000	115.834	79.998	19.995	100.144	19.952	4.033	0.348
70.500	116.034	79.997	19.996	100.145	19.951	4.111	0.347
71.000	116.209	79.998	19.996	100.140	19.950	4.171	0.364
71.500	116.352	79.998	19.995	100.141	19.952	4.037	0.346
72.000	116.512	79.997	19.995	100.146	19.949	4.217	0.311
72.500	116.672	79.999	19.994	100.146	19.949	4.229	0.312
73.000	116.883	79.998	19.994	100.145	19.950	4.154	0.345
73.500	117.066	79.999	19.994	100.151	19.950	4.185	0.382
74.000	117.239	79.999	19.993	100.152	19.950	4.158	0.375
74.500	117.436	79.996	19.995	100.148	19.951	4.105	0.364
75.000	117.636	79.998	19.995	100.141	19.948	4.280	0.384
75.500	117.801	79.998	19.995	100.140	19.947	4.388	0.381
76.000	117.999	79.998	19.995	100.137	19.949	4.224	0.363
76.500	118.221	79.997	19.994	100.134	19.950	4.169	0.391
77.000	118.389	79.996	19.994	100.138	19.949	4.247	0.405
77.500	118.561	79.996	19.994	100.144	19.948	4.305	0.365
78.000	118.762	79.997	19.994	100.150	19.953	3.919	0.356
78.500	118.960	79.996	19.994	100.151	19.951	4.111	0.386
79.000	119.161	79.996	19.995	100.150	19.950	4.163	0.399
79.500	119.329	79.997	19.995	100.146	19.948	4.321	0.383
80.000	119.541	79.996	19.996	100.144	19.949	4.253	0.375
80.500	119.708	79.995	19.995	100.144	19.950	4.138	0.380
81.000	119.904	79.996	19.995	100.142	19.946	4.460	0.371
81.500	120.143	79.995	19.995	100.140	19.949	4.253	0.399
82.000	120.313	79.998	19.994	100.144	19.950	4.148	0.421
82.500	120.451	79.996	19.995	100.144	19.949	4.220	0.359
83.000	120.704	79.995	19.995	100.143	19.951	4.097	0.350
83.500	120.899	79.997	19.995	100.147	19.952	3.996	0.419
84.000	121.082	79.996	19.995	100.153	19.946	4.425	0.413
84.500	121.305	79.995	19.994	100.151	19.950	4.136	0.392
85.000	121.518	79.995	19.995	100.152	19.950	4.136	0.421
85.500	121.723	79.996	19.994	100.153	19.950	4.167	0.427
86.001	121.901	79.996	19.995	100.152	19.946	4.435	0.400
86.501	122.113	79.997	19.994	100.152	19.951	4.098	0.386
87.000	122.336	79.998	19.995	100.153	19.947	4.367	0.413
87.500	122.501	79.996	19.995	100.153	19.949	4.257	0.412
88.000	122.743	79.995	19.995	100.153	19.945	4.497	0.397
88.500	122.913	79.995	19.995	100.154	19.949	4.237	0.410
89.000	123.143	79.996	19.996	100.154	19.948	4.307	0.406
89.500	123.360	79.996	19.995	100.155	19.949	4.230	0.424
90.001	123.585	79.996	19.994	100.155	19.948	4.305	0.445
90.501	123.789	79.995	19.995	100.155	19.951	4.078	0.435
91.000	123.971	79.995	19.995	100.155	19.950	4.175	0.407
91.500	124.227	79.995	19.995	100.156	19.946	4.431	0.412
92.000	124.396	79.995	19.996	100.156	19.952	4.018	0.432
92.500	124.636	79.996	19.995	100.157	19.949	4.253	0.417
93.000	124.820	79.996	19.995	100.154	19.947	4.394	0.416
93.500	125.052	79.995	19.995	100.150	19.949	4.237	0.420
94.000	125.269	79.995	19.995	100.148	19.948	4.295	0.433
94.500	125.467	79.995	19.995	100.148	19.949	4.202	0.432
95.000	125.666	79.997	19.995	100.148	19.948	4.293	0.406
95.500	125.905	79.997	19.995	100.150	19.947	4.361	0.417
96.000	126.106	79.996	19.995	100.155	19.952	3.992	0.439
96.500	126.347	79.997	19.995	100.156	19.954	3.886	0.442
97.000	126.549	79.996	19.996	100.156	19.950	4.159	0.442
97.500	126.763	79.996	19.995	100.155	19.954	3.880	0.429
98.000	127.010	79.997	19.995	100.155	19.950	4.126	0.439
98.500	127.197	79.997	19.996	100.155	19.952	4.026	0.448
99.000	127.450	79.997	19.996	100.155	19.950	4.132	0.437
99.500	127.639	79.996	19.995	100.155	19.950	4.144	0.441
100.000	127.909	79.995	19.995	100.156	19.950	4.160	0.451
100.500	128.136	79.996	19.994	100.157	19.955	3.770	0.478
101.000	128.338	79.998	19.995	100.155	19.949	4.247	0.463
101.500	128.550	79.996	19.995	100.153	19.950	4.125	0.421
102.000	128.728	79.997	19.994	100.151	19.950	4.135	0.402
102.500	128.967	79.996	19.994	100.151	19.951	4.101	0.404
103.000	129.233	79.996	19.993	100.151	19.954	3.888	0.461
103.500	129.432	79.997	19.995	100.153	19.949	4.210	0.485
104.000	129.664	79.996	19.995	100.151	19.951	4.086	0.448
104.500	129.898	79.995	19.994	100.154	19.948	4.279	0.448
105.000	130.126	79.997	19.995	100.148	19.948	4.310	0.463
105.500	130.298	79.997	19.994	100.144	19.949	4.258	0.431
106.000	130.594	79.995	19.995	100.140	19.948	4.328	0.434
106.500	130.763	79.997	19.995	100.143	19.949	4.229	0.466
107.000	130.967	79.996	19.995	100.143	19.952	4.024	0.419
107.500	131.266	79.995	19.995	100.144	19.946	4.410	0.438
108.000	131.484	79.996	19.995	100.146	19.953	3.938	0.510
108.500	131.697	79.996	19.995	100.151	19.950	4.159	0.475
109.000	131.911	79.995	19.995	100.152	19.950	4.186	0.429
109.500	132.154	79.995	19.994	100.151	19.952	4.023	0.442
110.000	132.405	79.995	19.995	100.156	19.949	4.217	0.475
110.500	132.592	79.995	19.996	100.159	19.951	4.097	0.466
111.001	132.835	79.995	19.995	100.159	19.948	4.324	0.434
111.501	133.083	79.994	19.997	100.160	19.949	4.241	0.461
112.000	133.333	79.996	19.994	100.162	19.953	3.942	0.495
112.500	133.541	79.995	19.995	100.160	19.951	4.053	0.477
113.001	133.768	79.994	19.995	100.159	19.953	3.928	0.446
113.501	134.002	79.995	19.995	100.156	19.950	4.134	0.448
114.000	134.242	79.995	19.996	100.153	19.948	4.271	0.468
114.501	134.503	79.994	19.996	100.150	19.951	4.105	0.488
115.001	134.699	79.997	19.995	100.146	19.953	3.957	0.479
115.501	134.935	79.996	19.994	100.140	19.951	4.097	0.444
116.001	135.168	79.996	19.995	100.142	19.953	3.940	0.450
116.500	135.389	79.995	19.995	100.143	19.951	4.051	0.461
117.000	135.628	79.994	19.996	100.146	19.948	4.293	0.457
117.500	135.856	79.995	19.995	100.151	19.951	4.049	0.464
118.000	136.095	79.995	19.994	100.157	19.953	3.940	0.467
118.500	136.303	79.996	19.995	100.156	19.946	4.416	0.457
119.000	136.529	79.995	19.995	100.155	19.951	4.074	0.441
119.500	136.761	79.995	19.996	100.152	19.952	4.018	0.446
120.000	137.009	79.996	19.995	100.147	19.951	4.095	0.469
120.500	137.279	79.995	19.995	100.143	19.950	4.153	0.499
121.000	137.493	79.996	19.995	100.140	19.951	4.058	0.501
121.500	137.752	79.996	19.994	100.140	19.950	4.153	0.478
122.000	137.973	79.996	19.995	100.143	19.952	4.002	0.476
122.500	138.214	79.995	19.995	100.144	19.952	4.035	0.471
123.000	138.466	79.997	19.995	100.143	19.951	4.089	0.477
123.500	138.690	79.995	19.996	100.146	19.952	3.982	0.485
124.000	138.905	79.996	19.996	100.142	19.949	4.201	0.458
124.501	139.163	79.996	19.995	100.135	19.950	4.129	0.456
125.001	139.391	79.997	19.995	100.138	19.954	3.887	0.479
125.500	139.626	79.997	19.995	100.140	19.948	4.261	0.474
126.000	139.878	79.997	19.996	100.138	19.951	4.097	0.475
126.500	140.110	79.997	19.996	100.143	19.951	4.068	0.486
127.000	140.332	79.995	19.996	100.149	19.951	4.087	0.469
127.500	140.568	79.997	19.995	100.150	19.951	4.064	0.456
128.000	140.828	79.997	19.995	100.152	19.948	4.283	0.477
128.500	141.054	79.997	19.995	100.156	19.951	4.087	0.491
129.000	141.301	79.997	19.995	100.156	19.951	4.097	0.479
129.500	141.536	79.997	19.995	100.152	19.948	4.315	0.477
130.000	141.791	79.996	19.994	100.148	19.947	4.392	0.486
130.500	142.052	79.996	19.995	100.146	19.951	4.087	0.503
131.000	142.274	79.998	19.994	100.143	19.952	4.036	0.499
131.500	142.500	79.996	19.995	100.141	19.952	3.984	0.465
132.000	142.758	79.995	19.995	100.142	19.953	3.922	0.466
132.500	142.997	79.996	19.995	100.143	19.953	3.971	0.491
133.000	143.227	79.996	19.995	100.141	19.949	4.215	0.483
133.500	143.462	79.995	19.996	100.138	19.948	4.281	0.467
134.000	143.734	79.996	19.994	100.136	19.949	4.217	0.486
134.500	143.973	79.997	19.995	100.133	19.951	4.114	0.509
135.000	144.219	79.996	19.996	100.127	19.947	4.334	0.498
135.500	144.454	79.997	19.994	100.126	19.950	4.175	0.483
136.000	144.691	79.997	19.995	100.129	19.950	4.118	0.476
136.500	144.922	79.995	19.996	100.133	19.950	4.169	0.470
137.000	145.180	79.996	19.995	100.137	19.950	4.122	0.479
137.500	145.398	79.996	19.996	100.140	19.951	4.073	0.483
138.000	145.663	79.996	19.996	100.142	19.951	4.085	0.479
138.500	145.914	79.996	19.995	100.142	19.951	4.094	0.499
139.000	146.150	79.997	19.995	100.144	19.953	3.965	0.501
139.500	146.359	79.998	19.995	100.146	19.953	3.914	0.466
140.000	146.598	79.995	19.996	100.148	19.950	4.120	0.447
140.500	146.851	79.996	19.995	100.149	19.948	4.260	0.471
141.000	147.083	79.998	19.996	100.144	19.952	4.036	0.489
141.500	147.299	79.995	19.996	100.139	19.949	4.203	0.466
142.000	147.552	79.996	19.996	100.133	19.948	4.260	0.458
142.500	147.784	79.998	19.995	100.130	19.950	4.163	0.477
143.000	148.073	79.997	19.996	100.132	19.949	4.233	0.503
143.500	148.303	79.997	19.996	100.139	19.949	4.190	0.520
144.000	148.531	79.997	19.996	100.140	19.951	4.108	0.489
144.500	148.811	79.997	19.995	100.145	19.949	4.221	0.483
145.000	149.023	79.997	19.997	100.147	19.951	4.091	0.500
145.500	149.272	79.997	19.996	100.143	19.947	4.395	0.476
146.000	149.511	79.997	19.996	100.143	19.949	4.240	0.475
146.500	149.751	79.998	19.996	100.145	19.952	4.036	0.484
147.000	149.957	79.999	19.996	100.143	19.946	4.473	0.462
147.500	150.203	79.998	19.996	100.141	19.948	4.259	0.449
148.000	150.455	79.998	19.996	100.140	19.949	4.240	0.475
148.500	150.692	79.998	19.996	100.133	19.949	4.246	0.493
149.000	150.923	79.999	19.996	100.127	19.950	4.178	0.479
149.500	151.188	79.998	19.995	100.128	19.946	4.407	0.483
150.000	151.417	80.000	19.996	100.132	19.949	4.226	0.495
150.500	151.665	79.999	19.995	100.133	19.953	3.904	0.485
151.000	151.924	79.997	19.997	100.132	19.950	4.168	0.492
151.500	152.139	79.999	19.996	100.134	19.950	4.120	0.490
152.000	152.407	79.997	19.996	100.133	19.949	4.222	0.478
152.500	152.656	79.997	19.996	100.133	19.953	3.933	0.500
153.000	152.893	79.997	19.996	100.137	19.949	4.222	0.502
153.500	153.131	79.998	19.996	100.142	19.949	4.222	0.481
154.000	153.404	79.997	19.996	100.139	19.950	4.180	0.493
154.500	153.611	79.997	19.996	100.139	19.952	3.978	0.495
155.000	153.855	79.997	19.996	100.136	19.952	4.021	0.466
155.500	154.074	79.996	19.996	100.133	19.954	3.898	0.458
156.000	154.331	79.998	19.996	100.130	19.952	4.001	0.470
156.500	154.597	79.997	19.996	100.135	19.953	3.927	0.499
157.000	154.820	79.998	19.995	100.133	19.955	3.774	0.506
157.500	155.061	79.996	19.996	100.131	19.952	3.972	0.477
158.000	155.296	79.997	19.996	100.128	19.951	4.071	0.471
158.500	155.522	79.996	19.996	100.128	19.954	3.832	0.468
159.000	155.781	79.995	19.995	100.126	19.952	4.030	0.472
159.500	156.027	79.994	19.997	100.125	19.952	4.026	0.495
160.000	156.269	79.998	19.995	100.126	19.952	4.036	0.497
160.500	156.541	79.995	19.996	100.127	19.951	4.092	0.501
161.000	156.766	79.996	19.995	100.125	19.951	4.046	0.505
161.500	157.001	79.996	19.995	100.124	19.951	4.090	0.478
162.000	157.268	79.996	19.995	100.126	19.952	4.011	0.481
162.500	157.507	79.996	19.995	100.125	19.952	4.023	0.504
163.000	157.766	79.997	19.994	100.124	19.953	3.928	0.501
163.500	157.992	79.996	19.995	100.124	19.950	4.125	0.491
164.000	158.240	79.995	19.994	100.124	19.951	4.077	0.480
164.500	158.499	79.995	19.994	100.122	19.950	4.118	0.491
165.000	158.741	79.996	19.994	100.122	19.951	4.064	0.504
165.500	159.017	79.994	19.995	100.122	19.952	4.036	0.509
166.000	159.249	79.995	19.995	100.122	19.951	4.052	0.513
166.500	159.463	79.996	19.995	100.121	19.954	3.875	0.477
167.000	159.708	79.996	19.994	100.120	19.951	4.077	0.453
167.500	159.974	79.995	19.994	100.120	19.952	3.974	0.485
168.000	160.229	79.995	19.994	100.120	19.952	4.011	0.515
168.500	160.491	79.995	19.994	100.120	19.953	3.906	0.519
169.000	160.768	79.996	19.995	100.120	19.952	4.042	0.528
169.500	161.000	79.995	19.995	100.122	19.952	4.013	0.524
170.000	161.223	79.995	19.994	100.125	19.954	3.836	0.482
170.500	161.487	79.995	19.995	100.125	19.950	4.164	0.471
171.000	161.744	79.996	19.995	100.125	19.951	4.077	0.504
171.500	161.994	79.995	19.994	100.125	19.951	4.069	0.514
172.000	162.223	79.995	19.995	100.124	19.953	3.951	0.493
172.500	162.476	79.996	19.994	100.122	19.954	3.885	0.480
173.000	162.706	79.995	19.994	100.123	19.951	4.075	0.482
173.500	162.992	79.996	19.994	100.123	19.955	3.813	0.500
174.000	163.251	79.997	19.995	100.125	19.953	3.904	0.531
174.500	163.461	79.997	19.995	100.128	19.951	4.077	0.507
175.000	163.704	79.995	19.995	100.130	19.952	4.015	0.461
175.500	163.962	79.997	19.995	100.134	19.950	4.164	0.477
176.000	164.246	79.996	19.996	100.135	19.953	3.935	0.522
176.500	164.476	79.996	19.995	100.133	19.953	3.941	0.528
177.000	164.717	79.996	19.995	100.130	19.954	3.846	0.492
177.500	164.998	79.996	19.994	100.127	19.951	4.062	0.497
178.000	165.246	79.997	19.996	100.123	19.951	4.114	0.526
178.500	165.478	79.997	19.995	100.121	19.955	3.827	0.504
179.000	165.774	79.996	19.995	100.121	19.951	4.085	0.504
179.500	166.008	79.996	19.995	100.119	19.953	3.906	0.529
180.000	166.261	79.996	19.995	100.118	19.951	4.065	0.509
180.500	166.498	79.997	19.995	100.119	19.951	4.094	0.488
181.000	166.768	79.996	19.995	100.119	19.951	4.106	0.498
181.500	167.026	79.996	19.995	100.120	19.950	4.160	0.517
182.000	167.264	79.996	19.995	100.122	19.950	4.145	0.512
182.500	167.503	79.997	19.995	100.124	19.949	4.234	0.487
183.000	167.753	79.996	19.994	100.123	19.952	4.003	0.483
183.500	168.005	79.995	19.995	100.126	19.952	4.036	0.495
184.000	168.259	79.996	19.995	100.125	19.954	3.898	0.504
184.500	168.493	79.996	19.995	100.125	19.953	3.904	0.497
185.000	168.761	79.995	19.994	100.124	19.949	4.195	0.495
185.500	169.033	79.996	19.995	100.124	19.948	4.259	0.521
186.000	169.241	79.996	19.995	100.121	19.953	3.949	0.510
186.500	169.530	79.996	19.995	100.121	19.950	4.150	0.488
187.000	169.767	79.996	19.995	100.121	19.954	3.828	0.511
187.500	170.034	79.996	19.994	100.123	19.951	4.061	0.515
188.000	170.262	79.995	19.994	100.127	19.951	4.081	0.500
188.500	170.484	79.996	19.994	100.128	19.955	3.813	0.473
189.000	170.755	79.995	19.995	100.129	19.952	4.020	0.471
189.500	171.003	79.995	19.994	100.129	19.950	4.158	0.505
190.000	171.268	79.995	19.994	100.127	19.953	3.939	0.516
190.500	171.520	79.995	19.994	100.124	19.954	3.844	0.515
191.000	171.772	79.995	19.994	100.123	19.953	3.914	0.510
191.500	172.014	79.995	19.994	100.123	19.955	3.805	0.499
192.000	172.252	79.995	19.994	100.124	19.953	3.947	0.487
192.500	172.530	79.996	19.995	100.124	19.952	4.028	0.498
193.000	172.778	79.995	19.995	100.124	19.952	3.985	0.521
193.500	173.018	79.996	19.994	100.123	19.951	4.090	0.507
194.000	173.229	79.996	19.995	100.122	19.953	3.925	0.469
194.500	173.507	79.996	19.994	100.121	19.952	4.026	0.470
195.000	173.784	79.996	19.995	100.121	19.951	4.067	0.522
195.500	174.002	79.994	19.995	100.121	19.952	3.995	0.525
196.000	174.213	79.996	19.994	100.121	19.953	3.931	0.462
196.500	174.484	79.996	19.995	100.121	19.952	4.001	0.455
197.000	174.706	79.997	19.995	100.120	19.953	3.956	0.488
197.500	174.974	79.996	19.994	100.120	19.952	4.011	0.492
198.000	175.274	79.996	19.994	100.120	19.956	3.727	0.529
198.500	175.508	79.997	19.994	100.119	19.955	3.791	0.551
199.000	175.722	79.997	19.994	100.119	19.955	3.826	0.491
199.500	175.988	79.996	19.994	100.120	19.954	3.838	0.463
200.000	176.214	79.996	19.995	100.120	19.954	3.873	0.485
200.500	176.474	79.998	19.994	100.120	19.955	3.809	0.489
201.000	176.749	79.997	19.996	100.120	19.956	3.698	0.511
201.500	176.927	79.997	19.994	100.120	19.958	3.590	0.494
202.000	177.202	79.997	19.995	100.119	19.957	3.671	0.452
202.500	177.465	79.998	19.995	100.117	19.958	3.568	0.495
203.000	177.718	79.998	19.995	100.117	19.954	3.844	0.527
203.500	177.953	79.997	19.996	100.116	19.957	3.681	0.502
204.000	178.221	79.997	19.995	100.115	19.953	3.954	0.495
204.500	178.439	79.997	19.995	100.113	19.955	3.822	0.495
205.000	178.740	79.997	19.995	100.115	19.954	3.867	0.503
205.500	178.950	79.997	19.996	100.115	19.953	3.916	0.515
206.000	179.200	79.997	19.996	100.116	19.955	3.811	0.485
206.500	179.458	79.998	19.995	100.118	19.953	3.906	0.484
207.000	179.664	79.998	19.995	100.120	19.951	4.074	0.486
207.500	179.931	79.998	19.995	100.120	19.954	3.873	0.468
208.000	180.190	79.998	19.996	100.118	19.954	3.883	0.499
208.500	180.415	79.998	19.995	100.115	19.956	3.751	0.505
209.000	180.675	79.997	19.996	100.112	19.954	3.832	0.485
209.500	180.932	79.997	19.995	100.111	19.955	3.782	0.501
210.000	181.168	79.997	19.995	100.111	19.955	3.813	0.505
210.500	181.419	79.998	19.995	100.113	19.951	4.076	0.490
211.000	181.680	79.996	19.996	100.116	19.953	3.919	0.500
211.500	181.924	79.998	19.997	100.117	19.954	3.859	0.509
212.000	182.160	79.997	19.994	100.117	19.954	3.875	0.493
212.500	182.434	79.996	19.996	100.116	19.954	3.892	0.495
213.000	182.689	79.996	19.995	100.116	19.954	3.898	0.520
213.500	182.883	79.997	19.995	100.116	19.955	3.807	0.489
214.000	183.162	79.996	19.996	100.115	19.955	3.813	0.461
214.500	183.443	79.997	19.995	100.116	19.952	4.014	0.517
215.000	183.661	79.997	19.996	100.116	19.955	3.784	0.530
215.500	183.874	79.997	19.996	100.115	19.955	3.778	0.465
216.000	184.146	79.996	19.996	100.116	19.955	3.782	0.458
216.500	184.382	79.996	19.996	100.116	19.956	3.710	0.497
217.000	184.623	79.997	19.996	100.115	19.954	3.894	0.493
217.500	184.865	79.996	19.996	100.113	19.953	3.902	0.480
218.000	185.103	79.996	19.996	100.114	19.957	3.673	0.481
218.500	185.373	79.997	19.995	100.113	19.956	3.751	0.494
219.000	185.638	79.996	19.996	100.114	19.953	3.912	0.522
219.500	185.838	79.996	19.995	100.114	19.955	3.758	0.500
220.000	186.134	79.997	19.996	100.116	19.953	3.904	0.480
220.500	186.354	79.996	19.996	100.116	19.956	3.753	0.505
221.000	186.627	79.997	19.996	100.116	19.956	3.700	0.505
221.500	186.895	79.997	19.996	100.115	19.959	3.516	0.518
222.000	187.145	79.995	19.996	100.113	19.958	3.557	0.529
222.500	187.373	79.996	19.996	100.113	19.956	3.726	0.498
223.000	187.627	79.996	19.995	100.112	19.954	3.832	0.480
223.500	187.897	79.995	19.995	100.113	19.958	3.553	0.504
224.000	188.117	79.996	19.995	100.114	19.957	3.617	0.507
224.500	188.331	79.996	19.996	100.116	19.958	3.603	0.461
225.000	188.583	79.996	19.996	100.116	19.958	3.605	0.450
225.500	188.881	79.998	19.995	100.114	19.956	3.745	0.508
226.000	189.119	79.998	19.995	100.113	19.958	3.584	0.543
226.500	189.369	79.998	19.995	100.113	19.956	3.696	0.513
227.000	189.616	79.998	19.995	100.113	19.956	3.700	0.492
227.500	189.862	79.998	19.995	100.114	19.956	3.749	0.494
228.000	190.111	79.997	19.995	100.116	19.960	3.456	0.494
228.500	190.365	79.998	19.996	100.116	19.960	3.452	0.499
229.000	190.598	79.998	19.996	100.116	19.958	3.588	0.495
229.500	190.851	79.997	19.996	100.116	19.957	3.615	0.486
230.000	191.105	79.997	19.995	100.116	19.958	3.555	0.496
230.500	191.378	79.997	19.995	100.116	19.960	3.425	0.517
231.000	191.596	79.997	19.995	100.116	19.958	3.598	0.509
231.500	191.860	79.997	19.996	100.116	19.956	3.691	0.486
232.000	192.085	79.998	19.996	100.116	19.957	3.677	0.486
232.500	192.327	79.998	19.994	100.116	19.958	3.557	0.478
233.000	192.580	79.996	19.994	100.117	19.959	3.532	0.481
233.500	192.821	79.997	19.996	100.118	19.958	3.559	0.494
234.000	193.071	79.998	19.996	100.119	19.956	3.722	0.492
234.500	193.339	79.996	19.997	100.118	19.958	3.539	0.505
235.000	193.543	79.998	19.996	100.118	19.959	3.522	0.495
235.500	193.820	79.997	19.996	100.118	19.960	3.413	0.476
236.000	194.105	79.998	19.997	100.118	19.957	3.665	0.522
236.500	194.336	79.996	19.996	100.115	19.955	3.788	0.539
237.000	194.563	79.996	19.995	100.114	19.957	3.631	0.487
237.500	194.813	79.997	19.995	100.114	19.958	3.574	0.468
238.000	195.066	79.997	19.996	100.113	19.957	3.625	0.490
238.500	195.285	79.996	19.996	100.112	19.960	3.404	0.487
239.000	195.507	79.997	19.996	100.115	19.958	3.605	0.456
239.500	195.746	79.996	19.996	100.116	19.960	3.460	0.451
240.000	196.061	79.997	19.996	100.116	19.959	3.504	0.508
240.500	196.291	79.995	19.996	100.118	19.958	3.570	0.549
241.000	196.553	79.994	19.996	100.119	19.958	3.545	0.518
241.500	196.785	79.995	19.996	100.119	19.954	3.873	0.493
242.000	197.018	79.995	19.996	100.119	19.957	3.633	0.479
242.500	197.274	79.994	19.996	100.118	19.959	3.499	0.477
243.000	197.531	79.995	19.996	100.116	19.959	3.493	0.501
243.500	197.763	79.995	19.997	100.115	19.958	3.567	0.501
244.000	198.005	79.993	19.996	100.115	19.959	3.470	0.482
244.500	198.232	79.994	19.997	100.115	19.959	3.487	0.471
245.000	198.476	79.995	19.996	100.115	19.963	3.239	0.470
245.500	198.749	79.995	19.995	100.117	19.961	3.357	0.494
246.000	198.992	79.995	19.995	100.116	19.961	3.353	0.516
246.500	199.256	79.995	19.996	100.117	19.958	3.576	0.511
247.000	199.525	79.994	19.995	100.117	19.957	3.615	0.520
247.500	199.754	79.995	19.996	100.117	19.961	3.357	0.516
248.000	199.976	79.995	19.996	100.118	19.959	3.503	0.474
248.500	200.233	79.995	19.995	100.117	19.960	3.441	0.465
249.000	200.489	79.994	19.995	100.117	19.959	3.502	0.496
249.500	200.737	79.995	19.996	100.117	19.962	3.308	0.509
250.000	200.940	79.995	19.995	100.117	19.956	3.753	0.477
250.500	201.181	79.995	19.995	100.115	19.955	3.766	0.447
251.000	201.440	79.996	19.995	100.118	19.958	3.607	0.472
251.500	201.721	79.996	19.995	100.118	19.959	3.538	0.520
252.000	201.951	79.995	19.995	100.120	19.961	3.351	0.526
252.500	202.180	79.996	19.995	100.121	19.960	3.406	0.485
253.000	202.441	79.995	19.995	100.123	19.960	3.410	0.474
253.500	202.717	79.996	19.994	100.124	19.961	3.338	0.513
254.000	202.917	79.996	19.995	100.123	19.959	3.479	0.506
254.500	203.183	79.995	19.995	100.121	19.959	3.526	0.471
255.000	203.446	79.996	19.995	100.121	19.956	3.714	0.498
255.500	203.666	79.997	19.995	100.121	19.957	3.621	0.506
256.000	203.885	79.995	19.994	100.120	19.956	3.720	0.461
256.500	204.143	79.995	19.995	100.117	19.958	3.601	0.457
257.000	204.419	79.996	19.995	100.118	19.960	3.456	0.505
257.500	204.668	79.997	19.995	100.118	19.957	3.644	0.530
258.000	204.897	79.995	19.995	100.118	19.959	3.470	0.502
258.500	205.146	79.995	19.994	100.119	19.958	3.574	0.478
259.000	205.415	79.997	19.994	100.121	19.958	3.553	0.498
259.500	205.677	79.996	19.995	100.119	19.958	3.570	0.524
260.000	205.936	79.995	19.995	100.116	19.961	3.384	0.526
260.500	206.187	79.996	19.995	100.115	19.961	3.363	0.515
261.000	206.380	79.996	19.995	100.114	19.961	3.376	0.477
261.500	206.650	79.997	19.994	100.114	19.960	3.460	0.454
262.000	206.879	79.995	19.995	100.115	19.958	3.551	0.481
262.500	207.136	79.996	19.995	100.119	19.958	3.601	0.492
263.000	207.403	79.996	19.995	100.120	19.959	3.468	0.505
263.500	207.637	79.996	19.996	100.120	19.956	3.683	0.513
264.000	207.892	79.997	19.995	100.120	19.956	3.693	0.495
264.500	208.108	79.996	19.995	100.120	19.956	3.731	0.480
265.000	208.334	79.996	19.994	100.118	19.961	3.382	0.457
265.500	208.631	79.996	19.995	100.118	19.959	3.518	0.483
266.000	208.847	79.996	19.994	100.116	19.958	3.574	0.518
266.500	209.136	79.995	19.995	100.117	19.962	3.258	0.509
267.000	209.356	79.997	19.995	100.117	19.960	3.398	0.507
267.500	209.630	79.997	19.996	100.117	19.963	3.237	0.501
268.000	209.866	79.995	19.995	100.117	19.961	3.357	0.501
268.500	210.108	79.996	19.996	100.117	19.962	3.252	0.494
269.000	210.376	79.996	19.997	100.117	19.961	3.324	0.494
269.500	210.581	79.996	19.996	100.117	19.959	3.499	0.492
270.000	210.827	79.996	19.997	100.117	19.956	3.687	0.462
270.500	211.106	79.996	19.996	100.117	19.959	3.504	0.488
271.000	211.344	79.996	19.995	100.118	19.957	3.638	0.521
271.500	211.614	79.996	19.996	100.117	19.958	3.565	0.513
272.000	211.837	79.996	19.995	100.115	19.958	3.555	0.501
272.500	212.098	79.996	19.995	100.115	19.961	3.394	0.488
273.000	212.300	79.995	19.995	100.115	19.961	3.334	0.474
273.500	212.608	79.995	19.995	100.115	19.960	3.460	0.486
274.000	212.885	79.996	19.995	100.116	19.959	3.497	0.547
274.500	213.093	79.995	19.996	100.117	19.959	3.512	0.535
275.000	213.373	79.996	19.996	100.118	19.960	3.456	0.487
275.500	213.584	79.995	19.995	100.118	19.961	3.328	0.489
276.000	213.800	79.995	19.995	100.118	19.959	3.503	0.459
276.500	214.084	79.996	19.996	100.117	19.959	3.491	0.463
277.000	214.349	79.995	19.995	100.116	19.959	3.512	0.525
277.500	214.571	79.995	19.995	100.116	19.962	3.306	0.518
278.000	214.830	79.996	19.996	100.115	19.961	3.392	0.484
278.500	215.079	79.997	19.995	100.115	19.959	3.469	0.495
279.000	215.339	79.996	19.995	100.116	19.962	3.268	0.509
279.500	215.563	79.996	19.996	100.118	19.962	3.301	0.496
280.000	215.822	79.996	19.996	100.118	19.960	3.452	0.484
280.500	216.092	79.996	19.995	100.118	19.958	3.586	0.506
281.000	216.341	79.997	19.996	100.118	19.959	3.475	0.524
281.500	216.585	79.998	19.995	100.116	19.961	3.369	0.506
282.000	216.833	79.997	19.994	100.115	19.959	3.530	0.492
282.500	217.090	79.998	19.995	100.115	19.960	3.464	0.499
283.000	217.347	79.998	19.995	100.115	19.957	3.656	0.510
283.500	217.590	79.997	19.995	100.114	19.958	3.580	0.507
284.000	217.804	79.997	19.995	100.115	19.959	3.528	0.479
284.500	218.066	79.997	19.996	100.115	19.959	3.470	0.467
285.000	218.337	79.997	19.996	100.116	19.960	3.419	0.504
285.500	218.578	79.998	19.996	100.115	19.961	3.338	0.523
286.000	218.819	79.999	19.995	100.116	19.962	3.320	0.497
286.500	219.046	79.998	19.994	100.116	19.958	3.601	0.475
287.000	219.293	79.998	19.995	100.117	19.961	3.378	0.471
287.500	219.551	79.997	19.995	100.118	19.958	3.607	0.489
288.000	219.785	79.998	19.994	100.115	19.958	3.598	0.499
288.500	220.084	79.998	19.995	100.113	19.957	3.625	0.512
289.000	220.294	79.998	19.994	100.112	19.958	3.584	0.521
289.500	220.570	79.998	19.994	100.112	19.961	3.361	0.497
290.000	220.789	79.999	19.995	100.112	19.960	3.419	0.490
290.500	221.072	79.998	19.995	100.114	19.960	3.421	0.499
291.000	221.272	79.998	19.994	100.117	19.958	3.557	0.493
291.500	221.548	79.999	19.995	100.117	19.957	3.611	0.479
292.000	221.802	79.998	19.995	100.117	19.957	3.665	0.503
292.500	222.051	79.998	19.994	100.115	19.959	3.532	0.516
293.000	222.268	79.997	19.994	100.115	19.958	3.551	0.485
293.500	222.534	79.997	19.996	100.115	19.956	3.747	0.475
294.000	222.787	79.998	19.994	100.115	19.958	3.557	0.501
294.500	223.015	79.998	19.996	100.114	19.957	3.617	0.500
295.000	223.292	79.997	19.996	100.116	19.958	3.545	0.493
295.500	223.521	79.998	19.995	100.116	19.958	3.592	0.506
296.000	223.772	79.997	19.996	100.117	19.957	3.673	0.494
296.500	224.005	79.997	19.996	100.117	19.958	3.594	0.482
297.000	224.282	79.997	19.995	100.117	19.958	3.598	0.497
297.500	224.531	79.998	19.996	100.118	19.956	3.726	0.518
298.000	224.758	79.996	19.995	100.119	19.957	3.646	0.501
298.500	225.018	79.996	19.995	100.119	19.955	3.790	0.481
299.000	225.232	79.996	19.995	100.120	19.958	3.586	0.480
299.500	225.537	79.997	19.995	100.120	19.957	3.640	0.497
300.000	225.772	79.998	19.996	100.119	19.957	3.656	0.530
300.500	226.009	79.996	19.994	100.118	19.956	3.712	0.506
301.000	226.215	79.997	19.996	100.117	19.959	3.503	0.457
301.500	226.512	79.998	19.996	100.117	19.955	3.788	0.473
302.000	226.751	79.996	19.996	100.116	19.957	3.679	0.519
302.500	226.994	79.997	19.995	100.115	19.957	3.619	0.509
303.000	227.250	79.997	19.995	100.115	19.958	3.582	0.491
303.500	227.497	79.997	19.996	100.115	19.956	3.716	0.501
304.000	227.703	79.997	19.994	100.115	19.956	3.690	0.478
304.500	227.974	79.997	19.996	100.116	19.957	3.654	0.466
305.000	228.205	79.997	19.996	100.117	19.958	3.605	0.490
305.500	228.479	79.996	19.996	100.119	19.955	3.784	0.503
306.000	228.752	79.996	19.995	100.120	19.959	3.530	0.526
306.500	229.010	79.996	19.995	100.119	19.957	3.625	0.539
307.000	229.253	79.997	19.995	100.119	19.957	3.667	0.516
307.500	229.504	79.997	19.996	100.119	19.955	3.801	0.498
308.000	229.776	79.997	19.995	100.119	19.958	3.566	0.508
308.500	230.017	79.996	19.995	100.118	19.956	3.752	0.518
309.000	230.249	79.998	19.996	100.117	19.957	3.673	0.493
309.500	230.499	79.998	19.995	100.116	19.955	3.825	0.478
310.000	230.754	79.998	19.996	100.116	19.959	3.503	0.494
310.500	231.004	79.997	19.995	100.116	19.961	3.380	0.505
311.000	231.211	79.998	19.995	100.116	19.961	3.349	0.481
311.500	231.492	79.998	19.995	100.117	19.962	3.305	0.472
312.000	231.738	79.997	19.995	100.118	19.959	3.530	0.508
312.500	231.954	79.999	19.995	100.118	19.960	3.415	0.495
313.000	232.223	79.997	19.995	100.117	19.958	3.580	0.474
313.500	232.478	79.997	19.995	100.117	19.961	3.367	0.505
314.000	232.703	79.999	19.995	100.116	19.960	3.433	0.502
314.500	232.955	79.997	19.995	100.112	19.960	3.460	0.478
315.000	233.194	79.997	19.997	100.111	19.957	3.652	0.483
315.500	233.471	79.997	19.995	100.113	19.961	3.390	0.503
316.000	233.708	79.998	19.996	100.113	19.958	3.590	0.515
316.500	233.970	79.997	19.995	100.115	19.958	3.603	0.507
317.000	234.175	79.997	19.995	100.119	19.958	3.605	0.483
317.500	234.442	79.997	19.995	100.117	19.958	3.586	0.469
318.000	234.660	79.996	19.996	100.111	19.957	3.630	0.478
318.500	234.917	79.996	19.995	100.110	19.959	3.518	0.480
319.000	235.173	79.996	19.996	100.110	19.959	3.537	0.494
319.500	235.425	79.996	19.995	100.111	19.957	3.632	0.510
320.000	235.675	79.996	19.995	100.114	19.956	3.704	0.505
320.500	235.923	79.996	19.996	100.120	19.957	3.642	0.501
321.000	236.155	79.995	19.995	100.120	19.955	3.791	0.489
321.500	236.415	79.995	19.995	100.120	19.958	3.566	0.485
322.000	236.667	79.995	19.996	100.119	19.956	3.753	0.502
322.500	236.962	79.996	19.995	100.119	19.960	3.464	0.530
323.000	237.168	79.996	19.996	100.119	19.958	3.597	0.524
323.500	237.425	79.995	19.995	100.119	19.958	3.601	0.482
324.000	237.698	79.996	19.996	100.118	19.954	3.880	0.497
324.500	237.964	79.996	19.996	100.117	19.957	3.679	0.535
325.000	238.215	79.996	19.996	100.116	19.958	3.576	0.528
325.500	238.459	79.995	19.997	100.115	19.960	3.465	0.506
326.000	238.687	79.996	19.996	100.113	19.953	3.927	0.484
326.500	238.920	79.995	19.995	100.109	19.955	3.760	0.467
327.000	239.204	79.995	19.996	100.109	19.954	3.871	0.489
327.500	239.413	79.996	19.996	100.107	19.954	3.832	0.505
328.000	239.650	79.996	19.995	100.107	19.956	3.698	0.470
328.500	239.892	79.995	19.996	100.108	19.952	4.026	0.463
329.000	240.139	79.995	19.996	100.111	19.952	4.024	0.484
329.500	240.396	79.996	19.996	100.111	19.951	4.092	0.496
330.000	240.629	79.994	19.997	100.112	19.952	4.018	0.497
330.500	240.860	79.994	19.996	100.108	19.955	3.770	0.477
331.000	241.122	79.995	19.996	100.108	19.953	3.929	0.479
331.500	241.351	79.994	19.995	100.108	19.955	3.756	0.492
332.000	241.573	79.995	19.996	100.110	19.958	3.609	0.470
332.500	241.840	79.994	19.996	100.111	19.954	3.884	0.470
333.000	242.097	79.994	19.997	100.114	19.954	3.880	0.507
333.500	242.318	79.995	19.996	100.115	19.953	3.927	0.502
334.000	242.610	79.995	19.996	100.114	19.952	4.028	0.496
334.500	242.891	79.995	19.996	100.113	19.952	4.007	0.542
335.000	243.126	79.996	19.997	100.111	19.955	3.801	0.544
335.500	243.365	79.996	19.996	100.110	19.955	3.762	0.496
336.000	243.611	79.995	19.997	100.111	19.955	3.758	0.480
336.500	243.829	79.996	19.996	100.112	19.953	3.948	0.474
337.000	244.098	79.995	19.996	100.112	19.955	3.801	0.475
337.500	244.379	79.995	19.997	100.111	19.957	3.659	0.518
338.000	244.610	79.996	19.995	100.108	19.956	3.723	0.531
338.500	244.826	79.996	19.996	100.104	19.951	4.049	0.480
339.000	245.069	79.996	19.996	100.104	19.954	3.875	0.453
339.500	245.332	79.995	19.995	100.103	19.952	4.009	0.482
340.000	245.592	79.995	19.996	100.106	19.954	3.881	0.514
340.500	245.845	79.996	19.996	100.111	19.956	3.683	0.518
341.000	246.076	79.996	19.996	100.115	19.950	4.121	0.498
341.500	246.337	79.997	19.996	100.114	19.953	3.904	0.488
342.000	246.573	79.995	19.995	100.111	19.951	4.055	0.495
342.500	246.820	79.995	19.995	100.110	19.954	3.840	0.490
343.000	247.073	79.997	19.994	100.110	19.954	3.888	0.492
343.500	247.326	79.997	19.995	100.110	19.953	3.935	0.503
344.000	247.539	79.996	19.995	100.110	19.952	4.042	0.486
344.500	247.802	79.996	19.996	100.114	19.955	3.766	0.471
345.000	248.082	79.997	19.995	100.116	19.955	3.815	0.509
345.500	248.308	79.996	19.995	100.116	19.953	3.919	0.524
346.000	248.554	79.997	19.995	100.115	19.952	4.018	0.489
346.500	248.805	79.996	19.996	100.114	19.954	3.873	0.485
347.000	249.048	79.995	19.996	100.112	19.952	4.014	0.496
347.500	249.315	79.995	19.995	100.109	19.952	3.972	0.502
348.000	249.547	79.996	19.995	100.109	19.956	3.745	0.504
348.500	249.835	79.996	19.995	100.110	19.951	4.071	0.510
349.000	250.057	79.997	19.995	100.111	19.952	4.003	0.515
349.500	250.331	79.997	19.996	100.114	19.951	4.047	0.502
350.000	250.580	79.996	19.994	100.115	19.953	3.964	0.509
350.500	250.812	79.997	19.995	100.115	19.957	3.636	0.502
351.000	251.098	79.997	19.995	100.116	19.955	3.809	0.500
351.500	251.321	79.996	19.995	100.117	19.952	3.997	0.513
352.000	251.604	79.997	19.995	100.116	19.952	4.007	0.507
352.500	251.824	79.997	19.996	100.117	19.954	3.861	0.504
353.000	252.091	79.997	19.994	100.117	19.952	3.983	0.495
353.500	252.331	79.997	19.996	100.115	19.953	3.904	0.497
354.000	252.588	79.997	19.995	100.115	19.952	4.041	0.502
354.500	252.807	79.996	19.996	100.115	19.953	3.931	0.486
355.000	253.070	79.995	19.995	100.115	19.956	3.714	0.478
355.500	253.319	79.998	19.996	100.115	19.953	3.954	0.497
356.000	253.591	79.996	19.996	100.117	19.955	3.782	0.517
356.501	253.812	79.997	19.995	100.116	19.957	3.681	0.507
357.000	254.060	79.996	19.995	100.115	19.955	3.758	0.481
357.500	254.293	79.996	19.995	100.114	19.955	3.826	0.475
358.000	254.534	79.995	19.995	100.113	19.954	3.855	0.477
358.500	254.756	79.996	19.997	100.111	19.954	3.842	0.469
359.000	255.043	79.996	19.996	100.113	19.952	4.014	0.486
359.500	255.301	79.995	19.995	100.114	19.956	3.717	0.527
360.000	255.526	79.996	19.995	100.113	19.957	3.665	0.514
360.500	255.818	79.996	19.995	100.113	19.958	3.554	0.500
361.000	256.041	79.996	19.995	100.113	19.958	3.539	0.516
361.500	256.297	79.996	19.995	100.113	19.956	3.706	0.497
362.000	256.548	79.996	19.995	100.113	19.957	3.654	0.493
362.500	256.772	79.996	19.996	100.115	19.957	3.629	0.491
363.000	256.991	79.997	19.996	100.114	19.957	3.654	0.459
363.500	257.238	79.997	19.996	100.116	19.956	3.753	0.454
364.000	257.550	79.998	19.996	100.112	19.957	3.681	0.512
364.500	257.740	79.997	19.996	100.109	19.956	3.739	0.531
365.000	257.994	79.998	19.995	100.108	19.956	3.731	0.474
365.500	258.256	79.998	19.996	100.110	19.956	3.751	0.480
366.000	258.523	79.999	19.995	100.111	19.956	3.753	0.522
366.500	258.793	79.998	19.995	100.113	19.955	3.807	0.533
367.000	259.035	79.998	19.995	100.115	19.956	3.685	0.525
367.500	259.293	79.998	19.995	100.114	19.955	3.774	0.506
368.000	259.529	79.997	19.995	100.114	19.957	3.654	0.497
368.500	259.744	79.998	19.996	100.112	19.957	3.629	0.473
369.000	260.003	79.997	19.994	100.111	19.957	3.648	0.462
369.500	260.244	79.997	19.995	100.107	19.955	3.761	0.487
370.000	260.517	79.998	19.995	100.102	19.956	3.749	0.507
370.500	260.744	79.997	19.995	100.095	19.956	3.751	0.507
371.000	260.963	79.998	19.995	100.093	19.953	3.904	0.473
371.500	261.254	79.997	19.995	100.096	19.956	3.741	0.478
372.000	261.522	79.998	19.995	100.100	19.956	3.743	0.534
372.500	261.721	79.996	19.995	100.107	19.955	3.776	0.513
373.000	261.983	79.997	19.996	100.114	19.957	3.665	0.464
373.501	262.242	79.996	19.995	100.119	19.955	3.756	0.491
374.000	262.497	79.998	19.995	100.118	19.954	3.873	0.518
374.500	262.737	79.996	19.994	100.118	19.958	3.601	0.505
375.000	263.006	79.997	19.995	100.116	19.955	3.799	0.502
375.500	263.244	79.997	19.995	100.116	19.955	3.811	0.508
376.000	263.531	79.996	19.994	100.114	19.954	3.830	0.516
376.500	263.738	79.996	19.995	100.114	19.956	3.745	0.510
377.000	263.984	79.997	19.994	100.115	19.953	3.921	0.474
377.500	264.250	79.997	19.996	100.115	19.954	3.830	0.483
378.000	264.502	79.997	19.995	100.116	19.953	3.927	0.515
378.500	264.742	79.997	19.995	100.118	19.955	3.791	0.505
379.000	264.987	79.997	19.995	100.118	19.955	3.778	0.488
379.500	265.227	79.997	19.995	100.118	19.956	3.755	0.485
380.000	265.461	79.997	19.995	100.120	19.955	3.760	0.479
380.500	265.736	79.997	19.995	100.120	19.955	3.824	0.492
381.000	265.978	79.996	19.996	100.120	19.954	3.853	0.513
381.500	266.210	79.997	19.995	100.119	19.953	3.917	0.495
382.000	266.477	79.997	19.995	100.116	19.952	4.026	0.486
382.500	266.738	79.997	19.994	100.114	19.952	4.018	0.513
383.000	266.975	79.997	19.995	100.114	19.955	3.793	0.513
383.500	267.255	79.996	19.995	100.116	19.952	4.038	0.508
384.000	267.493	79.997	19.995	100.116	19.950	4.125	0.517
384.500	267.701	79.997	19.995	100.114	19.954	3.896	0.482
385.000	267.944	79.997	19.995	100.114	19.954	3.871	0.449
385.500	268.218	79.997	19.994	100.112	19.953	3.939	0.484
386.000	268.488	79.998	19.995	100.112	19.953	3.962	0.531
386.500	268.695	79.996	19.994	100.113	19.955	3.783	0.511
387.000	268.984	79.997	19.996	100.117	19.950	4.150	0.486
387.500	269.220	79.997	19.994	100.118	19.955	3.773	0.510
388.000	269.452	79.998	19.995	100.118	19.951	4.056	0.497
388.500	269.687	79.998	19.995	100.116	19.952	4.031	0.468
389.000	269.965	80.000	19.995	100.115	19.950	4.130	0.490
389.500	270.254	79.998	19.996	100.115	19.951	4.072	0.539
390.000	270.454	79.997	19.996	100.114	19.951	4.086	0.528
390.500	270.711	79.999	19.995	100.114	19.950	4.123	0.473
391.000	271.000	79.998	19.995	100.114	19.950	4.175	0.502
391.500	271.257	79.998	19.994	100.113	19.949	4.214	0.546
392.000	271.497	79.997	19.994	100.108	19.950	4.169	0.521
392.500	271.753	79.999	19.994	100.107	19.952	4.002	0.496
393.000	271.999	79.998	19.996	100.108	19.951	4.113	0.499
393.500	272.249	79.998	19.995	100.106	19.950	4.115	0.499
394.000	272.503	79.999	19.995	100.105	19.950	4.120	0.500
394.500	272.749	80.000	19.995	100.110	19.949	4.246	0.502
395.000	272.982	79.999	19.996	100.111	19.950	4.138	0.489
395.500	273.238	79.999	19.996	100.111	19.951	4.107	0.484
396.000	273.497	79.999	19.995	100.113	19.952	3.997	0.502
396.500	273.732	79.999	19.995	100.114	19.951	4.096	0.505
397.000	273.985	79.998	19.996	100.110	19.951	4.073	0.491
397.500	274.232	79.997	19.996	100.107	19.952	3.987	0.494
398.000	274.478	80.000	19.995	100.101	19.950	4.154	0.496
398.500	274.751	79.998	19.995	100.100	19.951	4.090	0.506
399.000	274.982	79.998	19.995	100.097	19.952	4.010	0.512
399.500	275.286	79.998	19.995	100.099	19.951	4.111	0.520
400.000	275.487	79.998	19.995	100.102	19.954	3.882	0.520
400.500	275.740	79.998	19.994	100.108	19.954	3.888	0.479
401.000	276.009	79.998	19.996	100.106	19.953	3.921	0.488
401.501	276.232	79.998	19.996	100.105	19.949	4.212	0.507
402.000	276.503	79.997	19.996	100.104	19.949	4.191	0.493
402.500	276.736	79.997	19.996	100.102	19.948	4.284	0.499
403.000	276.960	79.997	19.995	100.098	19.948	4.268	0.481
403.500	277.231	79.997	19.995	100.096	19.949	4.218	0.476
404.000	277.448	79.996	19.996	100.096	19.952	4.029	0.491
404.500	277.749	79.995	19.996	100.098	19.952	3.995	0.503
405.000	277.967	79.997	19.995	100.097	19.949	4.214	0.519
405.500	278.190	79.996	19.997	100.099	19.951	4.080	0.480
406.000	278.470	79.997	19.997	100.104	19.952	4.020	0.472
406.500	278.727	79.996	19.995	100.109	19.950	4.179	0.520
407.000	278.986	79.995	19.996	100.109	19.953	3.932	0.526
407.500	279.208	79.997	19.996	100.112	19.953	3.958	0.498
408.000	279.475	79.996	19.995	100.114	19.949	4.214	0.485
408.500	279.720	79.996	19.995	100.114	19.951	4.113	0.501
409.000	279.973	79.996	19.996	100.115	19.950	4.123	0.505
409.500	280.236	79.996	19.996	100.114	19.950	4.138	0.506
410.000	280.465	79.994	19.996	100.109	19.950	4.152	0.504
410.500	280.710	79.996	19.997	100.108	19.951	4.080	0.483
411.000	280.974	79.996	19.996	100.104	19.949	4.210	0.491
411.500	281.232	79.996	19.996	100.103	19.948	4.307	0.515
412.000	281.451	79.996	19.996	100.104	19.949	4.233	0.500
412.500	281.688	79.996	19.996	100.108	19.949	4.214	0.467
413.000	281.971	79.994	19.995	100.106	19.952	4.003	0.488
413.500	282.231	79.996	19.995	100.107	19.951	4.065	0.532
414.000	282.469	79.995	19.996	100.107	19.951	4.053	0.520
414.500	282.693	79.994	19.996	100.105	19.953	3.933	0.480
415.000	282.949	79.996	19.997	100.102	19.951	4.090	0.471
415.500	283.230	79.995	19.996	100.103	19.950	4.175	0.509
416.000	283.514	79.996	19.996	100.104	19.948	4.270	0.551
416.500	283.738	79.997	19.995	100.101	19.951	4.065	0.536
417.000	283.983	79.995	19.995	100.098	19.952	4.014	0.488
417.500	284.228	79.996	19.995	100.096	19.951	4.109	0.479
418.000	284.517	79.996	19.996	100.096	19.950	4.138	0.512
418.500	284.739	79.996	19.995	100.098	19.948	4.290	0.523
419.000	285.010	79.995	19.996	100.101	19.949	4.210	0.502
419.500	285.259	79.996	19.996	100.104	19.950	4.144	0.506
420.000	285.509	79.996	19.996	100.108	19.951	4.073	0.510
420.500	285.779	79.997	19.996	100.109	19.953	3.933	0.510
421.000	285.982	79.995	19.997	100.109	19.950	4.127	0.497
421.500	286.248	79.995	19.996	100.110	19.949	4.203	0.471
422.000	286.506	79.995	19.996	100.113	19.950	4.115	0.496
422.500	286.762	79.995	19.996	100.112	19.951	4.100	0.519
423.000	287.024	79.997	19.996	100.112	19.951	4.110	0.516
423.500	287.277	79.996	19.996	100.113	19.948	4.298	0.517
424.000	287.540	79.995	19.997	100.113	19.951	4.069	0.515
424.500	287.753	79.995	19.997	100.113	19.948	4.288	0.496
425.000	288.038	79.996	19.996	100.116	19.952	4.001	0.487
425.500	288.295	79.996	19.997	100.117	19.949	4.249	0.520
426.000	288.514	79.996	19.997	100.117	19.951	4.067	0.509
426.500	288.782	79.995	19.996	100.111	19.950	4.168	0.481
427.000	289.051	79.996	19.997	100.107	19.949	4.220	0.512
427.500	289.303	79.996	19.996	100.106	19.949	4.238	0.530
428.000	289.527	79.996	19.995	100.107	19.951	4.065	0.499
428.500	289.758	79.996	19.997	100.107	19.951	4.098	0.466
429.000	290.049	79.996	19.996	100.112	19.954	3.859	0.489
429.500	290.272	79.996	19.995	100.115	19.949	4.232	0.518
430.000	290.554	79.996	19.995	100.115	19.951	4.063	0.509
430.500	290.799	79.995	19.996	100.115	19.950	4.150	0.516
431.000	291.074	79.995	19.996	100.114	19.950	4.160	0.524
431.500	291.324	79.997	19.996	100.115	19.948	4.313	0.523
432.000	291.569	79.995	19.996	100.116	19.951	4.051	0.510
432.500	291.789	79.995	19.995	100.118	19.952	4.036	0.480
433.000	292.066	79.996	19.996	100.118	19.949	4.220	0.481
433.500	292.348	79.994	19.996	100.118	19.952	4.001	0.528
434.000	292.591	79.995	19.996	100.118	19.952	4.007	0.542
434.500	292.870	79.995	19.996	100.118	19.950	4.137	0.523
435.000	293.093	79.994	19.995	100.118	19.951	4.048	0.512
435.500	293.337	79.994	19.995	100.119	19.950	4.137	0.484
436.000	293.582	79.994	19.995	100.119	19.948	4.273	0.478
436.500	293.815	79.996	19.995	100.120	19.948	4.327	0.484
437.000	294.080	79.995	19.995	100.120	19.949	4.212	0.488
437.500	294.391	79.994	19.995	100.120	19.947	4.354	0.537
438.000	294.617	79.994	19.995	100.118	19.949	4.218	0.556
438.500	294.837	79.995	19.994	100.117	19.949	4.195	0.491
439.000	295.079	79.995	19.995	100.118	19.952	4.006	0.454
439.500	295.356	79.995	19.995	100.118	19.951	4.098	0.490
440.000	295.590	79.994	19.995	100.118	19.951	4.076	0.515
440.500	295.869	79.995	19.995	100.120	19.951	4.059	0.512
441.000	296.100	79.995	19.994	100.121	19.953	3.910	0.512
441.500	296.348	79.995	19.995	100.118	19.952	4.034	0.495
442.000	296.636	79.994	19.995	100.114	19.950	4.137	0.508
442.500	296.844	79.995	19.995	100.111	19.950	4.174	0.516
443.000	297.124	79.995	19.994	100.110	19.950	4.158	0.492
443.500	297.355	79.996	19.994	100.110	19.949	4.210	0.499
444.000	297.638	79.997	19.995	100.111	19.951	4.100	0.513
444.500	297.900	79.995	19.994	100.114	19.950	4.133	0.529
445.000	298.156	79.995	19.995	100.118	19.952	4.003	0.532
445.500	298.410	79.996	19.994	100.118	19.951	4.065	0.514
446.000	298.642	79.996	19.996	100.118	19.948	4.276	0.498
446.500	298.904	79.997	19.996	100.121	19.946	4.455	0.490
447.000	299.184	79.996	19.994	100.122	19.949	4.237	0.518
447.500	299.389	79.997	19.995	100.121	19.952	4.001	0.514
448.000	299.617	79.997	19.995	100.118	19.951	4.094	0.459
448.500	299.878	79.997	19.995	100.114	19.949	4.189	0.461
449.000	300.110	79.997	19.995	100.109	19.953	3.950	0.491
449.500	300.409	79.997	19.995	100.109	19.949	4.195	0.511
450.000	300.646	79.997	19.996	100.109	19.953	3.964	0.533
450.500	300.870	79.998	19.994	100.111	19.950	4.171	0.499
451.000	301.089	79.997	19.995	100.115	19.948	4.296	0.452
451.500	301.392	79.997	19.995	100.119	19.949	4.189	0.483
452.000	301.653	79.998	19.995	100.119	19.950	4.134	0.543
452.500	301.910	79.998	19.995	100.119	19.949	4.241	0.541
453.000	302.172	79.997	19.995	100.119	19.949	4.233	0.519
453.500	302.406	79.998	19.996	100.116	19.949	4.237	0.508
454.000	302.653	79.998	19.995	100.112	19.950	4.179	0.488
454.500	302.950	79.997	19.995	100.111	19.950	4.139	0.513
455.000	303.191	79.998	19.996	100.111	19.947	4.340	0.541
455.500	303.399	79.997	19.995	100.110	19.948	4.272	0.494
456.000	303.663	79.998	19.996	100.110	19.948	4.309	0.460
456.500	303.952	79.996	19.995	100.114	19.948	4.278	0.512
457.000	304.206	79.998	19.995	100.113	19.946	4.459	0.548
457.500	304.442	79.997	19.995	100.113	19.949	4.243	0.517
458.000	304.673	79.997	19.995	100.113	19.949	4.216	0.479
458.500	304.954	79.996	19.995	100.115	19.950	4.166	0.489
459.000	305.158	79.997	19.996	100.115	19.951	4.061	0.498
459.500	305.443	79.997	19.995	100.116	19.953	3.944	0.487
460.000	305.675	79.997	19.994	100.117	19.950	4.148	0.504
460.500	305.930	79.997	19.996	100.117	19.948	4.261	0.502
461.000	306.215	79.997	19.996	100.116	19.949	4.255	0.513
461.500	306.411	79.998	19.995	100.114	19.950	4.175	0.510
462.000	306.718	79.998	19.996	100.112	19.947	4.356	0.493
462.500	306.953	79.997	19.995	100.111	19.948	4.325	0.523
463.000	307.198	79.997	19.995	100.110	19.953	3.937	0.511
463.500	307.436	79.997	19.995	100.110	19.950	4.150	0.481
464.000	307.680	79.997	19.995	100.112	19.948	4.292	0.483
464.500	307.942	79.997	19.995	100.112	19.949	4.214	0.494
465.000	308.144	79.996	19.995	100.114	19.949	4.204	0.485
465.500	308.475	79.997	19.996	100.114	19.949	4.196	0.498
466.000	308.690	79.997	19.995	100.115	19.949	4.231	0.539
466.500	308.942	79.997	19.994	100.116	19.949	4.245	0.506
467.000	309.181	79.997	19.995	100.116	19.949	4.255	0.479
467.500	309.432	79.997	19.995	100.116	19.949	4.243	0.491
468.000	309.672	79.998	19.995	100.117	19.947	4.362	0.491
468.500	309.946	79.998	19.996	100.115	19.944	4.573	0.503
469.000	310.182	79.998	19.994	100.115	19.948	4.282	0.512
469.500	310.451	79.997	19.995	100.114	19.946	4.433	0.507
470.000	310.656	79.999	19.995	100.113	19.947	4.334	0.490
470.500	310.916	79.998	19.995	100.111	19.948	4.265	0.470
471.000	311.190	79.997	19.994	100.111	19.947	4.379	0.499
471.500	311.416	79.999	19.994	100.110	19.949	4.253	0.517
472.000	311.675	79.999	19.995	100.108	19.947	4.395	0.492
472.500	311.964	79.999	19.994	100.108	19.950	4.162	0.517
473.000	312.237	79.999	19.994	100.110	19.947	4.350	0.555
473.500	312.482	79.999	19.995	100.111	19.949	4.191	0.540
474.000	312.749	79.999	19.995	100.113	19.949	4.195	0.515
474.500	312.988	79.999	19.993	100.115	19.946	4.433	0.508
475.000	313.243	79.998	19.994	100.111	19.946	4.416	0.500
475.500	313.513	79.999	19.995	100.107	19.951	4.079	0.509
476.000	313.776	80.000	19.995	100.106	19.946	4.412	0.529
476.500	313.971	79.999	19.994	100.106	19.949	4.193	0.496
477.000	314.267	79.999	19.995	100.106	19.952	4.016	0.474
477.500	314.505	79.999	19.994	100.111	19.949	4.189	0.512
478.000	314.767	79.998	19.995	100.115	19.947	4.334	0.518
478.500	314.987	79.999	19.995	100.116	19.949	4.204	0.491
479.000	315.273	80.000	19.995	100.116	19.949	4.237	0.494
479.500	315.485	79.998	19.995	100.116	19.946	4.404	0.502
480.000	315.749	79.997	19.996	100.116	19.948	4.284	0.487
480.500	315.977	79.997	19.994	100.115	19.945	4.490	0.484
481.000	316.283	79.998	19.996	100.115	19.951	4.102	0.513
481.500	316.517	79.997	19.996	100.114	19.947	4.399	0.537
482.000	316.743	79.998	19.995	100.114	19.950	4.139	0.500
482.500	316.972	79.998	19.995	100.115	19.953	3.923	0.457
483.000	317.277	79.997	19.995	100.115	19.944	4.567	0.495
483.500	317.483	79.996	19.996	100.115	19.948	4.276	0.523
484.000	317.730	79.997	19.995	100.116	19.946	4.459	0.482
484.500	318.031	79.997	19.995	100.116	19.950	4.185	0.500
485.000	318.253	79.997	19.995	100.116	19.945	4.507	0.535
485.500	318.480	79.996	19.996	100.116	19.949	4.230	0.486
486.000	318.769	79.995	19.994	100.116	19.948	4.300	0.482
486.500	318.993	79.996	19.996	100.117	19.947	4.379	0.515
487.000	319.319	79.995	19.997	100.117	19.948	4.325	0.532
487.500	319.504	79.995	19.996	100.117	19.947	4.344	0.531
488.000	319.747	79.995	19.995	100.115	19.946	4.412	0.469
488.500	319.971	79.995	19.996	100.113	19.945	4.525	0.447
489.000	320.287	79.995	19.996	100.113	19.948	4.280	0.504
489.500	320.525	79.995	19.996	100.112	19.949	4.222	0.547
490.000	320.753	79.995	19.996	100.110	19.947	4.369	0.509
490.500	321.021	79.996	19.995	100.112	19.949	4.208	0.481
491.000	321.338	79.995	19.996	100.114	19.950	4.127	0.541
491.500	321.599	79.994	19.996	100.115	19.947	4.344	0.582
492.000	321.680	79.995	19.996	100.116	19.948	4.284	0.460
492.500	321.980	79.996	19.995	100.119	19.948	4.292	0.361
493.000	322.423	79.997	19.995	100.121	19.950	4.158	0.562
493.500	322.493	79.995	19.995	100.120	19.946	4.424	0.628
494.000	322.580	79.995	19.995	100.120	19.944	4.575	0.335
494.500	323.085	79.996	19.995	100.120	19.947	4.381	0.374
495.000	323.208	79.996	19.996	100.120	19.949	4.253	0.610
495.500	323.583	79.996	19.995	100.120	19.944	4.617	0.563
496.000	324.065	79.997	19.995	100.120	19.949	4.237	0.677
496.500	324.364	79.996	19.995	100.120	19.946	4.427	0.819
497.000	324.279	79.996	19.996	100.119	19.950	4.142	0.497
497.500	324.668	79.996	19.995	100.120	19.948	4.268	0.259
498.000	324.734	79.996	19.995	100.120	19.951	4.102	0.380
498.500	325.085	79.997	19.995	100.120	19.948	4.319	0.436
499.000	325.234	79.995	19.995	100.119	19.950	4.117	0.458
499.500	325.558	79.996	19.996	100.119	19.950	4.125	0.486
500.000	325.754	79.996	19.994	100.118	19.949	4.228	0.496
500.500	326.013	79.996	19.994	100.117	19.949	4.251	0.488
501.000	326.254	79.996	19.995	100.117	19.949	4.257	0.478
501.500	326.540	79.996	19.996	100.117	19.951	4.096	0.513
502.000	326.769	79.995	19.995	100.117	19.952	4.024	0.521
502.500	327.045	79.996	19.995	100.116	19.949	4.214	0.510
503.000	327.310	79.995	19.996	100.117	19.947	4.348	0.523
503.500	327.522	79.996	19.997	100.117	19.949	4.201	0.509
504.000	327.783	79.996	19.998	100.118	19.950	4.154	0.475
504.500	328.079	79.997	19.995	100.118	19.950	4.148	0.515
505.000	328.315	79.996	19.995	100.119	19.953	3.933	0.544
505.500	328.552	79.997	19.996	100.116	19.950	4.138	0.502
506.000	328.812	79.995	19.996	100.114	19.948	4.309	0.485
506.500	329.044	79.997	19.996	100.113	19.950	4.127	0.495
507.000	329.319	79.998	19.996	100.113	19.948	4.319	0.500
507.500	329.594	79.996	19.996	100.112	19.946	4.441	0.528
508.000	329.750	79.996	19.995	100.114	19.950	4.146	0.490
508.500	330.079	79.995	19.996	100.114	19.947	4.389	0.458
509.000	330.294	79.996	19.995	100.113	19.949	4.206	0.514
509.500	330.544	79.996	19.996	100.113	19.948	4.323	0.504
510.000	330.784	79.996	19.996	100.112	19.951	4.065	0.478
510.500	331.020	79.997	19.996	100.112	19.949	4.255	0.483
511.000	331.307	79.995	19.997	100.112	19.948	4.294	0.500
511.500	331.537	79.995	19.996	100.113	19.948	4.321	0.520
512.000	331.797	79.995	19.997	100.113	19.946	4.445	0.503
512.500	332.036	79.995	19.996	100.116	19.948	4.282	0.495
513.001	332.302	79.994	19.997	100.118	19.948	4.307	0.502
513.501	332.587	79.994	19.997	100.120	19.945	4.540	0.528
514.000	332.791	79.995	19.997	100.121	19.949	4.251	0.520
514.500	333.056	79.994	19.996	100.119	19.946	4.433	0.479
515.000	333.313	79.995	19.996	100.117	19.947	4.373	0.496
515.500	333.553	79.993	19.996	100.114	19.948	4.299	0.509
516.000	333.766	79.995	19.996	100.111	19.948	4.329	0.475
516.500	334.031	79.994	19.997	100.106	19.949	4.251	0.465
517.000	334.319	79.994	19.996	100.107	19.949	4.245	0.515
517.500	334.540	79.995	19.996	100.108	19.948	4.267	0.531
518.000	334.759	79.995	19.997	100.111	19.948	4.276	0.475
518.500	335.044	79.995	19.997	100.113	19.945	4.509	0.472
519.000	335.269	79.995	19.997	100.117	19.946	4.408	0.507
519.500	335.513	79.995	19.996	100.114	19.949	4.212	0.489
520.000	335.732	79.994	19.996	100.112	19.951	4.076	0.466
520.500	335.985	79.996	19.996	100.112	19.949	4.206	0.467
521.000	336.195	79.997	19.996	100.111	19.946	4.420	0.467
521.500	336.466	79.996	19.996	100.109	19.948	4.300	0.472
522.000	336.714	79.996	19.997	100.112	19.947	4.377	0.500
522.500	337.000	79.994	19.995	100.114	19.945	4.497	0.526
523.000	337.210	79.995	19.995	100.114	19.947	4.362	0.515
523.500	337.478	79.996	19.996	100.114	19.944	4.569	0.486
524.000	337.676	79.995	19.996	100.115	19.946	4.437	0.472
524.500	337.939	79.997	19.996	100.114	19.946	4.433	0.464
525.000	338.171	79.997	19.995	100.114	19.950	4.144	0.478
525.500	338.420	79.995	19.996	100.115	19.948	4.309	0.488
526.000	338.650	79.996	19.997	100.115	19.948	4.288	0.480
526.500	338.921	79.997	19.996	100.113	19.946	4.430	0.490
527.000	339.136	79.997	19.996	100.114	19.946	4.408	0.493
527.500	339.385	79.997	19.994	100.113	19.947	4.373	0.475
528.000	339.630	79.998	19.995	100.114	19.947	4.393	0.479
528.500	339.849	79.997	19.996	100.114	19.946	4.424	0.480
529.000	340.092	79.998	19.995	100.115	19.946	4.406	0.463
529.500	340.335	79.998	19.995	100.115	19.950	4.148	0.474
530.000	340.622	79.997	19.995	100.115	19.944	4.596	0.508
530.500	340.876	79.997	19.995	100.115	19.944	4.563	0.535
531.000	341.118	79.998	19.996	100.115	19.945	4.509	0.519
531.500	341.336	79.998	19.996	100.115	19.942	4.732	0.478
532.000	341.580	79.999	19.995	100.116	19.943	4.641	0.461
532.500	341.831	79.999	19.995	100.116	19.946	4.447	0.478
533.000	342.088	79.998	19.995	100.117	19.942	4.724	0.502
533.500	342.304	79.997	19.995	100.117	19.946	4.453	0.490
534.000	342.571	79.998	19.996	100.118	19.945	4.501	0.478
534.500	342.803	79.998	19.995	100.117	19.947	4.344	0.491
535.000	343.031	79.998	19.995	100.117	19.947	4.342	0.480
535.500	343.305	79.997	19.995	100.117	19.948	4.300	0.481
536.000	343.457	79.998	19.995	100.117	19.946	4.418	0.464
536.500	343.742	79.998	19.995	100.117	19.950	4.160	0.432
537.000	344.015	79.998	19.996	100.117	19.951	4.061	0.498
537.500	344.235	79.998	19.995	100.118	19.948	4.301	0.526
538.000	344.485	79.998	19.995	100.118	19.948	4.286	0.482
538.500	344.758	79.997	19.993	100.118	19.946	4.468	0.496
539.000	344.986	79.998	19.996	100.118	19.949	4.214	0.511
539.500	345.249	79.997	19.996	100.118	19.953	3.925	0.496
540.000	345.516	79.998	19.995	100.117	19.948	4.296	0.511
540.500	345.747	79.998	19.995	100.116	19.947	4.340	0.514
541.000	345.996	79.997	19.995	100.116	19.946	4.406	0.489
541.500	346.222	79.999	19.995	100.116	19.948	4.321	0.478
542.000	346.480	79.997	19.995	100.116	19.947	4.362	0.479
542.500	346.721	79.997	19.996	100.115	19.950	4.179	0.491
543.000	346.968	79.997	19.995	100.117	19.950	4.178	0.493
543.500	347.227	79.997	19.995	100.117	19.947	4.373	0.497
544.000	347.451	79.997	19.995	100.116	19.946	4.430	0.494
544.500	347.706	79.997	19.996	100.117	19.949	4.195	0.481
545.000	347.945	79.998	19.995	100.117	19.950	4.152	0.487
545.500	348.212	79.997	19.995	100.117	19.945	4.482	0.501
546.000	348.422	79.998	19.995	100.117	19.948	4.315	0.492
546.500	348.663	79.998	19.996	100.117	19.950	4.166	0.464
547.000	348.936	79.997	19.994	100.116	19.945	4.511	0.482
547.500	349.216	79.998	19.996	100.116	19.951	4.098	0.533
548.000	349.448	79.998	19.997	100.116	19.949	4.187	0.532
548.500	349.753	79.998	19.995	100.115	19.950	4.131	0.525
549.000	349.982	79.998	19.996	100.115	19.950	4.170	0.536
549.500	350.189	79.997	19.996	100.116	19.951	4.108	0.485
550.000	350.442	79.997	19.995	100.117	19.951	4.054	0.447
550.500	350.676	79.998	19.996	100.117	19.949	4.204	0.473
551.000	350.936	79.999	19.995	100.118	19.949	4.227	0.490
551.500	351.259	79.998	19.996	100.118	19.947	4.350	0.538
552.000	351.476	79.999	19.995	100.119	19.950	4.123	0.561
552.500	351.731	79.999	19.995	100.118	19.943	4.630	0.506
553.000	351.981	79.998	19.995	100.118	19.949	4.207	0.489
553.500	352.232	79.999	19.994	100.119	19.946	4.441	0.503
554.000	352.465	80.000	19.995	100.119	19.946	4.449	0.492
554.500	352.731	80.000	19.994	100.120	19.951	4.114	0.492
555.000	352.983	80.000	19.994	100.119	19.946	4.409	0.508
555.500	353.220	79.998	19.994	100.119	19.948	4.316	0.504
556.000	353.460	79.998	19.994	100.119	19.946	4.472	0.483
556.500	353.729	80.000	19.994	100.119	19.947	4.382	0.493
557.000	353.981	79.999	19.994	100.118	19.946	4.424	0.515
557.500	354.256	80.000	19.994	100.118	19.947	4.362	0.524
558.000	354.520	80.000	19.994	100.118	19.943	4.630	0.533
558.500	354.747	79.999	19.996	100.118	19.945	4.536	0.515
559.000	355.024	80.000	19.995	100.119	19.945	4.486	0.497
559.500	355.219	79.998	19.996	100.119	19.945	4.476	0.488
560.000	355.488	79.999	19.995	100.120	19.946	4.422	0.468
560.500	355.739	79.999	19.995	100.120	19.945	4.542	0.492
561.000	355.978	80.000	19.994	100.132	19.943	4.643	0.505
561.500	356.255	80.000	19.995	100.108	19.945	4.512	0.503
562.000	356.521	79.999	19.995	100.087	19.943	4.665	0.529
562.500	356.746	79.998	19.995	100.075	19.944	4.599	0.517
563.000	356.976	79.998	19.994	100.067	19.945	4.531	0.474
563.500	357.237	79.997	19.994	100.054	19.946	4.465	0.473
564.000	357.525	79.997	19.995	100.078	19.948	4.317	0.520
564.500	357.770	79.997	19.995	100.124	19.948	4.312	0.541
565.000	357.999	79.996	19.995	100.162	19.946	4.426	0.504
565.500	358.212	79.995	19.995	100.181	19.947	4.391	0.458
566.000	358.461	79.997	19.995	100.185	19.944	4.550	0.452
566.500	358.733	79.996	19.995	100.185	19.948	4.325	0.492
567.000	359.002	79.996	19.994	100.160	19.945	4.505	0.531
567.500	359.250	79.996	19.994	100.134	19.947	4.354	0.529
568.000	359.521	79.996	19.995	100.124	19.946	4.465	0.518
568.500	359.775	79.996	19.996	100.122	19.948	4.327	0.522
569.000	360.028	79.996	19.995	100.122	19.947	4.342	0.516
569.500	360.244	79.995	19.995	100.123	19.947	4.403	0.488
570.000	360.510	79.996	19.995	100.123	19.946	4.455	0.475
570.500	360.751	79.996	19.996	100.123	19.942	4.736	0.494
571.000	361.051	79.996	19.995	100.123	19.945	4.525	0.524
571.500	361.256	79.996	19.995	100.126	19.944	4.564	0.523
572.000	361.492	79.995	19.995	100.128	19.945	4.538	0.473
572.500	361.790	79.995	19.995	100.128	19.945	4.507	0.487
573.000	362.011	79.996	19.996	100.128	19.945	4.527	0.526
573.500	362.238	79.995	19.996	100.129	19.945	4.515	0.483
574.000	362.490	79.995	19.995	100.128	19.944	4.561	0.463
574.500	362.744	79.995	19.996	100.125	19.942	4.691	0.493
575.000	363.015	79.996	19.995	100.125	19.945	4.540	0.516
575.500	363.277	79.995	19.995	100.126	19.945	4.490	0.530
576.000	363.538	79.995	19.995	100.125	19.942	4.734	0.528
576.500	363.802	79.996	19.997	100.124	19.944	4.566	0.524
577.000	364.006	79.996	19.995	100.123	19.943	4.651	0.496
577.500	364.275	79.995	19.996	100.122	19.942	4.697	0.470
578.000	364.478	79.995	19.996	100.121	19.943	4.688	0.473
578.500	364.757	79.995	19.996	100.121	19.942	4.723	0.477
579.000	365.026	79.996	19.996	100.120	19.943	4.635	0.515
579.500	365.262	79.996	19.996	100.120	19.944	4.581	0.527
580.000	365.542	79.997	19.996	100.120	19.943	4.674	0.510
580.500	365.776	79.996	19.995	100.120	19.946	4.443	0.514
581.000	366.021	79.997	19.996	100.122	19.944	4.591	0.496
581.500	366.295	79.997	19.996	100.125	19.944	4.594	0.499
582.000	366.524	79.996	19.997	100.124	19.943	4.672	0.511
582.500	366.796	79.997	19.996	100.125	19.940	4.854	0.502
583.000	367.028	79.996	19.995	100.124	19.944	4.558	0.502
583.500	367.257	79.996	19.996	100.121	19.943	4.662	0.483
584.000	367.531	79.997	19.996	100.118	19.943	4.633	0.482
584.500	367.777	79.997	19.997	100.117	19.944	4.558	0.511
585.000	368.017	79.996	19.995	100.116	19.940	4.858	0.502
585.500	368.291	79.997	19.996	100.116	19.942	4.707	0.500
586.000	368.535	79.996	19.996	100.117	19.943	4.664	0.516
586.500	368.755	79.996	19.996	100.119	19.945	4.496	0.491
587.000	369.013	79.997	19.996	100.122	19.943	4.622	0.471
587.500	369.271	79.997	19.996	100.123	19.940	4.847	0.497
588.000	369.526	79.998	19.996	100.123	19.941	4.783	0.514
588.500	369.787	79.997	19.997	100.123	19.940	4.858	0.514
589.000	370.037	79.998	19.996	100.122	19.944	4.610	0.513
589.500	370.284	79.997	19.996	100.122	19.943	4.637	0.504
590.000	370.525	79.996	19.996	100.123	19.942	4.736	0.493
590.500	370.764	79.997	19.995	100.123	19.944	4.577	0.484
591.000	371.011	79.996	19.995	100.123	19.942	4.732	0.483
591.500	371.259	79.996	19.995	100.122	19.939	4.959	0.491
592.000	371.523	79.997	19.995	100.119	19.942	4.744	0.503
592.500	371.808	79.996	19.996	100.118	19.941	4.796	0.530
593.000	372.031	79.995	19.996	100.118	19.946	4.463	0.528
593.500	372.306	79.996	19.997	100.119	19.941	4.814	0.503
594.000	372.534	79.995	19.997	100.120	19.942	4.715	0.501
594.500	372.809	79.996	19.996	100.121	19.941	4.821	0.503
595.000	373.074	79.997	19.995	100.121	19.940	4.851	0.521
595.500	373.331	79.995	19.997	100.121	19.940	4.897	0.531
596.000	373.585	79.995	19.995	100.121	19.940	4.878	0.517
596.500	373.815	79.996	19.997	100.120	19.944	4.575	0.498
597.000	374.102	79.995	19.996	100.118	19.941	4.827	0.500
597.500	374.341	79.995	19.996	100.117	19.942	4.711	0.521
598.000	374.566	79.996	19.997	100.118	19.940	4.835	0.495
598.500	374.845	79.996	19.997	100.118	19.942	4.730	0.484
599.000	375.093	79.995	19.996	100.118	19.938	5.015	0.516
599.500	375.336	79.997	19.996	100.118	19.940	4.882	0.509
600.000	375.581	79.995	19.996	100.118	19.939	4.946	0.489
600.500	375.860	79.996	19.996	100.118	19.941	4.794	0.506
601.000	376.091	79.996	19.995	100.118	19.937	5.073	0.517
601.500	376.344	79.995	19.998	100.118	19.942	4.750	0.497
602.000	376.594	79.996	19.996	100.118	19.943	4.625	0.493
602.500	376.859	79.996	19.996	100.118	19.938	5.007	0.509
603.000	377.102	79.995	19.998	100.117	19.940	4.905	0.512
603.500	377.335	79.996	19.997	100.117	19.941	4.771	0.492
604.000	377.623	79.995	19.997	100.118	19.940	4.895	0.499
604.500	377.874	79.996	19.996	100.118	19.938	5.029	0.530
605.000	378.102	79.997	19.996	100.118	19.936	5.124	0.509
605.500	378.383	79.995	19.996	100.119	19.938	5.016	0.494
606.000	378.613	79.996	19.998	100.121	19.937	5.084	0.510
606.500	378.870	79.997	19.996	100.121	19.938	5.018	0.499
607.000	379.154	79.997	19.997	100.121	19.933	5.365	0.514
607.500	379.394	79.996	19.996	100.121	19.936	5.186	0.533
608.000	379.638	79.997	19.996	100.120	19.935	5.202	0.505
608.500	379.893	79.996	19.996	100.119	19.935	5.223	0.492
609.000	380.136	79.997	19.997	100.120	19.937	5.058	0.498
609.500	380.400	79.998	19.997	100.121	19.935	5.205	0.502
610.000	380.652	79.998	19.997	100.122	19.935	5.211	0.511
610.500	380.897	79.998	19.997	100.122	19.935	5.213	0.506
611.000	381.143	79.997	19.996	100.122	19.936	5.184	0.494
611.500	381.396	79.998	19.996	100.118	19.938	5.031	0.495
612.000	381.652	79.997	19.997	100.117	19.935	5.255	0.504
612.500	381.867	79.997	19.996	100.116	19.934	5.334	0.490
613.000	382.152	79.996	19.996	100.116	19.934	5.280	0.485
613.500	382.384	79.998	19.996	100.117	19.935	5.235	0.508
614.000	382.682	79.998	19.996	100.117	19.936	5.188	0.523
614.500	382.939	79.998	19.997	100.120	19.935	5.249	0.543
615.000	383.169	79.998	19.995	100.123	19.937	5.101	0.521
615.500	383.439	79.998	19.996	100.125	19.938	5.016	0.493
616.000	383.714	79.998	19.995	100.127	19.939	4.973	0.522
616.500	383.983	79.998	19.996	100.128	19.936	5.184	0.544
617.000	384.173	79.997	19.995	100.127	19.936	5.153	0.501
617.500	384.438	79.999	19.995	100.127	19.938	5.029	0.457
618.000	384.690	79.997	19.996	100.126	19.937	5.070	0.486
618.500	384.940	79.999	19.997	100.124	19.938	5.045	0.510
619.000	385.188	79.998	19.997	100.123	19.940	4.888	0.500
619.500	385.428	79.998	19.995	100.123	19.938	5.045	0.493
620.000	385.679	79.997	19.996	100.121	19.943	4.663	0.489
620.500	385.940	79.997	19.995	100.120	19.939	4.942	0.501
621.000	386.173	79.997	19.996	100.121	19.940	4.870	0.503
621.500	386.426	79.997	19.995	100.122	19.939	4.913	0.490
622.000	386.688	79.996	19.996	100.124	19.939	4.954	0.500
622.500	386.963	79.997	19.995	100.131	19.938	5.006	0.526
623.000	387.220	79.998	19.996	100.132	19.940	4.855	0.535
623.500	387.466	79.997	19.995	100.134	19.936	5.126	0.517
624.000	387.712	79.996	19.994	100.133	19.939	4.917	0.498
624.500	387.946	79.997	19.996	100.130	19.939	4.950	0.486
625.000	388.207	79.996	19.995	100.128	19.940	4.891	0.487
625.500	388.470	79.997	19.994	100.130	19.939	4.942	0.509
626.000	388.761	79.998	19.995	100.128	19.938	5.016	0.539
626.500	388.979	79.997	19.995	100.128	19.940	4.901	0.532
627.000	389.202	79.998	19.994	100.128	19.943	4.659	0.475
627.500	389.491	79.996	19.995	100.123	19.941	4.822	0.477
628.000	389.766	79.996	19.995	100.122	19.937	5.056	0.538
628.500	389.999	79.998	19.995	100.125	19.939	4.935	0.536
629.000	390.249	79.999	19.995	100.127	19.938	4.982	0.496
629.500	390.513	79.998	19.996	100.133	19.937	5.083	0.499
630.000	390.768	79.996	19.995	100.138	19.936	5.130	0.517
630.500	391.037	79.997	19.995	100.136	19.938	5.007	0.522
631.000	391.295	79.998	19.995	100.134	19.935	5.198	0.525
631.500	391.519	79.998	19.996	100.133	19.937	5.090	0.504
632.000	391.802	79.998	19.996	100.128	19.935	5.206	0.495
632.500	392.026	79.997	19.995	100.126	19.938	4.986	0.507
633.000	392.328	79.997	19.994	100.126	19.935	5.230	0.516
633.500	392.555	79.997	19.995	100.126	19.936	5.156	0.527
634.000	392.821	79.998	19.994	100.124	19.935	5.228	0.511
634.500	393.117	79.999	19.995	100.125	19.936	5.155	0.528
635.000	393.358	79.998	19.994	100.122	19.935	5.244	0.549
635.500	393.574	79.998	19.994	100.122	19.937	5.120	0.497
636.000	393.866	79.998	19.995	100.122	19.938	5.000	0.482
636.500	394.166	79.998	19.995	100.124	19.936	5.140	0.550
637.000	394.387	79.998	19.995	100.124	19.934	5.273	0.556
637.500	394.629	79.999	19.994	100.125	19.934	5.304	0.492
638.000	394.856	79.998	19.994	100.126	19.933	5.353	0.466
638.500	395.146	79.997	19.995	100.132	19.933	5.359	0.493
639.000	395.376	79.999	19.995	100.115	19.932	5.425	0.518
639.500	395.649	79.998	19.996	100.096	19.931	5.514	0.511
640.000	395.961	79.999	19.995	100.080	19.930	5.574	0.544
640.500	396.131	79.998	19.995	100.069	19.932	5.481	0.534
641.000	396.391	79.998	19.994	100.056	19.935	5.225	0.456
641.500	396.674	79.998	19.996	100.066	19.933	5.384	0.486
642.000	396.902	79.996	19.995	100.097	19.933	5.403	0.527
642.500	397.133	79.998	19.995	100.146	19.934	5.330	0.485
643.000	397.409	79.998	19.995	100.172	19.929	5.659	0.483
643.500	397.650	79.999	19.996	100.184	19.930	5.607	0.512
644.000	397.908	79.998	19.995	100.189	19.930	5.601	0.508
644.500	398.155	79.997	19.994	100.176	19.929	5.640	0.502
645.000	398.392	79.997	19.995	100.142	19.933	5.362	0.494
645.500	398.665	79.996	19.995	100.124	19.930	5.605	0.496
646.000	398.907	79.997	19.996	100.119	19.931	5.510	0.512
646.500	399.187	79.996	19.997	100.118	19.932	5.417	0.519
647.000	399.434	79.997	19.995	100.118	19.932	5.439	0.525
647.500	399.675	79.996	19.995	100.121	19.930	5.613	0.507
648.000	399.969	79.996	19.996	100.120	19.930	5.613	0.512
648.500	400.212	79.996	19.995	100.121	19.931	5.538	0.536
649.000	400.467	79.996	19.996	100.121	19.933	5.367	0.517
649.500	400.710	79.996	19.996	100.121	19.930	5.610	0.498
650.000	400.976	79.997	19.994	100.119	19.931	5.536	0.504
650.500	401.209	79.996	19.995	100.119	19.936	5.181	0.504
651.000	401.450	79.995	19.995	100.118	19.932	5.429	0.486
651.500	401.711	79.997	19.995	100.119	19.933	5.357	0.488
652.000	401.925	79.996	19.996	100.119	19.932	5.471	0.489
652.500	402.215	79.996	19.996	100.118	19.934	5.302	0.489
653.000	402.484	79.997	19.995	100.119	19.930	5.611	0.531
653.500	402.772	79.996	19.994	100.122	19.932	5.438	0.559
654.000	402.999	79.998	19.996	100.122	19.930	5.592	0.536
654.500	403.230	79.996	19.996	100.122	19.931	5.499	0.486
655.000	403.478	79.996	19.995	100.122	19.929	5.698	0.468
655.500	403.736	79.998	19.996	100.121	19.931	5.543	0.492
656.000	403.976	79.997	19.996	100.119	19.927	5.836	0.502
656.500	404.253	79.997	19.995	100.123	19.931	5.502	0.508
657.000	404.475	79.996	19.995	100.125	19.932	5.479	0.508
657.500	404.720	79.996	19.996	100.128	19.930	5.596	0.483
658.000	405.006	79.996	19.995	100.128	19.927	5.776	0.499
658.500	405.224	79.996	19.994	100.131	19.931	5.495	0.518
659.000	405.477	79.997	19.996	100.132	19.930	5.609	0.488
659.500	405.745	79.997	19.995	100.131	19.929	5.648	0.496
660.000	405.974	79.996	19.994	100.131	19.929	5.688	0.509
660.500	406.243	79.998	19.995	100.133	19.928	5.733	0.497
661.000	406.501	79.998	19.995	100.130	19.928	5.747	0.512
661.500	406.776	79.997	19.996	100.126	19.926	5.889	0.530
662.000	406.984	79.997	19.996	100.125	19.929	5.635	0.508
662.500	407.271	79.997	19.995	100.122	19.929	5.633	0.489
663.000	407.516	79.998	19.996	100.122	19.929	5.673	0.514
663.500	407.788	79.996	19.995	100.121	19.926	5.865	0.524
664.000	408.025	79.996	19.995	100.122	19.929	5.650	0.513
664.500	408.289	79.997	19.995	100.123	19.929	5.654	0.505
665.000	408.516	79.997	19.995	100.124	19.925	5.931	0.496
665.500	408.792	79.997	19.997	100.124	19.929	5.658	0.497
666.000	409.030	79.998	19.997	100.124	19.924	6.003	0.509
666.500	409.298	79.998	19.995	100.124	19.929	5.691	0.510
667.000	409.517	79.998	19.996	100.122	19.928	5.720	0.497
667.500	409.745	79.997	19.995	100.122	19.929	5.689	0.467
668.000	410.038	79.997	19.995	100.124	19.927	5.811	0.484
668.500	410.292	79.997	19.996	100.127	19.928	5.753	0.534
669.000	410.542	79.996	19.996	100.127	19.925	5.976	0.525
669.500	410.780	79.996	19.998	100.127	19.924	5.987	0.496
670.000	410.987	79.996	19.997	100.126	19.923	6.069	0.466
670.500	411.282	79.996	19.996	100.124	19.926	5.863	0.474
671.000	411.539	79.996	19.996	100.120	19.926	5.883	0.527
671.500	411.769	79.997	19.997	100.125	19.926	5.889	0.520
672.000	412.032	79.997	19.996	100.128	19.924	6.026	0.490
672.500	412.309	79.997	19.996	100.130	19.925	5.933	0.516
673.000	412.511	79.997	19.997	100.131	19.926	5.859	0.510
673.500	412.767	79.996	19.996	100.131	19.924	6.038	0.469
674.000	413.029	79.997	19.995	100.126	19.922	6.172	0.489
674.500	413.262	79.997	19.996	100.124	19.921	6.222	0.507
675.000	413.536	79.997	19.996	100.123	19.921	6.215	0.501
675.500	413.798	79.998	19.997	100.122	19.921	6.205	0.521
676.000	414.044	79.996	19.996	100.124	19.923	6.101	0.522
676.500	414.276	79.997	19.996	100.126	19.924	6.006	0.493
677.000	414.529	79.997	19.996	100.128	19.924	6.058	0.481
677.500	414.744	79.997	19.997	100.133	19.922	6.194	0.476
678.000	415.013	79.996	19.996	100.137	19.923	6.110	0.476
678.500	415.292	79.996	19.996	100.135	19.917	6.533	0.516
679.000	415.498	79.995	19.998	100.133	19.921	6.234	0.517
679.500	415.746	79.996	19.997	100.131	19.918	6.482	0.470
680.000	416.035	79.996	19.995	100.125	19.921	6.209	0.496
680.500	416.290	79.997	19.997	100.121	19.918	6.424	0.540
681.000	416.514	79.996	19.996	100.124	19.918	6.461	0.512
681.500	416.767	79.995	19.996	100.124	19.919	6.419	0.478
682.000	417.047	79.996	19.997	100.127	19.918	6.444	0.505
682.500	417.283	79.997	19.995	100.128	19.918	6.483	0.524
683.000	417.505	79.995	19.996	100.129	19.917	6.547	0.487
683.500	417.777	79.996	19.995	100.125	19.914	6.743	0.476
684.000	418.043	79.996	19.995	100.126	19.916	6.590	0.516
684.500	418.304	79.997	19.997	100.126	19.914	6.755	0.533
685.000	418.539	79.996	19.996	100.128	19.912	6.883	0.511
685.500	418.802	79.996	19.995	100.133	19.914	6.712	0.497
686.000	419.019	79.996	19.996	100.134	19.915	6.664	0.489
686.500	419.288	79.996	19.996	100.134	19.912	6.864	0.483
687.000	419.505	79.997	19.996	100.136	19.912	6.922	0.486
687.500	419.762	79.996	19.995	100.137	19.912	6.885	0.480
688.000	420.003	79.997	19.996	100.135	19.909	7.081	0.486
688.500	420.298	79.996	19.995	100.135	19.911	6.990	0.517
689.000	420.534	79.997	19.997	100.138	19.909	7.124	0.533
689.500	420.811	79.996	19.996	100.137	19.911	6.928	0.522
690.000	421.065	79.997	19.996	100.133	19.905	7.370	0.522
690.500	421.276	79.997	19.996	100.130	19.907	7.246	0.498
691.000	421.539	79.998	19.996	100.129	19.907	7.246	0.470
691.500	421.814	79.997	19.996	100.127	19.903	7.522	0.506
692.000	422.045	79.997	19.995	100.131	19.900	7.725	0.521
692.500	422.274	79.998	19.997	100.138	19.901	7.679	0.483
693.000	422.528	79.997	19.997	100.140	19.901	7.683	0.472
693.500	422.751	79.998	19.996	100.145	19.900	7.766	0.480
694.000	422.998	79.997	19.996	100.147	19.897	7.939	0.473
694.500	423.240	79.997	19.996	100.143	19.897	7.956	0.479
695.000	423.507	79.997	19.996	100.141	19.897	7.985	0.499
695.500	423.774	79.998	19.996	100.147	19.895	8.107	0.522
696.000	424.026	79.998	19.996	100.149	19.894	8.199	0.527
696.500	424.266	79.999	19.996	100.148	19.893	8.267	0.505
697.000	424.484	79.998	19.996	100.151	19.893	8.251	0.475
697.500	424.735	79.999	19.995	100.153	19.893	8.275	0.463
698.000	424.963	79.998	19.996	100.152	19.892	8.339	0.474
698.500	425.280	79.997	19.998	100.149	19.891	8.426	0.512
699.000	425.508	79.996	19.997	100.152	19.893	8.259	0.545
699.500	425.751	79.997	19.997	100.153	19.889	8.521	0.509
700.000	426.042	79.997	19.997	100.153	19.891	8.383	0.503
700.500	426.273	79.996	19.997	100.154	19.890	8.440	0.528
701.000	426.517	79.997	19.996	100.153	19.889	8.542	0.498
701.500	426.790	79.997	19.997	100.153	19.888	8.600	0.496
702.000	427.047	79.997	19.997	100.153	19.883	8.957	0.524
702.500	427.288	79.996	19.996	100.152	19.884	8.915	0.514
703.000	427.534	79.998	19.996	100.152	19.884	8.870	0.493
703.500	427.773	79.996	19.996	100.155	19.883	9.006	0.486
704.000	428.035	79.996	19.997	100.156	19.881	9.121	0.493
704.500	428.267	79.998	19.996	100.152	19.883	8.963	0.497
705.000	428.492	79.998	19.995	100.152	19.875	9.547	0.475
705.500	428.764	79.997	19.996	100.152	19.878	9.324	0.477
706.000	429.042	79.997	19.996	100.151	19.877	9.423	0.524
706.500	429.264	79.998	19.997	100.150	19.879	9.241	0.525
707.000	429.551	79.998	19.996	100.153	19.875	9.523	0.505
707.500	429.800	79.998	19.997	100.153	19.873	9.688	0.522
708.000	430.054	79.997	19.996	100.155	19.869	9.967	0.519
708.500	430.283	79.998	19.997	100.156	19.872	9.771	0.493
709.000	430.550	79.998	19.996	100.158	19.870	9.903	0.489
709.500	430.792	79.998	19.995	100.159	19.868	10.070	0.503
710.000	431.057	79.999	19.995	100.159	19.865	10.244	0.508
710.500	431.288	79.999	19.997	100.159	19.869	9.990	0.502
711.000	431.513	79.998	19.996	100.157	19.868	10.038	0.476
711.500	431.755	79.998	19.995	100.155	19.865	10.296	0.462
712.000	432.032	80.000	19.996	100.155	19.862	10.456	0.493
712.500	432.258	79.999	19.995	100.154	19.862	10.489	0.510
713.000	432.555	79.998	19.996	100.154	19.860	10.654	0.513
713.500	432.820	79.998	19.997	100.156	19.856	10.896	0.543
714.000	433.080	79.999	19.996	100.156	19.855	10.966	0.544
714.500	433.307	79.998	19.995	100.157	19.857	10.832	0.506
715.000	433.555	79.998	19.996	100.156	19.854	11.047	0.481
715.500	433.836	79.999	19.996	100.156	19.856	10.921	0.501
716.000	434.101	79.999	19.995	100.156	19.851	11.256	0.538
716.500	434.331	79.998	19.996	100.156	19.848	11.531	0.521
717.000	434.564	79.999	19.996	100.159	19.845	11.720	0.479
717.500	434.841	79.999	19.995	100.160	19.844	11.786	0.487
718.000	435.097	79.999	19.995	100.160	19.841	12.036	0.521
718.500	435.342	79.999	19.994	100.162	19.838	12.224	0.517
719.000	435.611	80.000	19.996	100.163	19.836	12.363	0.508
719.500	435.848	80.000	19.996	100.160	19.836	12.359	0.510
720.000	436.151	80.000	19.994	100.160	19.832	12.621	0.523
720.500	436.382	80.001	19.995	100.160	19.830	12.798	0.537
721.000	436.647	79.999	19.995	100.158	19.826	13.048	0.515
721.500	436.861	79.998	19.995	100.157	19.823	13.322	0.487
722.000	437.133	79.999	19.995	100.157	19.820	13.501	0.482
722.500	437.398	79.999	19.995	100.158	19.819	13.577	0.512
723.000	437.624	79.998	19.995	100.158	19.815	13.903	0.514
723.500	437.901	79.999	19.995	100.158	19.809	14.307	0.497
724.000	438.142	80.000	19.996	100.158	19.805	14.611	0.510
724.500	438.397	79.998	19.995	100.159	19.805	14.630	0.506
725.000	438.659	80.000	19.996	100.158	19.798	15.131	0.506
725.500	438.955	79.999	19.995	100.158	19.798	15.121	0.538
726.000	439.202	79.998	19.996	100.157	19.795	15.344	0.551
726.500	439.440	79.999	19.995	100.160	19.792	15.552	0.514
727.000	439.679	79.998	19.996	100.165	19.790	15.649	0.481
727.500	439.923	79.997	19.996	100.165	19.783	16.150	0.480
728.000	440.159	79.997	19.994	100.166	19.781	16.349	0.482
728.500	440.478	79.997	19.997	100.168	19.780	16.373	0.518
729.000	440.694	79.997	19.996	100.167	19.780	16.386	0.545
729.500	440.960	79.996	19.995	100.162	19.776	16.664	0.508
730.000	441.198	79.996	19.995	100.162	19.770	17.102	0.493
730.500	441.480	79.997	19.996	100.161	19.763	17.638	0.513
731.000	441.690	79.996	19.997	100.160	19.760	17.799	0.506
731.500	442.000	79.997	19.996	100.163	19.758	17.940	0.506
732.000	442.200	79.996	19.996	100.164	19.755	18.187	0.515
732.500	442.465	79.997	19.996	100.167	19.751	18.463	0.487
733.000	442.720	79.996	19.994	100.169	19.744	18.988	0.492
733.500	442.966	79.996	19.996	100.169	19.741	19.211	0.511
734.000	443.203	79.996	19.997	100.170	19.738	19.429	0.492
734.500	443.473	79.998	19.995	100.170	19.730	20.000	0.495
735.000	443.761	79.997	19.997	100.172	19.726	20.277	0.533
735.500	443.987	79.998	19.995	100.176	19.724	20.452	0.536
736.000	444.257	79.998	19.996	100.182	19.720	20.710	0.505
736.500	444.494	79.999	19.996	100.179	19.716	21.011	0.501
737.000	444.732	79.997	19.995	100.177	19.715	21.066	0.491
737.500	444.975	79.996	19.995	100.177	19.715	21.044	0.478
738.000	445.272	79.997	19.996	100.177	19.717	20.940	0.511
738.500	445.553	79.997	19.994	100.170	19.719	20.815	0.560
739.000	445.764	79.997	19.995	100.167	19.721	20.644	0.535
739.500	446.043	79.997	19.995	100.167	19.722	20.564	0.491
740.000	446.267	79.996	19.997	100.163	19.729	20.071	0.497
740.500	446.551	79.998	19.995	100.156	19.728	20.165	0.505
741.000	446.781	79.997	19.996	100.155	19.727	20.192	0.511
741.500	447.042	79.998	19.995	100.156	19.729	20.095	0.502
742.000	447.293	79.998	19.995	100.156	19.725	20.345	0.502
742.500	447.579	79.997	19.995	100.156	19.725	20.347	0.525
743.000	447.802	79.998	19.996	100.156	19.722	20.603	0.523
743.500	448.090	79.998	19.996	100.158	19.719	20.829	0.510
744.000	448.335	79.997	19.995	100.165	19.713	21.202	0.522
744.500	448.582	79.998	19.995	100.174	19.714	21.182	0.512
745.000	448.844	79.998	19.995	100.180	19.713	21.273	0.500
745.500	449.076	79.997	19.995	100.189	19.711	21.363	0.502
746.000	449.333	79.998	19.995	100.198	19.713	21.251	0.491
746.500	449.540	79.997	19.996	100.199	19.717	20.961	0.476
747.000	449.787	79.998	19.996	100.196	19.719	20.820	0.459
747.500	450.086	79.998	19.995	100.191	19.725	20.380	0.500
748.000	450.332	79.996	19.995	100.182	19.730	20.038	0.545
748.500	450.603	79.996	19.995	100.172	19.730	19.985	0.531
749.000	450.809	79.996	19.995	100.165	19.732	19.833	0.497
749.500	451.116	79.996	19.994	100.160	19.734	19.730	0.495
750.000	451.339	79.996	19.995	100.160	19.735	19.629	0.521
750.500	451.629	79.996	19.995	100.160	19.733	19.783	0.522
751.000	451.863	79.997	19.996	100.160	19.736	19.554	0.519
751.500	452.164	79.996	19.995	100.160	19.731	19.937	0.529
752.000	452.422	79.996	19.995	100.163	19.726	20.310	0.547
752.500	452.672	79.997	19.996	100.170	19.718	20.883	0.534
753.000	452.918	79.996	19.996	100.177	19.713	21.213	0.502
753.500	453.190	79.997	19.994	100.190	19.703	21.952	0.507
754.000	453.433	79.997	19.994	100.206	19.695	22.536	0.517
754.500	453.675	79.995	19.996	100.219	19.685	23.217	0.500
755.000	453.938	79.997	19.996	100.230	19.672	24.196	0.495
755.500	454.172	79.998	19.995	100.244	19.663	24.830	0.501
756.000	454.419	79.997	19.995	100.254	19.652	25.639	0.489
756.500	454.687	79.997	19.995	100.257	19.643	26.284	0.498
757.000	454.947	79.996	19.996	100.259	19.630	27.165	0.521
757.500	455.216	79.996	19.997	100.256	19.615	28.260	0.528
758.000	455.469	79.994	19.998	100.250	19.606	28.933	0.526
758.500	455.743	79.996	19.996	100.238	19.591	30.012	0.525
759.000	456.000	79.995	19.997	100.233	19.578	30.920	0.529
759.500	456.209	79.995	19.995	100.224	19.564	31.927	0.498
760.000	456.507	79.995	19.997	100.219	19.550	32.930	0.487
760.500	456.714	79.996	19.995	100.211	19.541	33.594	0.506
761.000	457.013	79.995	19.998	100.210	19.524	34.834	0.505
761.500	457.249	79.995	19.997	100.211	19.510	35.845	0.520
762.000	457.511	79.995	19.996	100.215	19.496	36.867	0.517
762.500	457.803	79.995	19.996	100.216	19.484	37.772	0.526
763.000	458.030	79.995	19.996	100.219	19.469	38.822	0.536
763.500	458.303	79.996	19.996	100.220	19.454	39.923	0.509
764.000	458.540	79.997	19.997	100.218	19.446	40.527	0.505
764.500	458.818	79.995	19.995	100.214	19.436	41.233	0.513
765.000	459.084	79.994	19.996	100.215	19.426	41.955	0.529
765.500	459.322	79.994	19.996	100.220	19.425	42.063	0.524
766.000	459.591	79.995	19.996	100.222	19.426	41.983	0.506
766.500	459.852	79.995	19.997	100.218	19.429	41.760	0.518
767.000	460.095	79.995	19.996	100.217	19.437	41.138	0.517
767.500	460.401	79.995	19.995	100.205	19.443	40.747	0.526
768.000	460.611	79.997	19.995	100.182	19.450	40.179	0.532
768.500	460.867	79.996	19.996	100.163	19.460	39.483	0.491
769.000	461.104	79.997	19.996	100.148	19.466	39.013	0.480
769.500	461.370	79.997	19.995	100.138	19.467	38.929	0.499
770.000	461.623	79.997	19.996	100.137	19.465	39.077	0.511
770.500	461.915	79.996	19.996	100.145	19.462	39.326	0.532
771.000	462.133	79.995	19.996	100.157	19.461	39.377	0.527
771.500	462.434	79.997	19.996	100.171	19.454	39.822	0.514
772.000	462.668	79.997	19.996	100.185	19.444	40.546	0.527
772.500	462.935	79.997	19.996	100.204	19.434	41.251	0.518
773.000	463.215	79.997	19.997	100.226	19.424	42.047	0.524
773.500	463.446	79.995	19.996	100.248	19.404	43.460	0.529
774.000	463.726	79.998	19.996	100.272	19.392	44.367	0.511
774.500	463.956	79.998	19.996	100.296	19.376	45.480	0.511
775.000	464.250	79.999	19.997	100.317	19.362	46.514	0.517
775.500	464.478	79.996	19.996	100.334	19.342	47.959	0.522
776.000	464.733	79.998	19.996	100.346	19.324	49.255	0.502
776.500	465.002	79.999	19.996	100.352	19.305	50.664	0.504
777.000	465.208	79.999	19.997	100.346	19.290	51.735	0.500
777.500	465.507	79.998	19.997	100.338	19.272	53.027	0.490
778.000	465.730	79.997	19.996	100.324	19.261	53.806	0.513
778.500	466.011	79.999	19.995	100.309	19.253	54.436	0.513
779.000	466.200	79.999	19.995	100.293	19.249	54.697	0.487
779.500	466.442	79.998	19.996	100.277	19.252	54.507	0.450
780.000	466.782	79.996	19.995	100.259	19.262	53.812	0.507
780.500	467.029	79.999	19.995	100.242	19.266	53.512	0.584
781.000	467.310	79.998	19.996	100.209	19.279	52.560	0.557
781.500	467.520	79.999	19.996	100.170	19.289	51.839	0.510
782.000	467.840	79.998	19.996	100.146	19.293	51.524	0.511
782.500	468.095	79.998	19.996	100.124	19.296	51.384	0.553
783.000	468.304	79.997	19.998	100.106	19.297	51.305	0.519
783.500	468.588	79.997	19.996	100.109	19.292	51.647	0.478
784.000	468.821	79.998	19.996	100.124	19.289	51.908	0.505
784.500	469.095	79.997	19.996	100.141	19.286	52.141	0.512
785.000	469.301	79.997	19.996	100.164	19.285	52.186	0.494
785.500	469.581	79.996	19.997	100.194	19.288	51.981	0.484
786.000	469.846	79.998	19.996	100.230	19.293	51.612	0.516
786.500	470.108	79.997	19.997	100.256	19.293	51.598	0.536
787.000	470.361	79.996	19.995	100.269	19.297	51.243	0.521
787.500	470.604	79.998	19.997	100.277	19.293	51.502	0.505
788.000	470.869	79.998	19.996	100.282	19.288	51.799	0.502
788.500	471.106	79.997	19.996	100.284	19.280	52.357	0.505
789.000	471.371	79.997	19.998	100.290	19.263	53.543	0.502
789.500	471.641	79.996	19.996	100.306	19.244	54.933	0.518
790.000	471.862	79.997	19.997	100.321	19.221	56.606	0.513
790.500	472.172	79.997	19.996	100.328	19.192	58.647	0.511
791.000	472.427	79.996	19.997	100.330	19.161	60.900	0.548
791.501	472.706	79.998	19.996	100.337	19.126	63.456	0.550
792.000	472.928	79.998	19.997	100.340	19.090	66.116	0.518
792.500	473.185	79.998	19.997	100.345	19.050	68.991	0.490
793.000	473.438	79.998	19.998	100.357	19.011	71.870	0.494
793.500	473.729	79.996	19.996	100.376	18.975	74.540	0.527
794.000	473.962	79.997	19.996	100.392	18.931	77.740	0.534
794.500	474.234	79.998	19.997	100.410	18.893	80.495	0.515
795.000	474.484	79.998	19.997	100.429	18.861	82.851	0.513
795.500	474.766	79.997	19.996	100.445	18.836	84.678	0.527
796.000	475.003	79.997	19.997	100.448	18.822	85.717	0.526
796.500	475.250	79.997	19.996	100.443	18.813	86.326	0.502
797.000	475.495	79.998	19.996	100.425	18.818	85.970	0.488
797.500	475.777	79.998	19.996	100.391	18.820	85.805	0.509
798.000	476.030	79.999	19.997	100.324	18.834	84.746	0.530
798.500	476.287	79.999	19.997	100.245	18.846	83.830	0.522
799.000	476.546	79.999	19.996	100.170	18.856	83.068	0.514
799.500	476.777	79.999	19.997	100.106	18.868	82.203	0.504
800.000	477.057	79.999	19.997	100.056	18.872	81.845	0.501
800.500	477.330	79.999	19.996	100.043	18.876	81.569	0.532
801.000	477.578	79.998	19.994	100.054	18.869	82.076	0.537
801.500	477.813	80.000	19.996	100.075	18.860	82.707	0.502
802.000	478.088	79.999	19.995	100.104	18.847	83.606	0.496
802.500	478.357	79.999	19.996	100.143	18.835	84.474	0.527
803.000	478.613	80.000	19.995	100.192	18.814	86.018	0.535
803.500	478.901	80.001	19.995	100.246	18.795	87.358	0.535
804.000	479.127	79.999	19.995	100.304	18.772	89.036	0.529
804.500	479.379	79.999	19.995	100.362	18.747	90.802	0.496
805.000	479.651	79.999	19.995	100.415	18.719	92.811	0.501
805.500	479.924	79.999	19.995	100.462	18.692	94.725	0.534
806.000	480.149	79.998	19.996	100.504	18.669	96.427	0.522
806.500	480.396	79.998	19.995	100.537	18.646	98.122	0.485
807.000	480.645	79.998	19.996	100.554	18.624	99.725	0.484
807.500	480.938	79.998	19.996	100.556	18.601	101.341	0.519
808.000	481.197	79.997	19.997	100.538	18.582	102.745	0.547
808.500	481.462	79.998	19.995	100.503	18.569	103.691	0.538
809.000	481.716	79.999	19.994	100.454	18.551	105.046	0.521
809.500	482.010	79.997	19.994	100.403	18.541	105.757	0.534
810.000	482.241	79.996	19.996	100.354	18.527	106.799	0.536
810.500	482.467	79.998	19.995	100.314	18.518	107.473	0.491
811.000	482.775	79.997	19.995	100.283	18.516	107.648	0.495
811.500	482.999	79.998	19.995	100.261	18.508	108.252	0.533
812.000	483.276	79.996	19.995	100.249	18.517	107.641	0.516
812.500	483.504	79.998	19.996	100.240	18.526	107.003	0.503
813.000	483.772	79.997	19.995	100.235	18.540	105.969	0.501
813.500	484.085	79.997	19.996	100.233	18.562	104.450	0.539
814.000	484.299	79.996	19.996	100.227	18.583	102.907	0.554
814.500	484.556	79.996	19.996	100.213	18.609	101.000	0.499
815.000	484.813	79.996	19.995	100.199	18.627	99.705	0.492
815.500	485.068	79.996	19.995	100.184	18.649	98.110	0.513
816.000	485.340	79.996	19.995	100.174	18.672	96.477	0.520
816.500	485.531	79.996	19.996	100.173	18.688	95.332	0.495
817.000	485.815	79.996	19.996	100.185	18.704	94.183	0.469
817.500	486.116	79.995	19.995	100.205	18.719	93.041	0.530
818.000	486.358	79.996	19.995	100.227	18.735	91.854	0.564
818.500	486.622	79.996	19.995	100.248	18.749	90.791	0.525
819.000	486.860	79.997	19.996	100.271	18.764	89.695	0.504
819.500	487.118	79.997	19.995	100.290	18.775	88.849	0.499
820.000	487.392	79.995	19.996	100.304	18.788	87.831	0.514
820.500	487.650	79.996	19.995	100.322	18.789	87.787	0.532
821.000	487.898	79.995	19.996	100.343	18.795	87.366	0.519
821.500	488.119	79.997	19.995	100.365	18.788	87.878	0.488
822.000	488.387	79.996	19.995	100.389	18.786	88.048	0.479
822.500	488.648	79.997	19.995	100.417	18.772	89.098	0.508
823.000	488.901	79.996	19.995	100.441	18.759	90.093	0.521
823.500	489.156	79.996	19.996	100.458	18.741	91.378	0.511
824.000	489.400	79.996	19.995	100.466	18.716	93.176	0.504
824.500	489.663	79.996	19.995	100.472	18.688	95.268	0.503
825.000	489.904	79.996	19.995	100.473	18.661	97.185	0.505
825.500	490.177	79.995	19.996	100.473	18.633	99.245	0.509
826.000	490.431	79.997	19.994	100.474	18.615	100.565	0.520
826.500	490.682	79.996	19.994	100.477	18.597	101.886	0.516
827.000	490.950	79.995	19.995	100.475	18.591	102.379	0.512
827.500	491.185	79.996	19.996	100.477	18.592	102.288	0.511
828.000	491.447	79.996	19.996	100.472	18.596	102.002	0.500
828.500	491.703	79.997	19.995	100.443	18.601	101.578	0.508
829.000	491.983	79.997	19.996	100.395	18.611	100.845	0.527
829.500	492.212	79.996	19.996	100.344	18.613	100.642	0.522
830.000	492.476	79.996	19.995	100.287	18.613	100.587	0.501
830.500	492.725	79.996	19.995	100.235	18.605	101.153	0.503
831.000	492.979	79.996	19.996	100.209	18.592	102.106	0.508
831.500	493.227	79.997	19.995	100.202	18.579	103.077	0.502
832.000	493.493	79.996	19.995	100.209	18.562	104.305	0.508
832.500	493.728	79.997	19.995	100.222	18.553	104.905	0.508
833.000	494.020	79.997	19.994	100.256	18.546	105.420	0.514
833.500	494.282	79.998	19.995	100.295	18.540	105.867	0.541
834.000	494.548	79.996	19.995	100.325	18.534	106.232	0.541
834.500	494.823	79.996	19.995	100.350	18.528	106.665	0.535
835.000	495.047	79.996	19.995	100.372	18.519	107.331	0.520
835.501	495.314	79.996	19.995	100.384	18.503	108.493	0.495
836.000	495.572	79.997	19.996	100.395	18.483	109.962	0.508
836.500	495.849	79.997	19.996	100.419	18.463	111.467	0.530
837.000	496.124	79.998	19.996	100.450	18.436	113.489	0.543
837.500	496.362	79.997	19.996	100.479	18.416	114.959	0.532
838.000	496.592	79.997	19.996	100.501	18.396	116.446	0.490
838.500	496.856	79.998	19.996	100.510	18.381	117.508	0.481
839.000	497.122	79.997	19.996	100.495	18.369	118.418	0.512
839.500	497.374	79.997	19.996	100.459	18.362	118.898	0.524
840.000	497.637	79.997	19.995	100.418	18.361	119.012	0.517
840.500	497.908	79.998	19.995	100.375	18.354	119.525	0.525
841.000	498.173	79.997	19.996	100.341	18.354	119.581	0.535
841.500	498.408	79.998	19.996	100.329	18.354	119.582	0.518
842.000	498.680	79.996	19.996	100.333	18.357	119.306	0.503
842.500	498.951	79.996	19.996	100.340	18.358	119.206	0.525
843.000	499.157	79.997	19.995	100.348	18.363	118.788	0.510
843.501	499.449	79.997	19.997	100.349	18.367	118.521	0.488
844.000	499.739	79.997	19.996	100.340	18.363	118.779	0.540
844.500	499.969	79.997	19.995	100.324	18.357	119.121	0.551
845.000	500.187	79.996	19.995	100.308	18.350	119.617	0.484
845.500	500.442	79.997	19.996	100.293	18.335	120.688	0.461
846.000	500.713	79.996	19.996	100.291	18.323	121.515	0.500
846.500	500.962	79.996	19.995	100.312	18.307	122.678	0.523
847.000	501.249	79.998	19.995	100.354	18.295	123.580	0.528
847.500	501.449	79.998	19.995	100.401	18.281	124.581	0.512
848.000	501.757	79.996	19.996	100.448	18.262	125.934	0.498
848.500	501.998	79.998	19.996	100.487	18.235	127.888	0.528
849.000	502.247	79.996	19.996	100.500	18.207	129.940	0.519
849.500	502.542	79.996	19.995	100.498	18.174	132.362	0.517
850.000	502.756	79.997	19.996	100.502	18.138	134.933	0.526
850.500	503.025	79.998	19.996	100.524	18.109	137.086	0.496
851.000	503.265	79.998	19.996	100.548	18.074	139.688	0.496
851.500	503.491	79.998	19.996	100.569	18.043	141.924	0.488
852.000	503.746	79.999	19.997	100.581	18.015	143.983	0.473
852.500	503.964	79.997	19.997	100.577	17.995	145.451	0.477
853.000	504.230	79.997	19.997	100.551	17.976	146.782	0.478
853.500	504.500	79.998	19.997	100.518	17.958	148.083	0.510
854.000	504.719	79.998	19.996	100.487	17.945	149.074	0.512
854.500	504.979	79.998	19.997	100.465	17.929	150.167	0.484
855.000	505.261	79.998	19.997	100.440	17.922	150.687	0.511
855.500	505.518	79.998	19.996	100.414	17.911	151.456	0.541
856.000	505.756	79.997	19.996	100.391	17.903	152.047	0.517
856.500	505.993	79.997	19.997	100.374	17.893	152.753	0.485
857.000	506.213	79.998	19.995	100.360	17.888	153.135	0.466
857.500	506.493	79.998	19.995	100.352	17.878	153.870	0.479
858.000	506.787	79.998	19.996	100.351	17.866	154.735	0.537
858.500	507.024	79.998	19.996	100.351	17.861	155.128	0.552
859.000	507.256	79.998	19.996	100.351	17.849	155.961	0.500
859.500	507.518	79.999	19.996	100.356	17.841	156.546	0.482
860.000	507.775	79.998	19.997	100.367	17.831	157.293	0.507
860.500	508.018	79.998	19.996	100.384	17.823	157.837	0.509
861.000	508.292	79.999	19.996	100.407	17.814	158.473	0.508
861.500	508.505	79.998	19.996	100.439	17.803	159.276	0.502
862.000	508.775	79.998	19.997	100.465	17.792	160.085	0.485
862.500	509.029	79.999	19.996	100.485	17.782	160.763	0.503
863.000	509.282	79.998	19.995	100.500	17.768	161.790	0.515
863.500	509.552	79.999	19.995	100.508	17.759	162.440	0.515
864.000	509.818	79.997	19.996	100.508	17.745	163.442	0.530
864.500	510.044	79.997	19.995	100.509	17.733	164.284	0.514
865.000	510.310	79.997	19.996	100.509	17.721	165.153	0.492
865.500	510.549	79.998	19.997	100.508	17.705	166.338	0.499
866.000	510.792	79.997	19.996	100.507	17.694	167.132	0.493
866.500	511.027	79.998	19.996	100.506	17.685	167.818	0.480
867.000	511.272	79.998	19.996	100.505	17.668	169.015	0.479
867.500	511.545	79.997	19.995	100.505	17.655	169.974	0.499
868.000	511.798	79.999	19.996	100.505	17.641	170.994	0.522
868.500	512.053	79.998	19.996	100.506	17.631	171.763	0.517
869.000	512.277	79.999	19.995	100.506	17.617	172.708	0.494
869.500	512.535	79.998	19.996	100.506	17.608	173.375	0.481
870.000	512.807	79.998	19.996	100.502	17.596	174.279	0.506
870.500	513.058	79.998	19.996	100.500	17.586	175.004	0.527
871.000	513.271	79.998	19.996	100.500	17.572	176.028	0.494
871.500	513.542	79.997	19.996	100.498	17.562	176.704	0.474
872.000	513.792	79.998	19.997	100.497	17.552	177.422	0.503
872.500	514.033	79.998	19.997	100.499	17.547	177.785	0.506
873.000	514.311	79.998	19.995	100.499	17.532	178.855	0.505
873.500	514.587	79.998	19.996	100.493	17.525	179.415	0.536
874.000	514.794	79.998	19.996	100.490	17.514	180.175	0.518
874.500	515.076	79.998	19.996	100.486	17.509	180.553	0.486
875.000	515.347	79.997	19.996	100.484	17.501	181.129	0.521
875.500	515.573	79.998	19.996	100.482	17.491	181.804	0.524
876.000	515.835	79.997	19.997	100.483	17.486	182.161	0.492
876.500	516.074	79.998	19.996	100.482	17.478	182.791	0.495
877.000	516.353	79.998	19.997	100.482	17.470	183.348	0.510
877.500	516.626	79.998	19.995	100.486	17.465	183.706	0.536
878.000	516.877	79.998	19.996	100.491	17.460	184.057	0.538
878.500	517.125	79.997	19.996	100.496	17.453	184.562	0.511
879.000	517.388	79.998	19.996	100.503	17.449	184.820	0.505
879.500	517.622	79.997	19.996	100.510	17.446	185.000	0.504
880.000	517.898	79.998	19.995	100.511	17.438	185.601	0.504
880.500	518.143	79.999	19.996	100.512	17.435	185.830	0.516
881.000	518.422	79.999	19.996	100.512	17.430	186.168	0.522
881.500	518.630	79.998	19.995	100.512	17.429	186.268	0.505
882.000	518.886	79.999	19.996	100.511	17.423	186.718	0.476
882.500	519.172	79.999	19.997	100.512	17.422	186.781	0.503
883.000	519.391	79.999	19.996	100.511	17.420	186.893	0.524
883.500	519.645	80.000	19.997	100.511	17.415	187.237	0.489
884.000	519.930	79.997	19.998	100.510	17.417	187.125	0.506
884.500	520.187	79.999	19.997	100.510	17.416	187.158	0.540
885.000	520.440	79.999	19.997	100.509	17.416	187.213	0.526
885.500	520.686	80.001	19.997	100.509	17.418	187.058	0.505
886.000	520.935	79.999	19.997	100.508	17.419	186.962	0.497
886.500	521.172	79.999	19.997	100.505	17.421	186.805	0.490
887.000	521.466	79.998	19.995	100.500	17.422	186.732	0.508
887.500	521.702	79.998	19.996	100.495	17.427	186.352	0.530
888.000	521.930	79.999	19.996	100.490	17.429	186.207	0.497
888.500	522.190	79.998	19.997	100.487	17.435	185.773	0.476
889.000	522.459	79.998	19.996	100.483	17.440	185.365	0.509
889.500	522.702	79.996	19.996	100.483	17.446	184.990	0.521
890.000	522.969	79.997	19.996	100.480	17.453	184.480	0.510
890.500	523.233	79.998	19.995	100.478	17.455	184.286	0.520
891.000	523.461	79.997	19.996	100.475	17.466	183.489	0.512
891.500	523.768	79.996	19.996	100.477	17.474	182.914	0.513
892.000	523.979	79.997	19.995	100.477	17.481	182.403	0.527
892.500	524.251	79.997	19.996	100.477	17.491	181.677	0.501
893.000	524.491	79.996	19.997	100.478	17.505	180.649	0.498
893.500	524.788	79.997	19.996	100.477	17.515	179.938	0.524
894.000	525.017	79.996	19.997	100.474	17.524	179.242	0.531
894.500	525.243	79.996	19.996	100.474	17.538	178.276	0.490
895.000	525.496	79.997	19.995	100.473	17.550	177.405	0.467
895.500	525.803	79.997	19.996	100.471	17.569	176.008	0.520
896.000	526.038	79.997	19.995	100.467	17.585	174.864	0.551
896.500	526.269	79.996	19.995	100.460	17.597	173.965	0.504
897.000	526.528	79.997	19.995	100.453	17.615	172.635	0.478
897.500	526.801	79.996	19.995	100.446	17.633	171.352	0.511
898.000	527.065	79.996	19.995	100.442	17.652	169.976	0.535
898.500	527.308	79.997	19.996	100.438	17.673	168.455	0.522
899.000	527.538	79.998	19.995	100.438	17.692	167.092	0.490
899.500	527.842	79.998	19.996	100.438	17.712	165.581	0.503
900.000	528.089	79.997	19.995	100.437	17.733	164.070	0.542
900.500	528.336	79.997	19.995	100.436	17.755	162.534	0.522
901.000	528.568	79.996	19.996	100.435	17.775	161.068	0.487
901.500	528.838	79.997	19.996	100.434	17.802	159.080	0.491
902.000	529.086	79.997	19.995	100.427	17.825	157.464	0.510
902.500	529.343	79.997	19.996	100.419	17.848	155.758	0.512
903.000	529.590	79.998	19.996	100.413	17.873	153.948	0.504
903.500	529.890	79.997	19.996	100.405	17.901	151.891	0.525
904.000	530.118	79.998	19.996	100.398	17.928	149.987	0.537
904.500	530.392	79.997	19.995	100.397	17.957	147.888	0.515
905.000	530.630	79.996	19.995	100.396	17.981	146.137	0.507
905.500	530.861	79.998	19.995	100.394	18.011	144.015	0.491
906.000	531.103	79.997	19.995	100.393	18.037	142.132	0.471
906.500	531.387	79.997	19.996	100.390	18.067	139.954	0.499
907.000	531.636	79.996	19.995	100.390	18.096	137.805	0.529
907.500	531.882	79.998	19.997	100.389	18.123	135.896	0.514
908.000	532.111	79.997	19.996	100.386	18.154	133.658	0.485
908.500	532.380	79.997	19.996	100.379	18.184	131.474	0.487
909.000	532.625	79.998	19.996	100.373	18.210	129.589	0.506
909.500	532.883	79.996	19.996	100.366	18.241	127.357	0.508
910.000	533.155	79.997	19.996	100.357	18.271	125.178	0.516
910.500	533.410	79.998	19.997	100.351	18.299	123.172	0.529
911.000	533.656	79.997	19.995	100.351	18.331	120.867	0.514
911.500	533.905	79.998	19.996	100.351	18.365	118.376	0.498
912.000	534.184	79.997	19.996	100.351	18.395	116.234	0.511
912.500	534.439	79.997	19.996	100.347	18.421	114.322	0.531
913.000	534.689	79.996	19.996	100.341	18.453	112.010	0.519
913.500	534.941	79.997	19.996	100.333	18.484	109.812	0.503
914.000	535.223	79.997	19.996	100.325	18.515	107.582	0.518
914.500	535.441	79.997	19.995	100.318	18.544	105.449	0.517
915.000	535.715	79.997	19.995	100.314	18.573	103.410	0.497
915.500	535.991	79.998	19.995	100.313	18.604	101.138	0.521
916.000	536.218	79.998	19.996	100.314	18.630	99.291	0.526
916.500	536.454	79.997	19.995	100.312	18.659	97.161	0.483
917.000	536.735	79.997	19.995	100.309	18.682	95.510	0.491
917.500	536.987	79.997	19.996	100.303	18.711	93.405	0.525
918.000	537.275	79.998	19.995	100.297	18.740	91.343	0.537
918.500	537.509	79.997	19.996	100.289	18.770	89.195	0.531
919.001	537.776	79.997	19.996	100.283	18.795	87.350	0.511
919.500	538.030	79.997	19.996	100.278	18.821	85.467	0.511
920.000	538.282	79.997	19.996	100.278	18.847	83.594	0.513
920.500	538.525	79.997	19.995	100.277	18.874	81.694	0.501
921.000	538.838	79.997	19.996	100.277	18.899	79.870	0.526
921.500	539.044	79.996	19.996	100.277	18.922	78.237	0.538
922.000	539.323	79.997	19.995	100.274	18.945	76.552	0.502
922.500	539.584	79.998	19.996	100.265	18.964	75.155	0.513
923.000	539.846	79.996	19.995	100.261	18.988	73.458	0.532
923.500	540.097	79.996	19.996	100.252	19.011	71.753	0.518
924.000	540.320	79.997	19.996	100.247	19.038	69.864	0.493
924.500	540.561	79.995	19.995	100.242	19.058	68.391	0.470
925.000	540.851	79.996	19.996	100.241	19.079	66.896	0.498
925.500	541.112	79.996	19.996	100.237	19.101	65.273	0.541
926.000	541.363	79.996	19.996	100.238	19.121	63.886	0.531
926.500	541.621	79.996	19.995	100.236	19.140	62.483	0.510
927.000	541.850	79.997	19.996	100.235	19.158	61.184	0.498
927.500	542.102	79.997	19.996	100.234	19.176	59.913	0.484
928.000	542.384	79.998	19.995	100.230	19.194	58.627	0.508
928.500	542.637	79.997	19.995	100.224	19.213	57.246	0.535
929.000	542.886	79.998	19.996	100.219	19.229	56.097	0.519
929.500	543.149	79.999	19.996	100.214	19.242	55.123	0.507
930.000	543.387	79.998	19.995	100.211	19.262	53.691	0.507
930.500	543.631	79.998	19.996	100.206	19.277	52.592	0.492
931.000	543.863	79.997	19.996	100.205	19.291	51.633	0.479
931.500	544.146	79.998	19.995	100.203	19.308	50.410	0.495
932.000	544.427	79.997	19.995	100.200	19.321	49.448	0.540
932.500	544.653	79.997	19.996	100.197	19.335	48.413	0.536
933.000	544.917	79.998	19.996	100.197	19.348	47.488	0.498
933.500	545.177	79.997	19.995	100.197	19.360	46.611	0.507
934.000	545.452	79.998	19.996	100.196	19.375	45.573	0.529
934.500	545.675	79.998	19.995	100.193	19.391	44.392	0.516
935.000	545.922	79.998	19.995	100.191	19.399	43.800	0.484
935.500	546.205	79.999	19.995	100.189	19.413	42.833	0.500
936.000	546.440	79.999	19.995	100.185	19.427	41.824	0.524
936.500	546.679	79.998	19.995	100.181	19.439	40.978	0.496
937.000	546.932	79.999	19.994	100.179	19.446	40.407	0.483
937.500	547.206	79.999	19.995	100.176	19.457	39.644	0.510
938.000	547.485	79.998	19.995	100.176	19.468	38.874	0.540
938.500	547.724	79.998	19.995	100.175	19.478	38.162	0.535
939.000	548.000	79.997	19.995	100.172	19.489	37.376	0.516
939.500	548.216	79.999	19.994	100.171	19.499	36.623	0.503
940.000	548.482	79.999	19.996	100.169	19.511	35.769	0.487
940.501	548.722	79.998	19.995	100.164	19.519	35.218	0.494
941.000	549.001	79.999	19.996	100.163	19.528	34.509	0.513
941.500	549.229	79.999	19.996	100.164	19.538	33.808	0.513
942.000	549.468	79.999	19.995	100.164	19.544	33.399	0.487
942.500	549.708	79.999	19.996	100.163	19.554	32.692	0.473
943.000	549.985	79.997	19.997	100.163	19.559	32.284	0.498
943.500	550.264	79.998	19.996	100.161	19.568	31.645	0.536
944.000	550.485	79.997	19.996	100.159	19.575	31.129	0.528
944.500	550.786	79.997	19.995	100.159	19.581	30.725	0.511
945.000	551.025	79.997	19.995	100.160	19.587	30.307	0.531
945.500	551.289	79.996	19.996	100.160	19.597	29.593	0.521
946.000	551.530	79.996	19.996	100.160	19.605	28.990	0.503
946.500	551.790	79.999	19.997	100.161	19.610	28.607	0.503
947.000	552.040	79.998	19.996	100.161	19.618	28.021	0.506
947.500	552.280	79.997	19.996	100.161	19.623	27.718	0.500
948.000	552.576	79.997	19.996	100.161	19.630	27.192	0.513
948.500	552.817	79.999	19.996	100.158	19.635	26.796	0.536
949.000	553.066	79.998	19.995	100.156	19.637	26.703	0.513
949.500	553.330	79.998	19.996	100.155	19.645	26.141	0.502
950.000	553.586	79.998	19.996	100.155	19.648	25.866	0.517
950.500	553.855	79.997	19.996	100.155	19.656	25.352	0.523
951.000	554.139	79.997	19.996	100.157	19.659	25.130	0.539
951.500	554.356	79.996	19.995	100.158	19.661	24.950	0.526
952.000	554.618	79.997	19.995	100.155	19.666	24.587	0.490
952.500	554.897	79.997	19.996	100.154	19.674	24.017	0.511
953.000	555.166	79.997	19.996	100.154	19.677	23.789	0.545
953.500	555.416	79.998	19.995	100.151	19.679	23.670	0.533
954.000	555.675	79.996	19.997	100.151	19.683	23.339	0.514
954.500	555.959	79.998	19.995	100.154	19.688	22.992	0.526
955.000	556.199	79.998	19.996	100.156	19.692	22.754	0.534
955.500	556.446	79.998	19.995	100.153	19.697	22.361	0.505
956.000	556.710	79.998	19.996	100.155	19.701	22.047	0.499
956.500	556.942	79.996	19.996	100.155	19.706	21.731	0.504
957.000	557.189	79.998	19.995	100.156	19.708	21.565	0.487
957.500	557.472	79.996	19.995	100.155	19.712	21.269	0.504
958.000	557.715	79.998	19.995	100.155	19.714	21.151	0.528
958.500	558.000	79.998	19.996	100.153	19.718	20.843	0.527
959.000	558.275	79.998	19.995	100.153	19.722	20.547	0.544
959.500	558.515	79.998	19.994	100.152	19.723	20.488	0.538
960.000	558.773	79.998	19.995	100.153	19.724	20.397	0.507
960.500	559.036	79.999	19.996	100.156	19.730	19.976	0.510
961.000	559.298	79.999	19.996	100.156	19.732	19.836	0.523
961.500	559.542	79.999	19.996	100.156	19.737	19.505	0.515
962.000	559.806	80.000	19.995	100.154	19.738	19.425	0.507
962.500	560.090	79.999	19.996	100.154	19.741	19.212	0.528
963.000	560.325	79.999	19.995	100.155	19.743	19.026	0.533
963.500	560.572	79.999	19.995	100.157	19.745	18.886	0.501
964.000	560.844	79.998	19.995	100.154	19.746	18.867	0.501
964.500	561.124	80.000	19.997	100.151	19.748	18.706	0.535
965.000	561.350	79.999	19.995	100.146	19.749	18.643	0.529
965.500	561.624	79.998	19.995	100.138	19.750	18.540	0.504
966.000	561.897	79.998	19.994	100.130	19.753	18.331	0.524
966.500	562.144	80.000	19.996	100.127	19.755	18.160	0.533
967.000	562.410	80.000	19.995	100.124	19.755	18.161	0.516
967.500	562.640	79.998	19.996	100.127	19.758	17.963	0.504
968.000	562.926	79.998	19.995	100.131	19.760	17.858	0.506
968.500	563.194	79.999	19.996	100.135	19.764	17.543	0.535
969.000	563.450	79.997	19.995	100.137	19.766	17.368	0.539
969.500	563.720	80.000	19.996	100.139	19.768	17.246	0.525
970.000	563.966	79.997	19.997	100.133	19.768	17.233	0.521
970.500	564.229	79.997	19.996	100.130	19.771	17.065	0.513
971.000	564.477	79.998	19.996	100.128	19.771	17.019	0.510
971.500	564.758	79.997	19.996	100.127	19.774	16.846	0.520
972.000	564.965	79.997	19.997	100.126	19.773	16.865	0.509
972.500	565.263	79.996	19.997	100.128	19.777	16.607	0.496
973.000	565.523	79.996	19.997	100.128	19.780	16.392	0.531
973.500	565.782	79.996	19.997	100.131	19.779	16.470	0.539
974.000	566.032	79.997	19.996	100.132	19.783	16.189	0.514
974.500	566.322	79.996	19.997	100.131	19.785	16.015	0.524
975.000	566.588	79.997	19.997	100.130	19.789	15.773	0.548
975.500	566.804	79.997	19.997	100.131	19.789	15.726	0.519
976.000	567.081	79.996	19.997	100.127	19.790	15.694	0.488
976.500	567.366	79.996	19.997	100.126	19.791	15.577	0.527
977.000	567.590	79.995	19.996	100.126	19.794	15.416	0.536
977.500	567.871	79.996	19.996	100.124	19.791	15.629	0.507
978.000	568.061	79.996	19.997	100.121	19.793	15.431	0.488
978.500	568.367	79.996	19.997	100.120	19.792	15.526	0.484
979.000	568.619	79.996	19.997	100.120	19.794	15.348	0.527
979.500	568.895	79.997	19.997	100.123	19.793	15.434	0.543
980.000	569.135	79.996	19.997	100.124	19.797	15.153	0.522
980.500	569.366	79.997	19.998	100.124	19.799	15.000	0.493
981.000	569.642	79.996	19.996	100.127	19.796	15.267	0.489
981.500	569.924	79.995	19.997	100.132	19.800	14.968	0.533
982.000	570.166	79.997	19.997	100.131	19.800	14.914	0.541
982.500	570.448	79.996	19.996	100.131	19.799	15.027	0.524
983.000	570.688	79.996	19.997	100.132	19.801	14.844	0.523
983.500	570.947	79.995	19.997	100.128	19.803	14.751	0.510
984.000	571.235	79.997	19.996	100.122	19.803	14.706	0.523
984.500	571.473	79.997	19.997	100.122	19.803	14.716	0.537
985.000	571.737	79.997	19.996	100.125	19.806	14.533	0.514
985.500	571.961	79.997	19.996	100.128	19.807	14.465	0.495
986.000	572.249	79.997	19.996	100.129	19.805	14.599	0.500
986.500	572.493	79.997	19.996	100.130	19.810	14.264	0.522
987.000	572.737	79.996	19.995	100.130	19.807	14.410	0.510
987.500	573.009	79.997	19.995	100.126	19.811	14.174	0.502
988.000	573.281	79.997	19.996	100.127	19.810	14.227	0.530
988.500	573.572	79.997	19.995	100.127	19.809	14.298	0.553
989.000	573.796	79.997	19.996	100.126	19.810	14.263	0.539
989.500	574.058	79.998	19.997	100.126	19.809	14.329	0.501
990.000	574.346	79.997	19.996	100.130	19.810	14.207	0.518
990.500	574.589	79.997	19.996	100.130	19.810	14.213	0.540
991.000	574.871	79.998	19.995	100.131	19.811	14.134	0.528
991.500	575.101	79.997	19.996	100.132	19.816	13.826	0.519
992.000	575.390	79.996	19.995	100.134	19.814	13.926	0.515
992.500	575.642	79.996	19.996	100.131	19.816	13.833	0.530
993.000	575.857	79.998	19.996	100.130	19.816	13.794	0.504
993.500	576.126	79.998	19.996	100.133	19.819	13.575	0.476
994.000	576.378	79.997	19.996	100.132	19.818	13.625	0.502
994.500	576.633	79.998	19.996	100.130	19.817	13.737	0.514
995.000	576.854	79.997	19.996	100.130	19.818	13.626	0.491
995.500	577.151	79.996	19.996	100.129	19.818	13.625	0.497
996.000	577.378	79.995	19.995	100.123	19.817	13.712	0.521
996.500	577.640	79.996	19.995	100.127	19.821	13.422	0.507
997.000	577.859	79.998	19.995	100.129	19.820	13.486	0.485
997.500	578.073	79.998	19.996	100.133	19.821	13.406	0.457
998.000	578.359	79.998	19.996	100.133	19.822	13.383	0.466
998.500	578.647	79.997	19.996	100.135	19.820	13.490	0.537
999.000	578.888	79.996	19.995	100.130	19.819	13.587	0.552
999.500	579.128	79.996	19.996	100.126	19.822	13.369	0.505
1000.000	579.372	79.997	19.996	100.122	19.823	13.309	0.483
1000.500	579.638	79.995	19.995	100.123	19.822	13.381	0.497
1001.000	579.891	79.997	19.996	100.124	19.826	13.099	0.515
1001.500	580.138	79.995	19.996	100.124	19.821	13.471	0.509
1002.000	580.392	79.996	19.996	100.129	19.825	13.117	0.500
1002.500	580.636	79.996	19.997	100.131	19.827	13.026	0.500
1003.000	580.894	79.995	19.996	100.137	19.827	13.010	0.500
1003.500	581.146	79.996	19.997	100.139	19.825	13.130	0.506
1004.000	581.393	79.996	19.995	100.140	19.824	13.217	0.504
1004.500	581.634	79.996	19.996	100.139	19.826	13.058	0.493
1005.000	581.869	79.996	19.995	100.138	19.826	13.089	0.482
1005.500	582.182	79.995	19.995	100.134	19.831	12.707	0.512
1006.000	582.427	79.995	19.996	100.131	19.828	12.906	0.553
1006.500	582.658	79.995	19.996	100.136	19.827	13.014	0.517
1007.000	582.912	79.996	19.996	100.135	19.829	12.838	0.480
1007.500	583.168	79.995	19.996	100.139	19.828	12.906	0.497
1008.000	583.423	79.995	19.995	100.141	19.831	12.725	0.510
1008.500	583.667	79.995	19.996	100.142	19.833	12.561	0.505
1009.000	583.920	79.995	19.996	100.140	19.833	12.557	0.498
1009.500	584.162	79.995	19.996	100.145	19.836	12.372	0.496
1010.000	584.428	79.996	19.996	100.146	19.834	12.478	0.502
1010.500	584.681	79.995	19.995	100.150	19.833	12.574	0.513
1011.000	584.948	79.996	19.996	100.155	19.836	12.374	0.519
1011.500	585.160	79.997	19.996	100.152	19.835	12.400	0.500
1012.000	585.439	79.997	19.995	100.150	19.834	12.477	0.485
1012.500	585.716	79.997	19.996	100.145	19.832	12.609	0.523
1013.000	585.925	79.996	19.995	100.142	19.834	12.501	0.521
1013.500	586.196	79.997	19.996	100.143	19.836	12.353	0.483
1014.000	586.404	79.996	19.997	100.148	19.836	12.363	0.479
1014.500	586.685	79.997	19.997	100.148	19.836	12.375	0.484
1015.000	586.946	79.998	19.998	100.147	19.835	12.418	0.516
1015.500	587.191	79.998	19.997	100.147	19.836	12.385	0.525
1016.000	587.441	79.999	19.997	100.147	19.838	12.199	0.500
1016.500	587.669	79.997	19.996	100.146	19.840	12.090	0.486
1017.000	587.920	79.998	19.996	100.147	19.839	12.136	0.479
1017.500	588.240	79.998	19.995	100.150	19.841	12.010	0.525
1018.000	588.464	79.997	19.996	100.154	19.839	12.169	0.557
1018.500	588.703	79.998	19.996	100.154	19.842	11.950	0.503
1019.000	588.953	79.998	19.996	100.155	19.839	12.138	0.476
1019.500	589.183	79.998	19.995	100.157	19.841	11.977	0.485
1020.000	589.504	79.998	19.995	100.158	19.842	11.946	0.516
1020.500	589.746	79.997	19.995	100.154	19.842	11.947	0.557
1021.000	589.960	79.998	19.996	100.148	19.842	11.939	0.510
1021.500	590.233	79.997	19.995	100.142	19.842	11.926	0.472
1022.000	590.490	79.998	19.994	100.135	19.843	11.852	0.508
1022.500	590.743	79.998	19.995	100.129	19.843	11.863	0.520
1023.000	591.010	79.997	19.995	100.127	19.842	11.950	0.515
1023.500	591.243	79.998	19.995	100.126	19.844	11.798	0.510
1024.000	591.514	79.999	19.995	100.128	19.842	11.920	0.502
1024.501	591.757	79.998	19.994	100.128	19.842	11.910	0.509
1025.001	592.017	79.997	19.996	100.128	19.843	11.863	0.508
1025.500	592.227	79.997	19.994	100.133	19.845	11.744	0.486
1026.000	592.505	79.998	19.994	100.134	19.843	11.830	0.479
1026.500	592.758	79.996	19.995	100.131	19.843	11.879	0.510
1027.000	593.013	79.997	19.995	100.132	19.840	12.040	0.520
1027.500	593.299	79.996	19.996	100.132	19.842	11.939	0.524
1028.000	593.535	79.997	19.995	100.132	19.848	11.529	0.531
1028.500	593.778	79.998	19.996	100.132	19.844	11.775	0.501
1029.000	594.015	79.997	19.997	100.131	19.842	11.930	0.480
1029.500	594.309	79.998	19.996	100.130	19.845	11.713	0.505
1030.000	594.551	79.997	19.996	100.128	19.841	11.967	0.534
1030.500	594.833	79.997	19.995	100.129	19.848	11.502	0.530
1031.000	595.052	79.996	19.996	100.132	19.844	11.747	0.512
1031.500	595.346	79.998	19.995	100.134	19.844	11.797	0.506
1032.000	595.614	79.998	19.996	100.137	19.845	11.729	0.537
1032.500	595.870	79.996	19.996	100.139	19.843	11.869	0.543
1033.000	596.134	79.997	19.996	100.135	19.845	11.698	0.522
1033.500	596.343	79.998	19.996	100.130	19.847	11.536	0.497
1034.000	596.565	79.998	19.995	100.127	19.842	11.906	0.453
1034.500	596.884	79.998	19.996	100.123	19.843	11.856	0.486
1035.001	597.137	79.999	19.997	100.121	19.849	11.448	0.556
1035.501	597.393	79.998	19.996	100.119	19.849	11.456	0.541
1036.000	597.619	79.998	19.996	100.119	19.847	11.542	0.496
1036.500	597.869	79.998	19.995	100.125	19.850	11.362	0.479
1037.000	598.129	79.998	19.996	100.132	19.846	11.643	0.493
1037.500	598.371	79.997	19.996	100.134	19.850	11.356	0.506
1038.001	598.664	79.998	19.997	100.134	19.849	11.423	0.519
1038.501	598.905	79.998	19.996	100.135	19.850	11.379	0.535
1039.000	599.127	79.999	19.997	100.130	19.853	11.158	0.498
1039.500	599.440	79.998	19.995	100.123	19.852	11.206	0.499
1040.000	599.661	79.999	19.996	100.122	19.851	11.275	0.534
1040.500	599.937	79.999	19.995	100.124	19.850	11.336	0.515
1041.001	600.142	79.998	19.997	100.125	19.851	11.304	0.489
1041.501	600.388	79.999	19.996	100.132	19.852	11.221	0.466
1042.000	600.652	79.999	19.996	100.137	19.853	11.150	0.481
1042.500	600.871	79.999	19.996	100.144	19.854	11.077	0.496
1043.000	601.151	80.000	19.997	100.147	19.852	11.203	0.491
1043.500	601.392	79.999	19.995	100.146	19.852	11.215	0.510
1044.000	601.626	79.998	19.995	100.143	19.851	11.275	0.498
1044.500	601.895	79.998	19.996	100.143	19.856	10.931	0.489
1045.000	602.156	80.000	19.996	100.138	19.855	10.955	0.517
1045.500	602.462	79.999	19.996	100.137	19.854	11.052	0.549
1046.000	602.663	80.000	19.995	100.134	19.854	11.069	0.537
1046.500	602.929	79.998	19.995	100.131	19.855	10.969	0.487
1047.000	603.191	79.999	19.996	100.126	19.858	10.799	0.498
1047.500	603.425	80.000	19.996	100.125	19.858	10.781	0.513
1048.000	603.677	80.000	19.996	100.123	19.860	10.634	0.491
1048.500	603.960	79.999	19.995	100.122	19.857	10.826	0.511
1049.000	604.197	79.998	19.996	100.121	19.856	10.919	0.528
1049.500	604.450	79.999	19.996	100.122	19.857	10.813	0.505
1050.000	604.720	79.997	19.995	100.120	19.861	10.526	0.506
1050.500	605.003	79.999	19.995	100.119	19.860	10.604	0.538
1051.000	605.242	79.998	19.996	100.127	19.858	10.755	0.537
1051.500	605.469	79.998	19.996	100.135	19.861	10.575	0.494
1052.000	605.724	79.998	19.996	100.143	19.865	10.297	0.474
1052.500	605.981	79.997	19.996	100.150	19.860	10.600	0.497
1053.000	606.238	79.999	19.995	100.153	19.862	10.521	0.513
1053.500	606.503	79.996	19.996	100.147	19.862	10.493	0.518
1054.000	606.753	79.997	19.995	100.141	19.861	10.563	0.518
1054.500	607.014	79.998	19.997	100.134	19.861	10.545	0.513
1055.000	607.250	79.997	19.996	100.130	19.862	10.513	0.504
1055.500	607.538	79.997	19.996	100.126	19.863	10.414	0.510
1056.000	607.773	79.997	19.997	100.130	19.860	10.645	0.523
1056.500	608.045	79.997	19.996	100.133	19.862	10.519	0.515
1057.000	608.319	79.997	19.996	100.139	19.862	10.519	0.527
1057.500	608.581	79.996	19.996	100.138	19.864	10.358	0.541
1058.000	608.800	79.997	19.997	100.137	19.864	10.360	0.508
1058.500	609.107	79.995	19.997	100.134	19.864	10.352	0.503
1059.000	609.313	79.996	19.998	100.135	19.865	10.265	0.520
1059.500	609.579	79.997	19.998	100.135	19.865	10.261	0.492
1060.000	609.815	79.997	19.996	100.139	19.864	10.353	0.486
1060.500	610.089	79.995	19.997	100.142	19.865	10.301	0.506
1061.001	610.326	79.997	19.997	100.147	19.867	10.105	0.511
1061.501	610.602	79.997	19.998	100.147	19.866	10.216	0.512
1062.000	610.890	79.995	19.998	100.145	19.863	10.394	0.539
1062.501	611.082	79.996	19.997	100.145	19.866	10.232	0.522
1063.001	611.340	79.997	19.998	100.148	19.867	10.121	0.465
1063.500	611.643	79.996	19.996	100.148	19.866	10.216	0.506
1064.000	611.873	79.996	19.998	100.148	19.867	10.154	0.547
1064.500	612.123	79.995	19.997	100.144	19.864	10.320	0.506
1065.000	612.346	79.996	19.997	100.143	19.866	10.204	0.477
1065.500	612.621	79.997	19.997	100.137	19.868	10.045	0.486
1066.000	612.884	79.995	19.997	100.132	19.868	10.068	0.518
1066.500	613.123	79.996	19.997	100.127	19.868	10.041	0.520
1067.000	613.395	79.996	19.997	100.130	19.866	10.201	0.506
1067.500	613.662	79.997	19.996	100.131	19.865	10.294	0.525
1068.000	613.909	79.995	19.997	100.134	19.868	10.026	0.527
1068.500	614.149	79.996	19.997	100.138	19.866	10.221	0.500
1069.000	614.392	79.995	19.996	100.139	19.868	10.072	0.485
1069.500	614.632	79.997	19.996	100.137	19.867	10.120	0.483
1070.000	614.906	79.996	19.997	100.133	19.869	9.999	0.499
1070.500	615.137	79.997	19.996	100.135	19.868	10.044	0.510
1071.000	615.414	79.995	19.996	100.138	19.871	9.846	0.507
1071.500	615.657	79.997	19.997	100.141	19.870	9.883	0.514
1072.000	615.907	79.996	19.997	100.143	19.868	10.032	0.506
1072.501	616.123	79.996	19.997	100.146	19.868	10.042	0.479
1073.001	616.376	79.996	19.996	100.142	19.869	9.982	0.467
1073.500	616.627	79.996	19.996	100.136	19.870	9.892	0.486
1074.000	616.884	79.997	19.996	100.130	19.871	9.811	0.506
1074.500	617.106	79.996	19.996	100.127	19.871	9.871	0.494
1075.000	617.374	79.996	19.995	100.127	19.871	9.806	0.484
1075.500	617.630	79.996	19.996	100.126	19.873	9.715	0.507
1076.000	617.876	79.995	19.996	100.127	19.871	9.855	0.513
1076.500	618.150	79.997	19.997	100.127	19.873	9.672	0.511
1077.000	618.398	79.995	19.995	100.127	19.874	9.597	0.521
1077.500	618.618	79.996	19.995	100.126	19.875	9.553	0.495
1078.000	618.871	79.997	19.995	100.133	19.874	9.615	0.470
1078.500	619.085	79.996	19.995	100.133	19.874	9.631	0.470
1079.000	619.335	79.997	19.996	100.135	19.871	9.834	0.466
1079.500	619.581	79.997	19.995	100.139	19.870	9.906	0.480
1080.000	619.844	79.996	19.996	100.141	19.874	9.595	0.502
1080.500	620.094	79.996	19.996	100.137	19.875	9.543	0.511
1081.000	620.373	79.996	19.997	100.136	19.872	9.778	0.521
1081.500	620.597	79.996	19.995	100.138	19.871	9.830	0.516
1082.000	620.859	79.995	19.996	100.136	19.874	9.615	0.495
1082.500	621.095	79.997	19.996	100.132	19.873	9.672	0.491
1083.000	621.373	79.995	19.997	100.136	19.876	9.484	0.505
1083.500	621.635	79.996	19.997	100.140	19.875	9.585	0.527
1084.000	621.832	79.995	19.995	100.141	19.876	9.484	0.500
1084.500	622.123	79.996	19.996	100.145	19.874	9.612	0.474
1085.000	622.355	79.995	19.996	100.150	19.872	9.735	0.505
1085.500	622.623	79.995	19.996	100.149	19.873	9.669	0.511
1086.000	622.853	79.995	19.996	100.145	19.873	9.717	0.499
1086.500	623.091	79.996	19.995	100.145	19.874	9.613	0.483
1087.000	623.322	79.996	19.996	100.142	19.875	9.570	0.468
1087.500	623.602	79.996	19.996	100.141	19.873	9.667	0.490
1088.000	623.839	79.996	19.996	100.143	19.874	9.638	0.514
1088.501	624.150	79.995	19.996	100.149	19.874	9.648	0.533
1089.001	624.361	79.995	19.996	100.150	19.871	9.842	0.535
1089.500	624.619	79.996	19.995	100.153	19.871	9.848	0.496
1090.000	624.887	79.995	19.995	100.153	19.874	9.590	0.497
1090.500	625.081	79.996	19.995	100.151	19.873	9.665	0.494
1091.000	625.351	79.995	19.995	100.151	19.872	9.762	0.463
1091.500	625.604	79.996	19.997	100.150	19.871	9.830	0.493
1092.000	625.876	79.997	19.995	100.151	19.878	9.307	0.524
1092.500	626.129	79.996	19.996	100.153	19.874	9.590	0.525
1093.000	626.365	79.995	19.996	100.155	19.877	9.437	0.507
1093.500	626.620	79.996	19.996	100.158	19.877	9.415	0.490
1094.001	626.868	79.996	19.995	100.160	19.879	9.291	0.497
1094.501	627.113	79.997	19.995	100.160	19.876	9.493	0.498
1095.000	627.368	79.996	19.996	100.160	19.880	9.216	0.497
1095.500	627.589	79.995	19.996	100.158	19.880	9.213	0.488
1096.000	627.854	79.997	19.996	100.151	19.880	9.180	0.481
1096.500	628.085	79.997	19.996	100.150	19.879	9.250	0.491
1097.000	628.350	79.998	19.995	100.149	19.878	9.302	0.496
1097.500	628.602	79.996	19.995	100.148	19.880	9.197	0.506
1098.000	628.853	79.997	19.996	100.148	19.876	9.479	0.510
1098.500	629.053	79.996	19.996	100.151	19.881	9.095	0.477
1099.000	629.322	79.996	19.995	100.152	19.877	9.390	0.460
1099.500	629.586	79.998	19.994	100.151	19.877	9.429	0.501
1100.000	629.825	79.997	19.996	100.150	19.881	9.103	0.518
1100.500	630.051	79.996	19.995	100.151	19.882	9.041	0.484
1101.000	630.320	79.998	19.995	100.153	19.877	9.378	0.480
1101.500	630.544	79.997	19.996	100.153	19.879	9.240	0.494
1102.000	630.831	79.998	19.996	100.153	19.878	9.335	0.502
1102.500	631.091	79.999	19.995	100.154	19.877	9.410	0.529
1103.000	631.312	79.998	19.996	100.153	19.880	9.203	0.514
1103.500	631.576	79.998	19.995	100.154	19.882	9.058	0.483
1104.000	631.826	79.998	19.996	100.155	19.877	9.417	0.499
1104.500	632.080	79.996	19.996	100.155	19.880	9.180	0.509
1105.000	632.367	79.998	19.995	100.156	19.877	9.398	0.523
1105.500	632.640	79.997	19.995	100.156	19.883	8.947	0.550
1106.000	632.846	79.997	19.996	100.156	19.880	9.198	0.519
1106.500	633.122	79.997	19.995	100.152	19.879	9.242	0.481
1107.000	633.400	79.999	19.996	100.146	19.879	9.265	0.518
1107.500	633.667	79.998	19.996	100.145	19.882	9.067	0.550
1108.000	633.880	79.996	19.995	100.145	19.881	9.151	0.513
1108.500	634.178	79.997	19.996	100.146	19.880	9.222	0.495
1109.000	634.430	79.998	19.995	100.149	19.882	9.079	0.531
1109.500	634.695	79.996	19.996	100.155	19.883	8.961	0.534
1110.000	634.988	79.997	19.996	100.156	19.883	8.963	0.537
1110.500	635.243	79.998	19.996	100.156	19.883	8.957	0.553
1111.000	635.464	79.996	19.996	100.156	19.883	8.981	0.512
1111.500	635.739	79.997	19.995	100.154	19.883	8.989	0.486
1112.000	635.983	79.997	19.996	100.147	19.882	9.019	0.508
1112.500	636.212	79.995	19.995	100.142	19.882	9.013	0.496
1113.000	636.504	79.997	19.996	100.142	19.886	8.789	0.497
1113.500	636.791	79.996	19.995	100.141	19.885	8.841	0.550
1114.000	637.028	79.998	19.995	100.143	19.885	8.837	0.552
1114.500	637.303	79.998	19.995	100.149	19.886	8.785	0.518
1115.000	637.558	79.997	19.994	100.151	19.888	8.615	0.521
1115.500	637.792	79.997	19.995	100.151	19.883	8.953	0.509
1116.000	638.060	79.997	19.996	100.152	19.885	8.796	0.496
1116.500	638.294	79.997	19.995	100.150	19.886	8.767	0.502
1117.000	638.547	79.997	19.995	100.151	19.888	8.602	0.495
1117.500	638.812	79.998	19.995	100.151	19.887	8.719	0.502
1118.000	639.121	79.998	19.995	100.146	19.889	8.536	0.546
1118.500	639.336	79.997	19.995	100.146	19.891	8.367	0.549
1119.000	639.616	79.999	19.995	100.145	19.892	8.338	0.509
1119.500	639.876	79.998	19.996	100.145	19.893	8.260	0.517
1120.000	640.131	79.999	19.996	100.147	19.891	8.427	0.527
1120.500	640.380	79.999	19.996	100.152	19.892	8.310	0.510
1121.000	640.635	79.997	19.996	100.153	19.893	8.237	0.505
1121.500	640.875	79.999	19.994	100.155	19.894	8.189	0.500
1122.000	641.185	79.999	19.995	100.156	19.893	8.230	0.522
1122.500	641.414	79.998	19.995	100.155	19.895	8.131	0.544
1123.000	641.703	79.998	19.996	100.152	19.893	8.244	0.529
1123.500	641.943	80.000	19.995	100.147	19.894	8.168	0.523
1124.000	642.162	80.000	19.996	100.141	19.893	8.269	0.494
1124.501	642.497	80.000	19.996	100.137	19.895	8.102	0.507
1125.001	642.720	79.999	19.995	100.134	19.894	8.185	0.556
1125.500	642.998	79.999	19.995	100.136	19.894	8.193	0.529
1126.000	643.251	79.999	19.995	100.140	19.892	8.360	0.516
1126.500	643.438	79.999	19.996	100.147	19.895	8.137	0.486
1127.000	643.744	79.999	19.996	100.150	19.895	8.127	0.466
1127.500	643.989	79.999	19.995	100.153	19.895	8.136	0.521
1128.000	644.256	80.000	19.995	100.152	19.898	7.886	0.531
1128.500	644.507	79.998	19.995	100.151	19.892	8.321	0.515
1129.000	644.793	79.996	19.996	100.151	19.896	8.061	0.528
1129.500	644.996	79.997	19.996	100.148	19.896	8.059	0.513
1130.000	645.272	79.997	19.995	100.145	19.898	7.921	0.484
1130.500	645.536	79.998	19.996	100.143	19.898	7.861	0.509
1131.000	645.773	79.997	19.997	100.143	19.895	8.116	0.521
1131.500	646.051	79.998	19.996	100.143	19.892	8.360	0.508
1132.000	646.325	79.998	19.997	100.147	19.893	8.242	0.533
1132.501	646.605	79.997	19.996	100.150	19.897	7.978	0.553
1133.001	646.854	79.997	19.995	100.154	19.894	8.160	0.542
1133.500	647.118	79.995	19.996	100.155	19.898	7.906	0.521
1134.000	647.408	79.995	19.995	100.155	19.892	8.306	0.533
1134.500	647.635	79.996	19.995	100.156	19.896	8.034	0.535
1135.000	647.901	79.996	19.996	100.156	19.897	7.933	0.505
1135.500	648.151	79.996	19.995	100.156	19.895	8.102	0.505
1136.000	648.435	79.994	19.996	100.156	19.893	8.228	0.526
1136.500	648.704	79.996	19.996	100.154	19.895	8.085	0.543
1137.000	648.951	79.996	19.997	100.153	19.893	8.269	0.534
1137.500	649.229	79.994	19.996	100.154	19.893	8.287	0.520
1138.000	649.473	79.995	19.995	100.152	19.894	8.180	0.524
1138.500	649.714	79.997	19.996	100.150	19.892	8.310	0.504
1139.000	650.013	79.996	19.996	100.152	19.894	8.174	0.513
1139.500	650.292	79.992	19.996	100.150	19.892	8.316	0.559
1140.000	650.569	79.996	19.996	100.150	19.892	8.327	0.567
1140.500	650.778	79.995	19.996	100.152	19.896	8.034	0.521
1141.000	651.055	79.995	19.996	100.155	19.895	8.094	0.486
1141.500	651.323	79.996	19.996	100.154	19.894	8.151	0.516
1142.000	651.580	79.996	19.996	100.157	19.894	8.166	0.535
1142.500	651.826	79.996	19.996	100.155	19.895	8.112	0.514
1143.000	652.121	79.997	19.995	100.156	19.894	8.193	0.521
1143.500	652.338	79.996	19.995	100.156	19.899	7.852	0.526
1144.000	652.635	79.996	19.996	100.156	19.900	7.728	0.513
1144.500	652.862	79.995	19.997	100.155	19.895	8.141	0.519
1145.000	653.136	79.995	19.996	100.157	19.894	8.150	0.512
1145.500	653.441	79.996	19.996	100.157	19.896	8.034	0.540
1146.000	653.729	79.996	19.996	100.157	19.895	8.077	0.586
1146.500	653.956	79.995	19.997	100.157	19.896	8.023	0.554
1147.000	654.205	79.996	19.995	100.159	19.898	7.894	0.495
1147.500	654.464	79.996	19.995	100.159	19.893	8.275	0.492
1148.000	654.696	79.994	19.995	100.159	19.896	8.046	0.499
1148.500	654.980	79.996	19.996	100.159	19.897	7.939	0.504
1149.000	655.268	79.995	19.996	100.159	19.896	8.067	0.544
1149.500	655.481	79.996	19.996	100.159	19.897	7.939	0.536
1150.000	655.724	79.997	19.995	100.159	19.898	7.891	0.479
1150.500	655.990	79.996	19.995	100.159	19.897	7.974	0.483
1151.000	656.246	79.996	19.996	100.158	19.897	7.989	0.515
1151.500	656.486	79.996	19.996	100.158	19.896	8.009	0.509
1152.000	656.760	79.998	19.995	100.156	19.896	8.005	0.505
1152.500	657.025	79.996	19.996	100.157	19.897	7.954	0.527
1153.000	657.273	79.995	19.996	100.156	19.897	7.993	0.526
1153.500	657.489	79.997	19.995	100.156	19.896	8.055	0.488
1154.000	657.730	79.994	19.996	100.155	19.895	8.092	0.461
1154.500	658.039	79.996	19.995	100.157	19.895	8.104	0.503
1155.000	658.267	79.996	19.995	100.157	19.895	8.083	0.543
1155.500	658.529	79.994	19.996	100.157	19.895	8.104	0.514
1156.000	658.789	79.996	19.996	100.156	19.897	7.945	0.506
1156.500	659.030	79.995	19.996	100.156	19.897	7.943	0.512
1157.000	659.290	79.996	19.996	100.156	19.897	7.970	0.501
1157.500	659.590	79.995	19.996	100.157	19.900	7.751	0.530
1158.000	659.758	79.994	19.996	100.157	19.898	7.883	0.514
1158.500	660.121	79.994	19.995	100.158	19.900	7.722	0.499
1159.000	660.314	79.994	19.996	100.158	19.900	7.718	0.543
1159.500	660.553	79.995	19.996	100.158	19.900	7.768	0.494
1160.000	660.825	79.995	19.997	100.158	19.898	7.902	0.472
1160.500	661.035	79.994	19.995	100.157	19.902	7.633	0.497
1161.001	661.296	79.995	19.996	100.158	19.899	7.848	0.476
1161.501	661.569	79.996	19.996	100.155	19.901	7.671	0.502
1162.000	661.804	79.994	19.996	100.154	19.899	7.790	0.520
1162.501	662.045	79.996	19.996	100.154	19.898	7.910	0.492
1163.001	662.297	79.996	19.997	100.153	19.900	7.720	0.485
1163.500	662.525	79.994	19.996	100.153	19.902	7.582	0.487
1164.000	662.789	79.995	19.997	100.156	19.899	7.809	0.486
1164.500	663.057	79.994	19.997	100.156	19.898	7.877	0.512
1165.000	663.316	79.995	19.996	100.156	19.897	7.970	0.529
1165.501	663.570	79.996	19.996	100.157	19.898	7.931	0.520
1166.001	663.798	79.996	19.996	100.158	19.900	7.747	0.498
1166.500	664.048	79.995	19.996	100.157	19.899	7.799	0.480
1167.000	664.251	79.996	19.995	100.158	19.898	7.918	0.465
1167.500	664.538	79.995	19.996	100.157	19.900	7.768	0.471
1168.000	664.759	79.994	19.995	100.157	19.898	7.873	0.499
1168.500	665.023	79.996	19.996	100.157	19.901	7.677	0.497
1169.000	665.236	79.995	19.995	100.157	19.897	7.951	0.481
1169.500	665.499	79.997	19.996	100.157	19.899	7.844	0.476
1170.000	665.729	79.997	19.996	100.157	19.901	7.666	0.484
1170.500	666.005	79.995	19.995	100.157	19.899	7.821	0.499
1171.000	666.243	79.995	19.996	100.156	19.899	7.850	0.510
1171.500	666.523	79.997	19.995	100.157	19.897	7.988	0.516
1172.000	666.741	79.996	19.995	100.156	19.898	7.885	0.508
1172.500	667.053	79.997	19.995	100.156	19.900	7.786	0.514
1173.000	667.272	79.996	19.994	100.156	19.897	7.970	0.530
1173.500	667.535	79.996	19.996	100.156	19.895	8.123	0.507
1174.000	667.758	79.996	19.996	100.156	19.898	7.869	0.484
1174.500	667.996	79.998	19.995	100.157	19.899	7.799	0.473
1175.001	668.239	79.996	19.995	100.157	19.896	8.024	0.471
1175.501	668.493	79.997	19.995	100.157	19.902	7.638	0.489
1176.000	668.736	79.998	19.994	100.157	19.897	7.939	0.497
1176.500	669.021	79.997	19.995	100.157	19.900	7.743	0.513
1177.000	669.251	79.997	19.995	100.157	19.901	7.708	0.521
1177.500	669.484	79.997	19.995	100.157	19.897	8.003	0.489
1178.000	669.755	79.997	19.994	100.157	19.898	7.915	0.484
1178.500	669.980	79.999	19.996	100.157	19.895	8.127	0.500
1179.000	670.244	79.997	19.995	100.158	19.897	7.981	0.492
1179.500	670.492	79.998	19.995	100.158	19.898	7.879	0.500
1180.000	670.719	79.999	19.996	100.158	19.900	7.743	0.494
1180.500	670.988	79.996	19.995	100.158	19.897	7.951	0.486
1181.000	671.241	79.998	19.995	100.158	19.898	7.898	0.509
1181.500	671.468	79.997	19.996	100.158	19.900	7.722	0.501
1182.000	671.709	79.997	19.994	100.158	19.901	7.660	0.474
1182.501	671.943	79.996	19.995	100.157	19.898	7.898	0.471
1183.001	672.184	79.997	19.995	100.155	19.895	8.112	0.475
1183.500	672.441	79.999	19.995	100.155	19.896	8.036	0.487
1184.000	672.701	79.998	19.995	100.155	19.897	7.955	0.507
1184.500	672.934	79.999	19.995	100.154	19.896	8.075	0.505
1185.000	673.173	79.999	19.995	100.154	19.897	7.978	0.483
1185.500	673.443	79.998	19.995	100.152	19.897	7.998	0.490
1186.000	673.657	79.998	19.996	100.152	19.902	7.588	0.496
1186.500	674.054	79.999	19.995	100.151	19.900	7.751	0.548
1187.000	674.196	79.998	19.995	100.151	19.896	8.048	0.575
1187.500	674.435	79.996	19.995	100.150	19.900	7.782	0.460
1188.000	674.669	79.996	19.996	100.152	19.898	7.904	0.427
1188.500	674.933	79.996	19.996	100.151	19.900	7.742	0.485
1189.000	675.169	79.995	19.995	100.151	19.896	8.019	0.499
1189.500	675.438	79.995	19.994	100.151	19.896	8.025	0.503
1190.000	675.646	80.000	19.995	100.153	19.898	7.866	0.491
1190.501	675.941	79.997	19.995	100.154	19.897	7.963	0.490
1191.001	676.179	79.997	19.996	100.155	19.899	7.803	0.518
1191.500	676.429	79.997	19.994	100.156	19.899	7.811	0.511
1192.000	676.675	79.997	19.996	100.156	19.897	7.968	0.492
1192.501	676.907	79.997	19.995	100.156	19.898	7.885	0.487
1193.001	677.155	79.997	19.996	100.156	19.899	7.838	0.479
1193.500	677.436	79.997	19.995	100.156	19.896	8.056	0.504
1194.000	677.653	79.997	19.995	100.157	19.899	7.797	0.514
1194.500	677.871	79.998	19.997	100.160	19.902	7.636	0.467
1195.000	678.138	79.997	19.996	100.162	19.898	7.892	0.460
1195.500	678.379	79.997	19.996	100.163	19.899	7.857	0.496
1196.000	678.636	79.997	19.994	100.163	19.897	7.976	0.503
1196.500	678.896	79.997	19.996	100.161	19.897	7.982	0.508
1197.000	679.135	79.997	19.995	100.158	19.901	7.662	0.508
1197.500	679.377	79.995	19.995	100.155	19.899	7.831	0.490
1198.000	679.595	79.997	19.995	100.155	19.901	7.664	0.471
1198.500	679.838	79.996	19.995	100.154	19.902	7.645	0.461
1199.001	680.065	79.998	19.995	100.159	19.895	8.106	0.466
1199.501	680.319	79.998	19.995	100.161	19.897	7.947	0.475
1200.000	680.590	79.999	19.995	100.161	19.901	7.681	0.503
1200.500	680.799	79.998	19.996	100.162	19.894	8.195	0.503
1201.001	681.049	79.999	19.995	100.162	19.898	7.914	0.469
1201.501	681.310	79.999	19.995	100.159	19.896	8.071	0.485
1202.001	681.526	79.999	19.996	100.158	19.894	8.203	0.494
1202.501	681.802	79.999	19.996	100.159	19.897	7.953	0.484
1203.000	682.037	79.999	19.995	100.159	19.896	8.052	0.501
1203.500	682.291	79.996	19.993	100.159	19.898	7.891	0.500
1204.000	682.514	79.998	19.994	100.159	19.897	7.998	0.483
1204.500	682.794	80.001	19.993	100.157	19.899	7.798	0.490
1205.000	682.990	79.999	19.994	100.154	19.897	8.003	0.489
1205.500	683.255	79.998	19.994	100.154	19.898	7.920	0.468
1206.000	683.501	79.998	19.993	100.154	19.895	8.097	0.486
1206.501	683.716	79.997	19.994	100.155	19.895	8.108	0.486
1207.001	683.986	80.000	19.995	100.157	19.896	8.046	0.473
1207.500	684.253	79.999	19.995	100.160	19.897	7.934	0.511
1208.000	684.472	79.998	19.995	100.161	19.895	8.118	0.512
1208.500	684.718	80.001	19.995	100.161	19.893	8.264	0.476
1209.000	684.982	79.999	19.994	100.162	19.893	8.262	0.488
1209.500	685.229	79.998	19.994	100.161	19.895	8.130	0.510
1210.000	685.463	79.998	19.994	100.160	19.893	8.273	0.496
1210.501	685.719	80.001	19.994	100.159	19.899	7.848	0.485
1211.001	685.959	79.998	19.995	100.159	19.898	7.903	0.493
1211.500	686.224	79.997	19.995	100.158	19.895	8.087	0.501
1212.000	686.482	79.998	19.995	100.158	19.894	8.169	0.514
1212.500	686.703	79.998	19.995	100.158	19.897	7.996	0.501
1213.001	686.956	79.997	19.994	100.159	19.897	7.948	0.477
1213.501	687.165	79.998	19.996	100.160	19.895	8.087	0.468
1214.001	687.444	79.997	19.994	100.160	19.895	8.114	0.475
1214.501	687.660	79.997	19.995	100.160	19.897	7.971	0.492
1215.001	687.910	79.997	19.995	100.162	19.898	7.864	0.481
1215.501	688.201	79.997	19.995	100.161	19.896	8.060	0.503
1216.000	688.446	79.994	19.996	100.161	19.897	7.937	0.538
1216.500	688.683	79.994	19.994	100.162	19.895	8.091	0.509
1217.000	688.929	79.996	19.995	100.162	19.891	8.382	0.483
1217.500	689.184	79.994	19.997	100.162	19.893	8.233	0.492
1218.000	689.449	79.996	19.996	100.162	19.899	7.837	0.510
1218.500	689.697	79.997	19.997	100.162	19.895	8.084	0.516
1219.000	689.945	79.995	19.995	100.162	19.895	8.132	0.504
1219.500	690.178	79.997	19.996	100.162	19.895	8.101	0.489
1220.000	690.468	79.995	19.995	100.162	19.895	8.085	0.503
1220.500	690.673	79.998	19.996	100.162	19.891	8.382	0.509
1221.000	690.943	79.997	19.995	100.162	19.895	8.096	0.485
1221.500	691.177	79.995	19.997	100.162	19.895	8.094	0.489
1222.000	691.424	79.995	19.996	100.161	19.890	8.479	0.492
1222.500	691.677	79.995	19.995	100.161	19.894	8.191	0.490
1223.000	691.949	79.997	19.995	100.164	19.893	8.285	0.513
1223.500	692.207	79.997	19.995	100.163	19.896	8.069	0.528
1224.000	692.460	79.994	19.994	100.166	19.897	7.978	0.521
1224.500	692.700	79.995	19.996	100.167	19.893	8.275	0.502
1225.000	692.971	79.997	19.996	100.166	19.895	8.106	0.502
1225.500	693.219	79.997	19.995	100.164	19.898	7.908	0.515
1226.000	693.484	79.996	19.995	100.164	19.894	8.197	0.516
1226.500	693.719	79.994	19.996	100.161	19.890	8.463	0.507
1227.000	693.966	79.997	19.996	100.160	19.893	8.265	0.491
1227.500	694.236	79.996	19.995	100.163	19.894	8.180	0.499
1228.000	694.477	79.996	19.995	100.167	19.891	8.369	0.514
1228.500	694.732	79.999	19.995	100.168	19.895	8.082	0.504
1229.000	694.985	79.998	19.997	100.169	19.898	7.872	0.502
1229.500	695.253	79.997	19.996	100.169	19.891	8.402	0.514
1230.000	695.472	79.997	19.997	100.166	19.895	8.122	0.504
1230.500	695.743	79.999	19.996	100.162	19.892	8.316	0.489
1231.000	695.953	79.998	19.995	100.161	19.896	8.017	0.485
1231.500	696.252	79.995	19.996	100.159	19.897	7.940	0.495
1232.000	696.496	79.996	19.994	100.158	19.899	7.848	0.526
1232.500	696.744	79.998	19.994	100.158	19.894	8.190	0.517
1233.000	697.000	79.996	19.996	100.158	19.893	8.231	0.498
1233.500	697.261	79.996	19.995	100.157	19.898	7.885	0.511
1234.000	697.493	79.995	19.995	100.159	19.892	8.363	0.505
1234.500	697.737	79.998	19.994	100.160	19.891	8.423	0.484
1235.000	697.983	79.999	19.997	100.161	19.897	7.965	0.483
1235.500	698.268	79.997	19.996	100.160	19.895	8.132	0.511
1236.000	698.510	79.997	19.996	100.160	19.895	8.136	0.529
1236.500	698.762	79.999	19.996	100.159	19.898	7.895	0.510
1237.000	699.025	79.997	19.995	100.158	19.895	8.138	0.505
1237.501	699.287	79.998	19.995	100.160	19.898	7.920	0.520
1238.001	699.567	79.998	19.996	100.161	19.889	8.522	0.533
1238.500	699.781	79.996	19.996	100.163	19.896	8.048	0.518
1239.000	700.068	79.997	19.996	100.167	19.892	8.334	0.498
1239.500	700.269	79.997	19.997	100.168	19.891	8.369	0.495
1240.000	700.546	79.996	19.995	100.166	19.893	8.262	0.483
1240.500	700.839	79.996	19.995	100.168	19.889	8.574	0.524
1241.000	701.056	79.997	19.996	100.165	19.890	8.456	0.540
1241.500	701.305	79.996	19.996	100.161	19.894	8.209	0.488
1242.000	701.557	79.996	19.996	100.161	19.890	8.481	0.483
1242.500	701.840	79.998	19.996	100.163	19.894	8.216	0.518
1243.000	702.113	79.995	19.996	100.161	19.891	8.388	0.546
1243.500	702.350	79.996	19.995	100.162	19.894	8.212	0.533
1244.000	702.595	79.997	19.996	100.164	19.892	8.319	0.496
1244.500	702.870	79.994	19.995	100.165	19.894	8.188	0.501
1245.000	703.130	79.996	19.996	100.165	19.891	8.409	0.528
1245.500	703.378	79.996	19.996	100.166	19.893	8.231	0.522
1246.001	703.607	79.996	19.996	100.168	19.894	8.165	0.492
1246.501	703.900	79.995	19.996	100.170	19.895	8.147	0.499
1247.000	704.081	79.996	19.997	100.168	19.890	8.477	0.498
1247.500	704.386	79.995	19.997	100.165	19.898	7.922	0.480
1248.000	704.631	79.998	19.996	100.166	19.895	8.081	0.518
1248.500	704.906	79.996	19.998	100.164	19.892	8.324	0.535
1249.000	705.142	79.996	19.996	100.165	19.894	8.208	0.516
1249.500	705.420	79.996	19.996	100.166	19.892	8.355	0.513
1250.000	705.656	79.996	19.997	100.169	19.893	8.239	0.514
1250.500	705.932	79.994	19.997	100.169	19.892	8.299	0.513
1251.000	706.189	79.995	19.997	100.171	19.889	8.533	0.522
1251.500	706.448	79.994	19.995	100.166	19.894	8.211	0.525
1252.000	706.654	79.994	19.996	100.164	19.892	8.309	0.491
1252.500	706.918	79.996	19.998	100.162	19.894	8.193	0.467
1253.000	707.182	79.996	19.995	100.166	19.889	8.574	0.499
1253.500	707.445	79.996	19.997	100.169	19.894	8.156	0.527
1254.000	707.695	79.997	19.998	100.170	19.889	8.575	0.520
1254.500	707.959	79.995	19.996	100.170	19.888	8.651	0.514
1255.000	708.222	79.996	19.996	100.170	19.893	8.278	0.521
1255.500	708.475	79.997	19.998	100.164	19.889	8.521	0.522
1256.000	708.701	79.994	19.996	100.160	19.894	8.164	0.497
1256.500	708.977	79.998	19.994	100.162	19.894	8.172	0.491
1257.000	709.261	79.997	19.996	100.163	19.892	8.342	0.532
1257.500	709.480	79.998	19.996	100.163	19.893	8.247	0.531
1258.000	709.727	79.996	19.995	100.164	19.893	8.251	0.484
1258.500	709.995	79.999	19.995	100.163	19.895	8.144	0.491
1259.000	710.292	79.997	19.996	100.163	19.893	8.284	0.540
1259.500	710.505	79.998	19.996	100.166	19.888	8.600	0.537
1260.000	710.788	79.998	19.995	100.166	19.894	8.214	0.503
1260.500	711.033	79.998	19.995	100.165	19.893	8.240	0.512
1261.000	711.284	79.997	19.994	100.167	19.891	8.373	0.512
1261.500	711.569	79.999	19.996	100.165	19.893	8.234	0.516
1262.000	711.821	79.998	19.994	100.162	19.888	8.597	0.536
1262.500	712.088	79.997	19.994	100.165	19.892	8.309	0.528
1263.000	712.304	80.000	19.994	100.173	19.891	8.426	0.502
1263.500	712.621	79.999	19.994	100.176	19.894	8.193	0.508
1264.000	712.880	79.998	19.996	100.179	19.890	8.492	0.554
1264.500	713.124	79.998	19.995	100.179	19.891	8.387	0.540
1265.000	713.377	79.998	19.995	100.176	19.891	8.399	0.500
1265.500	713.622	79.998	19.994	100.173	19.893	8.265	0.497
1266.000	713.904	79.999	19.995	100.174	19.888	8.611	0.512
1266.500	714.143	79.997	19.995	100.174	19.892	8.301	0.524
1267.000	714.407	79.997	19.993	100.178	19.890	8.481	0.512
1267.500	714.674	79.998	19.995	100.182	19.890	8.479	0.517
1268.000	714.948	79.999	19.994	100.178	19.890	8.507	0.536
1268.500	715.181	79.996	19.995	100.173	19.891	8.435	0.524
1269.000	715.438	79.999	19.995	100.175	19.890	8.495	0.499
1269.500	715.733	79.997	19.995	100.173	19.893	8.240	0.521
1270.000	715.983	79.996	19.995	100.170	19.894	8.151	0.548
1270.500	716.217	79.997	19.995	100.174	19.892	8.339	0.514
1271.000	716.469	79.999	19.995	100.179	19.892	8.351	0.485
1271.500	716.758	79.995	19.995	100.179	19.891	8.419	0.514
1272.000	717.020	79.997	19.995	100.177	19.892	8.320	0.546
1272.500	717.285	79.996	19.995	100.177	19.894	8.210	0.539
1273.001	717.513	79.999	19.996	100.177	19.897	7.971	0.510
1273.501	717.784	79.997	19.995	100.175	19.899	7.820	0.496
1274.000	717.985	79.998	19.995	100.175	19.894	8.202	0.486
1274.500	718.247	79.997	19.996	100.175	19.897	7.940	0.467
1275.000	718.507	79.996	19.994	100.178	19.894	8.178	0.492
1275.500	718.799	79.997	19.996	100.180	19.896	8.023	0.537
1276.000	719.039	79.995	19.995	100.182	19.894	8.208	0.542
1276.500	719.290	79.997	19.995	100.184	19.896	8.025	0.511
1277.000	719.534	79.995	19.995	100.189	19.894	8.208	0.493
1277.500	719.781	79.999	19.995	100.191	19.894	8.203	0.494
1278.000	720.014	79.998	19.996	100.189	19.892	8.319	0.485
1278.500	720.301	79.994	19.995	100.185	19.894	8.166	0.499
1279.000	720.505	79.998	19.996	100.179	19.893	8.249	0.506
1279.500	720.808	79.997	19.995	100.172	19.893	8.272	0.500
1280.000	721.030	79.995	19.994	100.167	19.894	8.205	0.516
1280.501	721.292	79.998	19.995	100.162	19.893	8.236	0.504
1281.001	721.559	79.998	19.995	100.159	19.890	8.461	0.506
1281.500	721.829	79.995	19.995	100.159	19.893	8.287	0.533
1282.000	722.113	79.996	19.995	100.160	19.891	8.413	0.546
1282.500	722.370	79.997	19.994	100.163	19.891	8.381	0.547
1283.000	722.590	79.995	19.994	100.168	19.890	8.499	0.509
1283.500	722.823	79.999	19.995	100.170	19.890	8.492	0.465
1284.000	723.112	79.998	19.995	100.173	19.891	8.374	0.488
1284.500	723.364	79.998	19.994	100.174	19.893	8.273	0.531
1285.001	723.586	80.000	19.996	100.170	19.893	8.265	0.507
1285.501	723.881	79.997	19.995	100.167	19.891	8.404	0.496
1286.000	724.142	80.001	19.994	100.166	19.889	8.527	0.537
1286.500	724.396	80.000	19.994	100.167	19.893	8.245	0.535
1287.000	724.634	79.998	19.995	100.167	19.890	8.468	0.503
1287.500	724.916	80.000	19.994	100.169	19.892	8.303	0.506
1288.000	725.170	80.000	19.995	100.172	19.890	8.497	0.528
1288.501	725.425	79.999	19.994	100.176	19.892	8.301	0.522
1289.001	725.690	79.998	19.994	100.175	19.892	8.354	0.515
1289.500	725.944	80.000	19.996	100.174	19.893	8.290	0.520
1290.000	726.185	80.000	19.995	100.172	19.893	8.263	0.507
1290.501	726.442	79.999	19.995	100.169	19.893	8.290	0.496
1291.001	726.690	80.002	19.995	100.164	19.894	8.173	0.502
1291.501	726.909	80.000	19.994	100.161	19.890	8.490	0.486
1292.000	727.155	79.998	19.994	100.162	19.888	8.589	0.466
1292.500	727.413	79.999	19.996	100.162	19.892	8.358	0.485
1293.000	727.659	79.999	19.994	100.164	19.892	8.323	0.504
1293.500	727.915	79.998	19.994	100.171	19.891	8.416	0.503
1294.000	728.169	79.997	19.994	100.174	19.892	8.342	0.506
1294.500	728.429	79.998	19.995	100.176	19.892	8.365	0.512
1295.000	728.693	79.998	19.995	100.178	19.887	8.664	0.519
1295.500	728.929	80.000	19.995	100.177	19.889	8.548	0.511
1296.000	729.156	79.997	19.994	100.177	19.889	8.567	0.482
1296.500	729.430	79.998	19.994	100.177	19.888	8.627	0.483
1297.001	729.684	79.995	19.994	100.177	19.892	8.317	0.514
1297.501	729.934	79.999	19.994	100.174	19.889	8.575	0.516
1298.001	730.192	80.000	19.995	100.170	19.886	8.781	0.506
1298.500	730.466	79.998	19.995	100.167	19.893	8.262	0.520
1299.000	730.702	79.998	19.995	100.169	19.889	8.547	0.521
1299.500	730.934	79.995	19.995	100.172	19.891	8.396	0.489
1300.000	731.196	79.996	19.995	100.174	19.889	8.532	0.481
1300.501	731.421	79.997	19.995	100.177	19.884	8.898	0.490
1301.001	731.706	79.996	19.995	100.179	19.890	8.475	0.498
1301.500	731.971	79.998	19.994	100.177	19.886	8.731	0.530
1302.000	732.208	79.996	19.995	100.176	19.888	8.592	0.526
1302.500	732.486	79.996	19.994	100.179	19.889	8.512	0.509
1303.000	732.717	79.996	19.995	100.176	19.891	8.385	0.513
1303.500	733.001	79.997	19.993	100.175	19.887	8.664	0.512
1304.000	733.215	79.996	19.995	100.176	19.889	8.577	0.506
1304.500	733.478	79.998	19.995	100.177	19.891	8.431	0.487
1305.000	733.759	79.998	19.994	100.173	19.887	8.671	0.510
1305.500	734.000	79.998	19.995	100.174	19.890	8.466	0.533
1306.000	734.227	79.995	19.995	100.173	19.892	8.332	0.495
1306.500	734.485	79.995	19.995	100.171	19.889	8.564	0.477
1307.000	734.743	79.996	19.996	100.167	19.887	8.721	0.501
1307.500	734.971	79.995	19.995	100.168	19.889	8.542	0.501
1308.000	735.230	79.998	19.995	100.172	19.887	8.668	0.487
1308.500	735.485	79.997	19.995	100.176	19.887	8.684	0.500
1309.000	735.731	79.998	19.995	100.181	19.888	8.633	0.507
1309.500	736.005	79.997	19.995	100.186	19.893	8.290	0.511
1310.000	736.191	79.995	19.995	100.188	19.889	8.539	0.490
1310.500	736.463	79.993	19.995	100.189	19.888	8.626	0.459
1311.000	736.714	79.997	19.996	100.189	19.887	8.667	0.491
1311.500	736.964	79.994	19.995	100.184	19.887	8.671	0.512
1312.000	737.222	79.996	19.995	100.184	19.885	8.853	0.504
1312.500	737.495	79.997	19.995	100.185	19.886	8.728	0.520
1313.000	737.747	79.999	19.996	100.186	19.886	8.736	0.528
1313.500	737.993	79.998	19.997	100.183	19.886	8.764	0.511
1314.000	738.231	79.997	19.996	100.181	19.885	8.809	0.491
1314.500	738.502	79.999	19.997	100.175	19.885	8.852	0.497
1315.000	738.748	79.999	19.996	100.171	19.888	8.613	0.513
1315.501	738.980	79.996	19.995	100.167	19.891	8.373	0.497
1316.001	739.259	79.998	19.996	100.167	19.891	8.374	0.494
1316.500	739.508	79.997	19.997	100.173	19.885	8.829	0.520
1317.000	739.732	79.999	19.996	100.175	19.890	8.470	0.500
1317.500	739.990	80.001	19.998	100.176	19.889	8.565	0.477
1318.000	740.282	79.998	19.996	100.177	19.887	8.680	0.517
1318.500	740.489	79.998	19.997	100.177	19.891	8.407	0.525
1319.001	740.771	79.998	19.996	100.176	19.889	8.521	0.494
1319.501	741.006	79.998	19.995	100.176	19.889	8.556	0.503
1320.000	741.282	79.997	19.996	100.174	19.888	8.595	0.514
1320.500	741.522	79.997	19.995	100.178	19.888	8.610	0.513
1321.000	741.760	79.999	19.996	100.180	19.892	8.323	0.497
1321.500	742.012	79.996	19.996	100.177	19.888	8.591	0.484
1322.000	742.219	79.996	19.997	100.179	19.889	8.530	0.475
1322.500	742.529	79.997	19.995	100.181	19.886	8.771	0.488
1323.000	742.772	79.996	19.995	100.176	19.887	8.672	0.535
1323.500	743.077	79.998	19.995	100.171	19.890	8.505	0.551
1324.000	743.289	79.998	19.997	100.168	19.887	8.689	0.532
1324.500	743.554	79.994	19.995	100.166	19.887	8.662	0.497
1325.000	743.790	79.998	19.997	100.161	19.889	8.580	0.489
1325.501	744.021	79.996	19.995	100.164	19.889	8.542	0.484
1326.001	744.267	79.996	19.995	100.166	19.888	8.604	0.472
1326.500	744.512	79.997	19.996	100.166	19.891	8.372	0.485
1327.000	744.822	79.997	19.995	100.166	19.891	8.393	0.523
1327.500	745.012	79.995	19.995	100.170	19.888	8.602	0.527
1328.000	745.293	79.994	19.995	100.169	19.888	8.614	0.485
