Sample ID:	C:\MCC\MCC Cal\Test\PC\PC_MCC_30K_min_211018_R6.txt
Sample Weight (mg):	4.81
Heating Rate (C/s):	0.5
Combustor Temp (C):	900
N2 Flow Rate (cc/min):	80
O2 Flow Rate (cc/min):	20
Calibration File:	C:\MCC\MCC Cal\Coeff1 JN10440_30_210304.txt.txt
T Correction Coefficients:	0	1.024463	0
Time Shift (s):	14
*
Time (s)	Temperature (C)	N2 flow rate (cc/min)	O2 flow rate (cc/min)	Flow Rate (cc/min)	Oxygen (%)	HRR (W/g)	Heating rate (C/s)
0.000	108.932	79.999	19.995	102.924	20.105	0.189	-0.020
0.500	108.986	79.996	19.995	102.930	20.104	0.284	0.004
1.000	108.970	79.998	19.997	102.935	20.105	0.156	0.030
1.500	108.962	79.998	19.996	102.942	20.105	0.185	0.007
2.000	108.966	79.999	19.995	102.950	20.107	0.022	-0.014
2.500	108.977	80.000	19.994	102.957	20.108	-0.022	0.005
3.000	108.962	79.998	19.995	102.962	20.105	0.207	0.005
3.500	108.965	79.999	19.995	102.964	20.109	-0.097	-0.008
4.000	108.948	80.000	19.995	102.962	20.108	-0.007	-0.013
4.500	108.963	79.998	19.995	102.954	20.106	0.130	-0.008
5.000	108.956	79.999	19.995	102.946	20.108	0.009	0.003
5.500	108.938	80.000	19.996	102.938	20.105	0.161	-0.009
6.000	108.918	79.999	19.995	102.936	20.109	-0.084	-0.032
6.500	108.965	80.000	19.994	102.943	20.105	0.214	-0.006
7.000	108.945	80.000	19.995	102.959	20.106	0.099	0.027
7.500	108.933	79.999	19.995	102.980	20.106	0.114	-0.002
8.001	108.913	79.999	19.994	103.006	20.103	0.330	-0.032
8.501	108.896	79.999	19.994	103.025	20.106	0.148	-0.034
9.000	108.925	79.998	19.995	103.036	20.106	0.136	-0.012
9.500	108.926	79.998	19.995	103.035	20.104	0.223	0.021
10.000	108.913	79.999	19.995	103.028	20.107	0.051	0.009
10.500	108.938	79.998	19.995	103.011	20.104	0.284	-0.000
11.000	108.913	79.999	19.995	102.994	20.102	0.410	0.006
11.500	108.901	79.998	19.994	102.979	20.104	0.279	-0.018
12.000	108.942	79.998	19.995	102.971	20.101	0.449	-0.004
12.500	108.954	79.999	19.995	102.965	20.100	0.528	0.041
13.000	108.960	79.998	19.995	102.965	20.101	0.429	0.036
13.500	108.933	79.998	19.995	102.974	20.103	0.332	-0.001
14.000	108.958	79.998	19.995	102.984	20.101	0.462	-0.012
14.500	108.958	79.998	19.995	102.992	20.098	0.658	0.011
15.000	108.946	79.998	19.995	102.996	20.097	0.696	0.006
15.500	108.955	79.998	19.996	102.999	20.095	0.837	-0.008
16.000	108.984	79.997	19.995	102.999	20.096	0.764	0.018
16.500	108.976	79.999	19.995	103.004	20.097	0.693	0.030
17.000	108.994	79.997	19.995	103.014	20.097	0.709	0.015
17.500	109.005	79.997	19.996	103.028	20.093	0.964	0.020
18.000	108.993	79.998	19.995	103.039	20.092	1.077	0.014
18.500	109.000	79.997	19.996	103.048	20.089	1.226	-0.003
19.000	109.003	79.999	19.996	103.053	20.089	1.233	0.002
19.500	109.026	79.997	19.995	103.059	20.090	1.202	0.018
20.000	109.059	79.996	19.995	103.067	20.090	1.213	0.041
20.500	109.063	79.996	19.996	103.083	20.089	1.286	0.047
21.000	109.088	79.997	19.996	103.098	20.088	1.343	0.033
21.500	109.113	79.998	19.996	103.108	20.083	1.631	0.039
22.000	109.105	79.997	19.995	103.117	20.085	1.494	0.033
22.500	109.197	79.998	19.995	103.116	20.083	1.668	0.051
23.000	109.191	79.997	19.996	103.110	20.087	1.411	0.085
23.500	109.202	79.998	19.995	103.107	20.080	1.847	0.045
24.000	109.240	79.997	19.996	103.107	20.082	1.726	0.027
24.500	109.292	79.998	19.995	103.104	20.081	1.776	0.070
25.000	109.334	80.001	19.995	103.106	20.083	1.679	0.092
25.500	109.367	79.999	19.996	103.110	20.079	1.937	0.084
26.000	109.375	80.000	19.995	103.112	20.083	1.684	0.058
26.500	109.414	79.999	19.995	103.112	20.081	1.809	0.044
27.000	109.482	79.997	19.995	103.111	20.080	1.858	0.077
27.500	109.502	80.000	19.995	103.115	20.082	1.738	0.097
28.000	109.547	79.999	19.994	103.117	20.077	2.033	0.076
28.500	109.616	79.999	19.995	103.121	20.076	2.117	0.090
29.000	109.619	80.001	19.996	103.124	20.077	2.049	0.093
29.500	109.654	79.997	19.994	103.129	20.072	2.379	0.055
30.000	109.720	79.999	19.995	103.130	20.076	2.103	0.069
30.500	109.802	80.001	19.995	103.130	20.073	2.345	0.124
31.000	109.820	80.001	19.993	103.127	20.074	2.269	0.124
31.500	109.844	80.001	19.995	103.130	20.073	2.293	0.071
32.001	109.920	80.000	19.994	103.130	20.073	2.312	0.071
32.501	109.967	80.001	19.994	103.131	20.074	2.244	0.111
33.000	110.040	80.001	19.993	103.131	20.078	1.987	0.122
33.500	110.091	79.999	19.995	103.137	20.072	2.396	0.122
34.000	110.152	80.000	19.994	103.138	20.069	2.576	0.118
34.500	110.206	79.999	19.994	103.139	20.074	2.239	0.114
35.000	110.289	80.001	19.995	103.138	20.072	2.367	0.126
35.500	110.338	80.001	19.994	103.137	20.073	2.296	0.135
36.000	110.386	80.001	19.995	103.132	20.073	2.299	0.115
36.500	110.458	79.999	19.993	103.125	20.075	2.200	0.109
37.000	110.552	79.998	19.995	103.131	20.073	2.299	0.143
37.500	110.615	80.000	19.994	103.137	20.073	2.297	0.162
38.000	110.683	80.000	19.995	103.145	20.074	2.273	0.144
38.500	110.761	80.002	19.995	103.154	20.074	2.275	0.138
39.000	110.811	80.000	19.994	103.162	20.072	2.392	0.137
39.500	110.886	80.000	19.994	103.163	20.072	2.412	0.126
40.000	110.999	80.000	19.995	103.164	20.071	2.438	0.156
40.500	111.104	79.999	19.995	103.163	20.073	2.341	0.203
41.000	111.186	79.998	19.994	103.162	20.068	2.633	0.203
41.500	111.216	79.998	19.994	103.163	20.068	2.662	0.150
42.000	111.309	79.996	19.995	103.165	20.071	2.442	0.118
42.500	111.389	79.997	19.994	103.167	20.072	2.362	0.148
43.000	111.512	79.997	19.994	103.170	20.071	2.433	0.188
43.500	111.545	79.997	19.995	103.174	20.065	2.883	0.179
44.000	111.632	79.997	19.996	103.180	20.071	2.492	0.138
44.500	111.746	79.996	19.994	103.181	20.066	2.805	0.161
45.000	111.802	79.998	19.994	103.180	20.067	2.721	0.186
45.500	111.919	79.998	19.994	103.183	20.068	2.688	0.172
46.000	112.019	79.999	19.994	103.187	20.067	2.739	0.195
46.500	112.097	79.996	19.994	103.184	20.068	2.675	0.197
47.000	112.219	79.999	19.995	103.181	20.065	2.854	0.189
47.500	112.301	80.000	19.996	103.180	20.065	2.889	0.202
48.000	112.404	79.999	19.995	103.174	20.067	2.737	0.195
48.500	112.488	79.998	19.995	103.166	20.067	2.752	0.186
49.000	112.596	79.998	19.995	103.161	20.066	2.824	0.190
49.500	112.717	79.997	19.996	103.160	20.069	2.626	0.210
50.000	112.834	79.998	19.995	103.164	20.066	2.795	0.234
50.500	112.930	79.997	19.995	103.166	20.065	2.879	0.226
51.000	113.060	79.999	19.995	103.169	20.065	2.857	0.219
51.500	113.135	79.999	19.995	103.176	20.065	2.877	0.215
52.000	113.286	80.001	19.995	103.178	20.064	2.952	0.215
52.500	113.397	79.998	19.995	103.182	20.064	2.916	0.244
53.000	113.486	79.999	19.995	103.188	20.062	3.074	0.231
53.500	113.611	80.001	19.995	103.193	20.066	2.787	0.207
54.000	113.743	79.998	19.995	103.193	20.063	2.973	0.236
54.500	113.849	79.998	19.995	103.198	20.065	2.835	0.248
55.000	113.982	79.999	19.995	103.196	20.063	2.986	0.239
55.500	114.107	79.998	19.995	103.192	20.064	2.951	0.248
56.000	114.261	80.000	19.995	103.184	20.062	3.063	0.268
56.500	114.378	80.000	19.994	103.178	20.060	3.211	0.275
57.000	114.497	79.999	19.995	103.175	20.061	3.125	0.254
57.500	114.612	79.999	19.995	103.172	20.061	3.116	0.235
58.000	114.751	80.000	19.995	103.172	20.061	3.098	0.244
58.500	114.898	79.998	19.995	103.179	20.060	3.215	0.270
59.000	115.018	80.000	19.995	103.184	20.058	3.312	0.277
59.500	115.173	80.000	19.995	103.187	20.060	3.219	0.271
60.000	115.275	80.000	19.995	103.191	20.060	3.182	0.266
60.500	115.431	80.000	19.995	103.194	20.059	3.256	0.258
61.000	115.569	80.000	19.995	103.194	20.061	3.111	0.276
61.500	115.723	79.999	19.996	103.196	20.059	3.258	0.292
62.000	115.822	80.000	19.995	103.198	20.058	3.349	0.273
62.500	116.027	80.000	19.994	103.202	20.058	3.337	0.279
63.000	116.113	79.998	19.995	103.203	20.060	3.194	0.297
63.500	116.252	79.999	19.994	103.205	20.062	3.065	0.258
64.000	116.424	79.999	19.995	103.206	20.060	3.208	0.268
64.500	116.567	79.999	19.996	103.205	20.060	3.175	0.314
65.001	116.718	79.999	19.994	103.202	20.059	3.283	0.304
65.501	116.858	79.999	19.994	103.205	20.060	3.224	0.292
66.000	116.992	79.999	19.994	103.210	20.060	3.195	0.282
66.500	117.158	79.999	19.994	103.213	20.061	3.137	0.287
67.000	117.317	79.999	19.994	103.215	20.057	3.373	0.312
67.500	117.468	80.000	19.994	103.217	20.057	3.412	0.318
68.000	117.625	79.999	19.994	103.218	20.057	3.403	0.309
68.501	117.786	80.001	19.995	103.215	20.057	3.381	0.313
69.001	117.932	79.998	19.993	103.215	20.058	3.308	0.313
69.500	118.089	79.999	19.994	103.216	20.062	3.065	0.305
70.000	118.243	79.998	19.994	103.219	20.060	3.223	0.307
70.500	118.423	80.000	19.995	103.221	20.057	3.412	0.322
71.000	118.536	80.000	19.994	103.219	20.056	3.432	0.313
71.500	118.693	79.999	19.994	103.220	20.055	3.529	0.281
72.000	118.879	79.999	19.995	103.224	20.056	3.461	0.307
72.501	119.047	79.998	19.995	103.227	20.059	3.278	0.349
73.001	119.214	79.998	19.994	103.228	20.053	3.634	0.345
73.500	119.367	79.999	19.995	103.231	20.053	3.661	0.327
74.000	119.539	80.000	19.995	103.233	20.055	3.518	0.323
74.500	119.697	79.999	19.994	103.233	20.056	3.465	0.327
75.000	119.882	79.998	19.995	103.225	20.052	3.744	0.336
75.500	120.025	79.997	19.994	103.219	20.054	3.625	0.336
76.000	120.222	79.995	19.995	103.220	20.053	3.652	0.334
76.500	120.401	79.999	19.996	103.218	20.052	3.740	0.358
77.000	120.585	79.996	19.996	103.219	20.053	3.639	0.369
77.500	120.765	79.998	19.994	103.227	20.053	3.645	0.363
78.000	120.938	80.000	19.996	103.234	20.055	3.524	0.359
78.501	121.111	79.998	19.995	103.237	20.052	3.759	0.349
79.001	121.286	79.997	19.995	103.239	20.055	3.565	0.347
79.500	121.455	79.998	19.995	103.240	20.055	3.535	0.346
80.000	121.649	79.998	19.995	103.240	20.053	3.665	0.354
80.500	121.851	79.998	19.995	103.240	20.057	3.398	0.380
81.000	122.032	79.998	19.995	103.240	20.054	3.592	0.389
81.500	122.207	79.998	19.995	103.238	20.056	3.460	0.369
82.000	122.423	79.999	19.995	103.237	20.054	3.610	0.374
82.500	122.618	79.997	19.996	103.236	20.051	3.768	0.401
83.001	122.801	80.001	19.996	103.233	20.049	3.917	0.394
83.501	122.963	79.998	19.995	103.229	20.052	3.759	0.362
84.000	123.141	79.998	19.996	103.227	20.050	3.880	0.343
84.500	123.361	79.999	19.997	103.225	20.050	3.841	0.369
85.000	123.532	79.999	19.997	103.226	20.049	3.909	0.394
85.500	123.716	79.998	19.995	103.228	20.052	3.735	0.373
86.000	123.932	79.999	19.996	103.229	20.050	3.843	0.378
86.500	124.113	79.999	19.997	103.231	20.051	3.801	0.399
87.000	124.312	80.000	19.995	103.233	20.049	3.944	0.389
87.500	124.499	80.000	19.995	103.233	20.051	3.817	0.383
88.000	124.713	79.998	19.995	103.234	20.055	3.531	0.393
88.500	124.918	80.000	19.995	103.236	20.050	3.885	0.410
89.000	125.120	79.998	19.995	103.241	20.053	3.693	0.413
89.500	125.282	80.000	19.995	103.246	20.046	4.153	0.385
90.000	125.540	80.000	19.996	103.247	20.051	3.825	0.392
90.500	125.712	79.999	19.995	103.246	20.046	4.113	0.425
91.001	125.922	80.000	19.995	103.244	20.050	3.836	0.406
91.501	126.133	80.002	19.995	103.244	20.048	3.996	0.401
92.000	126.344	79.999	19.995	103.238	20.048	4.007	0.422
92.500	126.557	80.001	19.995	103.238	20.052	3.739	0.424
93.000	126.744	80.000	19.995	103.239	20.051	3.823	0.412
93.500	126.996	79.999	19.995	103.240	20.048	4.005	0.419
94.000	127.222	79.999	19.996	103.242	20.050	3.897	0.458
94.500	127.420	79.998	19.994	103.240	20.052	3.708	0.451
95.000	127.616	79.999	19.995	103.238	20.054	3.623	0.409
95.500	127.833	79.999	19.995	103.237	20.049	3.924	0.404
96.000	128.078	79.997	19.996	103.237	20.049	3.920	0.438
96.500	128.269	80.000	19.995	103.234	20.049	3.929	0.449
97.000	128.492	79.998	19.994	103.233	20.050	3.847	0.425
97.501	128.691	79.995	19.994	103.234	20.051	3.815	0.418
98.001	128.893	79.999	19.995	103.235	20.051	3.789	0.412
98.500	129.111	79.999	19.995	103.235	20.051	3.771	0.410
99.000	129.365	79.998	19.995	103.236	20.050	3.885	0.446
99.500	129.590	79.999	19.996	103.239	20.054	3.581	0.476
100.000	129.832	80.000	19.995	103.238	20.052	3.751	0.473
100.500	130.039	79.999	19.995	103.238	20.052	3.754	0.458
101.001	130.184	79.999	19.996	103.238	20.053	3.682	0.401
101.501	130.461	80.000	19.994	103.238	20.051	3.770	0.387
102.000	130.648	79.999	19.995	103.239	20.051	3.817	0.443
102.500	130.903	79.999	19.996	103.241	20.051	3.770	0.453
103.000	131.108	79.999	19.995	103.242	20.054	3.602	0.451
103.500	131.350	80.000	19.994	103.242	20.054	3.588	0.454
104.000	131.533	79.998	19.994	103.241	20.054	3.568	0.436
104.500	131.755	80.000	19.996	103.241	20.052	3.737	0.415
105.000	132.021	79.999	19.995	103.241	20.051	3.806	0.446
105.500	132.281	79.999	19.995	103.241	20.052	3.744	0.507
106.000	132.478	79.996	19.995	103.241	20.051	3.812	0.492
106.500	132.712	79.999	19.995	103.241	20.051	3.825	0.444
107.000	132.940	79.999	19.995	103.238	20.053	3.677	0.446
107.500	133.149	79.999	19.995	103.237	20.053	3.675	0.450
108.000	133.436	79.999	19.996	103.234	20.052	3.739	0.467
108.500	133.659	80.000	19.994	103.229	20.052	3.766	0.503
109.000	133.903	80.000	19.996	103.224	20.053	3.661	0.488
109.500	134.140	80.000	19.996	103.227	20.051	3.824	0.474
110.000	134.384	79.999	19.996	103.230	20.051	3.804	0.481
110.500	134.597	79.999	19.996	103.238	20.052	3.761	0.469
111.000	134.850	80.001	19.995	103.222	20.051	3.813	0.461
111.500	135.096	79.996	19.995	103.208	20.050	3.860	0.482
112.000	135.295	80.000	19.995	103.197	20.050	3.884	0.472
112.500	135.548	80.000	19.996	103.188	20.048	4.007	0.448
113.000	135.809	80.000	19.997	103.178	20.050	3.877	0.483
113.500	136.028	79.999	19.996	103.195	20.050	3.876	0.497
114.000	136.232	80.001	19.996	103.212	20.050	3.900	0.452
114.500	136.487	80.001	19.995	103.221	20.054	3.599	0.441
115.000	136.788	79.999	19.995	103.228	20.050	3.852	0.507
115.500	137.016	80.000	19.995	103.251	20.052	3.724	0.542
116.001	137.241	79.999	19.996	103.278	20.050	3.838	0.491
116.501	137.488	80.000	19.997	103.287	20.052	3.746	0.462
117.001	137.751	79.999	19.996	103.288	20.050	3.896	0.491
117.501	137.990	80.002	19.996	103.288	20.052	3.737	0.506
118.000	138.247	79.999	19.995	103.270	20.054	3.590	0.499
118.500	138.477	80.001	19.995	103.254	20.050	3.885	0.492
119.000	138.688	79.999	19.996	103.247	20.054	3.625	0.464
119.500	138.971	79.999	19.994	103.242	20.051	3.781	0.468
120.000	139.192	79.999	19.995	103.235	20.051	3.784	0.499
120.500	139.463	79.998	19.996	103.227	20.050	3.857	0.498
121.000	139.685	79.999	19.995	103.216	20.054	3.584	0.492
121.501	139.929	79.998	19.996	103.208	20.052	3.766	0.480
122.001	140.190	79.998	19.995	103.206	20.052	3.758	0.486
122.500	140.420	79.999	19.995	103.206	20.050	3.848	0.498
123.000	140.701	79.997	19.995	103.211	20.049	3.923	0.501
123.500	140.953	79.997	19.995	103.216	20.054	3.610	0.522
124.000	141.207	79.997	19.995	103.223	20.051	3.813	0.519
124.500	141.449	79.999	19.995	103.229	20.052	3.745	0.501
125.001	141.661	79.998	19.996	103.236	20.052	3.716	0.475
125.501	141.941	79.998	19.995	103.236	20.052	3.742	0.473
126.000	142.160	79.996	19.995	103.236	20.050	3.874	0.496
126.500	142.404	79.996	19.995	103.236	20.052	3.755	0.481
127.000	142.683	79.999	19.995	103.237	20.054	3.608	0.492
127.500	142.924	79.998	19.995	103.237	20.054	3.614	0.522
128.000	143.211	80.000	19.995	103.238	20.052	3.740	0.524
128.500	143.434	79.999	19.995	103.239	20.052	3.756	0.519
129.000	143.737	79.999	19.995	103.239	20.052	3.721	0.518
129.500	143.931	79.998	19.996	103.240	20.051	3.802	0.512
130.000	144.227	79.997	19.994	103.235	20.052	3.728	0.493
130.500	144.486	79.997	19.995	103.232	20.053	3.644	0.522
131.000	144.702	79.997	19.995	103.227	20.055	3.503	0.515
131.500	144.973	79.998	19.994	103.223	20.055	3.510	0.481
132.000	145.224	79.998	19.995	103.219	20.052	3.741	0.505
132.500	145.505	79.998	19.995	103.224	20.052	3.752	0.527
133.000	145.749	79.998	19.995	103.227	20.054	3.589	0.528
133.500	145.993	79.997	19.994	103.229	20.054	3.611	0.507
134.000	146.241	79.999	19.994	103.226	20.054	3.620	0.490
134.500	146.518	79.998	19.995	103.222	20.054	3.605	0.508
135.000	146.755	79.999	19.995	103.215	20.053	3.677	0.519
135.500	147.034	79.997	19.994	103.210	20.055	3.563	0.515
136.000	147.267	79.999	19.994	103.212	20.053	3.686	0.514
136.501	147.522	79.999	19.995	103.217	20.054	3.618	0.500
137.000	147.800	80.000	19.995	103.220	20.053	3.686	0.510
137.500	148.003	79.999	19.995	103.224	20.057	3.430	0.507
138.000	148.267	79.997	19.995	103.229	20.056	3.468	0.474
138.500	148.527	79.999	19.995	103.227	20.054	3.600	0.496
139.000	148.844	79.999	19.994	103.222	20.054	3.624	0.551
139.500	149.125	79.999	19.995	103.218	20.059	3.261	0.588
140.000	149.324	79.999	19.994	103.213	20.056	3.479	0.539
140.500	149.599	79.999	19.996	103.209	20.054	3.627	0.477
141.000	149.868	79.999	19.996	103.209	20.053	3.635	0.509
141.500	150.131	79.998	19.995	103.209	20.061	3.141	0.538
142.000	150.387	79.999	19.995	103.209	20.058	3.321	0.526
142.500	150.600	79.999	19.996	103.209	20.054	3.569	0.494
143.000	150.860	79.999	19.995	103.207	20.055	3.525	0.471
143.501	151.095	79.998	19.995	103.208	20.053	3.675	0.484
144.000	151.418	79.999	19.994	103.209	20.054	3.624	0.526
144.500	151.648	79.999	19.994	103.209	20.056	3.468	0.555
145.000	151.937	79.999	19.995	103.209	20.054	3.589	0.536
145.500	152.180	79.999	19.995	103.208	20.054	3.567	0.526
146.000	152.400	80.000	19.997	103.203	20.056	3.446	0.498
146.500	152.656	79.999	19.996	103.202	20.055	3.512	0.470
147.000	152.919	79.999	19.995	103.204	20.058	3.321	0.498
147.500	153.191	79.999	19.995	103.207	20.058	3.349	0.526
148.000	153.470	79.998	19.994	103.210	20.054	3.591	0.543
148.500	153.702	79.999	19.995	103.210	20.057	3.424	0.531
149.000	153.967	79.998	19.995	103.211	20.056	3.493	0.504
149.500	154.213	79.999	19.996	103.209	20.058	3.336	0.504
150.000	154.473	79.999	19.994	103.206	20.059	3.271	0.508
150.500	154.736	79.999	19.995	103.203	20.059	3.233	0.514
151.000	154.996	79.998	19.996	103.202	20.061	3.097	0.524
151.500	155.217	79.998	19.994	103.201	20.057	3.372	0.503
152.000	155.529	79.998	19.995	103.202	20.059	3.295	0.507
152.500	155.780	79.998	19.994	103.202	20.062	3.088	0.548
153.000	156.000	79.998	19.995	103.203	20.061	3.138	0.517
153.500	156.286	79.996	19.995	103.203	20.061	3.119	0.488
154.000	156.515	79.997	19.995	103.203	20.059	3.240	0.511
154.500	156.778	79.998	19.994	103.203	20.061	3.130	0.504
155.000	157.058	79.998	19.995	103.202	20.058	3.313	0.518
155.500	157.290	79.998	19.995	103.197	20.062	3.086	0.527
156.000	157.579	79.997	19.995	103.196	20.058	3.313	0.517
156.500	157.803	79.998	19.995	103.197	20.054	3.575	0.517
157.000	158.039	79.998	19.994	103.197	20.054	3.585	0.486
157.500	158.313	79.998	19.993	103.198	20.059	3.244	0.485
158.000	158.605	79.997	19.994	103.202	20.057	3.389	0.538
158.500	158.778	79.997	19.995	103.204	20.062	3.075	0.516
159.000	159.094	79.997	19.995	103.203	20.058	3.316	0.477
159.500	159.371	79.997	19.994	103.202	20.060	3.180	0.541
160.000	159.635	79.998	19.994	103.202	20.057	3.372	0.567
160.500	159.916	79.998	19.994	103.202	20.058	3.363	0.543
161.000	160.136	79.998	19.994	103.198	20.060	3.178	0.523
161.500	160.429	79.999	19.995	103.196	20.058	3.335	0.507
162.000	160.683	79.998	19.994	103.195	20.058	3.346	0.530
162.500	160.930	79.999	19.996	103.196	20.058	3.313	0.523
163.000	161.180	79.998	19.995	103.196	20.059	3.246	0.499
163.500	161.449	79.998	19.994	103.199	20.060	3.180	0.508
164.000	161.725	80.000	19.995	103.201	20.061	3.136	0.532
164.500	161.992	79.997	19.995	103.203	20.063	3.006	0.544
165.000	162.237	79.998	19.995	103.199	20.061	3.145	0.528
165.500	162.470	80.000	19.994	103.196	20.061	3.130	0.496
166.000	162.723	80.000	19.994	103.193	20.059	3.244	0.482
166.500	162.974	80.001	19.994	103.187	20.060	3.178	0.494
167.000	163.255	79.999	19.994	103.184	20.059	3.245	0.518
167.500	163.539	80.000	19.994	103.187	20.059	3.245	0.549
168.000	163.733	79.999	19.995	103.190	20.064	2.943	0.521
168.500	164.037	80.000	19.994	103.194	20.061	3.100	0.488
169.000	164.280	80.000	19.994	103.200	20.061	3.098	0.523
169.500	164.538	79.999	19.994	103.204	20.063	2.981	0.524
170.000	164.803	79.999	19.994	103.205	20.062	3.094	0.512
170.500	165.055	80.000	19.995	103.204	20.063	2.994	0.520
171.000	165.334	80.000	19.994	103.202	20.062	3.087	0.524
171.500	165.591	80.001	19.994	103.197	20.060	3.164	0.533
172.000	165.892	80.000	19.994	103.193	20.062	3.087	0.547
172.501	166.109	79.999	19.993	103.187	20.062	3.052	0.538
173.000	166.350	80.001	19.994	103.186	20.061	3.114	0.488
173.500	166.616	79.999	19.995	103.188	20.063	3.004	0.482
174.000	166.843	80.000	19.993	103.193	20.067	2.713	0.500
174.500	167.116	80.000	19.995	103.196	20.065	2.893	0.497
175.000	167.370	80.000	19.995	103.200	20.065	2.874	0.513
175.500	167.615	80.001	19.995	103.198	20.061	3.114	0.513
176.000	167.910	80.001	19.995	103.193	20.063	3.015	0.520
176.500	168.159	80.000	19.996	103.190	20.063	2.973	0.543
177.000	168.383	79.998	19.995	103.188	20.064	2.955	0.508
177.500	168.661	79.999	19.995	103.188	20.063	2.966	0.487
178.000	168.890	80.000	19.996	103.187	20.059	3.274	0.505
178.500	169.135	79.996	19.996	103.184	20.062	3.091	0.491
179.000	169.412	79.999	19.995	103.179	20.064	2.935	0.498
179.500	169.706	80.000	19.996	103.173	20.059	3.283	0.547
180.000	169.962	79.999	19.995	103.167	20.063	3.021	0.561
180.500	170.166	80.000	19.995	103.163	20.062	3.079	0.505
181.000	170.445	80.000	19.995	103.166	20.062	3.088	0.471
181.500	170.713	79.999	19.997	103.166	20.064	2.899	0.515
182.000	170.947	79.999	19.996	103.165	20.068	2.637	0.525
182.500	171.184	79.998	19.996	103.164	20.064	2.909	0.487
183.000	171.457	79.998	19.996	103.163	20.062	3.059	0.490
183.500	171.715	79.999	19.995	103.158	20.061	3.129	0.520
184.000	171.938	80.000	19.996	103.157	20.064	2.956	0.506
184.500	172.189	79.998	19.996	103.157	20.061	3.136	0.478
185.000	172.439	79.999	19.994	103.157	20.064	2.937	0.488
185.500	172.702	79.999	19.995	103.157	20.064	2.934	0.507
186.000	172.943	79.999	19.995	103.158	20.064	2.961	0.508
186.500	173.208	79.999	19.996	103.160	20.064	2.895	0.505
187.000	173.477	79.999	19.995	103.162	20.064	2.900	0.520
187.500	173.722	80.001	19.995	103.163	20.063	2.968	0.524
188.000	173.972	80.001	19.995	103.163	20.065	2.881	0.505
188.500	174.236	79.999	19.994	103.165	20.064	2.955	0.505
189.000	174.508	80.001	19.996	103.164	20.067	2.707	0.525
189.500	174.712	79.998	19.995	103.163	20.066	2.824	0.506
190.000	174.963	80.000	19.994	103.166	20.065	2.848	0.465
190.500	175.186	80.001	19.995	103.173	20.067	2.716	0.464
191.000	175.467	79.999	19.994	103.179	20.065	2.859	0.489
191.500	175.732	80.000	19.994	103.187	20.066	2.775	0.526
192.000	175.943	79.998	19.994	103.194	20.066	2.819	0.511
192.501	176.217	80.001	19.995	103.201	20.062	3.068	0.480
193.000	176.461	80.001	19.995	103.204	20.068	2.661	0.502
193.500	176.678	80.000	19.996	103.204	20.066	2.806	0.490
194.000	176.990	80.001	19.996	103.204	20.066	2.808	0.495
194.500	177.239	80.000	19.995	103.203	20.067	2.713	0.545
195.000	177.459	80.001	19.994	103.201	20.068	2.639	0.515
195.500	177.734	80.001	19.995	103.197	20.068	2.669	0.482
196.000	177.996	80.003	19.995	103.192	20.067	2.731	0.516
196.500	178.271	80.000	19.995	103.185	20.063	2.975	0.537
197.000	178.515	80.000	19.996	103.177	20.063	2.968	0.528
197.500	178.770	79.999	19.995	103.168	20.067	2.716	0.509
198.000	179.004	80.000	19.995	103.160	20.062	3.032	0.494
198.501	179.232	80.002	19.994	103.155	20.065	2.850	0.476
199.000	179.461	80.000	19.995	103.149	20.066	2.775	0.460
199.500	179.726	80.000	19.995	103.147	20.068	2.693	0.476
200.000	179.996	80.002	19.995	103.147	20.065	2.838	0.515
200.500	180.215	80.000	19.995	103.142	20.065	2.867	0.512
201.000	180.441	80.000	19.996	103.142	20.065	2.876	0.467
201.500	180.717	80.002	19.995	103.145	20.063	2.966	0.474
202.000	180.936	80.000	19.994	103.140	20.062	3.080	0.499
202.500	181.212	79.999	19.994	103.139	20.065	2.878	0.495
203.000	181.489	80.000	19.996	103.145	20.064	2.922	0.524
203.500	181.694	80.000	19.995	103.147	20.064	2.958	0.517
204.000	181.951	79.999	19.995	103.148	20.065	2.885	0.472
204.500	182.217	80.000	19.997	103.149	20.066	2.810	0.493
205.000	182.450	79.999	19.995	103.150	20.065	2.887	0.511
205.500	182.710	79.998	19.996	103.151	20.065	2.832	0.496
206.000	182.925	79.996	19.996	103.152	20.061	3.098	0.484
206.500	183.178	79.999	19.995	103.154	20.062	3.064	0.472
207.000	183.404	79.997	19.997	103.160	20.062	3.077	0.474
207.501	183.673	79.999	19.996	103.156	20.064	2.904	0.487
208.000	183.884	79.998	19.996	103.154	20.065	2.886	0.487
208.500	184.131	79.998	19.996	103.153	20.061	3.108	0.469
209.000	184.437	79.999	19.995	103.157	20.064	2.957	0.505
209.500	184.692	79.997	19.996	103.157	20.062	3.051	0.557
210.000	184.901	79.997	19.996	103.161	20.068	2.686	0.513
210.500	185.169	79.998	19.996	103.163	20.062	3.061	0.471
211.000	185.394	79.998	19.996	103.163	20.064	2.930	0.485
211.500	185.654	79.998	19.997	103.160	20.063	3.003	0.489
212.000	185.929	79.998	19.995	103.160	20.064	2.937	0.510
212.500	186.143	79.997	19.996	103.159	20.066	2.803	0.512
213.000	186.411	79.999	19.996	103.158	20.066	2.815	0.486
213.500	186.642	79.997	19.996	103.153	20.063	2.984	0.490
214.000	186.917	79.997	19.996	103.146	20.064	2.932	0.502
214.500	187.143	79.998	19.996	103.138	20.066	2.807	0.504
215.000	187.397	79.998	19.998	103.137	20.062	3.039	0.491
215.500	187.653	79.998	19.996	103.138	20.065	2.843	0.495
216.000	187.877	79.998	19.996	103.146	20.062	3.041	0.495
216.500	188.122	79.998	19.996	103.156	20.063	2.979	0.474
217.000	188.358	79.997	19.995	103.168	20.063	2.968	0.475
217.500	188.621	79.997	19.995	103.175	20.067	2.719	0.490
218.000	188.872	79.997	19.995	103.183	20.067	2.754	0.507
218.501	189.109	79.998	19.995	103.186	20.068	2.684	0.501
219.000	189.332	79.997	19.996	103.191	20.067	2.701	0.474
219.500	189.587	79.999	19.995	103.190	20.068	2.684	0.469
220.000	189.870	79.998	19.996	103.186	20.067	2.752	0.508
220.500	190.090	79.999	19.994	103.179	20.067	2.708	0.520
221.000	190.316	79.998	19.995	103.174	20.067	2.711	0.475
221.500	190.619	80.000	19.995	103.169	20.065	2.889	0.488
222.000	190.861	79.998	19.995	103.169	20.065	2.849	0.537
222.500	191.033	79.998	19.993	103.168	20.064	2.895	0.480
223.000	191.310	79.999	19.995	103.167	20.065	2.832	0.432
223.500	191.552	79.999	19.994	103.163	20.065	2.873	0.484
224.000	191.790	79.998	19.994	103.154	20.062	3.063	0.499
224.500	192.032	79.999	19.994	103.144	20.068	2.640	0.480
225.000	192.320	79.999	19.995	103.136	20.065	2.876	0.505
225.500	192.543	79.998	19.994	103.132	20.066	2.799	0.521
226.000	192.746	79.999	19.994	103.135	20.064	2.930	0.469
226.500	193.011	79.999	19.994	103.141	20.067	2.721	0.447
227.000	193.259	79.999	19.995	103.148	20.062	3.065	0.491
227.500	193.491	79.999	19.995	103.156	20.067	2.697	0.497
228.000	193.748	79.999	19.994	103.162	20.066	2.772	0.484
228.500	193.998	79.998	19.995	103.169	20.065	2.836	0.498
229.000	194.209	79.998	19.994	103.173	20.066	2.794	0.484
229.500	194.472	79.998	19.994	103.174	20.066	2.788	0.468
230.000	194.724	79.999	19.994	103.175	20.067	2.730	0.495
230.500	194.965	79.998	19.995	103.174	20.068	2.653	0.505
231.000	195.234	79.998	19.994	103.167	20.069	2.599	0.502
231.500	195.499	80.000	19.995	103.165	20.067	2.755	0.522
232.000	195.711	79.999	19.995	103.164	20.070	2.559	0.505
232.500	195.950	79.998	19.995	103.163	20.065	2.836	0.464
233.000	196.234	79.999	19.995	103.163	20.064	2.927	0.487
233.500	196.425	79.999	19.994	103.164	20.069	2.568	0.499
234.000	196.704	79.999	19.994	103.163	20.071	2.476	0.472
234.500	196.920	79.999	19.994	103.164	20.066	2.762	0.482
235.000	197.176	79.998	19.994	103.166	20.066	2.775	0.483
235.500	197.412	79.998	19.994	103.169	20.068	2.641	0.482
236.000	197.645	79.998	19.995	103.169	20.069	2.603	0.480
236.500	197.895	79.999	19.995	103.172	20.067	2.713	0.476
237.000	198.153	79.998	19.994	103.175	20.071	2.485	0.496
237.500	198.385	79.998	19.995	103.174	20.068	2.665	0.499
238.000	198.662	79.998	19.994	103.172	20.069	2.564	0.500
238.500	198.881	79.998	19.994	103.173	20.071	2.482	0.502
239.000	199.146	79.998	19.995	103.169	20.070	2.540	0.490
239.500	199.420	79.997	19.995	103.167	20.071	2.462	0.511
240.000	199.630	79.997	19.995	103.164	20.070	2.555	0.512
240.500	199.866	79.997	19.995	103.164	20.069	2.612	0.465
241.000	200.116	79.998	19.995	103.163	20.069	2.599	0.466
241.500	200.349	79.998	19.994	103.163	20.067	2.744	0.484
242.000	200.598	79.999	19.995	103.162	20.072	2.388	0.483
242.500	200.872	79.999	19.994	103.162	20.068	2.669	0.503
243.000	201.095	79.998	19.995	103.159	20.066	2.812	0.510
243.500	201.309	79.997	19.995	103.154	20.068	2.665	0.467
244.000	201.558	79.997	19.996	103.149	20.067	2.724	0.450
244.500	201.796	79.997	19.994	103.147	20.070	2.549	0.475
245.000	202.032	79.999	19.994	103.145	20.069	2.617	0.480
245.500	202.311	79.998	19.995	103.147	20.067	2.718	0.494
246.000	202.563	79.997	19.995	103.151	20.070	2.502	0.523
246.500	202.806	79.998	19.995	103.156	20.073	2.344	0.513
247.000	203.041	79.999	19.993	103.158	20.069	2.594	0.487
247.500	203.271	79.999	19.995	103.159	20.072	2.399	0.471
248.000	203.508	79.999	19.995	103.154	20.068	2.689	0.466
248.500	203.782	79.998	19.995	103.148	20.068	2.678	0.489
249.000	204.035	80.000	19.995	103.146	20.068	2.634	0.519
249.500	204.289	80.000	19.995	103.143	20.068	2.665	0.517
250.000	204.514	80.000	19.994	103.143	20.069	2.613	0.493
250.500	204.762	80.001	19.994	103.148	20.067	2.700	0.476
251.000	205.045	79.999	19.994	103.155	20.068	2.661	0.502
251.500	205.245	79.999	19.995	103.155	20.066	2.806	0.507
252.000	205.514	79.999	19.994	103.152	20.069	2.562	0.476
252.500	205.750	80.001	19.994	103.149	20.068	2.657	0.487
253.000	206.000	80.002	19.994	103.149	20.068	2.683	0.496
253.500	206.257	80.000	19.995	103.150	20.069	2.616	0.496
254.000	206.482	80.001	19.995	103.150	20.068	2.680	0.494
254.500	206.766	79.999	19.994	103.149	20.071	2.454	0.495
255.000	206.985	80.002	19.995	103.146	20.068	2.649	0.506
255.500	207.189	80.000	19.994	103.140	20.072	2.403	0.463
256.000	207.471	79.999	19.995	103.139	20.068	2.630	0.454
256.500	207.708	80.001	19.995	103.141	20.070	2.539	0.503
257.000	207.994	80.002	19.994	103.147	20.073	2.330	0.522
257.500	208.213	80.001	19.995	103.153	20.070	2.546	0.514
258.000	208.450	80.001	19.994	103.159	20.070	2.498	0.480
258.500	208.733	80.001	19.996	103.160	20.072	2.368	0.488
259.000	208.978	80.001	19.994	103.158	20.071	2.438	0.524
259.500	209.221	80.000	19.995	103.150	20.075	2.218	0.508
260.000	209.488	80.001	19.995	103.148	20.070	2.548	0.499
260.500	209.678	79.999	19.995	103.147	20.071	2.487	0.483
261.001	209.956	80.000	19.995	103.140	20.069	2.590	0.462
261.500	210.213	80.000	19.995	103.138	20.070	2.528	0.502
262.000	210.435	80.000	19.995	103.140	20.069	2.616	0.507
262.500	210.671	80.000	19.994	103.136	20.073	2.337	0.468
263.000	210.919	80.000	19.994	103.134	20.075	2.218	0.470
263.500	211.152	80.000	19.995	103.139	20.071	2.440	0.482
264.000	211.405	80.000	19.994	103.144	20.074	2.279	0.484
264.500	211.653	80.001	19.995	103.149	20.073	2.350	0.494
265.000	211.927	79.999	19.994	103.156	20.068	2.682	0.512
265.500	212.121	80.000	19.995	103.160	20.074	2.288	0.495
266.000	212.382	79.999	19.995	103.162	20.070	2.542	0.461
266.500	212.653	80.000	19.995	103.162	20.070	2.507	0.493
267.000	212.885	80.000	19.995	103.161	20.069	2.564	0.517
267.500	213.119	80.000	19.995	103.160	20.071	2.476	0.485
268.000	213.380	80.000	19.995	103.158	20.070	2.493	0.481
268.500	213.640	79.998	19.996	103.157	20.071	2.443	0.508
269.000	213.889	79.999	19.995	103.156	20.074	2.258	0.514
269.500	214.125	79.999	19.995	103.156	20.070	2.557	0.497
270.000	214.388	80.001	19.995	103.157	20.071	2.478	0.492
270.500	214.648	80.001	19.995	103.158	20.070	2.506	0.512
271.000	214.887	80.000	19.994	103.157	20.071	2.483	0.511
271.500	215.126	79.999	19.996	103.154	20.074	2.256	0.488
272.000	215.340	80.000	19.995	103.153	20.069	2.564	0.465
272.500	215.606	80.001	19.995	103.153	20.074	2.267	0.467
273.000	215.862	80.000	19.996	103.154	20.071	2.461	0.501
273.500	216.096	80.000	19.995	103.155	20.073	2.292	0.506
274.000	216.340	80.000	19.996	103.159	20.071	2.450	0.484
274.500	216.576	80.000	19.996	103.160	20.072	2.368	0.479
275.000	216.835	80.001	19.995	103.160	20.072	2.388	0.488
275.500	217.119	80.002	19.996	103.159	20.072	2.397	0.519
276.000	217.391	80.000	19.996	103.158	20.072	2.373	0.549
276.501	217.608	80.002	19.995	103.158	20.073	2.320	0.522
277.000	217.860	80.001	19.996	103.155	20.071	2.474	0.480
277.500	218.102	80.002	19.996	103.148	20.074	2.247	0.482
278.000	218.334	80.001	19.996	103.146	20.073	2.336	0.484
278.501	218.599	80.002	19.996	103.145	20.074	2.250	0.485
279.001	218.857	80.001	19.995	103.144	20.073	2.316	0.510
279.500	219.095	80.001	19.996	103.149	20.077	2.069	0.509
280.000	219.337	80.002	19.995	103.156	20.073	2.311	0.488
280.500	219.538	80.002	19.995	103.157	20.073	2.335	0.462
281.000	219.794	80.002	19.995	103.154	20.073	2.311	0.450
281.500	220.074	80.002	19.995	103.150	20.074	2.248	0.496
282.000	220.305	80.003	19.995	103.142	20.072	2.395	0.524
282.500	220.564	80.002	19.995	103.134	20.073	2.347	0.501
283.000	220.791	80.001	19.995	103.128	20.069	2.577	0.488
283.500	221.038	80.001	19.995	103.127	20.071	2.445	0.480
284.000	221.295	80.002	19.995	103.127	20.068	2.661	0.489
284.500	221.529	80.001	19.994	103.126	20.069	2.606	0.498
285.000	221.767	80.000	19.996	103.127	20.067	2.755	0.482
285.500	222.040	80.001	19.995	103.126	20.069	2.575	0.491
286.000	222.272	79.999	19.995	103.124	20.068	2.674	0.508
286.500	222.534	79.999	19.995	103.126	20.070	2.493	0.500
287.000	222.766	80.001	19.995	103.129	20.070	2.531	0.494
287.500	223.003	79.999	19.994	103.129	20.070	2.540	0.481
288.000	223.282	80.000	19.994	103.130	20.072	2.368	0.492
288.500	223.504	79.999	19.995	103.131	20.070	2.520	0.509
289.000	223.766	79.999	19.995	103.130	20.067	2.712	0.493
289.500	224.039	79.998	19.995	103.131	20.067	2.712	0.509
290.000	224.264	79.998	19.995	103.135	20.073	2.329	0.516
290.500	224.535	79.998	19.995	103.135	20.071	2.472	0.497
291.001	224.801	79.998	19.996	103.135	20.068	2.652	0.517
291.501	225.033	79.999	19.995	103.133	20.071	2.435	0.517
292.000	225.280	79.997	19.996	103.129	20.069	2.571	0.488
292.500	225.564	79.999	19.996	103.126	20.069	2.569	0.505
293.000	225.777	79.998	19.995	103.128	20.069	2.578	0.514
293.500	226.024	79.997	19.996	103.127	20.071	2.457	0.478
294.000	226.277	79.997	19.995	103.130	20.072	2.406	0.480
294.500	226.541	79.998	19.995	103.136	20.065	2.829	0.508
295.000	226.749	79.998	19.995	103.140	20.069	2.569	0.495
295.500	227.022	79.998	19.994	103.140	20.067	2.730	0.477
296.000	227.232	79.997	19.996	103.146	20.075	2.216	0.482
296.500	227.496	79.998	19.995	103.144	20.066	2.800	0.478
297.000	227.738	79.997	19.996	103.140	20.068	2.639	0.490
297.500	227.947	79.998	19.995	103.140	20.072	2.419	0.478
298.000	228.227	79.998	19.996	103.143	20.070	2.505	0.470
298.500	228.513	79.997	19.995	103.140	20.072	2.368	0.528
299.000	228.766	79.996	19.995	103.140	20.073	2.330	0.553
299.500	229.008	79.998	19.996	103.139	20.073	2.309	0.517
300.000	229.259	79.998	19.996	103.136	20.070	2.518	0.494
300.500	229.570	79.997	19.996	103.133	20.072	2.385	0.528
301.000	229.765	79.997	19.996	103.131	20.073	2.344	0.534
301.500	230.028	79.997	19.995	103.129	20.074	2.273	0.482
302.000	230.331	79.997	19.995	103.127	20.072	2.384	0.512
302.500	230.510	79.998	19.995	103.125	20.074	2.252	0.524
303.000	230.748	79.997	19.995	103.127	20.070	2.514	0.449
303.500	231.017	79.998	19.996	103.128	20.073	2.324	0.462
304.000	231.265	79.996	19.997	103.128	20.073	2.338	0.513
304.500	231.472	79.997	19.995	103.129	20.071	2.428	0.486
305.001	231.756	79.998	19.996	103.131	20.073	2.316	0.473
305.501	232.017	79.999	19.996	103.128	20.071	2.446	0.518
306.000	232.282	79.998	19.997	103.128	20.071	2.426	0.536
306.500	232.496	79.999	19.996	103.130	20.071	2.467	0.502
307.000	232.743	79.996	19.995	103.130	20.073	2.317	0.470
307.500	232.924	79.997	19.995	103.128	20.072	2.421	0.445
308.000	233.354	79.998	19.998	103.130	20.069	2.577	0.519
308.500	233.353	79.998	19.998	103.130	20.072	2.412	0.520
309.000	233.748	79.998	19.998	103.133	20.072	2.407	0.412
309.500	233.948	79.998	19.997	103.140	20.074	2.254	0.495
310.000	234.488	79.998	19.997	103.145	20.075	2.188	0.667
310.500	234.581	80.000	19.997	103.147	20.077	2.054	0.687
311.000	234.620	79.999	19.996	103.147	20.069	2.573	0.383
311.500	234.972	79.999	19.995	103.147	20.073	2.311	0.261
312.000	235.338	79.997	19.996	103.144	20.072	2.358	0.554
312.500	235.431	79.998	19.997	103.138	20.074	2.236	0.588
313.000	235.754	79.998	19.996	103.134	20.072	2.368	0.438
313.500	236.021	79.999	19.996	103.135	20.075	2.175	0.503
314.000	236.194	79.998	19.995	103.132	20.076	2.108	0.515
314.500	236.508	79.998	19.995	103.131	20.074	2.258	0.464
315.000	236.671	79.999	19.995	103.131	20.074	2.276	0.482
315.500	236.973	79.997	19.995	103.129	20.077	2.082	0.470
316.000	237.188	79.998	19.995	103.127	20.078	1.981	0.490
316.500	237.479	79.999	19.995	103.133	20.077	2.085	0.512
317.000	237.667	79.998	19.995	103.133	20.075	2.190	0.493
317.500	238.009	79.998	19.994	103.134	20.077	2.074	0.505
318.000	238.182	79.998	19.994	103.140	20.078	1.959	0.522
318.500	238.493	79.999	19.996	103.142	20.077	2.039	0.499
319.000	238.717	79.999	19.995	103.142	20.075	2.221	0.510
319.500	238.932	80.000	19.995	103.147	20.075	2.190	0.487
320.000	239.172	79.998	19.996	103.150	20.075	2.208	0.447
320.500	239.445	79.997	19.996	103.148	20.076	2.120	0.484
321.000	239.737	79.998	19.996	103.145	20.077	2.071	0.539
321.500	239.905	79.998	19.995	103.139	20.074	2.248	0.512
322.000	240.155	79.998	19.995	103.133	20.075	2.195	0.439
322.500	240.396	79.998	19.995	103.129	20.076	2.107	0.455
323.000	240.677	79.998	19.995	103.128	20.075	2.221	0.507
323.500	240.948	79.997	19.994	103.130	20.076	2.157	0.537
324.000	241.154	79.999	19.996	103.131	20.079	1.922	0.515
324.500	241.407	79.999	19.996	103.132	20.076	2.142	0.468
325.000	241.631	79.997	19.995	103.135	20.076	2.093	0.468
325.500	241.894	79.998	19.996	103.136	20.076	2.128	0.482
326.000	242.189	79.998	19.995	103.133	20.075	2.205	0.523
326.500	242.435	79.998	19.996	103.132	20.076	2.139	0.550
327.000	242.650	79.997	19.996	103.130	20.079	1.904	0.500
327.500	242.918	79.999	19.996	103.127	20.079	1.944	0.472
328.000	243.166	79.999	19.995	103.125	20.077	2.051	0.500
328.500	243.417	79.998	19.996	103.123	20.075	2.170	0.508
329.000	243.650	79.999	19.995	103.122	20.077	2.067	0.492
329.500	243.944	79.997	19.994	103.122	20.074	2.259	0.505
330.000	244.194	80.000	19.995	103.120	20.078	1.986	0.535
330.500	244.404	80.000	19.995	103.120	20.076	2.111	0.502
331.000	244.643	80.000	19.995	103.122	20.078	1.973	0.454
331.500	244.899	80.000	19.994	103.122	20.078	1.957	0.472
332.000	245.137	80.000	19.996	103.121	20.076	2.127	0.495
332.500	245.413	80.000	19.995	103.121	20.079	1.909	0.504
333.000	245.634	79.999	19.994	103.121	20.080	1.854	0.505
333.500	245.881	79.999	19.996	103.120	20.079	1.933	0.482
334.000	246.141	80.000	19.995	103.121	20.078	1.983	0.488
334.500	246.358	80.000	19.995	103.122	20.078	1.975	0.492
335.000	246.644	80.000	19.996	103.126	20.079	1.904	0.490
335.500	246.851	79.998	19.995	103.128	20.076	2.093	0.497
336.000	247.129	80.001	19.995	103.128	20.076	2.102	0.489
336.500	247.383	79.999	19.995	103.128	20.079	1.913	0.509
337.000	247.593	80.000	19.995	103.130	20.078	1.990	0.498
337.500	247.873	79.998	19.996	103.129	20.078	2.010	0.477
338.000	248.110	80.000	19.996	103.129	20.081	1.779	0.504
338.500	248.338	80.000	19.995	103.132	20.075	2.166	0.491
339.000	248.608	80.001	19.995	103.132	20.077	2.047	0.481
339.500	248.862	80.000	19.995	103.130	20.077	2.025	0.511
340.000	249.082	80.000	19.994	103.125	20.078	1.972	0.499
340.500	249.344	79.999	19.995	103.123	20.076	2.105	0.478
341.000	249.604	79.999	19.995	103.120	20.079	1.950	0.502
341.500	249.876	79.999	19.995	103.119	20.076	2.148	0.527
342.000	250.112	79.999	19.994	103.119	20.079	1.904	0.520
342.500	250.349	80.001	19.995	103.120	20.076	2.106	0.491
343.000	250.640	79.999	19.995	103.120	20.075	2.185	0.500
343.500	250.834	79.999	19.995	103.120	20.078	2.016	0.506
344.000	251.122	79.999	19.995	103.119	20.075	2.212	0.483
344.500	251.366	79.999	19.994	103.119	20.079	1.913	0.507
345.000	251.615	80.000	19.995	103.119	20.076	2.135	0.513
345.500	251.862	79.999	19.995	103.120	20.076	2.153	0.495
346.000	252.136	79.999	19.994	103.120	20.076	2.113	0.508
346.500	252.361	80.000	19.996	103.122	20.079	1.898	0.510
347.000	252.596	79.999	19.994	103.123	20.081	1.801	0.479
347.500	252.882	79.999	19.995	103.123	20.083	1.644	0.491
348.000	253.110	80.000	19.995	103.123	20.078	2.008	0.518
348.500	253.351	79.999	19.995	103.123	20.079	1.900	0.492
349.000	253.583	79.999	19.995	103.123	20.079	1.898	0.471
349.500	253.871	79.999	19.994	103.124	20.078	2.023	0.496
350.000	254.105	80.000	19.996	103.124	20.080	1.832	0.521
350.500	254.353	80.001	19.995	103.124	20.076	2.091	0.502
351.000	254.565	80.000	19.995	103.125	20.080	1.878	0.471
351.500	254.799	79.998	19.995	103.125	20.080	1.842	0.453
352.000	255.061	80.000	19.994	103.125	20.076	2.111	0.471
352.500	255.308	79.999	19.995	103.128	20.077	2.071	0.503
353.000	255.558	79.998	19.994	103.134	20.079	1.930	0.504
353.500	255.795	80.002	19.996	103.137	20.081	1.765	0.492
354.000	256.098	80.000	19.995	103.144	20.080	1.833	0.513
354.500	256.328	79.999	19.995	103.149	20.078	1.994	0.536
355.000	256.571	79.998	19.995	103.148	20.079	1.926	0.503
355.500	256.853	79.999	19.994	103.144	20.079	1.946	0.499
356.000	257.037	80.001	19.995	103.141	20.080	1.865	0.495
356.500	257.323	80.000	19.994	103.133	20.078	1.992	0.468
357.000	257.540	80.002	19.994	103.129	20.079	1.941	0.487
357.500	257.852	80.001	19.995	103.126	20.078	1.988	0.516
358.000	258.099	80.001	19.993	103.125	20.077	2.065	0.544
358.500	258.310	80.001	19.994	103.128	20.081	1.814	0.508
359.000	258.532	80.001	19.995	103.127	20.078	1.988	0.445
359.500	258.785	80.002	19.995	103.127	20.081	1.814	0.454
360.000	259.040	80.000	19.994	103.128	20.078	2.014	0.491
360.500	259.299	80.001	19.994	103.127	20.081	1.761	0.511
361.000	259.559	80.000	19.994	103.124	20.080	1.841	0.517
361.500	259.806	80.001	19.995	103.123	20.077	2.056	0.513
362.000	260.077	80.001	19.994	103.122	20.079	1.928	0.512
362.500	260.273	80.001	19.994	103.122	20.077	2.076	0.492
363.000	260.535	80.002	19.995	103.122	20.076	2.109	0.463
363.500	260.785	80.000	19.995	103.123	20.077	2.056	0.486
364.000	261.028	80.002	19.994	103.126	20.078	1.957	0.503
364.500	261.257	80.001	19.994	103.128	20.077	2.032	0.482
365.000	261.508	80.001	19.995	103.129	20.074	2.250	0.476
365.500	261.779	80.001	19.994	103.129	20.077	2.089	0.501
366.000	262.033	80.000	19.995	103.128	20.079	1.933	0.523
366.500	262.291	79.999	19.995	103.126	20.075	2.172	0.519
367.000	262.507	80.001	19.995	103.125	20.077	2.080	0.493
367.500	262.769	79.999	19.995	103.123	20.075	2.183	0.476
368.000	263.006	80.000	19.994	103.123	20.074	2.225	0.489
368.500	263.304	80.000	19.994	103.123	20.076	2.106	0.517
369.000	263.511	79.999	19.994	103.123	20.078	1.961	0.520
369.500	263.747	79.998	19.995	103.124	20.076	2.157	0.474
370.000	264.007	79.998	19.994	103.124	20.078	2.010	0.470
370.500	264.259	79.996	19.995	103.124	20.076	2.091	0.505
371.000	264.513	79.998	19.995	103.124	20.077	2.028	0.509
371.500	264.770	79.996	19.995	103.122	20.077	2.036	0.508
372.000	265.000	79.997	19.995	103.118	20.075	2.215	0.499
372.500	265.233	79.998	19.997	103.118	20.078	1.972	0.475
373.000	265.492	79.996	19.996	103.118	20.077	2.078	0.477
373.500	265.727	79.998	19.996	103.119	20.077	2.076	0.493
374.000	265.968	79.998	19.997	103.120	20.079	1.908	0.485
374.500	266.202	79.999	19.996	103.121	20.080	1.834	0.476
375.000	266.464	79.998	19.997	103.121	20.076	2.118	0.486
375.500	266.685	79.997	19.995	103.121	20.076	2.120	0.490
376.000	266.947	79.997	19.996	103.120	20.076	2.140	0.483
376.500	267.170	79.998	19.995	103.121	20.078	1.983	0.484
377.000	267.436	79.998	19.995	103.126	20.076	2.098	0.487
377.500	267.718	79.998	19.995	103.131	20.077	2.025	0.519
378.000	267.969	79.998	19.995	103.133	20.075	2.190	0.540
378.500	268.198	79.998	19.995	103.133	20.072	2.375	0.506
379.000	268.423	79.998	19.995	103.132	20.073	2.307	0.467
379.500	268.649	79.999	19.994	103.128	20.076	2.109	0.452
380.000	268.905	79.999	19.995	103.123	20.077	2.025	0.467
380.500	269.137	79.998	19.995	103.121	20.077	2.027	0.485
381.000	269.421	79.998	19.996	103.113	20.074	2.261	0.502
381.500	269.691	79.998	19.995	103.110	20.074	2.241	0.535
382.000	269.939	79.998	19.994	103.109	20.077	2.047	0.535
382.500	270.195	79.998	19.996	103.108	20.075	2.223	0.511
383.000	270.481	79.999	19.995	103.109	20.074	2.246	0.523
383.500	270.728	79.998	19.995	103.116	20.076	2.147	0.538
384.000	271.003	79.999	19.994	103.119	20.074	2.228	0.528
384.500	271.256	79.999	19.995	103.122	20.077	2.050	0.525
385.000	271.498	79.998	19.995	103.122	20.077	2.041	0.511
385.500	271.764	80.000	19.996	103.121	20.074	2.263	0.502
386.000	271.974	80.000	19.995	103.121	20.079	1.907	0.492
386.500	272.279	80.000	19.995	103.119	20.080	1.825	0.495
387.000	272.513	79.999	19.994	103.119	20.075	2.164	0.527
387.500	272.771	79.999	19.995	103.119	20.076	2.100	0.515
388.000	272.992	79.999	19.995	103.118	20.074	2.267	0.485
388.500	273.232	80.000	19.996	103.118	20.078	2.001	0.470
389.000	273.504	79.999	19.995	103.121	20.080	1.823	0.486
389.500	273.741	80.001	19.996	103.121	20.077	2.059	0.511
390.000	273.989	79.999	19.995	103.121	20.078	1.981	0.497
390.500	274.200	79.998	19.996	103.122	20.076	2.129	0.472
391.000	274.494	80.000	19.996	103.121	20.079	1.928	0.482
391.500	274.707	79.999	19.996	103.121	20.078	1.973	0.506
392.000	274.945	79.999	19.996	103.120	20.078	1.962	0.479
392.500	275.187	79.998	19.996	103.118	20.076	2.100	0.466
393.000	275.446	79.997	19.994	103.117	20.075	2.204	0.490
393.500	275.732	79.998	19.995	103.118	20.077	2.074	0.523
394.000	275.968	79.999	19.995	103.117	20.079	1.955	0.534
394.500	276.206	79.999	19.996	103.117	20.079	1.930	0.498
395.000	276.476	79.997	19.996	103.119	20.078	2.021	0.491
395.500	276.677	79.998	19.996	103.120	20.079	1.898	0.490
396.000	276.944	79.999	19.996	103.120	20.079	1.913	0.470
396.500	277.169	79.998	19.995	103.120	20.077	2.060	0.480
397.000	277.448	79.999	19.995	103.120	20.076	2.111	0.498
397.500	277.695	79.998	19.995	103.120	20.074	2.235	0.515
398.000	277.926	79.999	19.995	103.118	20.074	2.261	0.502
398.500	278.179	79.998	19.996	103.117	20.081	1.765	0.481
399.000	278.455	79.999	19.995	103.116	20.079	1.944	0.506
399.500	278.715	79.997	19.995	103.116	20.080	1.887	0.533
400.000	278.956	79.999	19.996	103.115	20.078	1.972	0.519
400.500	279.217	80.000	19.997	103.116	20.079	1.919	0.501
401.000	279.455	79.998	19.996	103.117	20.078	1.995	0.500
401.500	279.673	79.999	19.996	103.118	20.076	2.116	0.478
402.000	279.942	79.996	19.995	103.117	20.080	1.831	0.472
402.500	280.247	79.998	19.996	103.118	20.079	1.946	0.530
403.000	280.480	79.998	19.996	103.118	20.078	1.962	0.556
403.500	280.705	79.998	19.995	103.118	20.083	1.649	0.498
404.000	280.937	79.999	19.996	103.121	20.079	1.931	0.457
404.500	281.207	79.998	19.996	103.121	20.081	1.805	0.480
405.000	281.436	79.998	19.997	103.121	20.080	1.863	0.501
405.500	281.724	79.998	19.997	103.122	20.077	2.056	0.508
406.001	281.967	79.997	19.995	103.121	20.080	1.865	0.524
406.500	282.183	79.999	19.996	103.119	20.080	1.865	0.495
407.000	282.460	79.998	19.995	103.119	20.080	1.874	0.476
407.500	282.720	79.999	19.995	103.119	20.081	1.808	0.515
408.000	282.934	79.998	19.996	103.119	20.081	1.807	0.506
408.500	283.212	79.999	19.996	103.119	20.080	1.829	0.483
409.001	283.440	79.999	19.996	103.120	20.082	1.724	0.499
409.500	283.669	80.000	19.996	103.121	20.078	1.994	0.482
410.000	283.953	79.999	19.994	103.123	20.077	2.063	0.485
410.500	284.206	79.999	19.995	103.124	20.078	1.959	0.525
411.000	284.473	79.998	19.994	103.123	20.080	1.878	0.528
411.500	284.699	79.999	19.995	103.124	20.077	2.028	0.506
412.000	284.962	79.999	19.995	103.122	20.075	2.208	0.491
412.500	285.226	79.999	19.995	103.122	20.077	2.071	0.508
413.000	285.493	79.999	19.995	103.121	20.079	1.915	0.529
413.500	285.709	80.000	19.995	103.121	20.082	1.733	0.507
414.000	285.961	79.999	19.995	103.121	20.078	2.021	0.475
414.500	286.229	79.999	19.994	103.118	20.076	2.111	0.494
415.000	286.494	80.001	19.995	103.116	20.079	1.953	0.526
415.500	286.732	80.002	19.994	103.115	20.082	1.755	0.518
416.000	286.970	80.000	19.995	103.115	20.077	2.063	0.490
416.500	287.245	80.001	19.995	103.115	20.080	1.843	0.494
417.000	287.478	80.003	19.994	103.119	20.081	1.779	0.510
417.500	287.751	80.000	19.994	103.120	20.082	1.753	0.507
418.000	288.021	80.001	19.994	103.117	20.078	2.008	0.524
418.501	288.222	80.001	19.995	103.117	20.077	2.052	0.507
419.000	288.487	80.001	19.995	103.117	20.077	2.048	0.469
419.500	288.725	79.999	19.995	103.116	20.077	2.054	0.484
420.000	288.983	80.001	19.996	103.117	20.082	1.691	0.499
420.500	289.268	80.001	19.994	103.124	20.080	1.860	0.520
421.000	289.446	80.001	19.995	103.124	20.078	1.966	0.503
421.500	289.767	80.001	19.995	103.125	20.082	1.732	0.481
422.000	289.982	80.003	19.995	103.125	20.078	1.961	0.518
422.500	290.272	80.001	19.995	103.124	20.079	1.896	0.521
423.000	290.501	80.000	19.996	103.122	20.076	2.155	0.512
423.500	290.780	80.000	19.994	103.121	20.080	1.838	0.513
424.000	291.037	80.001	19.995	103.121	20.079	1.939	0.521
424.500	291.282	79.999	19.993	103.121	20.078	2.017	0.519
425.000	291.533	80.000	19.994	103.121	20.081	1.766	0.499
425.500	291.803	79.999	19.995	103.119	20.079	1.897	0.509
426.000	292.029	79.998	19.994	103.118	20.077	2.071	0.508
426.500	292.307	79.998	19.993	103.118	20.078	1.999	0.500
427.000	292.559	79.999	19.994	103.116	20.080	1.864	0.517
427.500	292.820	79.999	19.994	103.112	20.081	1.770	0.522
428.000	293.057	79.999	19.994	103.112	20.079	1.906	0.506
428.500	293.297	80.000	19.995	103.113	20.081	1.810	0.487
429.000	293.555	79.997	19.994	103.111	20.078	1.988	0.487
429.500	293.776	80.001	19.995	103.106	20.081	1.788	0.489
430.000	294.055	79.997	19.995	103.109	20.076	2.144	0.490
430.500	294.320	79.999	19.995	103.111	20.073	2.340	0.522
431.000	294.567	79.999	19.995	103.111	20.076	2.127	0.528
431.500	294.783	79.999	19.994	103.110	20.079	1.931	0.488
432.000	295.039	80.000	19.995	103.114	20.079	1.938	0.467
432.500	295.297	80.000	19.995	103.116	20.077	2.072	0.493
433.000	295.568	79.999	19.994	103.116	20.079	1.927	0.522
433.500	295.803	79.999	19.995	103.117	20.075	2.178	0.518
434.000	296.080	79.999	19.996	103.121	20.076	2.142	0.509
434.500	296.304	79.998	19.995	103.123	20.081	1.797	0.506
435.000	296.559	80.000	19.995	103.123	20.082	1.699	0.490
435.500	296.842	80.000	19.995	103.123	20.084	1.600	0.509
436.000	297.057	79.999	19.995	103.123	20.082	1.744	0.518
436.500	297.329	80.000	19.994	103.122	20.082	1.720	0.493
437.000	297.572	80.001	19.994	103.122	20.080	1.876	0.501
437.500	297.800	79.999	19.995	103.121	20.080	1.887	0.493
438.000	298.077	80.000	19.994	103.121	20.084	1.568	0.488
438.500	298.345	80.002	19.994	103.119	20.081	1.810	0.525
439.000	298.577	80.001	19.995	103.120	20.080	1.889	0.523
439.500	298.834	80.002	19.995	103.118	20.079	1.948	0.494
440.000	299.075	80.001	19.994	103.116	20.081	1.790	0.493
440.500	299.332	80.001	19.995	103.114	20.081	1.799	0.498
441.000	299.567	80.001	19.994	103.115	20.080	1.836	0.495
441.500	299.843	80.002	19.995	103.114	20.084	1.576	0.501
442.000	300.059	80.001	19.994	103.112	20.082	1.738	0.501
442.500	300.317	80.002	19.995	103.112	20.080	1.876	0.483
443.000	300.584	80.003	19.994	103.112	20.082	1.718	0.499
443.500	300.823	80.003	19.995	103.110	20.082	1.753	0.515
444.000	301.065	80.002	19.993	103.108	20.082	1.698	0.493
444.500	301.313	80.002	19.994	103.110	20.082	1.724	0.486
445.000	301.602	80.002	19.994	103.111	20.087	1.392	0.514
445.500	301.821	80.001	19.993	103.113	20.083	1.623	0.523
446.000	302.089	80.002	19.995	103.115	20.079	1.936	0.498
446.500	302.341	80.002	19.994	103.116	20.076	2.131	0.503
447.000	302.597	80.002	19.995	103.114	20.079	1.909	0.514
447.500	302.813	80.002	19.994	103.114	20.081	1.777	0.490
448.000	303.106	80.001	19.993	103.114	20.081	1.818	0.491
448.501	303.372	80.003	19.994	103.115	20.081	1.816	0.534
449.001	303.638	80.002	19.995	103.116	20.082	1.691	0.546
449.500	303.889	80.002	19.995	103.116	20.080	1.832	0.525
450.000	304.111	80.002	19.995	103.116	20.081	1.762	0.495
450.500	304.388	80.002	19.994	103.116	20.086	1.436	0.486
451.000	304.645	80.001	19.995	103.113	20.088	1.343	0.517
451.500	304.860	80.001	19.995	103.108	20.085	1.491	0.503
452.000	305.119	80.001	19.995	103.104	20.080	1.858	0.473
452.500	305.406	79.999	19.995	103.099	20.080	1.854	0.510
453.000	305.612	80.000	19.995	103.094	20.076	2.100	0.520
453.500	305.891	79.999	19.995	103.093	20.083	1.686	0.489
454.000	306.135	80.001	19.994	103.096	20.080	1.885	0.503
454.500	306.408	80.001	19.994	103.096	20.081	1.792	0.520
455.000	306.658	80.000	19.995	103.097	20.080	1.834	0.520
455.500	306.920	80.000	19.994	103.099	20.083	1.686	0.518
456.000	307.162	80.000	19.996	103.101	20.083	1.676	0.508
456.500	307.404	80.000	19.995	103.103	20.086	1.444	0.494
457.000	307.668	80.001	19.995	103.103	20.084	1.594	0.495
457.500	307.924	79.999	19.995	103.104	20.083	1.678	0.513
458.000	308.156	79.999	19.995	103.106	20.077	2.089	0.504
458.500	308.433	80.000	19.995	103.109	20.082	1.711	0.498
459.000	308.642	80.000	19.995	103.109	20.082	1.693	0.498
459.500	308.884	80.000	19.995	103.111	20.082	1.691	0.468
460.000	309.181	80.001	19.994	103.107	20.082	1.693	0.495
460.500	309.394	79.999	19.994	103.104	20.083	1.636	0.525
461.000	309.668	79.998	19.994	103.097	20.080	1.878	0.499
461.500	309.889	79.999	19.995	103.091	20.080	1.887	0.491
462.000	310.171	80.000	19.996	103.090	20.083	1.658	0.498
462.500	310.430	80.000	19.996	103.092	20.082	1.744	0.522
463.000	310.707	80.000	19.995	103.095	20.080	1.853	0.539
463.500	310.975	79.998	19.995	103.098	20.082	1.708	0.541
464.000	311.220	79.999	19.995	103.104	20.083	1.633	0.529
464.500	311.478	79.999	19.996	103.108	20.078	1.977	0.508
465.000	311.762	79.999	19.995	103.109	20.081	1.772	0.522
465.500	311.986	80.000	19.996	103.106	20.078	1.971	0.525
466.000	312.250	80.001	19.995	103.110	20.086	1.466	0.498
466.500	312.510	79.999	19.994	103.107	20.080	1.825	0.506
467.000	312.771	79.999	19.996	103.103	20.077	2.059	0.523
467.500	312.998	80.000	19.997	103.106	20.081	1.775	0.505
468.000	313.267	80.000	19.995	103.106	20.078	2.023	0.492
468.500	313.506	80.002	19.995	103.107	20.080	1.843	0.502
469.000	313.734	80.001	19.996	103.111	20.084	1.581	0.487
469.500	314.030	79.999	19.995	103.115	20.078	1.971	0.496
470.000	314.299	80.000	19.996	103.115	20.084	1.618	0.545
470.500	314.559	79.999	19.996	103.118	20.083	1.684	0.547
471.000	314.762	79.999	19.994	103.118	20.081	1.775	0.496
471.500	315.022	80.000	19.996	103.119	20.082	1.733	0.463
472.000	315.297	80.000	19.995	103.119	20.084	1.585	0.499
472.500	315.512	80.000	19.995	103.121	20.080	1.889	0.513
473.000	315.759	80.001	19.996	103.122	20.082	1.695	0.476
473.500	316.044	80.000	19.995	103.121	20.080	1.878	0.497
474.000	316.312	79.999	19.995	103.121	20.082	1.724	0.542
474.500	316.523	80.000	19.995	103.120	20.084	1.590	0.516
475.000	316.769	79.999	19.994	103.118	20.080	1.830	0.469
475.500	317.026	79.999	19.994	103.117	20.080	1.881	0.480
476.000	317.294	80.000	19.996	103.113	20.080	1.878	0.514
476.500	317.579	79.999	19.996	103.106	20.077	2.079	0.539
477.000	317.800	79.999	19.995	103.101	20.080	1.865	0.530
477.500	318.062	79.998	19.995	103.098	20.079	1.933	0.494
478.000	318.377	80.000	19.995	103.099	20.081	1.771	0.530
478.500	318.549	79.999	19.994	103.101	20.081	1.806	0.532
479.000	318.813	79.998	19.995	103.106	20.080	1.856	0.462
479.500	319.067	80.000	19.994	103.112	20.081	1.808	0.477
480.000	319.317	79.999	19.996	103.112	20.079	1.935	0.511
480.500	319.565	79.999	19.995	103.110	20.077	2.058	0.501
481.000	319.828	79.998	19.994	103.108	20.080	1.889	0.504
481.500	320.076	80.000	19.994	103.110	20.083	1.634	0.511
482.000	320.333	79.999	19.995	103.112	20.082	1.746	0.508
482.500	320.535	79.997	19.994	103.115	20.081	1.801	0.482
483.000	320.835	79.998	19.996	103.117	20.082	1.741	0.481
483.500	321.065	79.999	19.995	103.116	20.081	1.777	0.516
484.000	321.350	80.000	19.996	103.108	20.085	1.513	0.523
484.500	321.582	79.998	19.995	103.106	20.079	1.894	0.516
485.000	321.820	79.999	19.995	103.101	20.082	1.709	0.493
485.500	322.072	79.998	19.996	103.096	20.079	1.894	0.480
486.000	322.364	79.999	19.996	103.095	20.080	1.876	0.517
486.500	322.594	79.997	19.994	103.096	20.080	1.854	0.533
487.000	322.778	79.997	19.997	103.093	20.080	1.852	0.468
487.500	323.062	79.997	19.995	103.091	20.083	1.656	0.440
488.000	323.310	79.999	19.997	103.091	20.080	1.836	0.500
488.500	323.568	79.999	19.996	103.090	20.073	2.312	0.520
489.000	323.828	79.998	19.995	103.092	20.079	1.940	0.512
489.500	324.095	79.997	19.995	103.093	20.081	1.761	0.522
490.000	324.311	79.998	19.996	103.099	20.080	1.887	0.505
490.500	324.545	79.996	19.995	103.103	20.081	1.766	0.467
491.000	324.821	79.998	19.996	103.109	20.082	1.733	0.480
491.500	325.053	79.998	19.995	103.110	20.080	1.868	0.509
492.000	325.314	79.996	19.996	103.112	20.083	1.662	0.501
492.500	325.609	79.998	19.996	103.112	20.080	1.834	0.524
493.000	325.867	79.995	19.996	103.115	20.082	1.704	0.554
493.500	326.092	79.998	19.995	103.113	20.080	1.838	0.518
494.000	326.345	79.997	19.995	103.115	20.083	1.662	0.480
494.500	326.614	79.997	19.994	103.112	20.080	1.841	0.500
495.000	326.885	79.998	19.996	103.107	20.083	1.664	0.532
495.500	327.117	79.996	19.995	103.101	20.084	1.605	0.522
496.000	327.347	79.997	19.996	103.096	20.081	1.808	0.482
496.500	327.610	79.996	19.996	103.091	20.079	1.945	0.477
497.000	327.851	79.998	19.995	103.091	20.081	1.775	0.499
497.500	328.103	79.999	19.995	103.093	20.080	1.837	0.498
498.000	328.372	80.001	19.996	103.096	20.080	1.824	0.507
498.500	328.569	79.999	19.995	103.099	20.082	1.711	0.494
499.000	328.847	80.000	19.995	103.104	20.084	1.577	0.471
499.500	329.135	79.999	19.994	103.110	20.081	1.768	0.520
500.000	329.329	80.002	19.994	103.109	20.081	1.808	0.524
500.500	329.586	80.000	19.995	103.105	20.084	1.619	0.466
501.000	329.844	80.000	19.995	103.103	20.082	1.736	0.483
501.500	330.081	80.001	19.996	103.099	20.082	1.707	0.505
502.000	330.321	80.001	19.995	103.092	20.079	1.949	0.486
502.500	330.608	80.000	19.994	103.090	20.083	1.676	0.502
503.000	330.853	80.000	19.994	103.096	20.083	1.687	0.529
503.500	331.075	80.001	19.994	103.101	20.084	1.557	0.499
504.000	331.382	80.001	19.995	103.107	20.081	1.784	0.498
504.500	331.608	80.000	19.995	103.113	20.082	1.694	0.531
505.000	331.853	80.002	19.994	103.117	20.081	1.793	0.502
505.500	332.087	80.001	19.995	103.115	20.078	2.013	0.475
506.000	332.406	80.000	19.995	103.109	20.082	1.716	0.516
506.500	332.630	80.000	19.994	103.102	20.081	1.759	0.548
507.000	332.908	80.000	19.994	103.094	20.084	1.612	0.523
507.501	333.160	80.000	19.994	103.086	20.079	1.911	0.516
508.000	333.366	80.002	19.995	103.085	20.087	1.387	0.494
508.500	333.659	80.001	19.994	103.085	20.082	1.695	0.479
509.000	333.925	79.999	19.994	103.085	20.083	1.665	0.529
509.500	334.144	80.001	19.995	103.085	20.084	1.559	0.521
510.000	334.427	80.002	19.994	103.085	20.081	1.794	0.493
510.500	334.647	80.001	19.995	103.081	20.082	1.742	0.503
511.000	334.896	80.000	19.993	103.081	20.082	1.698	0.486
511.500	335.148	80.000	19.994	103.081	20.078	1.959	0.485
512.000	335.436	80.001	19.994	103.082	20.086	1.453	0.521
512.500	335.694	79.999	19.994	103.088	20.085	1.552	0.544
513.000	335.921	80.001	19.995	103.094	20.084	1.616	0.516
513.500	336.171	80.002	19.994	103.095	20.083	1.671	0.480
514.000	336.416	80.000	19.995	103.095	20.081	1.786	0.486
514.500	336.642	79.999	19.994	103.094	20.079	1.929	0.483
515.000	336.910	79.999	19.995	103.088	20.082	1.753	0.482
515.500	337.176	80.000	19.994	103.082	20.085	1.541	0.514
516.000	337.384	79.999	19.994	103.082	20.080	1.878	0.504
516.500	337.674	80.001	19.994	103.085	20.081	1.760	0.486
517.000	337.928	80.000	19.995	103.091	20.083	1.674	0.521
517.500	338.177	80.001	19.995	103.092	20.080	1.878	0.524
518.000	338.442	80.001	19.995	103.094	20.084	1.594	0.509
518.500	338.723	80.002	19.995	103.100	20.084	1.621	0.530
519.000	338.899	80.001	19.995	103.103	20.080	1.870	0.502
519.500	339.177	80.000	19.993	103.099	20.081	1.780	0.455
520.000	339.471	80.000	19.995	103.103	20.083	1.678	0.513
520.500	339.657	80.002	19.994	103.109	20.081	1.790	0.526
521.000	339.944	80.000	19.995	103.111	20.082	1.717	0.477
521.500	340.201	80.001	19.994	103.110	20.086	1.464	0.509
522.000	340.440	80.000	19.995	103.110	20.081	1.808	0.520
522.500	340.700	80.002	19.994	103.106	20.083	1.643	0.497
523.000	340.980	80.001	19.994	103.099	20.081	1.792	0.520
523.500	341.199	80.001	19.995	103.097	20.086	1.475	0.520
524.000	341.411	80.002	19.995	103.098	20.081	1.814	0.465
524.500	341.720	79.999	19.994	103.102	20.084	1.590	0.476
525.000	341.951	80.002	19.994	103.105	20.084	1.603	0.531
525.500	342.191	80.001	19.994	103.107	20.083	1.682	0.506
526.000	342.413	80.003	19.995	103.102	20.083	1.685	0.466
526.500	342.706	80.002	19.993	103.099	20.080	1.854	0.488
527.000	342.947	80.002	19.994	103.095	20.080	1.867	0.524
527.500	343.209	80.002	19.995	103.092	20.079	1.920	0.518
528.000	343.448	80.003	19.994	103.089	20.081	1.810	0.502
528.500	343.701	80.001	19.995	103.087	20.078	2.004	0.497
529.000	343.915	80.002	19.994	103.086	20.081	1.779	0.479
529.500	344.175	80.002	19.994	103.084	20.080	1.870	0.470
530.000	344.411	80.001	19.994	103.085	20.082	1.700	0.485
530.500	344.711	80.003	19.994	103.088	20.079	1.951	0.516
531.000	344.928	80.003	19.994	103.091	20.083	1.627	0.527
531.500	345.195	80.001	19.993	103.092	20.083	1.629	0.500
532.000	345.433	80.001	19.994	103.096	20.083	1.643	0.494
532.500	345.689	80.001	19.995	103.103	20.079	1.947	0.499
533.000	345.941	80.001	19.995	103.107	20.080	1.861	0.501
533.500	346.156	80.001	19.994	103.109	20.079	1.927	0.488
534.000	346.409	80.001	19.996	103.113	20.082	1.696	0.468
534.500	346.680	80.002	19.993	103.114	20.079	1.907	0.496
535.000	346.940	80.000	19.994	103.114	20.081	1.773	0.527
535.500	347.209	79.999	19.995	103.109	20.082	1.718	0.530
536.000	347.405	79.999	19.995	103.103	20.082	1.702	0.497
536.500	347.677	80.000	19.994	103.097	20.080	1.852	0.467
537.000	347.919	79.999	19.994	103.092	20.081	1.759	0.491
537.500	348.190	79.999	19.994	103.086	20.078	2.012	0.514
538.000	348.433	79.999	19.996	103.085	20.076	2.124	0.513
538.500	348.714	79.999	19.995	103.085	20.074	2.285	0.519
539.000	348.967	79.999	19.995	103.086	20.079	1.914	0.529
539.500	349.192	79.999	19.994	103.085	20.079	1.916	0.505
540.000	349.478	80.000	19.995	103.090	20.080	1.841	0.494
540.500	349.751	79.999	19.994	103.096	20.077	2.048	0.536
541.000	349.987	79.998	19.994	103.100	20.082	1.748	0.534
541.500	350.197	79.999	19.994	103.104	20.078	2.013	0.478
542.000	350.469	79.998	19.995	103.108	20.081	1.773	0.464
542.500	350.732	80.000	19.993	103.103	20.080	1.834	0.509
543.000	350.945	79.998	19.994	103.097	20.083	1.664	0.505
543.500	351.215	80.000	19.995	103.093	20.082	1.755	0.479
544.001	351.471	80.002	19.995	103.090	20.080	1.832	0.505
544.500	351.724	79.998	19.994	103.089	20.083	1.649	0.517
545.000	351.978	80.000	19.994	103.091	20.077	2.058	0.508
545.500	352.237	79.999	19.996	103.094	20.080	1.876	0.510
546.000	352.455	80.000	19.995	103.098	20.082	1.735	0.495
546.500	352.732	80.000	19.994	103.102	20.081	1.773	0.486
547.000	352.978	80.000	19.994	103.102	20.078	1.960	0.509
547.500	353.262	80.003	19.994	103.105	20.081	1.797	0.526
548.000	353.532	79.998	19.995	103.108	20.077	2.031	0.542
548.500	353.776	79.999	19.995	103.111	20.080	1.865	0.534
549.000	354.055	79.999	19.995	103.110	20.080	1.852	0.518
549.500	354.322	80.000	19.995	103.106	20.081	1.766	0.534
550.000	354.553	79.999	19.995	103.103	20.077	2.068	0.522
550.500	354.811	79.998	19.994	103.097	20.078	1.991	0.494
551.000	355.063	80.000	19.995	103.091	20.079	1.890	0.500
551.501	355.266	80.001	19.994	103.092	20.081	1.812	0.483
552.000	355.562	79.999	19.994	103.095	20.077	2.055	0.477
552.500	355.788	79.999	19.994	103.100	20.080	1.885	0.510
553.000	356.069	79.999	19.996	103.104	20.082	1.716	0.514
553.500	356.296	80.000	19.996	103.108	20.078	2.017	0.508
554.000	356.541	79.998	19.995	103.111	20.081	1.793	0.490
554.500	356.819	80.000	19.994	103.114	20.080	1.843	0.498
555.000	357.070	79.999	19.995	103.113	20.081	1.812	0.526
555.500	357.351	79.999	19.994	103.111	20.079	1.900	0.530
556.000	357.568	80.000	19.995	103.110	20.080	1.839	0.515
556.500	357.814	79.998	19.995	103.108	20.078	2.009	0.480
557.000	358.119	79.998	19.995	103.104	20.077	2.042	0.507
557.500	358.344	79.997	19.996	103.099	20.074	2.237	0.540
558.000	358.600	79.998	19.996	103.095	20.078	1.971	0.505
558.500	358.857	79.997	19.994	103.091	20.077	2.053	0.497
559.000	359.112	79.999	19.994	103.087	20.079	1.914	0.513
559.500	359.364	79.998	19.995	103.084	20.074	2.268	0.510
560.000	359.617	80.001	19.995	103.084	20.075	2.202	0.506
560.500	359.863	79.998	19.995	103.085	20.074	2.257	0.502
561.000	360.142	79.999	19.996	103.085	20.078	2.013	0.511
561.500	360.365	79.998	19.995	103.086	20.080	1.837	0.513
562.000	360.624	79.998	19.995	103.093	20.077	2.081	0.492
562.500	360.885	79.999	19.995	103.094	20.078	1.986	0.501
563.000	361.150	80.000	19.996	103.094	20.078	1.987	0.523
563.500	361.381	79.999	19.995	103.095	20.078	1.991	0.511
564.001	361.645	79.999	19.994	103.094	20.077	2.042	0.495
564.500	361.881	79.998	19.995	103.088	20.077	2.044	0.497
565.000	362.158	79.998	19.994	103.086	20.081	1.782	0.507
565.500	362.396	79.999	19.994	103.086	20.082	1.700	0.514
566.000	362.661	79.998	19.995	103.086	20.084	1.617	0.510
566.500	362.905	79.998	19.996	103.086	20.079	1.918	0.506
567.000	363.163	79.999	19.995	103.086	20.077	2.066	0.505
567.500	363.430	79.999	19.995	103.085	20.081	1.780	0.514
568.000	363.664	80.000	19.995	103.085	20.082	1.716	0.513
568.500	363.924	79.999	19.995	103.085	20.080	1.885	0.497
569.000	364.187	79.999	19.994	103.086	20.082	1.731	0.508
569.500	364.431	79.999	19.995	103.086	20.076	2.132	0.515
570.000	364.678	80.000	19.995	103.086	20.076	2.094	0.499
570.500	364.919	79.998	19.995	103.088	20.076	2.145	0.489
571.000	365.175	80.000	19.995	103.088	20.078	1.958	0.493
571.500	365.427	79.999	19.996	103.085	20.080	1.876	0.502
572.000	365.683	80.000	19.995	103.084	20.080	1.823	0.508
572.500	365.915	79.999	19.996	103.083	20.079	1.898	0.498
573.000	366.216	80.000	19.995	103.081	20.081	1.819	0.511
573.500	366.397	80.000	19.994	103.081	20.082	1.747	0.508
574.000	366.707	79.998	19.995	103.083	20.085	1.537	0.486
574.500	366.918	80.000	19.996	103.083	20.084	1.594	0.506
575.000	367.183	79.999	19.995	103.083	20.081	1.808	0.499
575.500	367.458	79.999	19.994	103.083	20.079	1.896	0.508
576.000	367.721	80.000	19.995	103.083	20.082	1.711	0.539
576.500	367.939	79.999	19.995	103.083	20.083	1.687	0.509
577.000	368.216	79.999	19.995	103.082	20.082	1.696	0.488
577.500	368.488	79.999	19.996	103.081	20.086	1.445	0.522
578.000	368.720	80.000	19.994	103.080	20.083	1.632	0.527
578.500	368.996	80.001	19.995	103.080	20.084	1.584	0.506
579.000	369.239	80.001	19.996	103.080	20.079	1.942	0.514
579.500	369.470	80.001	19.994	103.080	20.081	1.758	0.496
580.000	369.746	80.000	19.996	103.080	20.080	1.854	0.490
580.501	370.009	80.001	19.995	103.081	20.081	1.786	0.523
581.000	370.273	80.000	19.996	103.081	20.081	1.779	0.533
581.500	370.559	80.000	19.996	103.080	20.078	1.980	0.538
582.000	370.770	80.001	19.996	103.080	20.083	1.663	0.523
582.500	371.022	79.999	19.995	103.081	20.081	1.802	0.480
583.000	371.265	80.002	19.994	103.081	20.080	1.837	0.479
583.500	371.526	80.000	19.995	103.080	20.082	1.720	0.499
584.000	371.798	80.000	19.995	103.080	20.084	1.579	0.519
584.500	372.022	79.998	19.996	103.080	20.082	1.694	0.515
585.000	372.297	80.001	19.997	103.080	20.082	1.692	0.498
585.500	372.582	80.001	19.995	103.080	20.079	1.923	0.530
586.000	372.795	80.002	19.996	103.083	20.081	1.799	0.529
586.500	373.060	79.999	19.997	103.083	20.079	1.898	0.488
587.000	373.299	80.002	19.996	103.084	20.084	1.568	0.491
587.500	373.564	80.002	19.995	103.084	20.081	1.817	0.504
588.000	373.840	80.002	19.996	103.082	20.083	1.687	0.523
588.500	374.102	80.002	19.996	103.082	20.081	1.782	0.539
589.000	374.350	80.000	19.995	103.085	20.086	1.431	0.524
589.500	374.601	79.999	19.996	103.086	20.087	1.381	0.504
590.000	374.883	80.002	19.996	103.085	20.079	1.899	0.516
590.500	375.148	79.999	19.995	103.086	20.082	1.698	0.540
591.000	375.375	79.998	19.996	103.085	20.079	1.934	0.519
591.500	375.612	79.999	19.995	103.082	20.081	1.771	0.478
592.000	375.891	79.999	19.995	103.081	20.081	1.758	0.490
592.500	376.101	80.000	19.995	103.083	20.080	1.854	0.503
593.000	376.351	80.001	19.995	103.087	20.078	1.969	0.474
593.500	376.654	80.000	19.995	103.086	20.082	1.722	0.507
594.000	376.879	80.001	19.994	103.086	20.081	1.797	0.541
594.500	377.119	80.001	19.995	103.085	20.078	1.956	0.496
595.000	377.388	80.002	19.995	103.083	20.077	2.032	0.486
595.500	377.654	80.000	19.995	103.078	20.082	1.742	0.522
596.000	377.896	80.002	19.994	103.078	20.078	1.975	0.522
596.500	378.148	80.001	19.994	103.078	20.081	1.812	0.501
597.000	378.381	80.002	19.995	103.079	20.083	1.676	0.490
597.500	378.633	80.000	19.994	103.079	20.080	1.828	0.485
598.000	378.894	79.999	19.994	103.081	20.081	1.757	0.499
598.500	379.166	80.001	19.995	103.081	20.082	1.744	0.523
599.000	379.445	80.003	19.995	103.081	20.080	1.856	0.542
599.500	379.659	80.002	19.994	103.082	20.078	1.975	0.522
600.000	379.934	80.003	19.995	103.083	20.082	1.691	0.491
600.500	380.199	80.002	19.995	103.082	20.077	2.052	0.514
601.000	380.462	80.002	19.995	103.082	20.074	2.277	0.534
601.500	380.656	80.000	19.995	103.082	20.082	1.722	0.492
602.000	380.906	80.004	19.995	103.082	20.082	1.698	0.451
602.500	381.177	80.002	19.994	103.081	20.080	1.834	0.483
603.000	381.443	80.002	19.994	103.081	20.080	1.861	0.529
603.500	381.665	80.003	19.995	103.082	20.086	1.442	0.512
604.000	381.910	80.000	19.994	103.084	20.082	1.729	0.478
604.500	382.181	80.002	19.995	103.090	20.076	2.138	0.491
605.000	382.414	80.002	19.994	103.091	20.077	2.026	0.510
605.500	382.676	80.000	19.994	103.093	20.078	1.993	0.500
606.000	382.938	80.000	19.994	103.094	20.078	1.984	0.510
606.500	383.210	80.001	19.994	103.097	20.082	1.698	0.529
607.000	383.421	80.003	19.994	103.097	20.074	2.242	0.508
607.500	383.670	80.003	19.994	103.098	20.075	2.215	0.472
608.000	383.897	80.003	19.995	103.097	20.077	2.033	0.468
608.500	384.159	80.001	19.994	103.097	20.071	2.462	0.482
609.000	384.427	80.003	19.994	103.091	20.075	2.165	0.509
609.500	384.675	80.003	19.994	103.086	20.076	2.110	0.523
610.000	384.956	80.000	19.993	103.083	20.074	2.235	0.523
610.500	385.199	80.003	19.994	103.085	20.077	2.077	0.526
611.000	385.404	80.002	19.994	103.086	20.080	1.823	0.486
611.500	385.688	80.004	19.993	103.090	20.080	1.845	0.468
612.000	385.910	80.001	19.993	103.094	20.074	2.228	0.498
612.500	386.193	80.001	19.995	103.100	20.076	2.090	0.505
613.000	386.440	80.001	19.994	103.103	20.077	2.057	0.517
613.500	386.692	80.003	19.995	103.103	20.078	2.001	0.515
614.000	386.900	80.002	19.995	103.101	20.076	2.107	0.479
614.500	387.194	80.001	19.994	103.099	20.075	2.160	0.481
615.000	387.436	80.003	19.995	103.092	20.078	1.966	0.519
615.500	387.694	80.000	19.995	103.086	20.074	2.224	0.518
616.000	387.964	80.002	19.995	103.085	20.078	1.995	0.514
616.500	388.219	80.000	19.994	103.085	20.071	2.451	0.527
617.000	388.445	79.998	19.994	103.084	20.077	2.057	0.503
617.500	388.730	80.000	19.994	103.084	20.073	2.301	0.496
618.000	388.986	79.998	19.994	103.086	20.077	2.066	0.526
618.500	389.239	79.998	19.993	103.086	20.073	2.356	0.525
619.000	389.442	79.999	19.993	103.088	20.078	2.013	0.482
619.501	389.694	79.999	19.995	103.092	20.081	1.764	0.456
620.000	389.974	79.998	19.994	103.093	20.076	2.109	0.494
620.500	390.218	79.997	19.995	103.093	20.074	2.244	0.528
621.000	390.488	80.001	19.993	103.092	20.075	2.209	0.518
621.500	390.680	80.000	19.995	103.091	20.073	2.292	0.488
622.000	390.967	80.000	19.994	103.092	20.075	2.160	0.471
622.500	391.257	79.998	19.995	103.091	20.072	2.359	0.529
623.000	391.515	80.000	19.995	103.095	20.074	2.259	0.563
623.500	391.739	79.998	19.995	103.101	20.077	2.063	0.515
624.000	392.018	80.001	19.994	103.105	20.074	2.238	0.492
624.500	392.286	80.001	19.995	103.104	20.076	2.125	0.525
625.000	392.532	80.002	19.994	103.106	20.070	2.504	0.531
625.500	392.762	79.998	19.994	103.102	20.074	2.272	0.495
626.000	393.053	80.000	19.995	103.097	20.071	2.428	0.498
626.500	393.326	80.000	19.994	103.092	20.073	2.321	0.543
627.000	393.555	79.998	19.993	103.090	20.076	2.109	0.533
627.500	393.808	80.000	19.994	103.092	20.071	2.442	0.492
628.000	394.102	79.998	19.994	103.093	20.071	2.431	0.515
628.500	394.339	79.998	19.994	103.092	20.072	2.412	0.539
629.000	394.641	80.001	19.994	103.092	20.071	2.474	0.535
629.500	394.887	79.998	19.993	103.092	20.066	2.776	0.543
630.000	395.142	79.999	19.993	103.089	20.072	2.390	0.524
630.500	395.399	80.002	19.993	103.091	20.079	1.929	0.506
631.000	395.671	80.000	19.993	103.094	20.075	2.167	0.521
631.500	395.899	79.999	19.994	103.095	20.070	2.491	0.515
632.000	396.106	79.999	19.996	103.095	20.073	2.337	0.467
632.500	396.423	80.000	19.994	103.093	20.071	2.482	0.479
633.000	396.636	79.996	19.994	103.089	20.071	2.469	0.527
633.500	396.917	79.997	19.995	103.086	20.071	2.432	0.512
634.000	397.181	79.997	19.994	103.085	20.075	2.205	0.520
634.500	397.434	79.999	19.995	103.086	20.076	2.145	0.531
635.000	397.662	80.002	19.994	103.088	20.076	2.148	0.499
635.500	397.941	79.999	19.994	103.092	20.070	2.537	0.494
636.000	398.196	80.002	19.994	103.096	20.076	2.110	0.520
636.500	398.456	79.998	19.993	103.101	20.072	2.366	0.524
637.000	398.692	79.998	19.994	103.106	20.074	2.286	0.506
637.500	398.961	80.001	19.995	103.106	20.076	2.103	0.500
638.000	399.215	80.000	19.995	103.101	20.070	2.544	0.514
638.500	399.465	80.001	19.995	103.096	20.069	2.574	0.514
639.000	399.712	79.997	19.993	103.085	20.066	2.802	0.501
639.500	399.962	79.999	19.994	103.072	20.070	2.541	0.497
640.000	400.184	79.997	19.995	103.065	20.073	2.302	0.485
640.500	400.437	79.999	19.995	103.065	20.071	2.440	0.474
641.000	400.748	80.000	19.993	103.066	20.071	2.473	0.520
641.500	400.949	80.000	19.995	103.070	20.069	2.588	0.538
642.000	401.260	79.997	19.995	103.077	20.075	2.183	0.512
642.500	401.500	79.999	19.995	103.082	20.068	2.636	0.531
643.000	401.762	79.998	19.993	103.082	20.064	2.905	0.526
643.500	402.025	79.998	19.995	103.082	20.068	2.627	0.513
644.000	402.253	80.000	19.994	103.081	20.067	2.711	0.508
644.500	402.537	79.998	19.994	103.079	20.068	2.641	0.501
645.000	402.752	79.999	19.996	103.079	20.074	2.240	0.506
645.500	403.016	79.999	19.996	103.076	20.064	2.940	0.489
646.000	403.305	80.000	19.996	103.075	20.067	2.754	0.516
646.500	403.536	79.998	19.996	103.075	20.065	2.842	0.537
647.000	403.781	79.998	19.996	103.077	20.065	2.843	0.498
647.500	404.024	80.000	19.995	103.077	20.068	2.656	0.481
648.000	404.250	80.000	19.997	103.080	20.072	2.396	0.478
648.500	404.575	79.999	19.996	103.083	20.066	2.760	0.511
649.000	404.829	80.000	19.997	103.083	20.070	2.553	0.565
649.500	405.066	80.001	19.996	103.083	20.073	2.323	0.535
650.000	405.311	79.999	19.996	103.082	20.066	2.764	0.487
650.500	405.547	79.999	19.995	103.083	20.071	2.467	0.482
651.000	405.807	79.999	19.996	103.081	20.065	2.830	0.489
651.500	406.054	79.998	19.996	103.081	20.068	2.650	0.501
652.000	406.301	79.998	19.995	103.082	20.071	2.478	0.500
652.500	406.579	79.998	19.995	103.083	20.067	2.722	0.509
653.000	406.809	80.000	19.996	103.082	20.072	2.421	0.517
653.500	407.077	79.998	19.995	103.082	20.074	2.266	0.503
654.000	407.325	80.001	19.997	103.082	20.069	2.619	0.507
654.500	407.598	79.997	19.996	103.082	20.069	2.614	0.518
655.000	407.856	80.000	19.995	103.082	20.070	2.550	0.526
655.500	408.131	79.999	19.995	103.084	20.070	2.526	0.532
656.000	408.356	80.000	19.996	103.089	20.072	2.423	0.517
656.500	408.597	79.999	19.996	103.097	20.069	2.559	0.483
657.000	408.901	79.997	19.995	103.103	20.071	2.464	0.505
657.500	409.129	79.998	19.996	103.106	20.069	2.597	0.538
658.000	409.361	80.000	19.995	103.105	20.067	2.738	0.496
658.500	409.636	80.000	19.995	103.100	20.064	2.945	0.483
659.000	409.887	79.999	19.996	103.093	20.067	2.702	0.516
659.500	410.167	79.999	19.996	103.086	20.066	2.780	0.529
660.000	410.378	79.999	19.996	103.082	20.064	2.940	0.511
660.500	410.685	79.999	19.994	103.081	20.060	3.185	0.505
661.000	410.900	80.000	19.995	103.081	20.061	3.118	0.520
661.500	411.206	80.000	19.994	103.081	20.064	2.909	0.521
662.000	411.457	80.001	19.996	103.080	20.068	2.652	0.539
662.500	411.705	80.000	19.996	103.080	20.063	2.967	0.528
663.000	411.956	79.999	19.995	103.079	20.068	2.674	0.499
663.500	412.201	80.000	19.997	103.078	20.059	3.270	0.498
664.000	412.441	80.001	19.995	103.078	20.060	3.174	0.490
664.500	412.722	80.003	19.995	103.078	20.060	3.178	0.503
665.000	412.969	80.002	19.996	103.078	20.061	3.143	0.524
665.500	413.236	79.999	19.995	103.079	20.058	3.297	0.521
666.000	413.497	80.003	19.994	103.080	20.056	3.484	0.522
666.500	413.711	80.000	19.994	103.080	20.062	3.043	0.502
667.000	413.988	80.001	19.996	103.081	20.061	3.138	0.483
667.500	414.257	79.999	19.995	103.080	20.059	3.266	0.518
668.000	414.507	80.001	19.995	103.079	20.056	3.451	0.533
668.500	414.749	80.001	19.995	103.077	20.055	3.526	0.506
669.000	415.008	80.000	19.994	103.077	20.057	3.394	0.496
669.500	415.277	79.999	19.994	103.077	20.061	3.114	0.515
670.000	415.478	79.998	19.996	103.078	20.057	3.403	0.499
670.500	415.777	80.000	19.996	103.080	20.051	3.782	0.485
671.000	416.033	79.999	19.994	103.081	20.055	3.546	0.528
671.500	416.301	79.997	19.994	103.082	20.054	3.563	0.540
672.000	416.545	79.998	19.993	103.081	20.049	3.918	0.518
672.500	416.818	80.000	19.996	103.082	20.052	3.741	0.515
673.000	417.042	80.000	19.996	103.081	20.055	3.515	0.507
673.500	417.297	80.000	19.998	103.082	20.049	3.900	0.488
674.000	417.532	79.999	19.995	103.083	20.049	3.909	0.484
674.500	417.822	80.000	19.995	103.083	20.052	3.756	0.508
675.000	418.038	80.000	19.996	103.083	20.052	3.749	0.516
675.500	418.295	79.999	19.996	103.083	20.048	3.987	0.490
676.000	418.581	80.000	19.996	103.084	20.054	3.608	0.508
676.500	418.829	79.999	19.996	103.086	20.047	4.058	0.538
677.000	419.088	80.001	19.997	103.087	20.048	4.005	0.520
677.500	419.344	80.000	19.994	103.087	20.046	4.146	0.511
678.000	419.599	79.998	19.995	103.087	20.046	4.135	0.513
678.500	419.801	79.999	19.996	103.087	20.047	4.063	0.484
679.000	420.112	79.998	19.996	103.085	20.048	3.970	0.485
679.500	420.389	79.998	19.995	103.084	20.049	3.917	0.551
680.000	420.638	80.000	19.995	103.084	20.038	4.674	0.557
680.500	420.880	80.001	19.996	103.084	20.040	4.524	0.509
681.000	421.149	79.999	19.996	103.084	20.043	4.326	0.500
681.500	421.382	79.999	19.996	103.084	20.043	4.308	0.506
682.000	421.649	79.998	19.995	103.086	20.039	4.595	0.502
682.500	421.881	79.999	19.996	103.089	20.038	4.692	0.500
683.000	422.134	79.997	19.996	103.091	20.043	4.353	0.492
683.500	422.402	79.998	19.996	103.091	20.037	4.751	0.503
684.000	422.633	79.997	19.996	103.090	20.043	4.326	0.510
684.500	422.897	79.995	19.995	103.089	20.037	4.716	0.497
685.000	423.138	79.998	19.996	103.094	20.037	4.747	0.500
685.500	423.386	79.998	19.996	103.100	20.032	5.075	0.497
686.000	423.637	80.001	19.997	103.107	20.037	4.736	0.494
686.500	423.909	79.997	19.995	103.115	20.033	5.016	0.511
687.000	424.143	80.000	19.995	103.119	20.032	5.068	0.514
687.500	424.418	80.002	19.995	103.114	20.037	4.751	0.507
688.000	424.643	80.001	19.995	103.106	20.033	5.027	0.505
688.500	424.916	80.003	19.993	103.100	20.030	5.206	0.499
689.000	425.185	80.002	19.995	103.095	20.025	5.540	0.520
689.500	425.457	80.002	19.996	103.095	20.029	5.246	0.542
690.000	425.678	80.005	19.996	103.101	20.027	5.407	0.517
690.500	425.902	79.998	19.994	103.109	20.024	5.583	0.469
691.000	426.181	80.000	19.994	103.116	20.029	5.242	0.474
691.500	426.454	80.002	19.994	103.121	20.027	5.378	0.527
692.000	426.672	80.001	19.994	103.121	20.027	5.385	0.522
692.500	426.933	80.001	19.995	103.117	20.022	5.764	0.486
693.000	427.191	80.001	19.994	103.115	20.022	5.742	0.499
693.500	427.458	80.001	19.994	103.112	20.024	5.576	0.522
694.000	427.685	80.001	19.992	103.112	20.027	5.413	0.509
694.500	427.938	80.000	19.993	103.113	20.027	5.431	0.487
695.000	428.227	80.000	19.995	103.117	20.028	5.325	0.511
695.500	428.449	80.000	19.994	103.118	20.021	5.816	0.526
696.000	428.697	79.999	19.994	103.115	20.023	5.690	0.490
696.500	428.984	80.000	19.993	103.108	20.020	5.851	0.503
697.000	429.242	80.000	19.993	103.107	20.022	5.756	0.540
697.500	429.445	79.999	19.994	103.103	20.016	6.166	0.503
698.000	429.687	80.001	19.995	103.105	20.011	6.468	0.453
698.500	429.964	79.998	19.994	103.104	20.017	6.040	0.482
699.000	430.210	80.000	19.994	103.105	20.016	6.152	0.521
699.500	430.446	79.999	19.993	103.098	20.018	6.007	0.503
700.000	430.699	80.000	19.992	103.094	20.010	6.512	0.485
700.500	430.988	79.999	19.994	103.087	20.013	6.313	0.515
701.001	431.184	80.001	19.995	103.086	20.011	6.500	0.514
701.501	431.467	80.000	19.995	103.085	20.009	6.635	0.482
702.000	431.729	79.995	19.994	103.085	20.011	6.481	0.512
702.500	431.977	79.996	19.993	103.085	20.009	6.581	0.527
703.000	432.212	79.999	19.993	103.084	20.003	7.023	0.496
703.500	432.503	79.999	19.994	103.083	20.004	6.954	0.505
704.000	432.747	80.003	19.995	103.083	20.000	7.207	0.531
704.500	432.980	79.998	19.993	103.082	20.003	7.036	0.506
705.000	433.282	79.999	19.996	103.082	19.999	7.282	0.506
705.500	433.508	80.000	19.994	103.082	19.996	7.472	0.532
706.000	433.747	79.999	19.995	103.086	19.998	7.347	0.497
706.500	434.032	79.997	19.994	103.092	19.994	7.601	0.495
707.000	434.285	80.000	19.995	103.093	19.990	7.889	0.531
707.500	434.562	80.000	19.995	103.094	19.989	7.909	0.534
708.001	434.828	79.999	19.995	103.100	19.990	7.850	0.537
708.500	435.055	80.000	19.995	103.097	19.985	8.206	0.519
709.000	435.309	80.001	19.995	103.091	19.986	8.131	0.487
709.500	435.612	80.000	19.995	103.092	19.987	8.107	0.518
710.000	435.844	79.998	19.995	103.096	19.977	8.715	0.546
710.500	436.118	79.999	19.996	103.094	19.980	8.556	0.521
711.000	436.331	80.002	19.995	103.095	19.980	8.571	0.497
711.500	436.618	79.999	19.994	103.094	19.974	8.951	0.494
712.000	436.860	79.999	19.996	103.094	19.973	9.004	0.515
712.500	437.121	79.998	19.996	103.089	19.972	9.095	0.516
713.000	437.347	80.001	19.995	103.086	19.969	9.276	0.495
713.500	437.617	80.000	19.996	103.085	19.969	9.278	0.491
714.000	437.847	80.001	19.994	103.091	19.966	9.495	0.497
714.500	438.106	80.002	19.995	103.097	19.963	9.684	0.494
715.000	438.360	80.000	19.996	103.104	19.962	9.743	0.501
715.500	438.646	80.000	19.996	103.112	19.956	10.172	0.526
716.000	438.857	79.999	19.996	103.118	19.959	9.920	0.518
716.500	439.145	80.000	19.997	103.116	19.957	10.061	0.498
717.000	439.368	79.998	19.993	103.110	19.952	10.446	0.505
717.500	439.634	80.002	19.994	103.104	19.949	10.621	0.500
718.000	439.914	79.999	19.993	103.102	19.950	10.560	0.518
718.500	440.142	79.998	19.994	103.098	19.949	10.604	0.527
719.000	440.381	80.000	19.995	103.099	19.945	10.857	0.487
719.500	440.640	79.998	19.994	103.104	19.939	11.293	0.483
720.000	440.867	80.000	19.995	103.104	19.939	11.319	0.493
720.501	441.133	79.999	19.995	103.103	19.939	11.254	0.490
721.001	441.406	79.999	19.994	103.107	19.932	11.771	0.516
721.500	441.653	80.001	19.995	103.108	19.927	12.058	0.529
722.000	441.888	80.000	19.994	103.110	19.927	12.117	0.501
722.500	442.161	79.998	19.994	103.115	19.923	12.352	0.495
723.000	442.420	80.000	19.995	103.116	19.925	12.191	0.520
723.500	442.665	80.002	19.996	103.113	19.915	12.901	0.518
724.000	442.906	79.999	19.993	103.107	19.912	13.117	0.495
724.500	443.159	79.999	19.995	103.103	19.910	13.253	0.490
725.000	443.401	80.000	19.995	103.102	19.908	13.364	0.494
725.500	443.687	79.999	19.995	103.102	19.904	13.605	0.511
726.000	443.925	80.000	19.994	103.105	19.900	13.924	0.526
726.500	444.185	80.000	19.995	103.109	19.897	14.130	0.511
727.000	444.418	79.998	19.994	103.113	19.895	14.251	0.495
727.500	444.708	80.002	19.995	103.115	19.891	14.509	0.508
728.000	444.912	80.001	19.996	103.116	19.889	14.645	0.509
728.500	445.149	79.999	19.995	103.111	19.885	14.905	0.468
729.000	445.456	80.001	19.996	103.107	19.884	14.951	0.493
729.500	445.729	80.000	19.994	103.101	19.881	15.200	0.562
730.000	445.921	80.000	19.995	103.102	19.876	15.506	0.523
730.500	446.195	79.999	19.995	103.101	19.877	15.416	0.465
731.000	446.474	79.999	19.994	103.106	19.874	15.673	0.509
731.500	446.744	80.001	19.995	103.112	19.872	15.787	0.551
732.000	446.948	80.000	19.994	103.117	19.866	16.181	0.512
732.500	447.216	80.000	19.993	103.117	19.870	15.943	0.474
733.000	447.458	79.999	19.996	103.117	19.860	16.606	0.491
733.500	447.707	80.002	19.994	103.119	19.858	16.685	0.500
734.000	447.979	80.001	19.995	103.121	19.856	16.843	0.506
734.500	448.232	79.999	19.995	103.130	19.847	17.449	0.523
735.000	448.485	80.000	19.995	103.138	19.848	17.394	0.515
735.500	448.772	79.999	19.995	103.147	19.835	18.240	0.523
736.000	448.991	79.999	19.996	103.155	19.838	18.026	0.523
736.500	449.224	79.999	19.995	103.162	19.830	18.594	0.479
737.000	449.504	79.998	19.995	103.163	19.831	18.541	0.483
737.500	449.777	79.999	19.995	103.163	19.826	18.868	0.533
738.000	450.025	79.998	19.995	103.164	19.820	19.247	0.537
738.500	450.269	80.000	19.995	103.164	19.814	19.644	0.506
739.000	450.521	79.998	19.995	103.164	19.809	20.006	0.495
739.500	450.772	79.998	19.996	103.164	19.807	20.130	0.500
740.000	451.021	79.998	19.995	103.163	19.800	20.582	0.501
740.500	451.269	80.001	19.995	103.162	19.796	20.857	0.498
741.000	451.528	80.000	19.994	103.162	19.788	21.407	0.502
741.500	451.781	80.002	19.995	103.162	19.787	21.431	0.509
742.000	451.990	80.002	19.995	103.162	19.779	22.021	0.487
742.500	452.283	80.005	19.994	103.163	19.779	21.968	0.482
743.000	452.533	80.001	19.994	103.163	19.772	22.437	0.523
743.500	452.764	80.000	19.996	103.162	19.767	22.786	0.512
744.000	453.032	79.998	19.995	103.163	19.766	22.861	0.490
744.500	453.288	80.003	19.995	103.163	19.759	23.357	0.511
745.000	453.499	80.001	19.995	103.163	19.750	23.931	0.495
745.500	453.786	80.002	19.995	103.163	19.745	24.300	0.482
746.000	454.063	80.000	19.996	103.163	19.738	24.775	0.531
746.500	454.313	80.003	19.995	103.164	19.728	25.421	0.546
747.000	454.532	80.002	19.996	103.167	19.718	26.090	0.498
747.500	454.806	80.003	19.996	103.166	19.714	26.362	0.481
748.000	455.096	80.001	19.996	103.170	19.711	26.569	0.529
748.500	455.320	80.000	19.994	103.173	19.700	27.313	0.539
749.001	455.573	80.002	19.996	103.170	19.689	27.982	0.495
749.500	455.823	80.001	19.994	103.167	19.688	28.042	0.490
750.000	456.121	80.001	19.996	103.167	19.676	28.858	0.525
750.500	456.364	80.000	19.994	103.163	19.673	29.102	0.545
751.000	456.602	79.999	19.994	103.161	19.664	29.660	0.512
751.500	456.826	80.002	19.995	103.161	19.656	30.216	0.472
752.000	457.106	80.001	19.995	103.161	19.646	30.889	0.483
752.500	457.312	80.002	19.992	103.162	19.638	31.428	0.495
753.000	457.616	80.002	19.994	103.162	19.631	31.917	0.498
753.500	457.847	79.999	19.995	103.163	19.619	32.723	0.522
754.000	458.150	80.001	19.997	103.163	19.616	32.904	0.534
754.500	458.387	80.001	19.996	103.162	19.608	33.459	0.537
755.000	458.629	80.001	19.994	103.162	19.595	34.315	0.510
755.500	458.877	79.999	19.994	103.162	19.592	34.518	0.484
756.000	459.191	80.000	19.995	103.161	19.581	35.277	0.526
756.500	459.437	79.999	19.995	103.162	19.576	35.636	0.561
757.000	459.687	80.000	19.995	103.164	19.575	35.707	0.528
757.500	459.926	79.999	19.995	103.166	19.570	36.035	0.493
758.000	460.145	80.001	19.995	103.167	19.572	35.897	0.474
758.500	460.417	80.001	19.995	103.162	19.574	35.779	0.475
759.000	460.658	80.000	19.995	103.157	19.587	34.904	0.502
759.500	460.886	79.998	19.993	103.148	19.589	34.772	0.491
760.000	461.210	80.002	19.995	103.133	19.607	33.534	0.511
760.500	461.412	80.000	19.994	103.111	19.619	32.780	0.539
761.000	461.663	79.999	19.994	103.096	19.633	31.795	0.489
761.500	461.944	80.001	19.994	103.083	19.648	30.779	0.492
762.000	462.170	80.001	19.994	103.073	19.662	29.858	0.519
762.500	462.456	79.998	19.995	103.071	19.675	29.007	0.509
763.000	462.700	80.001	19.995	103.081	19.686	28.255	0.521
763.500	462.943	80.000	19.994	103.094	19.689	28.039	0.509
764.000	463.215	80.000	19.995	103.106	19.700	27.268	0.502
764.501	463.442	80.000	19.994	103.122	19.698	27.380	0.507
765.000	463.746	80.000	19.997	103.145	19.710	26.586	0.515
765.500	464.012	80.001	19.995	103.172	19.709	26.675	0.550
766.000	464.232	79.996	19.995	103.204	19.703	27.059	0.528
766.500	464.496	80.001	19.996	103.234	19.699	27.342	0.485
767.000	464.748	79.999	19.995	103.267	19.692	27.765	0.500
767.500	464.996	80.004	19.996	103.297	19.686	28.202	0.508
768.000	465.285	80.002	19.994	103.320	19.672	29.135	0.518
768.500	465.541	80.002	19.996	103.334	19.664	29.686	0.541
769.000	465.749	80.001	19.996	103.346	19.647	30.868	0.505
769.500	466.001	80.002	19.996	103.349	19.625	32.318	0.463
770.000	466.260	80.003	19.995	103.342	19.600	33.994	0.486
770.500	466.537	80.001	19.995	103.331	19.579	35.451	0.523
771.000	466.784	80.001	19.996	103.317	19.558	36.890	0.530
771.500	467.054	80.004	19.995	103.302	19.540	38.073	0.520
772.000	467.265	80.002	19.996	103.285	19.526	38.988	0.499
772.500	467.539	80.000	19.995	103.269	19.521	39.345	0.483
773.000	467.778	80.003	19.997	103.253	19.521	39.322	0.499
773.500	468.003	80.003	19.995	103.227	19.517	39.586	0.489
774.000	468.264	80.002	19.995	103.181	19.524	39.081	0.475
774.500	468.505	80.000	19.996	103.134	19.529	38.752	0.494
775.000	468.779	80.003	19.995	103.090	19.530	38.620	0.509
775.500	469.059	80.001	19.996	103.046	19.524	39.047	0.534
776.000	469.323	80.001	19.996	103.014	19.523	39.120	0.549
776.500	469.589	80.002	19.996	103.004	19.520	39.347	0.538
777.000	469.842	80.002	19.995	103.004	19.513	39.805	0.525
777.500	470.102	80.002	19.994	103.014	19.501	40.657	0.516
778.000	470.398	80.002	19.993	103.036	19.479	42.116	0.534
778.500	470.648	80.003	19.996	103.074	19.458	43.509	0.551
779.000	470.901	80.001	19.995	103.114	19.440	44.751	0.524
779.500	471.176	80.003	19.997	103.159	19.409	46.785	0.515
780.000	471.401	80.001	19.996	103.205	19.389	48.151	0.514
780.500	471.650	79.999	19.994	103.255	19.372	49.317	0.487
781.000	471.891	79.999	19.993	103.309	19.360	50.090	0.482
781.500	472.112	80.000	19.995	103.367	19.351	50.692	0.476
782.001	472.365	79.999	19.995	103.410	19.350	50.750	0.468
782.501	472.637	79.999	19.997	103.419	19.347	50.970	0.499
783.000	472.895	80.001	19.996	103.401	19.339	51.497	0.527
783.500	473.145	79.999	19.996	103.358	19.331	51.988	0.519
784.000	473.427	79.999	19.995	103.297	19.324	52.487	0.520
784.500	473.714	80.000	19.995	103.233	19.302	53.951	0.550
785.000	473.971	79.999	19.993	103.190	19.286	55.033	0.557
785.500	474.255	79.998	19.995	103.152	19.262	56.691	0.542
786.000	474.533	79.998	19.993	103.128	19.232	58.748	0.551
786.500	474.806	80.001	19.995	103.124	19.208	60.384	0.557
787.000	475.044	80.001	19.996	103.143	19.180	62.307	0.531
787.500	475.281	80.001	19.995	103.174	19.161	63.549	0.493
788.000	475.546	80.001	19.996	103.212	19.144	64.683	0.488
788.500	475.807	80.000	19.996	103.252	19.126	65.844	0.514
789.000	476.019	80.000	19.995	103.276	19.117	66.422	0.499
789.500	476.286	80.000	19.994	103.284	19.110	66.878	0.476
790.000	476.571	80.000	19.993	103.288	19.097	67.700	0.516
790.500	476.827	79.998	19.995	103.297	19.084	68.569	0.547
791.000	477.111	80.001	19.996	103.298	19.065	69.771	0.540
791.500	477.363	80.000	19.995	103.295	19.045	71.108	0.538
792.000	477.622	79.997	19.994	103.284	19.023	72.551	0.523
792.500	477.889	80.002	19.994	103.269	18.994	74.475	0.519
793.000	478.141	79.999	19.995	103.253	18.958	76.797	0.523
793.500	478.384	80.000	19.996	103.238	18.930	78.694	0.507
794.000	478.680	79.999	19.995	103.231	18.887	81.537	0.516
794.500	478.926	80.001	19.994	103.234	18.844	84.429	0.540
795.000	479.182	79.999	19.994	103.244	18.800	87.405	0.523
795.500	479.461	80.001	19.994	103.262	18.756	90.336	0.519
796.000	479.743	79.999	19.995	103.295	18.711	93.444	0.548
796.500	480.017	80.000	19.993	103.347	18.671	96.143	0.558
797.000	480.215	80.000	19.993	103.405	18.625	99.246	0.514
797.500	480.498	80.000	19.993	103.453	18.589	101.755	0.477
798.000	480.798	79.999	19.996	103.484	18.548	104.507	0.532
798.500	481.021	79.999	19.995	103.491	18.517	106.685	0.553
799.000	481.305	80.001	19.995	103.471	18.491	108.501	0.514
799.500	481.552	80.000	19.996	103.430	18.469	110.006	0.519
800.000	481.794	79.998	19.997	103.381	18.446	111.588	0.510
800.500	482.064	79.996	19.994	103.325	18.438	112.236	0.501
801.000	482.342	79.999	19.993	103.273	18.430	112.840	0.530
801.500	482.544	79.998	19.995	103.223	18.437	112.362	0.514
802.000	482.801	79.999	19.995	103.177	18.453	111.334	0.470
802.500	483.100	80.000	19.995	103.139	18.472	110.053	0.507
803.000	483.315	80.000	19.995	103.098	18.497	108.375	0.535
803.500	483.575	80.001	19.995	103.050	18.523	106.638	0.495
804.000	483.843	80.000	19.996	103.010	18.551	104.723	0.501
804.500	484.099	79.999	19.995	102.985	18.582	102.637	0.526
805.000	484.355	80.000	19.995	102.971	18.615	100.336	0.518
805.500	484.622	80.001	19.994	102.976	18.648	98.103	0.518
806.000	484.859	79.999	19.996	103.012	18.668	96.612	0.513
806.500	485.147	80.000	19.994	103.061	18.705	94.050	0.514
807.000	485.387	80.000	19.994	103.105	18.734	91.970	0.526
807.500	485.639	79.999	19.995	103.152	18.752	90.639	0.510
808.000	485.916	80.001	19.995	103.219	18.770	89.398	0.511
808.500	486.168	80.000	19.994	103.276	18.780	88.606	0.529
809.000	486.421	80.000	19.995	103.323	18.784	88.374	0.516
809.500	486.676	80.000	19.994	103.375	18.776	88.905	0.506
810.000	486.928	80.000	19.997	103.435	18.758	90.121	0.508
810.500	487.237	80.000	19.995	103.485	18.742	91.295	0.534
811.000	487.448	79.999	19.992	103.544	18.707	93.687	0.540
811.500	487.698	79.999	19.996	103.609	18.664	96.659	0.490
812.000	487.969	79.999	19.996	103.668	18.614	100.091	0.491
812.500	488.240	80.000	19.997	103.710	18.561	103.730	0.531
813.000	488.503	79.999	19.996	103.736	18.503	107.648	0.538
813.500	488.758	80.000	19.996	103.747	18.457	110.833	0.526
814.000	488.990	79.999	19.995	103.748	18.410	114.134	0.503
814.500	489.301	80.001	19.993	103.741	18.369	116.954	0.515
815.000	489.518	80.000	19.995	103.724	18.345	118.700	0.536
815.500	489.758	79.999	19.993	103.689	18.331	119.690	0.493
816.000	490.056	80.000	19.996	103.642	18.336	119.362	0.497
816.500	490.318	80.001	19.994	103.575	18.349	118.412	0.549
817.000	490.564	79.999	19.994	103.478	18.364	117.267	0.534
817.500	490.794	79.999	19.995	103.354	18.384	115.792	0.492
818.000	491.081	80.000	19.994	103.227	18.405	114.210	0.497
818.500	491.356	79.999	19.994	103.103	18.405	114.098	0.539
819.000	491.552	79.998	19.994	102.992	18.413	113.519	0.516
819.500	491.851	79.998	19.995	102.916	18.407	113.887	0.483
820.000	492.135	80.000	19.994	102.885	18.396	114.602	0.539
820.500	492.397	80.001	19.996	102.887	18.397	114.525	0.564
821.000	492.692	80.001	19.994	102.926	18.391	114.932	0.551
821.500	492.882	79.999	19.994	103.018	18.384	115.364	0.521
822.000	493.154	79.999	19.994	103.118	18.383	115.400	0.474
822.500	493.431	79.997	19.993	103.205	18.375	115.946	0.506
823.000	493.672	80.000	19.996	103.282	18.344	117.973	0.533
823.500	493.942	80.002	19.996	103.361	18.313	120.112	0.514
824.000	494.206	80.000	19.994	103.429	18.277	122.596	0.522
824.500	494.493	80.001	19.993	103.511	18.232	125.663	0.543
825.000	494.745	79.999	19.996	103.616	18.192	128.458	0.545
825.500	494.983	80.000	19.995	103.718	18.151	131.316	0.515
826.000	495.214	80.001	19.995	103.796	18.117	133.677	0.480
826.500	495.503	80.000	19.997	103.840	18.086	135.827	0.494
827.000	495.776	80.002	19.996	103.833	18.064	137.333	0.541
827.500	496.014	80.000	19.993	103.768	18.052	138.162	0.537
828.000	496.283	80.000	19.996	103.667	18.037	139.100	0.510
828.500	496.564	79.999	19.994	103.541	18.028	139.713	0.529
829.000	496.866	80.000	19.994	103.406	18.023	140.043	0.566
829.500	497.074	80.000	19.991	103.301	18.021	140.105	0.546
830.000	497.367	80.003	19.994	103.239	18.020	140.169	0.505
830.500	497.628	80.000	19.994	103.212	18.018	140.259	0.527
831.000	497.895	80.001	19.995	103.200	18.015	140.412	0.541
831.500	498.140	80.002	19.996	103.192	18.018	140.209	0.520
832.000	498.408	80.001	19.995	103.181	18.015	140.399	0.512
832.500	498.650	79.998	19.994	103.168	18.010	140.677	0.511
833.000	498.949	80.000	19.995	103.148	18.008	140.853	0.526
833.500	499.170	80.000	19.997	103.136	18.007	140.894	0.531
834.000	499.468	80.002	19.994	103.143	17.997	141.531	0.519
834.500	499.727	80.000	19.996	103.168	17.987	142.245	0.538
835.000	499.989	80.000	19.996	103.222	17.982	142.602	0.539
835.500	500.224	79.999	19.995	103.302	17.977	142.906	0.509
836.000	500.513	80.000	19.996	103.392	17.966	143.651	0.511
836.500	500.771	80.001	19.994	103.472	17.954	144.510	0.535
837.000	501.040	80.000	19.996	103.535	17.939	145.521	0.537
837.500	501.309	80.000	19.996	103.571	17.932	146.042	0.533
838.000	501.555	79.999	19.993	103.586	17.922	146.706	0.527
838.500	501.852	80.000	19.994	103.588	17.910	147.534	0.529
839.000	502.115	80.000	19.995	103.580	17.906	147.857	0.551
839.500	502.355	80.000	19.997	103.563	17.898	148.426	0.531
840.000	502.650	80.000	19.996	103.541	17.886	149.190	0.519
840.500	502.909	80.000	19.995	103.517	17.884	149.380	0.544
841.000	503.173	79.999	19.996	103.489	17.877	149.827	0.538
841.500	503.435	79.999	19.995	103.465	17.869	150.311	0.525
842.000	503.668	80.000	19.997	103.444	17.865	150.557	0.510
842.500	503.924	80.000	19.998	103.427	17.856	151.123	0.491
843.000	504.171	79.999	19.994	103.411	17.847	151.731	0.496
843.500	504.452	80.001	19.995	103.401	17.837	152.354	0.516
844.000	504.709	80.001	19.995	103.393	17.828	152.983	0.533
844.500	504.961	80.001	19.994	103.390	17.822	153.389	0.524
845.000	505.231	80.000	19.995	103.390	17.807	154.359	0.516
845.500	505.494	80.001	19.996	103.391	17.797	155.009	0.528
846.000	505.747	80.001	19.996	103.399	17.782	156.016	0.524
846.500	506.003	80.001	19.997	103.408	17.766	157.097	0.512
847.000	506.282	80.001	19.994	103.419	17.751	158.110	0.521
847.500	506.517	79.999	19.997	103.434	17.736	159.140	0.524
848.000	506.771	80.001	19.995	103.453	17.717	160.449	0.502
848.500	507.023	80.001	19.995	103.470	17.701	161.498	0.498
849.000	507.326	80.003	19.995	103.487	17.679	162.983	0.531
849.500	507.565	80.002	19.997	103.507	17.661	164.160	0.549
850.000	507.856	80.002	19.996	103.523	17.635	165.934	0.536
850.500	508.122	80.003	19.997	103.536	17.617	167.192	0.543
851.000	508.315	80.001	19.997	103.543	17.598	168.464	0.508
851.500	508.642	80.003	19.993	103.539	17.581	169.653	0.490
852.000	508.897	80.002	19.994	103.525	17.564	170.767	0.550
852.500	509.152	80.004	19.995	103.510	17.543	172.166	0.546
853.001	509.403	80.002	19.996	103.494	17.537	172.578	0.508
853.500	509.673	80.001	19.994	103.476	17.518	173.858	0.513
854.000	509.928	80.002	19.996	103.465	17.509	174.474	0.523
854.500	510.192	80.003	19.995	103.460	17.491	175.645	0.522
855.000	510.445	80.003	19.997	103.454	17.481	176.353	0.518
855.500	510.712	80.002	19.996	103.448	17.470	177.082	0.518
856.000	510.970	80.001	19.996	103.442	17.455	178.078	0.522
856.500	511.235	80.002	19.994	103.435	17.443	178.914	0.524
857.001	511.508	80.004	19.995	103.429	17.434	179.520	0.531
857.500	511.736	80.003	19.995	103.426	17.422	180.326	0.519
858.000	511.993	80.003	19.995	103.431	17.412	180.983	0.493
858.500	512.273	80.001	19.995	103.439	17.408	181.251	0.511
859.000	512.544	80.002	19.995	103.451	17.393	182.259	0.545
859.500	512.756	80.000	19.995	103.457	17.394	182.213	0.517
860.000	513.020	80.001	19.995	103.457	17.381	183.067	0.479
860.500	513.291	80.000	19.996	103.457	17.370	183.753	0.505
861.000	513.585	79.999	19.996	103.459	17.359	184.499	0.550
861.500	513.814	80.001	19.996	103.466	17.353	184.888	0.544
862.000	514.093	80.000	19.995	103.479	17.344	185.537	0.516
862.500	514.389	80.000	19.997	103.494	17.339	185.845	0.542
863.000	514.620	80.000	19.996	103.503	17.333	186.270	0.552
863.500	514.906	79.999	19.996	103.506	17.325	186.807	0.522
864.000	515.097	80.000	19.998	103.504	17.321	187.105	0.497
864.500	515.398	80.000	19.997	103.499	17.310	187.874	0.484
865.000	515.620	79.997	19.995	103.498	17.309	187.894	0.508
865.500	515.878	79.999	19.995	103.496	17.303	188.300	0.501
866.000	516.140	79.998	19.995	103.495	17.295	188.838	0.500
866.500	516.429	79.999	19.996	103.498	17.290	189.136	0.536
867.000	516.656	79.997	19.995	103.503	17.286	189.410	0.534
867.500	516.917	79.998	19.997	103.504	17.277	190.028	0.502
868.000	517.190	79.997	19.995	103.506	17.277	190.002	0.511
868.500	517.414	79.998	19.997	103.510	17.275	190.159	0.515
869.000	517.695	79.999	19.996	103.511	17.269	190.508	0.501
869.500	517.952	79.999	19.994	103.511	17.274	190.232	0.521
870.000	518.221	79.998	19.995	103.511	17.269	190.518	0.532
870.500	518.490	79.998	19.996	103.508	17.272	190.307	0.533
871.000	518.690	79.998	19.997	103.500	17.272	190.341	0.504
871.500	518.979	79.999	19.997	103.493	17.271	190.392	0.479
872.000	519.208	79.999	19.994	103.488	17.274	190.208	0.503
872.500	519.504	79.998	19.995	103.489	17.275	190.120	0.521
873.000	519.763	80.000	19.995	103.493	17.281	189.672	0.540
873.500	520.006	79.998	19.996	103.499	17.280	189.741	0.529
874.000	520.263	79.999	19.995	103.504	17.291	188.991	0.501
874.500	520.537	80.000	19.997	103.509	17.287	189.265	0.515
875.000	520.765	79.999	19.996	103.509	17.295	188.726	0.517
875.500	521.002	79.998	19.995	103.510	17.303	188.218	0.484
876.000	521.299	79.999	19.996	103.510	17.306	188.031	0.500
876.500	521.537	80.000	19.994	103.509	17.316	187.309	0.534
877.000	521.850	79.999	19.995	103.503	17.322	186.945	0.543
877.500	522.060	79.999	19.995	103.496	17.330	186.382	0.537
878.000	522.303	79.999	19.996	103.488	17.338	185.864	0.488
878.500	522.566	80.000	19.997	103.483	17.349	185.092	0.479
879.000	522.836	79.999	19.995	103.478	17.358	184.505	0.520
879.500	523.067	80.000	19.995	103.476	17.370	183.678	0.517
880.000	523.352	80.001	19.997	103.476	17.386	182.592	0.509
880.500	523.605	80.000	19.995	103.477	17.398	181.816	0.527
881.000	523.880	80.001	19.994	103.476	17.413	180.833	0.532
881.500	524.141	79.999	19.995	103.477	17.429	179.762	0.532
882.000	524.348	79.999	19.996	103.479	17.444	178.773	0.502
882.500	524.653	79.999	19.995	103.483	17.463	177.435	0.490
883.000	524.895	80.000	19.995	103.479	17.477	176.529	0.530
883.500	525.159	79.999	19.995	103.471	17.498	175.126	0.526
884.000	525.401	79.999	19.997	103.463	17.515	173.935	0.506
884.500	525.622	80.000	19.991	103.453	17.536	172.549	0.485
885.000	525.895	79.999	19.993	103.447	17.559	171.020	0.479
885.500	526.138	80.000	19.995	103.447	17.577	169.788	0.505
886.000	526.385	79.998	19.995	103.454	17.598	168.315	0.503
886.500	526.675	80.000	19.994	103.459	17.626	166.439	0.514
887.000	526.906	80.001	19.996	103.460	17.647	165.030	0.529
887.500	527.132	79.998	19.994	103.455	17.678	162.912	0.489
888.000	527.404	80.000	19.996	103.450	17.700	161.422	0.477
888.500	527.658	79.999	19.994	103.442	17.725	159.742	0.513
889.000	527.926	79.999	19.995	103.437	17.750	158.074	0.524
889.500	528.182	79.998	19.994	103.435	17.780	156.035	0.522
890.000	528.439	79.998	19.993	103.436	17.811	153.981	0.518
890.500	528.715	79.997	19.994	103.436	17.837	152.217	0.523
891.000	528.951	79.999	19.995	103.439	17.870	150.033	0.522
891.500	529.200	79.999	19.996	103.444	17.898	148.125	0.498
892.000	529.466	79.999	19.996	103.450	17.924	146.363	0.500
892.500	529.713	80.000	19.994	103.449	17.963	143.744	0.514
893.000	529.961	79.998	19.993	103.449	17.994	141.649	0.504
893.500	530.205	79.998	19.996	103.446	18.021	139.827	0.494
894.000	530.501	79.999	19.996	103.440	18.061	137.160	0.516
894.500	530.732	80.000	19.993	103.434	18.091	135.153	0.534
895.000	530.966	79.998	19.996	103.433	18.125	132.818	0.496
895.500	531.253	79.999	19.994	103.431	18.158	130.622	0.493
896.001	531.493	79.997	19.995	103.428	18.188	128.584	0.524
896.501	531.740	79.999	19.995	103.424	18.225	126.124	0.506
897.000	531.990	79.999	19.993	103.411	18.258	123.938	0.492
897.500	532.258	80.000	19.996	103.396	18.297	121.336	0.508
898.000	532.522	80.001	19.995	103.381	18.322	119.655	0.525
898.500	532.757	80.001	19.995	103.365	18.356	117.324	0.515
899.000	533.029	79.999	19.993	103.352	18.391	115.022	0.504
899.500	533.288	79.999	19.997	103.348	18.424	112.777	0.520
900.000	533.520	79.999	19.994	103.348	18.460	110.386	0.511
900.500	533.777	80.000	19.996	103.348	18.491	108.327	0.490
901.000	534.035	80.000	19.996	103.351	18.525	105.987	0.501
901.500	534.298	79.998	19.995	103.354	18.560	103.638	0.518
902.000	534.562	80.001	19.996	103.351	18.592	101.517	0.524
902.500	534.823	80.001	19.997	103.344	18.626	99.225	0.527
903.000	535.080	80.000	19.995	103.337	18.660	96.930	0.522
903.500	535.316	79.999	19.996	103.330	18.691	94.868	0.505
904.000	535.601	79.997	19.996	103.322	18.718	93.034	0.507
904.500	535.876	80.000	19.994	103.313	18.754	90.641	0.541
905.000	536.085	80.000	19.995	103.305	18.788	88.390	0.522
905.500	536.346	80.000	19.995	103.296	18.814	86.590	0.476
906.000	536.591	80.001	19.995	103.291	18.845	84.555	0.488
906.500	536.857	80.001	19.995	103.288	18.876	82.447	0.509
907.000	537.144	79.999	19.994	103.285	18.907	80.407	0.533
907.500	537.375	80.002	19.995	103.287	18.931	78.741	0.536
908.000	537.652	80.001	19.995	103.287	18.959	76.871	0.513
908.500	537.882	80.000	19.995	103.283	18.989	74.888	0.507
909.000	538.134	80.001	19.995	103.275	19.017	73.006	0.494
909.500	538.408	80.001	19.995	103.275	19.037	71.675	0.504
910.000	538.610	80.002	19.994	103.272	19.069	69.496	0.501
910.500	538.900	80.001	19.995	103.271	19.094	67.867	0.484
911.000	539.174	80.001	19.994	103.270	19.117	66.325	0.528
911.500	539.440	80.001	19.995	103.268	19.143	64.580	0.552
912.000	539.688	80.002	19.995	103.263	19.165	63.069	0.527
912.500	539.914	80.001	19.994	103.263	19.186	61.652	0.494
913.000	540.195	80.002	19.996	103.262	19.209	60.151	0.491
913.500	540.454	80.003	19.996	103.257	19.229	58.782	0.523
914.000	540.687	80.001	19.995	103.253	19.250	57.401	0.516
914.500	540.954	80.001	19.993	103.249	19.269	56.119	0.496
915.000	541.198	80.003	19.994	103.237	19.290	54.733	0.505
915.500	541.446	80.001	19.994	103.225	19.312	53.217	0.501
916.000	541.748	80.004	19.995	103.219	19.335	51.717	0.521
916.500	542.013	80.001	19.994	103.218	19.349	50.726	0.559
917.000	542.250	80.001	19.995	103.213	19.373	49.137	0.534
917.500	542.501	80.003	19.994	103.207	19.382	48.544	0.494
918.000	542.745	80.001	19.994	103.199	19.399	47.380	0.492
918.500	542.974	80.003	19.996	103.193	19.418	46.115	0.484
919.000	543.252	80.001	19.994	103.186	19.438	44.819	0.490
919.500	543.518	80.001	19.994	103.185	19.451	43.927	0.525
920.000	543.768	80.000	19.995	103.181	19.465	42.970	0.530
920.500	544.010	80.002	19.992	103.179	19.478	42.155	0.505
921.000	544.250	80.001	19.991	103.175	19.490	41.307	0.487
921.500	544.489	80.002	19.995	103.171	19.503	40.468	0.480
922.000	544.756	80.001	19.995	103.164	19.520	39.318	0.492
922.500	544.998	80.000	19.996	103.161	19.536	38.271	0.508
923.000	545.277	80.001	19.994	103.161	19.542	37.833	0.515
923.500	545.519	80.002	19.995	103.161	19.557	36.842	0.521
924.000	545.772	80.001	19.995	103.158	19.567	36.202	0.508
924.500	546.025	80.001	19.995	103.158	19.579	35.355	0.501
925.000	546.277	80.000	19.997	103.153	19.593	34.399	0.506
925.500	546.504	80.000	19.993	103.146	19.603	33.757	0.492
926.000	546.780	80.000	19.993	103.138	19.618	32.768	0.491
926.500	547.017	80.001	19.994	103.134	19.621	32.538	0.509
927.000	547.260	80.001	19.995	103.129	19.632	31.805	0.497
927.500	547.567	80.001	19.995	103.129	19.650	30.609	0.515
928.000	547.805	80.001	19.996	103.128	19.652	30.501	0.547
928.500	548.057	80.001	19.995	103.130	19.660	29.968	0.517
929.000	548.278	80.001	19.996	103.126	19.668	29.433	0.481
929.500	548.560	80.001	19.996	103.123	19.681	28.558	0.488
930.000	548.816	80.000	19.997	103.119	19.689	27.990	0.520
930.500	549.062	80.000	19.997	103.119	19.692	27.825	0.519
931.000	549.332	80.000	19.996	103.118	19.705	26.922	0.509
931.500	549.584	80.001	19.995	103.119	19.714	26.304	0.519
932.000	549.830	79.999	19.995	103.120	19.720	25.919	0.510
932.500	550.082	80.001	19.994	103.121	19.728	25.370	0.498
933.000	550.353	79.999	19.995	103.122	19.733	25.067	0.511
933.500	550.588	80.000	19.995	103.122	19.741	24.546	0.515
934.000	550.877	80.000	19.994	103.121	19.746	24.194	0.515
934.500	551.138	80.000	19.994	103.121	19.753	23.731	0.537
935.000	551.382	80.002	19.996	103.120	19.759	23.308	0.527
935.500	551.609	80.003	19.994	103.120	19.765	22.886	0.488
936.000	551.893	80.002	19.995	103.120	19.771	22.486	0.491
936.500	552.147	80.001	19.995	103.119	19.775	22.226	0.525
937.000	552.375	80.002	19.995	103.118	19.780	21.882	0.510
937.500	552.654	80.004	19.995	103.117	19.786	21.533	0.495
938.000	552.904	80.003	19.996	103.111	19.786	21.515	0.518
938.500	553.140	80.002	19.995	103.106	19.796	20.835	0.507
939.000	553.435	80.001	19.996	103.101	19.798	20.702	0.508
939.500	553.683	80.002	19.994	103.095	19.806	20.143	0.537
940.000	553.946	80.003	19.995	103.092	19.808	20.069	0.527
940.500	554.211	80.003	19.996	103.091	19.817	19.421	0.520
941.000	554.449	80.002	19.995	103.089	19.825	18.886	0.516
941.500	554.708	80.002	19.995	103.090	19.827	18.757	0.500
942.000	554.985	80.001	19.995	103.090	19.832	18.422	0.516
942.500	555.216	80.002	19.995	103.085	19.829	18.608	0.522
943.000	555.488	80.002	19.995	103.086	19.834	18.273	0.506
943.500	555.766	80.002	19.994	103.093	19.843	17.727	0.527
944.000	556.002	80.002	19.995	103.092	19.843	17.680	0.532
944.500	556.286	80.002	19.995	103.094	19.841	17.839	0.517
945.000	556.546	80.002	19.994	103.095	19.847	17.463	0.532
945.500	556.805	80.001	19.996	103.095	19.847	17.447	0.531
946.000	557.032	79.999	19.994	103.088	19.857	16.792	0.502
946.500	557.285	80.000	19.995	103.088	19.856	16.847	0.483
947.000	557.543	80.001	19.995	103.083	19.863	16.346	0.495
947.500	557.789	79.999	19.996	103.077	19.863	16.382	0.508
948.000	558.047	80.000	19.996	103.074	19.866	16.148	0.504
948.500	558.304	79.999	19.995	103.073	19.878	15.389	0.510
949.000	558.534	80.000	19.995	103.072	19.875	15.570	0.501
949.501	558.825	80.000	19.995	103.071	19.877	15.419	0.504
950.000	559.085	79.998	19.995	103.074	19.879	15.308	0.537
950.500	559.326	79.998	19.996	103.075	19.879	15.267	0.526
951.000	559.585	79.999	19.996	103.077	19.884	14.973	0.500
951.500	559.847	79.999	19.995	103.078	19.886	14.833	0.511
952.000	560.102	80.000	19.996	103.081	19.887	14.728	0.519
952.500	560.333	79.998	19.996	103.083	19.891	14.493	0.501
953.000	560.628	79.999	19.996	103.084	19.895	14.215	0.506
953.500	560.859	79.997	19.996	103.083	19.897	14.062	0.526
954.000	561.129	79.999	19.996	103.082	19.895	14.254	0.513
954.500	561.390	80.000	19.993	103.083	19.900	13.882	0.516
955.000	561.680	80.000	19.995	103.083	19.904	13.606	0.541
955.500	561.918	79.997	19.996	103.084	19.906	13.504	0.540
956.000	562.206	79.998	19.994	103.089	19.906	13.504	0.528
956.500	562.412	79.998	19.997	103.096	19.908	13.340	0.510
957.000	562.686	79.999	19.994	103.099	19.909	13.292	0.487
957.500	562.975	79.999	19.997	103.101	19.915	12.914	0.522
958.000	563.230	79.998	19.996	103.105	19.914	12.953	0.554
958.500	563.449	79.999	19.995	103.100	19.914	12.946	0.509
959.000	563.731	79.998	19.994	103.095	19.913	13.035	0.487
959.500	563.963	79.999	19.996	103.091	19.917	12.732	0.507
960.000	564.220	79.999	19.997	103.085	19.917	12.728	0.502
960.500	564.504	79.998	19.996	103.078	19.921	12.472	0.516
961.000	564.721	79.999	19.996	103.072	19.923	12.331	0.521
961.500	564.978	80.000	19.996	103.066	19.922	12.393	0.487
962.000	565.266	79.997	19.996	103.060	19.922	12.401	0.510
962.500	565.519	79.999	19.996	103.058	19.925	12.191	0.543
963.000	565.751	79.999	19.995	103.054	19.923	12.323	0.513
963.500	566.040	79.998	19.994	103.051	19.926	12.161	0.503
964.000	566.321	79.997	19.997	103.049	19.926	12.178	0.545
964.500	566.523	79.999	19.996	103.054	19.929	11.967	0.527
965.000	566.788	79.999	19.996	103.057	19.925	12.233	0.475
965.500	567.055	79.998	19.997	103.063	19.924	12.257	0.499
966.000	567.267	79.998	19.997	103.071	19.930	11.881	0.505
966.500	567.573	79.999	19.996	103.077	19.935	11.515	0.498
967.000	567.804	79.999	19.996	103.072	19.936	11.504	0.528
967.500	568.055	79.999	19.995	103.067	19.937	11.400	0.510
968.000	568.360	79.998	19.996	103.064	19.938	11.332	0.519
968.501	568.607	79.998	19.997	103.060	19.934	11.609	0.554
969.000	568.866	80.000	19.999	103.061	19.936	11.462	0.529
969.500	569.100	79.999	19.996	103.068	19.942	11.107	0.500
970.000	569.368	79.999	19.996	103.072	19.943	11.001	0.497
970.500	569.616	80.000	19.995	103.071	19.947	10.739	0.509
971.000	569.886	80.000	19.996	103.068	19.941	11.136	0.517
971.500	570.135	80.001	19.995	103.065	19.941	11.151	0.519
972.000	570.400	79.999	19.994	103.064	19.946	10.802	0.517
972.500	570.644	80.000	19.994	103.065	19.945	10.892	0.512
973.000	570.906	80.000	19.995	103.068	19.942	11.049	0.508
973.500	571.118	80.000	19.996	103.075	19.944	10.939	0.490
974.000	571.385	80.001	19.996	103.073	19.947	10.753	0.476
974.500	571.620	80.000	19.997	103.067	19.942	11.068	0.491
975.000	571.892	79.999	19.995	103.059	19.953	10.368	0.505
975.500	572.125	80.000	19.995	103.053	19.953	10.347	0.506
976.000	572.400	80.001	19.995	103.046	19.949	10.624	0.507
976.500	572.705	80.000	19.995	103.043	19.952	10.393	0.545
977.000	572.946	79.998	19.996	103.043	19.955	10.188	0.563
977.500	573.181	79.999	19.995	103.044	19.950	10.540	0.510
978.000	573.456	80.000	19.994	103.045	19.958	10.036	0.493
978.500	573.680	80.000	19.995	103.045	19.953	10.378	0.505
979.000	573.941	80.000	19.996	103.046	19.958	9.982	0.493
979.500	574.231	79.999	19.995	103.045	19.957	10.056	0.518
980.000	574.502	79.999	19.995	103.045	19.953	10.314	0.556
980.500	574.791	79.999	19.996	103.043	19.953	10.376	0.561
981.000	575.061	80.000	19.995	103.045	19.956	10.171	0.560
981.500	575.316	79.999	19.995	103.050	19.959	9.948	0.542
982.000	575.543	79.998	19.994	103.055	19.957	10.089	0.503
982.500	575.801	79.999	19.995	103.063	19.958	9.985	0.483
983.000	576.041	79.998	19.995	103.071	19.960	9.890	0.491
983.500	576.297	79.999	19.994	103.076	19.958	10.002	0.497
984.000	576.554	79.998	19.994	103.072	19.961	9.781	0.505
984.501	576.833	79.999	19.996	103.068	19.959	9.918	0.525
985.001	577.064	80.000	19.996	103.061	19.963	9.649	0.523
985.500	577.350	80.000	19.995	103.056	19.962	9.777	0.514
986.000	577.574	80.000	19.995	103.055	19.959	9.920	0.514
986.500	577.844	79.999	19.994	103.060	19.967	9.438	0.502
987.000	578.070	80.001	19.995	103.065	19.960	9.863	0.495
987.500	578.327	80.000	19.995	103.066	19.968	9.324	0.489
988.000	578.613	79.999	19.995	103.067	19.964	9.587	0.513
988.500	578.871	80.000	19.995	103.067	19.962	9.741	0.544
989.000	579.138	80.000	19.994	103.064	19.964	9.626	0.534
989.500	579.410	79.999	19.995	103.059	19.966	9.468	0.532
990.000	579.666	80.000	19.997	103.060	19.968	9.371	0.534
990.500	579.918	80.000	19.996	103.064	19.967	9.387	0.518
991.000	580.173	80.000	19.995	103.061	19.967	9.396	0.507
991.500	580.409	80.000	19.995	103.059	19.968	9.333	0.499
992.001	580.672	79.998	19.994	103.061	19.968	9.335	0.495
992.501	580.949	80.001	19.995	103.063	19.967	9.415	0.519
993.000	581.193	80.001	19.995	103.063	19.969	9.296	0.530
993.500	581.418	80.001	19.995	103.068	19.971	9.144	0.495
994.000	581.729	80.002	19.995	103.075	19.968	9.318	0.503
994.500	581.967	80.001	19.995	103.079	19.970	9.225	0.542
995.000	582.215	80.001	19.994	103.078	19.971	9.135	0.517
995.500	582.483	80.001	19.995	103.078	19.970	9.223	0.501
996.000	582.735	80.001	19.994	103.077	19.970	9.217	0.518
996.500	582.999	80.000	19.994	103.078	19.974	8.921	0.518
997.000	583.255	80.001	19.995	103.078	19.979	8.615	0.518
997.500	583.494	80.003	19.995	103.077	19.975	8.905	0.507
998.000	583.727	80.001	19.994	103.075	19.972	9.097	0.484
998.500	583.996	80.002	19.995	103.068	19.979	8.614	0.487
999.000	584.275	80.001	19.994	103.065	19.976	8.820	0.525
999.500	584.499	80.000	19.994	103.062	19.976	8.789	0.525
1000.000	584.733	79.999	19.994	103.063	19.976	8.833	0.480
1000.500	585.033	80.000	19.994	103.062	19.978	8.697	0.496
1001.000	585.263	79.999	19.995	103.063	19.977	8.759	0.532
1001.500	585.516	80.000	19.994	103.057	19.973	8.979	0.507
1002.000	585.792	80.000	19.995	103.055	19.976	8.796	0.506
1002.500	586.077	80.001	19.994	103.050	19.973	8.985	0.544
1003.000	586.312	80.000	19.995	103.046	19.979	8.605	0.540
1003.500	586.561	80.000	19.995	103.046	19.979	8.615	0.502
1004.000	586.836	80.000	19.994	103.047	19.982	8.391	0.504
1004.500	587.063	79.999	19.993	103.045	19.977	8.711	0.513
1005.000	587.367	79.999	19.994	103.045	19.977	8.757	0.517
1005.500	587.608	79.999	19.994	103.046	19.975	8.893	0.538
1006.000	587.851	80.000	19.995	103.046	19.980	8.567	0.515
1006.500	588.068	79.999	19.994	103.046	19.981	8.468	0.472
1007.000	588.340	80.001	19.993	103.046	19.979	8.630	0.475
1007.500	588.617	80.002	19.994	103.047	19.979	8.627	0.519
1008.000	588.873	80.001	19.994	103.047	19.978	8.671	0.541
1008.500	589.119	80.000	19.994	103.049	19.978	8.664	0.517
1009.000	589.387	80.000	19.994	103.050	19.975	8.875	0.508
1009.500	589.631	80.001	19.994	103.051	19.979	8.596	0.513
1010.000	589.878	80.002	19.994	103.048	19.981	8.467	0.502
1010.500	590.182	80.000	19.994	103.048	19.980	8.532	0.521
1011.000	590.455	80.002	19.994	103.045	19.982	8.433	0.564
1011.500	590.673	80.000	19.996	103.043	19.977	8.767	0.534
1012.001	590.883	80.002	19.995	103.041	19.983	8.359	0.459
1012.500	591.161	80.002	19.995	103.045	19.981	8.472	0.458
1013.000	591.446	80.002	19.996	103.047	19.983	8.351	0.526
1013.500	591.683	80.001	19.994	103.049	19.983	8.327	0.542
1014.000	591.952	80.000	19.994	103.052	19.983	8.360	0.514
1014.500	592.181	80.001	19.996	103.061	19.985	8.237	0.502
1015.001	592.466	80.001	19.994	103.066	19.985	8.233	0.506
1015.500	592.677	80.000	19.994	103.071	19.983	8.332	0.505
1016.000	592.932	80.001	19.995	103.077	19.989	7.912	0.481
1016.500	593.240	80.002	19.994	103.084	19.990	7.866	0.514
1017.000	593.443	80.002	19.995	103.085	19.986	8.138	0.537
1017.501	593.709	80.001	19.995	103.085	19.987	8.097	0.490
1018.001	594.029	80.001	19.994	103.089	19.991	7.806	0.528
1018.500	594.278	80.002	19.995	103.098	19.989	7.906	0.578
1019.000	594.585	80.002	19.995	103.105	19.991	7.828	0.563
1019.500	594.807	80.001	19.995	103.111	19.991	7.771	0.543
1020.000	595.052	80.002	19.995	103.111	19.993	7.698	0.498
1020.500	595.284	80.002	19.995	103.107	19.995	7.555	0.472
1021.000	595.568	80.001	19.995	103.096	19.996	7.494	0.497
1021.500	595.815	80.001	19.995	103.084	19.993	7.679	0.524
1022.000	596.094	80.001	19.994	103.076	19.991	7.787	0.529
1022.500	596.337	80.003	19.996	103.072	19.992	7.716	0.524
1023.000	596.544	80.002	19.996	103.070	19.993	7.651	0.486
1023.500	596.828	80.002	19.995	103.068	19.989	7.944	0.470
1024.000	597.083	80.003	19.995	103.068	19.994	7.578	0.515
1024.500	597.357	80.000	19.994	103.063	19.994	7.596	0.535
1025.000	597.608	80.001	19.995	103.058	19.993	7.647	0.527
1025.500	597.884	80.002	19.995	103.053	19.997	7.409	0.526
1026.000	598.117	80.001	19.995	103.056	19.993	7.662	0.518
1026.500	598.353	80.001	19.995	103.060	19.994	7.591	0.488
1027.000	598.649	80.001	19.996	103.066	19.995	7.542	0.500
1027.500	598.904	80.002	19.995	103.074	19.993	7.694	0.542
1028.000	599.149	80.000	19.995	103.075	19.995	7.546	0.526
1028.500	599.450	80.001	19.996	103.067	19.992	7.733	0.523
1029.000	599.690	80.000	19.996	103.055	19.993	7.693	0.543
1029.500	599.925	80.000	19.996	103.039	19.995	7.572	0.508
1030.000	600.201	80.000	19.996	103.025	19.989	7.951	0.493
1030.501	600.461	79.999	19.996	103.022	19.994	7.609	0.524
1031.001	600.698	80.000	19.996	103.022	19.999	7.285	0.517
1031.500	600.978	79.999	19.996	103.027	19.993	7.704	0.507
1032.000	601.257	79.998	19.995	103.035	19.995	7.521	0.538
1032.500	601.499	79.999	19.996	103.040	19.997	7.400	0.540
1033.000	601.745	80.000	19.996	103.042	19.995	7.533	0.504
1033.500	601.992	80.000	19.996	103.050	19.998	7.350	0.490
1034.000	602.257	80.001	19.996	103.056	19.999	7.278	0.503
1034.500	602.527	79.999	19.995	103.061	19.997	7.419	0.524
1035.000	602.754	80.000	19.996	103.063	19.996	7.482	0.516
1035.500	603.016	80.000	19.995	103.061	19.999	7.247	0.493
1036.000	603.258	80.001	19.995	103.057	20.000	7.230	0.496
1036.500	603.537	79.999	19.996	103.055	19.999	7.294	0.513
1037.000	603.767	79.999	19.995	103.058	20.002	7.078	0.515
1037.500	604.026	80.001	19.996	103.060	19.998	7.348	0.499
1038.000	604.292	80.001	19.995	103.067	20.001	7.155	0.507
1038.501	604.549	80.000	19.996	103.073	19.999	7.273	0.524
1039.001	604.816	79.999	19.995	103.075	20.002	7.066	0.524
1039.500	605.038	79.999	19.994	103.075	19.999	7.260	0.507
1040.000	605.316	79.998	19.994	103.078	20.003	6.971	0.495
1040.500	605.581	79.999	19.995	103.078	20.003	6.985	0.521
1041.000	605.817	80.000	19.994	103.071	20.000	7.211	0.522
1041.501	606.077	80.001	19.996	103.065	20.004	6.934	0.498
1042.001	606.323	80.001	19.996	103.061	20.000	7.194	0.501
1042.501	606.593	80.000	19.995	103.061	20.005	6.864	0.511
1043.000	606.846	79.999	19.995	103.054	20.000	7.208	0.520
1043.500	607.128	80.002	19.995	103.054	20.001	7.115	0.530
1044.000	607.349	80.000	19.996	103.053	20.002	7.067	0.519
1044.500	607.688	79.999	19.995	103.054	20.006	6.793	0.531
1045.000	607.873	79.999	19.996	103.047	20.004	6.916	0.542
1045.500	608.164	80.000	19.995	103.047	20.006	6.809	0.500
1046.001	608.388	80.000	19.996	103.046	20.004	6.954	0.496
1046.501	608.653	80.000	19.995	103.044	20.005	6.859	0.503
1047.000	608.922	80.000	19.996	103.041	20.006	6.833	0.512
1047.500	609.134	80.001	19.996	103.040	20.008	6.681	0.507
1048.000	609.426	80.000	19.994	103.040	20.007	6.754	0.492
1048.500	609.666	80.001	19.995	103.041	20.006	6.823	0.518
1049.000	609.952	80.002	19.996	103.041	20.006	6.786	0.529
1049.500	610.179	80.000	19.995	103.041	20.006	6.808	0.519
1050.000	610.432	80.000	19.997	103.042	20.008	6.651	0.496
1050.500	610.676	80.000	19.996	103.043	20.009	6.583	0.488
1051.000	610.937	79.999	19.996	103.046	20.006	6.802	0.501
1051.500	611.219	79.999	19.996	103.047	20.008	6.694	0.524
1052.000	611.428	80.000	19.996	103.046	20.008	6.667	0.517
1052.500	611.697	80.000	19.996	103.042	20.010	6.557	0.485
1053.000	611.949	80.000	19.996	103.037	20.012	6.390	0.500
1053.500	612.226	80.000	19.996	103.033	20.009	6.584	0.525
1054.001	612.457	80.000	19.996	103.032	20.010	6.559	0.518
1054.501	612.710	80.000	19.996	103.033	20.010	6.511	0.496
1055.000	612.968	80.000	19.996	103.036	20.010	6.515	0.498
1055.500	613.215	79.999	19.996	103.040	20.011	6.473	0.508
1056.000	613.464	80.000	19.997	103.041	20.012	6.392	0.501
1056.500	613.747	79.999	19.996	103.041	20.010	6.539	0.514
1057.000	613.979	80.000	19.996	103.041	20.012	6.407	0.523
1057.500	614.217	79.999	19.997	103.040	20.013	6.334	0.493
1058.000	614.462	79.998	19.996	103.040	20.012	6.382	0.476
1058.500	614.760	79.998	19.996	103.040	20.014	6.235	0.513
1059.000	615.012	79.999	19.996	103.042	20.016	6.166	0.547
1059.500	615.304	79.999	19.996	103.047	20.014	6.239	0.547
1060.000	615.500	79.998	19.996	103.049	20.012	6.413	0.516
1060.500	615.774	79.998	19.996	103.050	20.014	6.290	0.479
1061.000	616.038	79.999	19.996	103.051	20.017	6.052	0.504
1061.500	616.297	80.000	19.996	103.049	20.017	6.052	0.531
1062.000	616.544	80.000	19.997	103.045	20.018	6.012	0.514
1062.500	616.800	79.999	19.996	103.043	20.017	6.052	0.504
1063.000	617.079	79.998	19.996	103.043	20.020	5.883	0.519
1063.501	617.331	79.998	19.996	103.045	20.018	5.975	0.533
1064.001	617.585	80.000	19.995	103.046	20.017	6.041	0.518
1064.501	617.817	79.999	19.995	103.046	20.017	6.096	0.496
1065.001	618.076	80.000	19.995	103.046	20.022	5.713	0.489
1065.501	618.325	79.999	19.996	103.046	20.019	5.905	0.499
1066.000	618.567	79.999	19.995	103.044	20.020	5.870	0.499
1066.500	618.838	80.001	19.996	103.044	20.021	5.801	0.502
1067.000	619.093	79.998	19.996	103.046	20.021	5.790	0.519
1067.501	619.361	80.001	19.994	103.047	20.020	5.870	0.524
1068.001	619.591	79.999	19.996	103.050	20.019	5.911	0.510
1068.500	619.883	79.999	19.995	103.055	20.026	5.458	0.510
1069.000	620.124	80.000	19.995	103.058	20.022	5.709	0.527
1069.500	620.365	80.000	19.996	103.056	20.020	5.863	0.507
1070.001	620.630	79.999	19.994	103.056	20.025	5.550	0.494
1070.501	620.894	80.000	19.994	103.055	20.025	5.546	0.518
1071.000	621.155	80.000	19.995	103.053	20.022	5.740	0.527
1071.500	621.401	80.002	19.995	103.053	20.021	5.797	0.516
1072.000	621.658	80.001	19.995	103.052	20.021	5.788	0.506
1072.500	621.905	80.000	19.995	103.051	20.023	5.687	0.503
1073.000	622.173	80.000	19.995	103.051	20.026	5.497	0.509
1073.500	622.417	80.000	19.994	103.049	20.022	5.760	0.513
1074.000	622.625	80.001	19.995	103.047	20.025	5.508	0.482
1074.500	622.919	80.001	19.995	103.046	20.026	5.447	0.477
1075.000	623.182	80.002	19.995	103.047	20.024	5.608	0.530
1075.500	623.419	80.001	19.994	103.046	20.026	5.446	0.528
1076.001	623.703	80.001	19.996	103.046	20.026	5.435	0.511
1076.501	623.950	80.000	19.994	103.045	20.024	5.609	0.526
1077.001	624.195	80.002	19.994	103.045	20.025	5.533	0.511
1077.500	624.473	80.000	19.996	103.045	20.028	5.332	0.508
1078.000	624.715	80.001	19.995	103.046	20.030	5.208	0.522
1078.500	624.955	80.002	19.995	103.046	20.029	5.250	0.501
1079.000	625.226	80.001	19.994	103.046	20.026	5.436	0.496
1079.500	625.473	80.001	19.995	103.046	20.031	5.116	0.515
1080.000	625.748	80.003	19.995	103.046	20.029	5.272	0.520
1080.501	625.992	80.002	19.995	103.045	20.028	5.361	0.520
1081.001	626.255	80.002	19.995	103.046	20.028	5.299	0.513
1081.500	626.507	80.002	19.995	103.046	20.030	5.226	0.511
1082.000	626.719	80.001	19.995	103.046	20.029	5.290	0.490
1082.500	627.007	80.001	19.995	103.046	20.031	5.109	0.483
1083.000	627.211	80.001	19.994	103.046	20.029	5.235	0.496
1083.500	627.476	80.001	19.994	103.045	20.029	5.246	0.480
1084.000	627.768	80.001	19.994	103.045	20.032	5.048	0.513
1084.500	627.979	80.001	19.994	103.045	20.033	4.971	0.530
1085.000	628.258	80.001	19.994	103.046	20.030	5.165	0.497
1085.500	628.486	80.002	19.995	103.046	20.029	5.239	0.499
1086.001	628.756	80.002	19.994	103.046	20.034	4.920	0.503
1086.501	629.011	80.001	19.994	103.046	20.034	4.935	0.511
1087.000	629.266	79.999	19.994	103.046	20.028	5.297	0.517
1087.500	629.504	80.001	19.995	103.047	20.029	5.277	0.502
1088.000	629.749	80.001	19.994	103.047	20.029	5.248	0.488
1088.500	630.048	80.001	19.994	103.047	20.036	4.793	0.513
1089.000	630.284	80.001	19.995	103.048	20.033	4.975	0.539
1089.500	630.545	80.002	19.995	103.048	20.032	5.054	0.516
1090.000	630.806	80.001	19.994	103.048	20.031	5.154	0.510
1090.500	631.026	80.001	19.995	103.047	20.032	5.032	0.501
1091.000	631.298	80.001	19.995	103.046	20.032	5.063	0.486
1091.500	631.558	80.000	19.995	103.046	20.033	4.966	0.512
1092.000	631.813	80.000	19.995	103.046	20.035	4.878	0.524
1092.501	632.081	80.002	19.994	103.045	20.033	4.989	0.519
1093.001	632.373	80.002	19.996	103.046	20.033	5.011	0.541
1093.500	632.605	80.001	19.995	103.045	20.034	4.938	0.542
1094.000	632.832	80.001	19.994	103.044	20.035	4.874	0.492
1094.500	633.100	80.001	19.996	103.044	20.032	5.059	0.477
1095.000	633.353	80.001	19.996	103.044	20.035	4.863	0.508
1095.500	633.625	80.001	19.995	103.043	20.034	4.940	0.523
1096.000	633.900	80.002	19.995	103.044	20.037	4.753	0.536
1096.501	634.132	80.001	19.995	103.045	20.035	4.845	0.527
1097.001	634.378	80.001	19.994	103.045	20.033	4.971	0.492
1097.501	634.678	80.002	19.994	103.044	20.038	4.639	0.512
1098.001	634.939	80.001	19.995	103.044	20.036	4.773	0.553
1098.500	635.235	80.001	19.994	103.043	20.037	4.729	0.559
1099.000	635.447	80.002	19.995	103.042	20.035	4.854	0.533
1099.500	635.712	80.002	19.995	103.042	20.033	4.987	0.492
1100.000	636.022	80.001	19.994	103.043	20.037	4.725	0.526
1100.500	636.253	80.003	19.994	103.043	20.033	5.026	0.558
1101.000	636.503	80.002	19.994	103.043	20.040	4.550	0.511
1101.500	636.773	80.002	19.994	103.042	20.041	4.440	0.500
1102.000	637.009	80.003	19.995	103.042	20.035	4.832	0.513
1102.500	637.293	80.003	19.993	103.040	20.040	4.543	0.513
1103.000	637.577	80.003	19.993	103.040	20.038	4.629	0.545
1103.500	637.790	80.002	19.994	103.040	20.040	4.504	0.533
1104.000	638.045	80.003	19.994	103.041	20.039	4.616	0.482
1104.500	638.330	80.002	19.994	103.041	20.042	4.420	0.504
1105.001	638.572	80.002	19.994	103.041	20.037	4.716	0.533
1105.501	638.838	80.003	19.996	103.040	20.040	4.498	0.518
1106.000	639.114	80.003	19.993	103.041	20.040	4.546	0.525
1106.500	639.382	80.002	19.994	103.040	20.042	4.425	0.543
1107.000	639.612	80.001	19.994	103.040	20.041	4.491	0.521
1107.500	639.923	80.002	19.994	103.039	20.040	4.510	0.519
1108.000	640.108	80.002	19.994	103.037	20.044	4.275	0.519
1108.500	640.396	80.001	19.994	103.037	20.039	4.596	0.485
1109.000	640.622	80.002	19.994	103.036	20.041	4.455	0.494
1109.500	640.908	80.002	19.993	103.037	20.045	4.224	0.513
1110.000	641.163	80.001	19.995	103.034	20.042	4.405	0.526
1110.500	641.435	80.002	19.994	103.036	20.043	4.335	0.534
1111.000	641.669	80.000	19.994	103.036	20.039	4.590	0.517
1111.500	641.947	80.001	19.995	103.036	20.042	4.421	0.509
1112.000	642.183	79.999	19.994	103.035	20.042	4.405	0.513
1112.500	642.434	79.999	19.995	103.039	20.043	4.323	0.501
1113.000	642.737	80.000	19.994	103.039	20.039	4.588	0.521
1113.501	642.965	79.999	19.994	103.040	20.042	4.392	0.543
1114.001	643.236	79.999	19.994	103.040	20.040	4.499	0.515
1114.500	643.538	79.999	19.994	103.041	20.041	4.458	0.536
1115.000	643.774	80.000	19.995	103.040	20.042	4.380	0.555
1115.500	644.043	79.999	19.994	103.037	20.042	4.362	0.521
1116.000	644.324	80.000	19.995	103.037	20.042	4.373	0.528
1116.500	644.538	79.999	19.995	103.036	20.041	4.451	0.522
1117.001	644.785	79.999	19.996	103.036	20.039	4.583	0.478
1117.501	645.020	79.998	19.995	103.036	20.044	4.255	0.472
1118.000	645.275	79.999	19.995	103.039	20.043	4.328	0.486
1118.500	645.557	79.999	19.995	103.040	20.042	4.400	0.513
1119.000	645.812	79.999	19.995	103.042	20.041	4.431	0.537
1119.500	646.036	79.998	19.995	103.041	20.040	4.517	0.508
1120.000	646.304	79.999	19.996	103.037	20.039	4.625	0.486
1120.500	646.597	79.998	19.995	103.030	20.041	4.455	0.526
1121.000	646.848	80.000	19.996	103.027	20.038	4.669	0.552
1121.501	647.135	80.000	19.996	103.027	20.043	4.336	0.541
1122.001	647.350	79.999	19.995	103.028	20.042	4.372	0.520
1122.501	647.592	80.000	19.996	103.033	20.044	4.283	0.480
1123.001	647.855	79.999	19.997	103.038	20.041	4.471	0.481
1123.501	648.125	79.998	19.996	103.040	20.042	4.390	0.519
1124.001	648.377	79.999	19.995	103.040	20.047	4.064	0.528
1124.501	648.632	80.000	19.995	103.042	20.043	4.310	0.514
1125.000	648.883	79.998	19.996	103.042	20.042	4.370	0.506
1125.500	649.176	80.000	19.995	103.044	20.044	4.243	0.525
1126.000	649.415	80.000	19.997	103.047	20.041	4.459	0.538
1126.500	649.685	80.000	19.996	103.047	20.040	4.505	0.520
1127.001	649.952	79.999	19.996	103.046	20.044	4.282	0.522
1127.501	650.210	80.000	19.996	103.046	20.046	4.160	0.531
1128.001	650.476	80.000	19.995	103.045	20.043	4.321	0.525
1128.500	650.727	79.999	19.995	103.042	20.043	4.308	0.521
1129.000	650.972	80.000	19.995	103.041	20.046	4.133	0.507
1129.500	651.235	79.999	19.995	103.041	20.042	4.372	0.502
1130.000	651.499	80.000	19.995	103.040	20.042	4.383	0.518
1130.500	651.764	80.001	19.995	103.041	20.047	4.036	0.528
1131.000	651.996	80.000	19.995	103.043	20.047	4.047	0.513
1131.500	652.208	80.000	19.995	103.044	20.043	4.328	0.470
1132.000	652.502	80.000	19.995	103.044	20.042	4.415	0.475
1132.500	652.771	79.999	19.995	103.041	20.039	4.588	0.535
1133.000	653.005	80.000	19.995	103.041	20.046	4.123	0.533
1133.500	653.272	80.000	19.996	103.041	20.042	4.391	0.502
1134.000	653.531	80.000	19.995	103.040	20.040	4.497	0.514
1134.500	653.783	80.000	19.995	103.037	20.042	4.367	0.519
1135.000	654.030	80.001	19.995	103.035	20.040	4.495	0.505
1135.500	654.282	80.000	19.994	103.031	20.043	4.312	0.499
1136.000	654.556	79.999	19.995	103.024	20.040	4.539	0.513
1136.500	654.847	79.999	19.995	103.020	20.043	4.306	0.545
1137.000	655.114	79.999	19.995	103.023	20.046	4.096	0.562
1137.500	655.330	80.000	19.994	103.028	20.042	4.394	0.520
1138.000	655.598	80.000	19.994	103.031	20.043	4.312	0.483
1138.500	655.871	80.000	19.997	103.038	20.048	4.001	0.512
1139.000	656.110	79.998	19.996	103.043	20.045	4.177	0.527
1139.500	656.386	79.998	19.996	103.045	20.047	4.068	0.514
1140.000	656.625	79.999	19.996	103.045	20.048	4.024	0.515
1140.501	656.860	80.000	19.995	103.045	20.048	4.021	0.494
1141.001	657.140	79.999	19.995	103.044	20.046	4.136	0.494
1141.501	657.365	79.999	19.995	103.044	20.046	4.142	0.510
1142.001	657.646	79.999	19.995	103.044	20.046	4.134	0.506
1142.501	657.880	79.999	19.995	103.043	20.047	4.072	0.510
1143.001	658.116	79.998	19.996	103.043	20.044	4.241	0.492
1143.500	658.382	79.999	19.996	103.043	20.044	4.268	0.486
1144.000	658.683	79.999	19.995	103.043	20.043	4.310	0.534
1144.500	658.946	79.999	19.996	103.043	20.047	4.034	0.566
1145.001	659.157	79.998	19.996	103.043	20.049	3.959	0.519
1145.501	659.438	79.998	19.997	103.042	20.048	3.961	0.483
1146.000	659.659	79.999	19.995	103.040	20.048	4.001	0.497
1146.500	659.903	79.999	19.995	103.040	20.046	4.112	0.483
1147.000	660.171	79.998	19.995	103.042	20.043	4.303	0.489
1147.500	660.447	79.999	19.996	103.042	20.046	4.127	0.529
1148.000	660.704	79.999	19.995	103.043	20.043	4.327	0.538
1148.500	660.942	79.999	19.996	103.045	20.046	4.103	0.514
1149.000	661.199	79.998	19.996	103.044	20.047	4.071	0.496
1149.500	661.449	79.998	19.996	103.044	20.045	4.167	0.501
1150.000	661.712	79.998	19.996	103.044	20.045	4.177	0.510
1150.500	661.977	79.997	19.996	103.042	20.047	4.077	0.520
1151.000	662.232	79.999	19.996	103.041	20.045	4.185	0.524
1151.500	662.475	79.999	19.995	103.041	20.047	4.030	0.509
1152.001	662.763	79.997	19.994	103.040	20.046	4.114	0.514
1152.501	663.027	80.000	19.996	103.040	20.043	4.319	0.542
1153.001	663.296	80.000	19.997	103.042	20.044	4.254	0.542
1153.501	663.539	79.999	19.998	103.043	20.045	4.208	0.522
1154.000	663.782	79.999	19.997	103.046	20.047	4.078	0.499
1154.500	664.047	79.999	19.997	103.048	20.048	3.980	0.497
1155.000	664.249	80.000	19.997	103.047	20.047	4.039	0.488
1155.500	664.529	80.001	19.995	103.047	20.048	4.004	0.475
1156.000	664.776	80.001	19.994	103.046	20.049	3.916	0.504
1156.500	665.045	80.001	19.997	103.045	20.051	3.794	0.521
1157.000	665.304	80.001	19.995	103.045	20.047	4.046	0.522
1157.500	665.551	79.999	19.996	103.045	20.049	3.924	0.517
1158.000	665.810	80.001	19.997	103.045	20.049	3.938	0.506
1158.500	666.042	79.999	19.995	103.045	20.051	3.792	0.499
1159.001	666.337	80.001	19.997	103.041	20.051	3.821	0.509
1159.501	666.567	80.002	19.996	103.033	20.049	3.942	0.526
1160.000	666.832	80.001	19.996	103.027	20.053	3.678	0.509
1160.500	667.075	80.003	19.996	103.024	20.054	3.599	0.501
1161.000	667.348	80.001	19.996	103.020	20.050	3.845	0.512
1161.500	667.598	80.003	19.995	103.022	20.052	3.715	0.520
1162.000	667.860	80.001	19.995	103.028	20.048	4.015	0.518
1162.500	668.112	80.001	19.996	103.033	20.049	3.956	0.513
1163.000	668.367	80.001	19.994	103.028	20.048	3.998	0.510
1163.500	668.585	80.002	19.995	103.027	20.048	3.987	0.489
1164.000	668.849	80.000	19.995	103.020	20.049	3.901	0.477
1164.500	669.116	80.000	19.994	103.017	20.052	3.746	0.507
1165.000	669.358	80.003	19.993	103.018	20.049	3.927	0.520
1165.500	669.630	80.002	19.995	103.024	20.048	3.973	0.511
1166.000	669.900	80.002	19.995	103.029	20.050	3.874	0.528
1166.500	670.153	80.001	19.995	103.036	20.052	3.695	0.532
1167.000	670.409	80.002	19.995	103.038	20.046	4.136	0.516
1167.500	670.637	80.001	19.994	103.039	20.050	3.845	0.497
1168.000	670.909	80.000	19.995	103.040	20.051	3.783	0.492
1168.500	671.137	80.002	19.995	103.040	20.051	3.794	0.501
1169.000	671.419	80.001	19.995	103.040	20.051	3.781	0.505
1169.500	671.709	80.000	19.995	103.041	20.050	3.887	0.541
1170.000	671.927	80.002	19.995	103.041	20.049	3.896	0.540
1170.500	672.184	80.000	19.995	103.041	20.050	3.867	0.491
1171.000	672.431	80.001	19.994	103.039	20.049	3.915	0.489
1171.501	672.684	80.001	19.995	103.036	20.044	4.231	0.502
1172.001	672.960	80.002	19.994	103.034	20.050	3.865	0.515
1172.500	673.250	80.001	19.995	103.033	20.048	3.988	0.547
1173.000	673.519	80.002	19.995	103.031	20.046	4.149	0.563
1173.500	673.742	80.002	19.995	103.029	20.046	4.147	0.526
1174.000	674.014	80.001	19.995	103.031	20.049	3.944	0.493
1174.500	674.271	80.001	19.995	103.029	20.048	4.001	0.512
1175.000	674.528	80.002	19.995	103.028	20.046	4.149	0.522
1175.500	674.762	80.002	19.993	103.029	20.048	4.021	0.503
1176.000	675.032	80.002	19.996	103.034	20.047	4.030	0.497
1176.500	675.288	80.002	19.994	103.034	20.044	4.284	0.515
1177.000	675.565	80.002	19.995	103.038	20.048	4.019	0.529
1177.500	675.828	80.001	19.996	103.039	20.049	3.953	0.536
1178.000	676.074	80.003	19.995	103.039	20.047	4.046	0.524
1178.500	676.372	80.001	19.995	103.040	20.048	3.986	0.527
1179.000	676.562	80.003	19.995	103.042	20.050	3.891	0.516
1179.500	676.815	80.002	19.995	103.044	20.047	4.085	0.466
1180.000	677.107	80.003	19.995	103.044	20.049	3.938	0.494
1180.500	677.344	80.002	19.995	103.043	20.047	4.059	0.537
1181.000	677.565	80.003	19.994	103.043	20.050	3.838	0.493
1181.501	677.841	80.003	19.995	103.043	20.048	3.981	0.478
1182.001	678.083	80.002	19.995	103.043	20.050	3.832	0.507
1182.500	678.339	80.003	19.994	103.042	20.049	3.951	0.507
1183.000	678.618	80.002	19.995	103.041	20.049	3.922	0.516
1183.500	678.851	80.003	19.994	103.040	20.050	3.876	0.524
1184.000	679.091	80.003	19.994	103.039	20.049	3.920	0.493
1184.500	679.360	80.003	19.995	103.038	20.052	3.721	0.492
1185.000	679.583	80.002	19.995	103.039	20.048	4.024	0.500
1185.500	679.818	80.004	19.994	103.039	20.047	4.061	0.475
1186.000	680.119	80.003	19.994	103.039	20.052	3.742	0.497
1186.501	680.324	80.004	19.995	103.040	20.050	3.869	0.521
1187.001	680.561	80.003	19.995	103.039	20.050	3.837	0.474
1187.500	680.868	80.004	19.994	103.038	20.049	3.943	0.493
1188.001	681.085	80.002	19.995	103.036	20.046	4.117	0.534
1188.501	681.362	80.004	19.995	103.036	20.050	3.888	0.509
1189.000	681.600	80.002	19.996	103.036	20.050	3.881	0.505
1189.501	681.855	80.003	19.996	103.035	20.048	3.989	0.504
1190.001	682.093	80.003	19.995	103.035	20.049	3.923	0.493
1190.500	682.337	80.003	19.995	103.037	20.051	3.819	0.487
1191.000	682.632	80.002	19.994	103.038	20.048	4.008	0.511
1191.500	682.856	80.002	19.995	103.039	20.050	3.827	0.529
1192.000	683.118	80.002	19.995	103.040	20.049	3.916	0.503
1192.500	683.422	80.003	19.994	103.041	20.048	3.975	0.526
1193.001	683.645	80.001	19.994	103.042	20.048	3.968	0.546
1193.501	683.894	80.002	19.995	103.042	20.049	3.902	0.499
1194.000	684.115	80.001	19.995	103.043	20.052	3.697	0.470
1194.500	684.385	80.001	19.994	103.043	20.051	3.816	0.480
1195.000	684.629	80.002	19.995	103.042	20.049	3.913	0.503
1195.500	684.853	80.000	19.994	103.042	20.050	3.834	0.491
1196.000	685.140	80.001	19.995	103.042	20.048	4.011	0.490
1196.500	685.392	79.999	19.994	103.040	20.047	4.046	0.525
1197.000	685.626	80.000	19.994	103.037	20.049	3.924	0.513
1197.500	685.892	79.999	19.994	103.036	20.049	3.926	0.493
1198.001	686.155	80.000	19.994	103.033	20.049	3.959	0.514
1198.501	686.396	79.999	19.994	103.031	20.050	3.829	0.517
1199.001	686.697	80.000	19.995	103.029	20.048	3.966	0.523
1199.500	686.925	80.002	19.995	103.028	20.050	3.889	0.535
1200.000	687.201	79.999	19.994	103.025	20.046	4.101	0.516
1200.500	687.410	80.000	19.994	103.026	20.048	3.977	0.495
1201.000	687.655	80.001	19.994	103.030	20.050	3.845	0.470
1201.500	687.906	80.000	19.994	103.034	20.049	3.958	0.475
1202.001	688.165	80.001	19.994	103.038	20.052	3.741	0.503
1202.501	688.402	80.000	19.995	103.044	20.053	3.686	0.504
1203.001	688.672	80.001	19.994	103.043	20.048	3.975	0.502
1203.500	688.881	79.998	19.995	103.042	20.049	3.938	0.493
1204.000	689.156	79.999	19.994	103.042	20.048	3.988	0.481
1204.501	689.424	80.001	19.995	103.042	20.050	3.885	0.514
1205.001	689.684	80.000	19.994	103.042	20.049	3.944	0.536
1205.500	689.936	80.001	19.995	103.040	20.049	3.940	0.520
1206.000	690.141	79.998	19.994	103.036	20.046	4.131	0.484
1206.500	690.392	80.000	19.995	103.036	20.051	3.825	0.456
1207.001	690.646	80.000	19.994	103.035	20.051	3.768	0.480
1207.501	690.916	79.998	19.994	103.035	20.051	3.807	0.515
1208.001	691.213	80.001	19.995	103.038	20.049	3.911	0.546
1208.500	691.408	80.001	19.995	103.042	20.045	4.164	0.530
1209.000	691.679	79.999	19.994	103.042	20.050	3.851	0.479
1209.500	691.903	80.000	19.994	103.042	20.049	3.944	0.480
1210.000	692.161	80.000	19.994	103.036	20.046	4.105	0.488
1210.500	692.416	80.000	19.994	103.035	20.046	4.144	0.498
1211.000	692.666	79.999	19.995	103.035	20.046	4.114	0.509
1211.500	692.933	80.000	19.995	103.033	20.048	3.988	0.511
1212.000	693.177	80.000	19.995	103.034	20.047	4.083	0.514
1212.500	693.426	80.001	19.994	103.039	20.048	3.988	0.503
1213.000	693.645	79.999	19.995	103.040	20.047	4.028	0.480
1213.500	693.930	80.000	19.995	103.041	20.046	4.139	0.485
1214.000	694.181	80.000	19.995	103.043	20.047	4.077	0.520
1214.500	694.434	79.999	19.996	103.043	20.049	3.922	0.520
1215.001	694.702	80.000	19.995	103.044	20.050	3.869	0.512
1215.501	694.921	80.000	19.995	103.045	20.049	3.958	0.504
1216.000	695.204	80.001	19.996	103.045	20.049	3.949	0.495
1216.501	695.475	80.000	19.995	103.045	20.052	3.722	0.528
1217.001	695.701	80.000	19.995	103.047	20.048	3.962	0.526
1217.500	695.913	80.000	19.994	103.048	20.051	3.810	0.467
1218.000	696.211	80.000	19.995	103.048	20.046	4.105	0.474
1218.500	696.461	80.001	19.995	103.048	20.044	4.239	0.529
1219.000	696.727	80.000	19.996	103.048	20.050	3.878	0.532
1219.500	696.951	79.999	19.995	103.046	20.048	3.986	0.503
1220.001	697.228	79.999	19.995	103.045	20.047	4.074	0.495
1220.501	697.465	80.000	19.995	103.045	20.047	4.083	0.508
1221.000	697.701	80.000	19.995	103.046	20.047	4.072	0.493
1221.500	697.975	80.000	19.995	103.044	20.046	4.151	0.491
1222.000	698.222	80.001	19.996	103.044	20.048	3.980	0.515
1222.500	698.441	79.999	19.995	103.040	20.047	4.044	0.494
1223.000	698.716	79.999	19.995	103.036	20.049	3.949	0.480
1223.500	698.940	79.999	19.996	103.034	20.049	3.916	0.497
1224.000	699.172	80.000	19.996	103.033	20.046	4.121	0.477
1224.500	699.463	79.999	19.995	103.031	20.045	4.216	0.489
1225.000	699.697	80.000	19.996	103.034	20.045	4.170	0.524
1225.500	699.948	79.998	19.995	103.036	20.049	3.927	0.505
1226.000	700.184	79.998	19.995	103.036	20.046	4.125	0.486
1226.500	700.446	79.999	19.995	103.036	20.047	4.092	0.493
1227.000	700.699	79.999	19.995	103.039	20.047	4.055	0.507
1227.500	700.936	79.999	19.996	103.039	20.046	4.141	0.502
1228.000	701.210	79.999	19.995	103.040	20.047	4.029	0.500
1228.500	701.503	79.998	19.996	103.041	20.046	4.093	0.539
1229.001	701.707	79.999	19.995	103.041	20.045	4.186	0.532
1229.501	701.965	79.999	19.996	103.040	20.047	4.053	0.479
1230.001	702.256	79.998	19.995	103.041	20.047	4.086	0.506
1230.501	702.484	79.999	19.995	103.041	20.046	4.128	0.534
1231.001	702.743	79.998	19.996	103.039	20.045	4.178	0.503
1231.500	702.980	80.000	19.995	103.038	20.045	4.178	0.492
1232.000	703.256	79.998	19.995	103.038	20.046	4.123	0.504
1232.500	703.485	79.999	19.995	103.038	20.047	4.068	0.509
1233.000	703.738	79.999	19.996	103.038	20.050	3.882	0.493
1233.500	703.980	79.999	19.995	103.038	20.048	4.017	0.489
1234.000	704.270	80.000	19.996	103.034	20.048	4.001	0.513
1234.500	704.467	79.999	19.995	103.034	20.049	3.944	0.509
1235.000	704.744	79.999	19.996	103.031	20.046	4.097	0.481
1235.500	704.999	79.999	19.996	103.025	20.047	4.063	0.503
1236.000	705.244	79.998	19.995	103.026	20.046	4.136	0.516
1236.500	705.501	80.000	19.996	103.032	20.047	4.057	0.501
1237.000	705.771	79.999	19.997	103.028	20.047	4.050	0.514
1237.500	706.009	80.000	19.995	103.024	20.047	4.055	0.518
1238.000	706.243	80.000	19.996	103.022	20.045	4.174	0.490
1238.501	706.526	80.000	19.996	103.017	20.047	4.072	0.494
1239.001	706.768	79.999	19.996	103.014	20.046	4.099	0.521
1239.500	707.037	80.000	19.995	103.017	20.046	4.101	0.518
1240.000	707.317	80.000	19.995	103.017	20.050	3.828	0.530
1240.500	707.532	80.000	19.996	103.019	20.049	3.949	0.522
1241.001	707.801	80.000	19.995	103.024	20.048	4.024	0.490
1241.501	708.035	80.000	19.996	103.026	20.046	4.097	0.494
1242.000	708.292	80.000	19.996	103.026	20.049	3.914	0.497
1242.501	708.567	80.001	19.995	103.033	20.048	3.978	0.511
1243.001	708.810	80.000	19.996	103.038	20.047	4.033	0.525
1243.500	709.047	80.000	19.995	103.039	20.047	4.079	0.499
1244.001	709.324	80.001	19.996	103.039	20.047	4.041	0.497
1244.501	709.558	80.000	19.996	103.039	20.048	3.993	0.512
1245.000	709.824	80.000	19.995	103.038	20.047	4.081	0.505
1245.500	710.057	79.999	19.996	103.035	20.048	3.980	0.500
1246.000	710.353	80.001	19.997	103.033	20.045	4.200	0.514
1246.500	710.581	80.000	19.996	103.033	20.047	4.075	0.527
1247.000	710.854	80.001	19.995	103.033	20.047	4.032	0.512
1247.500	711.127	80.000	19.997	103.033	20.046	4.112	0.523
1248.000	711.372	80.000	19.996	103.031	20.047	4.046	0.532
1248.500	711.618	79.999	19.996	103.031	20.050	3.892	0.504
1249.000	711.878	79.999	19.996	103.029	20.049	3.894	0.499
1249.501	712.119	79.999	19.996	103.029	20.048	3.980	0.504
1250.001	712.404	79.999	19.995	103.028	20.047	4.027	0.513
1250.500	712.656	80.000	19.995	103.030	20.048	3.996	0.532
1251.000	712.919	80.001	19.997	103.030	20.045	4.162	0.526
1251.500	713.170	80.000	19.995	103.028	20.046	4.148	0.514
1252.000	713.389	80.000	19.996	103.025	20.045	4.179	0.492
1252.501	713.656	80.000	19.996	103.023	20.047	4.066	0.478
1253.001	713.932	80.001	19.995	103.024	20.047	4.082	0.514
1253.500	714.166	80.000	19.995	103.025	20.047	4.031	0.527
1254.000	714.417	80.001	19.996	103.026	20.049	3.957	0.498
1254.500	714.671	80.000	19.996	103.028	20.049	3.951	0.495
1255.000	714.909	80.001	19.995	103.031	20.047	4.032	0.499
1255.500	715.194	80.002	19.995	103.029	20.047	4.065	0.508
1256.000	715.474	80.000	19.996	103.028	20.050	3.885	0.544
1256.500	715.718	80.000	19.995	103.030	20.047	4.072	0.544
1257.001	715.964	80.000	19.994	103.033	20.047	4.045	0.507
1257.501	716.232	80.001	19.995	103.034	20.046	4.110	0.502
1258.000	716.501	80.002	19.994	103.038	20.047	4.079	0.525
1258.500	716.754	80.002	19.994	103.036	20.046	4.143	0.529
1259.000	717.000	80.001	19.995	103.036	20.047	4.048	0.511
1259.500	717.291	80.000	19.994	103.036	20.044	4.244	0.518
1260.000	717.515	80.001	19.995	103.031	20.046	4.101	0.526
1260.500	717.742	80.001	19.995	103.028	20.047	4.082	0.483
1261.000	718.048	80.001	19.995	103.025	20.050	3.870	0.492
1261.500	718.282	80.001	19.995	103.018	20.047	4.057	0.536
1262.000	718.538	80.002	19.994	103.012	20.048	3.996	0.515
1262.500	718.801	80.002	19.996	103.010	20.048	4.006	0.504
1263.001	719.056	80.002	19.994	103.010	20.047	4.041	0.519
1263.501	719.309	80.002	19.994	103.017	20.048	3.966	0.514
1264.000	719.554	80.002	19.994	103.025	20.046	4.121	0.503
1264.500	719.800	80.002	19.994	103.031	20.049	3.951	0.494
1265.000	720.053	80.004	19.994	103.037	20.049	3.957	0.495
1265.501	720.299	80.002	19.995	103.039	20.048	4.002	0.499
1266.001	720.555	80.003	19.994	103.040	20.050	3.829	0.501
1266.500	720.810	80.002	19.994	103.040	20.048	4.019	0.507
1267.001	721.049	80.003	19.994	103.041	20.047	4.085	0.502
1267.501	721.309	80.004	19.994	103.043	20.045	4.185	0.497
1268.001	721.570	80.002	19.994	103.042	20.046	4.152	0.510
1268.501	721.825	80.003	19.994	103.041	20.047	4.081	0.518
1269.001	722.085	80.002	19.995	103.041	20.047	4.081	0.516
1269.500	722.304	80.002	19.995	103.041	20.049	3.898	0.497
1270.001	722.554	80.003	19.994	103.040	20.046	4.156	0.474
1270.501	722.824	80.003	19.994	103.035	20.048	3.993	0.495
1271.000	723.084	80.003	19.994	103.029	20.046	4.140	0.525
1271.500	723.337	80.002	19.994	103.025	20.045	4.164	0.521
1272.001	723.567	80.002	19.995	103.025	20.049	3.933	0.498
1272.501	723.842	80.002	19.996	103.022	20.045	4.198	0.494
1273.000	724.147	80.002	19.995	103.026	20.046	4.121	0.543
1273.500	724.341	80.001	19.994	103.032	20.044	4.280	0.539
1274.000	724.575	80.002	19.995	103.036	20.047	4.068	0.463
1274.500	724.890	80.002	19.994	103.036	20.045	4.198	0.488
1275.000	725.108	80.000	19.995	103.039	20.048	3.994	0.541
1275.501	725.390	80.001	19.994	103.042	20.045	4.203	0.517
1276.001	725.628	79.999	19.994	103.042	20.048	4.015	0.510
1276.501	725.878	80.000	19.994	103.041	20.049	3.936	0.504
1277.000	726.124	80.000	19.995	103.042	20.047	4.068	0.492
1277.501	726.373	80.000	19.996	103.042	20.044	4.277	0.495
1278.001	726.642	79.999	19.995	103.038	20.046	4.114	0.506
1278.501	726.885	80.000	19.994	103.036	20.043	4.299	0.515
1279.001	727.157	79.999	19.994	103.037	20.049	3.894	0.514
1279.500	727.394	79.999	19.994	103.036	20.047	4.066	0.512
1280.000	727.636	79.999	19.994	103.034	20.049	3.898	0.494
1280.500	727.908	80.000	19.995	103.038	20.047	4.070	0.497
1281.000	728.150	80.000	19.995	103.039	20.046	4.108	0.514
1281.500	728.407	80.001	19.995	103.040	20.048	4.006	0.506
1282.000	728.629	80.000	19.995	103.040	20.048	3.997	0.489
1282.501	728.934	80.000	19.995	103.041	20.046	4.128	0.503
1283.001	729.186	79.998	19.995	103.040	20.044	4.293	0.542
1283.501	729.423	79.998	19.994	103.040	20.046	4.112	0.523
1284.000	729.683	80.000	19.994	103.036	20.046	4.136	0.493
1284.500	729.930	79.999	19.995	103.030	20.048	3.973	0.502
1285.001	730.178	80.000	19.996	103.026	20.044	4.229	0.501
1285.501	730.435	80.001	19.994	103.025	20.043	4.308	0.500
1286.001	730.677	79.999	19.996	103.023	20.044	4.242	0.502
1286.501	730.939	79.999	19.995	103.025	20.047	4.086	0.501
1287.000	731.152	79.999	19.995	103.032	20.048	3.991	0.490
1287.500	731.435	80.001	19.995	103.037	20.046	4.116	0.486
1288.000	731.742	79.999	19.994	103.039	20.047	4.056	0.543
1288.500	731.972	80.002	19.994	103.037	20.047	4.078	0.563
1289.000	732.206	80.000	19.994	103.037	20.048	3.975	0.501
1289.500	732.471	79.999	19.995	103.034	20.049	3.923	0.482
1290.000	732.739	80.001	19.995	103.033	20.048	4.003	0.515
1290.500	733.006	80.001	19.994	103.033	20.045	4.218	0.534
1291.000	733.232	80.000	19.995	103.035	20.050	3.881	0.514
1291.501	733.446	79.999	19.994	103.033	20.046	4.121	0.467
1292.001	733.722	80.000	19.995	103.033	20.044	4.239	0.465
1292.500	734.001	80.001	19.994	103.031	20.048	3.966	0.522
1293.000	734.262	80.001	19.994	103.030	20.046	4.103	0.547
1293.500	734.488	80.000	19.994	103.031	20.048	3.971	0.513
1294.000	734.778	80.002	19.995	103.033	20.046	4.094	0.502
1294.500	735.010	79.999	19.995	103.034	20.051	3.819	0.519
1295.001	735.251	80.000	19.994	103.036	20.050	3.837	0.498
1295.501	735.528	80.002	19.995	103.038	20.048	4.013	0.496
1296.001	735.727	80.001	19.994	103.038	20.047	4.083	0.497
1296.501	735.998	80.001	19.994	103.038	20.049	3.898	0.473
1297.000	736.315	80.002	19.995	103.032	20.048	4.021	0.528
1297.501	736.492	80.001	19.994	103.023	20.048	3.991	0.541
1298.001	736.789	80.001	19.995	103.016	20.046	4.110	0.484
1298.500	737.035	80.001	19.995	103.008	20.048	3.993	0.509
1299.000	737.309	80.000	19.995	103.002	20.047	4.068	0.532
1299.500	737.534	80.000	19.995	103.002	20.049	3.919	0.510
1300.000	737.816	80.002	19.994	103.004	20.046	4.098	0.503
1300.500	738.058	80.001	19.995	103.011	20.049	3.904	0.516
1301.000	738.306	80.001	19.995	103.020	20.048	3.976	0.507
1301.500	738.574	80.001	19.996	103.028	20.050	3.870	0.503
1302.000	738.806	80.000	19.995	103.036	20.049	3.953	0.508
1302.500	739.030	80.000	19.994	103.039	20.049	3.954	0.478
1303.000	739.318	80.000	19.995	103.039	20.047	4.049	0.484
1303.500	739.594	80.000	19.996	103.037	20.046	4.157	0.538
1304.000	739.804	80.001	19.995	103.036	20.047	4.044	0.525
1304.500	740.092	80.001	19.995	103.033	20.046	4.152	0.492
1305.000	740.367	80.000	19.996	103.029	20.049	3.907	0.530
1305.500	740.568	79.999	19.995	103.027	20.045	4.191	0.520
1306.001	740.840	80.001	19.995	103.028	20.050	3.878	0.475
1306.501	741.089	80.000	19.995	103.027	20.048	3.964	0.497
1307.000	741.354	79.999	19.996	103.031	20.048	4.008	0.518
1307.500	741.602	79.999	19.994	103.037	20.047	4.053	0.513
1308.000	741.863	79.999	19.995	103.039	20.050	3.885	0.510
1308.501	742.105	80.000	19.995	103.039	20.050	3.870	0.506
1309.001	742.396	80.000	19.996	103.036	20.048	3.982	0.518
1309.500	742.604	79.999	19.996	103.027	20.048	3.971	0.517
1310.000	742.885	79.998	19.996	103.020	20.047	4.049	0.494
1310.500	743.119	79.999	19.996	103.012	20.045	4.185	0.502
1311.000	743.402	79.999	19.996	103.007	20.048	4.013	0.516
1311.500	743.657	80.000	19.996	103.013	20.051	3.786	0.528
