Sample ID:	C:\MCC\MCC Cal\Test\Eucalyptus_Flooring\Eucalyptus_Flooring_30K_min_211028_R4.txt
Sample Weight (mg):	4.42
Heating Rate (C/s):	0.5
Combustor Temp (C):	900
N2 Flow Rate (cc/min):	80
O2 Flow Rate (cc/min):	20
Calibration File:	C:\MCC\MCC Cal\Coeff1 JN10440_30_210304.txt.txt
T Correction Coefficients:	0	1.024463	0
Time Shift (s):	14
*
Time (s)	Temperature (C)	N2 flow rate (cc/min)	O2 flow rate (cc/min)	Flow Rate (cc/min)	Oxygen (%)	HRR (W/g)	Heating rate (C/s)
-0.001	107.722	80.000	19.995	102.937	20.177	-0.124	-0.032
0.499	107.719	79.999	19.996	102.935	20.177	-0.118	0.001
1.000	107.738	80.002	19.996	102.941	20.178	-0.240	0.022
1.500	107.732	80.000	19.995	102.945	20.177	-0.154	0.015
2.000	107.722	79.999	19.995	102.946	20.179	-0.295	-0.001
2.500	107.744	80.001	19.995	102.948	20.176	-0.042	-0.002
3.000	107.714	79.998	19.996	102.944	20.178	-0.202	0.002
3.500	107.709	79.998	19.995	102.939	20.174	0.088	-0.022
4.000	107.698	80.000	19.996	102.936	20.178	-0.216	-0.025
4.500	107.714	80.000	19.994	102.934	20.177	-0.132	-0.005
5.000	107.715	79.998	19.995	102.931	20.177	-0.156	0.011
5.500	107.743	79.999	19.997	102.937	20.174	0.052	0.023
6.000	107.744	79.999	19.998	102.942	20.178	-0.186	0.029
6.500	107.719	79.999	19.997	102.946	20.176	-0.070	0.003
7.000	107.741	80.000	19.997	102.949	20.178	-0.176	-0.014
7.500	107.736	79.997	19.997	102.952	20.177	-0.124	0.006
8.000	107.758	80.001	19.994	102.948	20.177	-0.150	0.017
8.500	107.742	80.000	19.997	102.942	20.179	-0.260	0.012
9.000	107.730	80.000	19.994	102.937	20.176	-0.058	-0.011
9.500	107.717	80.001	19.996	102.936	20.178	-0.224	-0.026
10.000	107.738	79.999	19.997	102.938	20.180	-0.361	-0.008
10.500	107.758	79.999	19.996	102.941	20.178	-0.224	0.024
11.000	107.741	79.998	19.995	102.939	20.176	-0.074	0.022
11.500	107.778	79.999	19.994	102.938	20.181	-0.393	0.012
12.000	107.731	79.999	19.995	102.938	20.180	-0.373	0.005
12.500	107.709	80.000	19.995	102.939	20.178	-0.196	-0.040
13.000	107.701	80.001	19.994	102.942	20.178	-0.206	-0.049
13.500	107.742	79.999	19.995	102.950	20.178	-0.172	0.001
14.000	107.708	79.999	19.995	102.954	20.178	-0.221	0.020
14.500	107.702	79.999	19.995	102.952	20.178	-0.221	-0.016
15.000	107.724	79.999	19.995	102.944	20.177	-0.168	-0.012
15.500	107.705	80.001	19.995	102.937	20.183	-0.559	0.010
16.000	107.736	80.001	19.995	102.931	20.179	-0.311	0.007
16.500	107.730	80.000	19.995	102.927	20.181	-0.409	0.018
17.000	107.735	80.001	19.995	102.929	20.179	-0.277	0.012
17.500	107.705	80.000	19.994	102.931	20.177	-0.124	-0.013
18.000	107.727	80.000	19.995	102.935	20.179	-0.301	-0.017
18.500	107.717	80.002	19.995	102.938	20.182	-0.478	0.002
19.000	107.737	80.000	19.995	102.941	20.180	-0.377	0.011
19.500	107.703	80.001	19.996	102.942	20.178	-0.199	-0.002
20.000	107.716	80.000	19.995	102.941	20.180	-0.317	-0.017
20.500	107.708	80.002	19.996	102.938	20.179	-0.301	-0.008
21.000	107.736	80.002	19.995	102.936	20.179	-0.261	0.012
21.500	107.675	80.002	19.995	102.940	20.176	-0.080	-0.007
22.000	107.739	80.000	19.995	102.944	20.172	0.237	-0.016
22.500	107.736	80.002	19.995	102.957	20.174	0.068	0.032
23.000	107.711	80.002	19.995	102.969	20.174	0.086	0.017
23.500	107.723	80.000	19.994	102.982	20.169	0.421	-0.020
24.000	107.750	80.000	19.997	102.989	20.171	0.269	0.013
24.500	107.716	80.002	19.995	102.995	20.170	0.409	0.016
25.000	107.715	80.001	19.996	102.995	20.168	0.506	-0.021
25.500	107.718	80.002	19.995	102.996	20.170	0.341	-0.017
26.000	107.739	80.002	19.996	103.002	20.166	0.700	0.013
26.500	107.753	80.001	19.997	103.009	20.165	0.725	0.029
27.000	107.784	80.001	19.996	103.021	20.164	0.791	0.040
27.500	107.770	79.999	19.995	103.031	20.164	0.815	0.031
28.000	107.783	80.000	19.997	103.046	20.161	1.046	0.008
28.500	107.800	80.000	19.995	103.058	20.162	0.972	0.015
29.000	107.810	79.998	19.997	103.069	20.157	1.309	0.029
29.500	107.837	79.999	19.996	103.077	20.156	1.421	0.032
30.000	107.860	79.999	19.997	103.084	20.153	1.592	0.044
30.500	107.883	80.000	19.996	103.085	20.156	1.379	0.048
31.000	107.914	79.999	19.997	103.089	20.157	1.339	0.050
31.500	107.920	79.998	19.996	103.090	20.151	1.760	0.045
32.000	107.975	79.999	19.996	103.095	20.155	1.495	0.049
32.499	108.020	79.998	19.996	103.100	20.152	1.672	0.081
32.999	108.043	79.999	19.996	103.106	20.151	1.732	0.084
33.499	108.067	79.999	19.996	103.108	20.152	1.692	0.057
33.999	108.150	79.999	19.996	103.111	20.151	1.789	0.077
34.499	108.177	79.999	19.996	103.112	20.148	1.969	0.108
34.999	108.169	79.999	19.994	103.113	20.146	2.104	0.065
35.499	108.249	79.998	19.995	103.113	20.144	2.293	0.046
35.999	108.283	79.997	19.997	103.113	20.145	2.160	0.093
36.499	108.321	79.999	19.996	103.115	20.144	2.235	0.093
36.999	108.375	79.998	19.996	103.114	20.145	2.221	0.082
37.499	108.409	79.997	19.996	103.117	20.145	2.179	0.090
37.999	108.479	79.999	19.997	103.118	20.143	2.317	0.096
38.499	108.501	79.998	19.996	103.119	20.143	2.365	0.098
38.999	108.596	79.999	19.996	103.118	20.143	2.343	0.105
39.499	108.663	79.998	19.996	103.118	20.143	2.337	0.140
40.000	108.716	79.997	19.997	103.118	20.143	2.377	0.141
40.500	108.764	79.999	19.996	103.120	20.142	2.409	0.110
40.999	108.824	79.997	19.996	103.118	20.143	2.329	0.104
41.499	108.901	79.999	19.996	103.119	20.143	2.331	0.123
41.999	108.985	79.998	19.996	103.120	20.142	2.423	0.150
42.499	109.048	79.998	19.997	103.120	20.145	2.180	0.154
42.999	109.119	79.998	19.996	103.118	20.143	2.351	0.140
43.499	109.161	79.999	19.996	103.119	20.143	2.343	0.124
43.999	109.263	79.998	19.995	103.120	20.143	2.377	0.129
44.499	109.335	79.998	19.995	103.121	20.143	2.321	0.159
45.000	109.411	79.999	19.994	103.123	20.141	2.453	0.160
45.500	109.478	79.998	19.997	103.130	20.141	2.484	0.145
45.999	109.601	79.999	19.996	103.136	20.140	2.574	0.167
46.499	109.664	79.999	19.995	103.143	20.142	2.433	0.188
46.999	109.736	79.998	19.997	103.147	20.140	2.596	0.160
47.499	109.833	79.999	19.995	103.151	20.139	2.598	0.152
47.999	109.903	79.998	19.995	103.150	20.138	2.675	0.168
48.499	109.997	79.998	19.996	103.150	20.141	2.484	0.166
48.999	110.078	79.999	19.996	103.149	20.139	2.650	0.170
49.499	110.204	79.999	19.997	103.147	20.140	2.542	0.191
49.999	110.205	79.999	19.997	103.147	20.140	2.596	0.167
50.499	110.338	79.999	19.995	103.147	20.139	2.600	0.130
50.999	110.417	79.998	19.996	103.145	20.142	2.440	0.173
51.499	110.475	79.998	19.997	103.142	20.142	2.442	0.175
51.999	110.614	79.997	19.996	103.142	20.139	2.658	0.168
52.499	110.704	79.997	19.996	103.142	20.140	2.596	0.213
52.999	110.838	79.999	19.996	103.143	20.139	2.608	0.226
53.499	110.943	79.999	19.996	103.144	20.143	2.327	0.231
53.999	111.049	79.997	19.996	103.144	20.141	2.454	0.225
54.499	111.123	79.999	19.996	103.146	20.140	2.580	0.195
54.999	111.208	79.998	19.996	103.146	20.137	2.753	0.169
55.499	111.337	79.998	19.997	103.143	20.140	2.594	0.187
55.999	111.426	79.998	19.996	103.144	20.137	2.783	0.216
56.499	111.568	79.999	19.995	103.148	20.138	2.737	0.224
56.999	111.686	79.997	19.996	103.149	20.138	2.721	0.245
57.499	111.759	79.997	19.996	103.149	20.139	2.636	0.226
58.000	111.852	79.998	19.995	103.153	20.139	2.612	0.178
58.500	112.040	79.997	19.995	103.153	20.136	2.845	0.223
58.999	112.150	79.998	19.996	103.153	20.142	2.401	0.289
59.499	112.237	79.996	19.996	103.153	20.140	2.588	0.248
59.999	112.334	79.996	19.996	103.153	20.141	2.490	0.191
60.499	112.439	79.998	19.996	103.152	20.141	2.502	0.193
60.999	112.575	79.999	19.996	103.153	20.140	2.580	0.222
61.499	112.692	79.998	19.997	103.153	20.141	2.524	0.247
61.999	112.812	79.995	19.997	103.152	20.140	2.586	0.245
62.499	112.957	79.997	19.995	103.152	20.141	2.492	0.251
62.999	113.065	79.997	19.996	103.152	20.141	2.474	0.258
63.499	113.206	79.999	19.995	103.152	20.140	2.566	0.251
63.999	113.332	79.998	19.992	103.152	20.139	2.658	0.258
64.499	113.463	79.996	19.995	103.153	20.143	2.321	0.262
64.999	113.601	79.998	19.991	103.154	20.142	2.440	0.263
65.499	113.728	79.997	19.998	103.156	20.143	2.307	0.267
65.999	113.855	79.996	19.995	103.155	20.140	2.554	0.260
66.499	113.987	79.996	19.993	103.155	20.137	2.769	0.256
66.999	114.168	79.993	19.997	103.155	20.141	2.514	0.286
67.500	114.249	79.996	19.997	103.154	20.139	2.669	0.287
68.001	114.371	79.997	19.996	103.153	20.142	2.432	0.233
68.500	114.515	79.997	19.996	103.154	20.136	2.847	0.235
68.999	114.650	79.996	19.996	103.155	20.136	2.845	0.273
69.499	114.771	79.999	19.995	103.154	20.140	2.548	0.268
69.999	114.911	79.995	19.995	103.151	20.138	2.723	0.259
70.499	115.048	79.996	19.994	103.151	20.138	2.719	0.269
70.999	115.181	79.997	19.995	103.151	20.138	2.737	0.273
71.499	115.323	79.998	19.995	103.151	20.136	2.836	0.272
71.999	115.464	79.998	19.995	103.153	20.136	2.850	0.280
72.499	115.623	79.996	19.997	103.155	20.139	2.643	0.291
72.999	115.742	79.997	19.998	103.154	20.134	3.033	0.289
73.499	115.906	79.999	19.993	103.153	20.136	2.830	0.281
73.999	116.024	79.999	19.994	103.153	20.135	2.890	0.283
74.499	116.195	79.997	19.995	103.153	20.136	2.880	0.285
74.999	116.363	79.998	19.995	103.154	20.136	2.824	0.314
75.500	116.482	79.999	19.995	103.154	20.135	2.957	0.313
76.000	116.648	79.996	19.997	103.155	20.140	2.579	0.286
76.499	116.765	80.000	19.994	103.156	20.136	2.840	0.284
76.999	116.893	79.999	19.995	103.159	20.137	2.804	0.265
77.499	117.092	79.998	19.995	103.159	20.136	2.854	0.286
77.999	117.248	80.000	19.995	103.159	20.137	2.790	0.340
78.499	117.377	79.998	19.994	103.158	20.134	3.019	0.320
78.999	117.546	79.999	19.995	103.157	20.136	2.884	0.291
79.499	117.666	79.999	19.996	103.156	20.132	3.156	0.294
80.000	117.831	79.998	19.996	103.157	20.135	2.919	0.288
80.500	117.996	79.999	19.995	103.157	20.134	2.971	0.307
80.999	118.153	79.999	19.994	103.161	20.134	3.015	0.326
81.499	118.286	79.998	19.996	103.167	20.135	2.894	0.306
81.999	118.466	80.000	19.994	103.170	20.134	2.999	0.302
82.499	118.610	79.999	19.995	103.176	20.134	3.027	0.319
82.999	118.804	79.998	19.995	103.180	20.134	3.005	0.331
83.499	118.890	79.998	19.996	103.183	20.130	3.274	0.309
83.999	119.082	80.000	19.996	103.179	20.132	3.123	0.280
84.499	119.236	79.999	19.995	103.180	20.130	3.284	0.312
84.999	119.435	79.997	19.997	103.180	20.127	3.521	0.349
85.499	119.563	79.998	19.993	103.179	20.132	3.131	0.339
85.999	119.735	79.996	19.995	103.180	20.131	3.246	0.313
86.499	119.905	80.001	19.994	103.184	20.128	3.431	0.321
86.999	120.062	79.997	19.995	103.187	20.130	3.274	0.335
87.499	120.186	79.998	19.995	103.187	20.129	3.385	0.305
87.999	120.356	79.998	19.995	103.189	20.131	3.224	0.288
88.499	120.548	79.997	19.994	103.189	20.134	2.993	0.328
88.999	120.682	79.998	19.996	103.190	20.132	3.134	0.344
89.500	120.899	79.997	19.996	103.190	20.132	3.119	0.338
90.000	121.066	79.999	19.999	103.190	20.130	3.254	0.367
90.499	121.244	79.998	19.994	103.189	20.133	3.103	0.364
90.999	121.413	79.997	19.997	103.189	20.132	3.152	0.346
91.499	121.617	79.998	19.993	103.188	20.135	2.913	0.360
91.999	121.750	79.998	19.997	103.186	20.135	2.953	0.355
92.499	121.950	79.998	19.996	103.185	20.134	3.033	0.335
92.999	122.130	80.000	19.995	103.183	20.132	3.131	0.357
93.499	122.333	79.998	19.993	103.182	20.134	3.031	0.382
93.999	122.480	79.999	19.997	103.185	20.133	3.055	0.367
94.499	122.615	80.000	19.995	103.186	20.131	3.234	0.316
94.999	122.869	79.997	19.996	103.187	20.132	3.174	0.335
95.499	123.046	80.000	19.994	103.190	20.131	3.250	0.410
95.999	123.203	80.000	19.994	103.190	20.132	3.160	0.383
96.499	123.404	79.999	19.994	103.189	20.133	3.087	0.346
96.999	123.541	79.999	19.997	103.190	20.132	3.170	0.348
97.499	123.721	80.000	19.994	103.189	20.130	3.288	0.327
97.999	123.909	79.998	19.997	103.190	20.132	3.109	0.342
98.499	124.102	79.999	19.995	103.190	20.128	3.423	0.374
98.999	124.289	80.000	19.993	103.190	20.129	3.376	0.381
99.499	124.488	80.001	19.993	103.191	20.132	3.149	0.383
100.000	124.647	80.001	19.992	103.192	20.130	3.274	0.372
100.500	124.865	79.992	20.004	103.192	20.128	3.427	0.368
100.999	125.065	80.000	19.997	103.191	20.130	3.254	0.398
101.499	125.235	80.002	19.992	103.192	20.130	3.298	0.394
101.999	125.404	80.002	19.995	103.191	20.129	3.340	0.354
102.499	125.627	80.002	19.994	103.190	20.129	3.340	0.366
102.999	125.843	80.003	19.994	103.189	20.129	3.332	0.416
103.499	126.044	80.001	19.995	103.190	20.129	3.361	0.428
103.999	126.235	80.001	19.994	103.189	20.130	3.306	0.404
104.499	126.404	80.001	19.995	103.188	20.131	3.192	0.376
104.999	126.593	80.000	19.994	103.189	20.131	3.240	0.359
105.499	126.814	80.003	19.994	103.189	20.130	3.310	0.384
105.999	127.024	80.001	19.995	103.189	20.130	3.262	0.421
106.499	127.228	80.000	19.995	103.189	20.128	3.437	0.423
106.999	127.416	80.001	19.994	103.191	20.128	3.451	0.403
107.499	127.613	80.000	19.995	103.191	20.130	3.272	0.388
107.999	127.838	79.999	19.994	103.192	20.129	3.391	0.403
108.499	128.028	80.001	19.995	103.192	20.129	3.389	0.419
108.999	128.205	79.999	19.996	103.191	20.129	3.357	0.391
109.499	128.445	80.000	19.994	103.187	20.129	3.345	0.392
109.999	128.653	79.999	19.996	103.186	20.130	3.270	0.432
110.499	128.828	80.000	19.996	103.187	20.127	3.497	0.415
110.999	129.055	79.999	19.995	103.187	20.130	3.274	0.393
111.499	129.248	79.991	20.002	103.189	20.127	3.537	0.411
111.999	129.465	79.999	19.995	103.191	20.129	3.338	0.415
112.499	129.682	79.997	19.997	103.191	20.130	3.322	0.422
112.999	129.885	79.997	19.995	103.191	20.131	3.194	0.427
113.499	130.098	79.998	19.994	103.191	20.131	3.226	0.418
113.999	130.306	79.997	19.995	103.190	20.129	3.355	0.419
114.499	130.502	79.995	19.996	103.193	20.128	3.427	0.413
114.999	130.697	79.997	19.995	103.193	20.132	3.158	0.398
115.499	130.934	79.998	19.997	103.194	20.130	3.276	0.412
115.999	131.156	79.997	19.996	103.194	20.133	3.071	0.445
116.499	131.350	79.999	19.996	103.195	20.133	3.101	0.437
116.999	131.563	79.998	19.997	103.195	20.130	3.254	0.412
117.499	131.767	79.999	19.995	103.195	20.129	3.334	0.412
117.999	131.971	79.998	19.995	103.196	20.131	3.204	0.412
118.499	132.220	79.997	19.996	103.196	20.131	3.182	0.430
118.999	132.384	79.997	19.995	103.195	20.130	3.282	0.433
119.499	132.634	79.998	19.995	103.195	20.129	3.367	0.414
119.999	132.860	79.998	19.995	103.195	20.132	3.160	0.445
120.499	133.078	79.998	19.995	103.195	20.133	3.107	0.460
120.999	133.290	79.999	19.996	103.195	20.130	3.278	0.437
121.499	133.530	79.998	19.995	103.194	20.134	2.985	0.441
121.999	133.721	79.999	19.995	103.194	20.133	3.045	0.441
122.499	133.956	79.998	19.996	103.194	20.130	3.300	0.428
122.999	134.170	79.999	19.997	103.193	20.136	2.867	0.438
123.499	134.404	79.997	19.996	103.193	20.133	3.057	0.449
123.999	134.602	79.999	19.996	103.194	20.130	3.272	0.440
124.499	134.839	79.999	19.997	103.193	20.128	3.401	0.433
124.999	135.057	79.997	19.996	103.194	20.131	3.252	0.445
125.499	135.278	79.999	19.996	103.195	20.130	3.264	0.447
125.999	135.492	80.000	19.995	103.194	20.131	3.232	0.437
126.499	135.693	79.999	19.995	103.193	20.133	3.083	0.425
126.999	135.925	79.999	19.996	103.193	20.133	3.079	0.424
127.499	136.187	79.997	19.997	103.193	20.133	3.051	0.464
127.999	136.407	79.997	19.995	103.192	20.131	3.204	0.488
128.500	136.650	79.998	19.995	103.192	20.134	2.999	0.472
129.000	136.852	79.998	19.997	103.193	20.132	3.110	0.454
129.500	137.099	79.999	19.996	103.193	20.134	2.971	0.448
130.000	137.321	79.999	19.995	103.192	20.134	3.035	0.459
130.500	137.562	79.998	19.996	103.192	20.135	2.921	0.466
131.000	137.812	79.998	19.996	103.192	20.136	2.818	0.477
131.500	137.997	79.998	19.996	103.193	20.133	3.087	0.463
132.000	138.247	79.997	19.996	103.194	20.133	3.079	0.435
132.500	138.482	79.997	19.996	103.195	20.133	3.107	0.460
133.000	138.712	79.998	19.995	103.197	20.132	3.178	0.475
133.500	138.926	79.996	19.996	103.199	20.133	3.071	0.454
134.000	139.156	79.998	19.995	103.198	20.132	3.126	0.443
134.500	139.381	79.999	19.996	103.198	20.132	3.152	0.449
135.000	139.636	79.998	19.994	103.198	20.135	2.957	0.468
135.500	139.851	79.998	19.995	103.196	20.129	3.358	0.476
136.000	140.118	79.997	19.996	103.195	20.135	2.921	0.476
136.500	140.334	79.997	19.994	103.195	20.137	2.796	0.482
137.000	140.555	79.999	19.996	103.195	20.133	3.037	0.460
137.500	140.823	79.998	19.995	103.195	20.131	3.190	0.463
138.000	141.021	79.999	19.995	103.195	20.131	3.252	0.477
138.500	141.244	79.997	19.995	103.195	20.135	2.957	0.444
139.000	141.466	79.997	19.996	103.196	20.132	3.158	0.433
139.500	141.713	79.998	19.995	103.195	20.130	3.282	0.457
140.000	141.973	79.995	19.997	103.195	20.131	3.240	0.489
140.500	142.180	79.997	19.996	103.194	20.133	3.089	0.487
141.000	142.453	79.998	19.996	103.194	20.132	3.119	0.473
141.500	142.631	79.997	19.996	103.195	20.131	3.192	0.465
142.000	142.894	79.997	19.995	103.195	20.133	3.093	0.446
142.500	143.151	79.997	19.996	103.196	20.132	3.166	0.481
143.000	143.356	79.998	19.994	103.196	20.132	3.170	0.491
143.500	143.619	79.997	19.996	103.195	20.131	3.240	0.465
144.000	143.887	79.996	19.996	103.194	20.131	3.234	0.499
144.500	144.111	79.997	19.995	103.194	20.131	3.218	0.511
145.000	144.326	79.999	19.994	103.192	20.132	3.141	0.466
145.500	144.544	79.998	19.997	103.191	20.128	3.435	0.436
146.000	144.797	79.996	19.996	103.191	20.131	3.222	0.452
146.500	145.032	79.997	19.996	103.191	20.133	3.071	0.480
147.000	145.282	79.997	19.996	103.190	20.132	3.121	0.487
147.500	145.506	79.997	19.996	103.190	20.132	3.172	0.479
148.000	145.757	79.997	19.997	103.191	20.133	3.085	0.474
148.500	146.032	79.997	19.997	103.192	20.133	3.099	0.500
149.000	146.242	79.997	19.997	103.192	20.134	3.005	0.506
149.500	146.509	79.998	19.998	103.192	20.131	3.192	0.481
150.000	146.697	79.997	19.997	103.192	20.136	2.870	0.466
150.500	147.004	79.997	19.998	103.192	20.133	3.059	0.475
151.000	147.237	79.998	19.996	103.192	20.132	3.119	0.517
151.500	147.452	79.999	19.995	103.191	20.134	2.987	0.494
152.000	147.676	79.998	19.997	103.192	20.133	3.073	0.443
152.500	147.904	79.998	20.000	103.192	20.132	3.115	0.445
153.000	148.165	79.999	19.996	103.191	20.133	3.079	0.470
153.500	148.385	79.998	19.997	103.191	20.134	2.971	0.485
154.000	148.620	79.999	19.997	103.191	20.133	3.059	0.468
154.500	148.892	79.998	19.996	103.189	20.134	2.969	0.481
155.000	149.117	79.997	19.996	103.189	20.134	2.995	0.502
155.500	149.368	79.999	19.995	103.187	20.132	3.123	0.487
156.000	149.615	79.999	19.994	103.187	20.133	3.039	0.486
156.500	149.857	79.999	19.996	103.187	20.133	3.055	0.494
157.000	150.106	80.000	19.997	103.187	20.134	3.033	0.491
157.500	150.325	79.999	19.997	103.188	20.131	3.199	0.480
158.000	150.580	79.999	19.997	103.188	20.132	3.161	0.471
158.500	150.858	80.000	19.994	103.187	20.133	3.089	0.503
159.000	151.077	80.000	19.995	103.188	20.134	3.011	0.515
159.500	151.317	79.999	19.995	103.188	20.130	3.292	0.478
160.000	151.547	79.999	19.995	103.188	20.134	3.011	0.464
160.500	151.753	80.000	19.995	103.188	20.133	3.081	0.453
161.000	152.025	80.001	19.996	103.190	20.134	3.033	0.457
161.500	152.300	80.000	19.993	103.189	20.132	3.131	0.513
162.000	152.558	79.999	19.995	103.187	20.132	3.121	0.540
162.500	152.789	80.000	19.994	103.188	20.132	3.155	0.511
163.000	153.009	80.001	19.993	103.188	20.130	3.270	0.470
163.500	153.281	80.001	19.995	103.189	20.133	3.101	0.472
164.000	153.464	80.002	19.994	103.189	20.132	3.141	0.474
164.500	153.728	79.997	19.997	103.191	20.132	3.141	0.451
165.000	153.998	80.000	19.994	103.189	20.132	3.131	0.490
165.500	154.216	80.002	19.994	103.190	20.133	3.079	0.511
166.000	154.463	80.001	19.994	103.189	20.134	2.991	0.477
166.500	154.709	79.999	19.993	103.187	20.130	3.284	0.479
167.000	154.917	79.998	19.995	103.184	20.135	2.932	0.474
167.500	155.189	79.999	19.995	103.182	20.132	3.145	0.467
168.000	155.448	79.997	19.996	103.180	20.133	3.037	0.505
168.500	155.654	80.000	19.994	103.180	20.133	3.099	0.498
169.000	155.924	80.000	19.994	103.181	20.130	3.288	0.471
169.500	156.180	79.997	19.996	103.184	20.131	3.200	0.501
170.000	156.412	80.000	19.995	103.187	20.133	3.055	0.507
170.500	156.673	80.000	19.994	103.188	20.132	3.125	0.490
171.000	156.904	79.999	19.993	103.188	20.131	3.214	0.493
171.500	157.160	80.000	19.995	103.190	20.132	3.170	0.490
172.000	157.394	79.999	19.994	103.191	20.132	3.168	0.489
172.500	157.629	79.998	19.995	103.190	20.132	3.159	0.480
173.000	157.935	79.998	19.997	103.186	20.128	3.455	0.505
173.500	158.122	79.999	19.996	103.186	20.132	3.145	0.517
174.000	158.386	79.999	19.994	103.185	20.133	3.091	0.472
174.500	158.617	80.000	19.994	103.185	20.128	3.400	0.473
175.000	158.865	79.999	19.995	103.186	20.131	3.183	0.487
175.500	159.126	80.001	19.994	103.190	20.131	3.222	0.494
176.000	159.385	79.997	19.996	103.191	20.129	3.372	0.515
176.500	159.585	79.999	19.994	103.190	20.128	3.451	0.489
177.000	159.846	80.002	19.993	103.186	20.129	3.362	0.460
177.500	160.089	80.000	19.995	103.186	20.127	3.491	0.483
178.000	160.313	79.998	19.995	103.183	20.130	3.288	0.486
178.500	160.643	80.000	19.996	103.182	20.133	3.107	0.510
179.000	160.819	80.000	19.995	103.182	20.130	3.322	0.530
179.500	161.093	80.000	19.996	103.185	20.130	3.302	0.478
180.000	161.355	80.002	19.994	103.185	20.131	3.210	0.493
180.500	161.580	79.999	19.996	103.188	20.130	3.302	0.511
181.000	161.846	80.002	19.993	103.188	20.129	3.360	0.489
181.500	162.114	80.000	19.995	103.190	20.128	3.467	0.513
182.000	162.350	80.001	19.997	103.189	20.127	3.531	0.519
182.500	162.606	80.001	19.995	103.188	20.127	3.493	0.497
183.000	162.863	79.999	19.995	103.188	20.129	3.342	0.503
183.500	163.097	80.001	19.995	103.187	20.130	3.298	0.503
184.000	163.375	80.001	19.994	103.185	20.130	3.320	0.502
184.500	163.565	80.000	19.994	103.183	20.131	3.191	0.490
185.000	163.835	80.001	19.994	103.182	20.129	3.360	0.464
185.500	164.069	80.000	19.995	103.181	20.129	3.344	0.482
186.000	164.339	79.999	19.996	103.183	20.129	3.376	0.503
186.500	164.581	80.000	19.995	103.185	20.132	3.157	0.508
187.000	164.834	80.001	19.994	103.186	20.131	3.206	0.503
187.500	165.086	80.000	19.994	103.189	20.128	3.406	0.500
188.000	165.343	80.001	19.996	103.191	20.129	3.332	0.507
188.500	165.633	79.999	19.996	103.190	20.129	3.376	0.528
189.000	165.863	79.998	19.996	103.188	20.128	3.404	0.534
189.500	166.086	79.999	19.995	103.189	20.129	3.338	0.487
190.000	166.377	80.000	19.995	103.189	20.132	3.165	0.484
190.500	166.593	79.999	19.995	103.186	20.131	3.229	0.510
191.000	166.819	80.001	19.995	103.184	20.130	3.258	0.474
191.500	167.087	79.997	19.994	103.185	20.129	3.376	0.468
192.000	167.325	79.999	19.998	103.186	20.128	3.434	0.500
192.500	167.586	79.998	19.996	103.183	20.131	3.183	0.503
193.000	167.864	79.998	19.996	103.186	20.130	3.318	0.519
193.500	168.072	79.997	19.996	103.186	20.129	3.376	0.512
194.000	168.334	79.998	19.994	103.180	20.133	3.071	0.478
194.500	168.561	79.999	19.995	103.177	20.135	2.918	0.480
195.000	168.822	79.999	19.992	103.173	20.133	3.098	0.489
195.500	169.075	79.999	19.994	103.169	20.130	3.313	0.501
196.000	169.329	79.998	19.996	103.171	20.131	3.217	0.510
196.500	169.588	79.999	19.995	103.177	20.131	3.211	0.510
197.000	169.813	79.997	19.994	103.181	20.133	3.074	0.499
197.500	170.093	79.997	19.995	103.185	20.129	3.371	0.495
198.000	170.316	80.000	19.994	103.186	20.131	3.187	0.504
198.500	170.609	79.999	19.994	103.184	20.129	3.327	0.509
199.000	170.832	79.996	19.995	103.182	20.130	3.271	0.516
199.500	171.125	79.998	19.994	103.180	20.129	3.343	0.516
200.000	171.354	79.999	19.994	103.180	20.130	3.285	0.519
200.500	171.624	79.997	19.995	103.178	20.133	3.089	0.511
201.000	171.869	79.997	19.995	103.177	20.132	3.157	0.507
201.500	172.060	79.999	19.995	103.177	20.131	3.223	0.476
202.000	172.345	79.997	19.994	103.176	20.128	3.400	0.456
202.500	172.598	79.997	19.996	103.178	20.132	3.135	0.507
203.000	172.864	79.997	19.995	103.182	20.131	3.185	0.529
203.500	173.122	80.000	19.993	103.183	20.132	3.149	0.522
204.000	173.345	79.999	19.994	103.179	20.132	3.165	0.502
204.500	173.594	79.999	19.994	103.175	20.135	2.940	0.477
205.000	173.853	79.997	19.993	103.169	20.135	2.928	0.490
205.500	174.112	79.998	19.993	103.163	20.133	3.062	0.512
206.000	174.347	79.999	19.994	103.162	20.132	3.151	0.506
206.500	174.588	79.997	19.996	103.164	20.135	2.898	0.485
207.000	174.825	79.998	19.996	103.164	20.134	2.972	0.477
207.500	175.133	79.998	19.995	103.162	20.132	3.177	0.512
208.000	175.327	79.998	19.996	103.162	20.131	3.181	0.524
208.500	175.582	80.000	19.993	103.159	20.133	3.049	0.475
209.000	175.853	79.998	19.995	103.157	20.130	3.318	0.487
209.500	176.114	79.998	19.996	103.156	20.132	3.121	0.529
210.000	176.339	80.000	19.996	103.157	20.134	2.980	0.509
210.500	176.613	79.999	19.996	103.157	20.134	3.014	0.493
211.000	176.828	79.997	19.996	103.163	20.135	2.950	0.494
211.500	177.085	79.997	19.994	103.164	20.134	2.992	0.480
212.000	177.330	79.999	19.996	103.171	20.136	2.867	0.487
212.500	177.570	79.998	19.996	103.175	20.135	2.897	0.494
213.000	177.831	79.997	19.998	103.177	20.133	3.104	0.493
213.500	178.077	79.999	19.997	103.173	20.134	3.020	0.504
214.000	178.331	79.998	19.995	103.170	20.130	3.261	0.503
214.500	178.586	80.000	19.996	103.165	20.134	3.028	0.505
215.000	178.839	79.999	19.995	103.165	20.131	3.197	0.509
215.500	179.076	79.997	19.995	103.166	20.132	3.138	0.500
216.000	179.324	79.999	19.995	103.166	20.132	3.128	0.488
216.500	179.588	79.999	19.995	103.167	20.131	3.225	0.499
217.000	179.836	79.999	19.995	103.164	20.132	3.138	0.512
217.500	180.073	79.998	19.996	103.164	20.134	2.984	0.499
218.000	180.320	79.998	19.994	103.165	20.134	3.014	0.484
218.500	180.621	80.000	19.995	103.164	20.135	2.958	0.516
219.000	180.837	79.996	19.995	103.164	20.132	3.154	0.532
219.500	181.125	79.998	19.995	103.171	20.131	3.203	0.510
220.000	181.380	79.999	19.995	103.170	20.133	3.094	0.524
220.500	181.573	79.999	19.995	103.165	20.130	3.299	0.496
221.000	181.854	79.999	19.995	103.164	20.133	3.046	0.461
221.500	182.109	79.999	19.995	103.165	20.132	3.137	0.505
222.000	182.365	79.998	19.994	103.160	20.132	3.134	0.523
222.500	182.570	79.998	19.996	103.156	20.132	3.150	0.487
223.000	182.840	79.998	19.996	103.155	20.135	2.928	0.468
223.500	183.097	79.998	19.995	103.155	20.134	3.026	0.501
224.000	183.394	80.000	19.994	103.154	20.134	3.022	0.541
224.500	183.607	79.999	19.994	103.152	20.136	2.849	0.532
225.000	183.857	79.997	19.996	103.152	20.135	2.940	0.486
225.500	184.111	79.996	19.996	103.153	20.135	2.944	0.484
226.000	184.316	79.998	19.995	103.153	20.133	3.042	0.481
226.500	184.592	79.998	19.995	103.153	20.137	2.787	0.470
227.000	184.816	79.998	19.996	103.153	20.138	2.685	0.491
227.500	185.100	79.998	19.995	103.152	20.135	2.917	0.504
228.000	185.306	79.998	19.995	103.152	20.133	3.070	0.499
228.500	185.543	79.999	19.995	103.152	20.133	3.040	0.466
229.000	185.842	79.997	19.996	103.152	20.130	3.309	0.490
229.500	186.071	79.998	19.996	103.153	20.133	3.080	0.533
230.000	186.358	79.999	19.996	103.153	20.131	3.186	0.522
230.500	186.610	79.998	19.996	103.155	20.130	3.309	0.527
231.000	186.887	79.997	19.996	103.159	20.134	3.028	0.534
231.500	187.122	79.999	19.996	103.159	20.131	3.249	0.520
232.000	187.375	79.998	19.996	103.159	20.133	3.098	0.500
232.500	187.621	79.999	19.996	103.159	20.135	2.934	0.493
233.000	187.814	79.998	19.996	103.156	20.132	3.120	0.469
233.500	188.109	79.998	19.996	103.153	20.135	2.954	0.464
234.000	188.339	79.998	19.997	103.152	20.134	2.978	0.507
234.500	188.584	79.999	19.996	103.152	20.134	3.028	0.500
235.000	188.817	80.000	19.994	103.151	20.132	3.168	0.477
235.500	189.051	79.997	19.997	103.151	20.134	2.996	0.472
236.000	189.302	80.001	19.995	103.152	20.132	3.158	0.476
236.500	189.566	79.998	19.998	103.153	20.134	3.014	0.500
237.000	189.809	79.999	19.997	103.152	20.132	3.174	0.511
237.500	190.077	79.997	19.998	103.152	20.133	3.054	0.510
238.000	190.322	79.998	19.995	103.151	20.133	3.070	0.512
238.500	190.574	79.999	19.999	103.150	20.131	3.223	0.505
239.000	190.799	79.999	19.997	103.148	20.134	3.034	0.487
239.500	191.066	79.999	19.997	103.148	20.133	3.050	0.484
240.000	191.280	80.000	19.997	103.148	20.131	3.209	0.486
240.500	191.584	80.000	19.997	103.149	20.133	3.048	0.500
241.000	191.791	80.000	19.995	103.149	20.134	2.968	0.515
241.500	192.020	80.000	19.996	103.150	20.131	3.231	0.473
242.000	192.245	80.000	19.995	103.151	20.132	3.155	0.445
242.500	192.536	79.999	19.997	103.151	20.133	3.106	0.485
243.000	192.759	79.999	19.997	103.151	20.132	3.138	0.515
243.500	192.988	80.000	19.995	103.152	20.132	3.150	0.483
244.000	193.272	80.000	19.995	103.152	20.129	3.383	0.482
244.500	193.493	80.000	19.995	103.152	20.132	3.142	0.509
245.000	193.772	79.999	19.998	103.152	20.131	3.233	0.503
245.500	193.986	79.998	19.997	103.151	20.131	3.183	0.497
246.000	194.284	79.999	19.995	103.150	20.128	3.464	0.502
246.500	194.510	80.000	19.997	103.150	20.132	3.110	0.518
247.000	194.755	80.000	19.995	103.149	20.135	2.952	0.497
247.500	195.011	79.998	19.996	103.149	20.130	3.309	0.486
248.000	195.232	79.998	19.996	103.150	20.132	3.132	0.490
248.500	195.475	79.998	19.997	103.151	20.132	3.161	0.471
249.000	195.714	79.998	19.997	103.152	20.127	3.480	0.473
249.500	195.938	80.000	19.995	103.153	20.130	3.313	0.473
250.000	196.177	79.997	19.995	103.153	20.130	3.277	0.463
250.500	196.482	80.000	19.995	103.153	20.128	3.414	0.504
251.000	196.684	79.998	19.995	103.153	20.127	3.484	0.526
251.500	196.938	79.998	19.994	103.153	20.127	3.496	0.481
252.000	197.175	80.001	19.995	103.154	20.125	3.626	0.473
252.500	197.427	79.995	19.995	103.155	20.129	3.363	0.490
253.000	197.641	79.999	19.994	103.155	20.127	3.494	0.477
253.500	197.898	80.001	19.990	103.155	20.128	3.454	0.468
254.000	198.173	79.992	20.002	103.156	20.126	3.548	0.502
254.500	198.384	80.000	19.996	103.153	20.125	3.620	0.510
255.000	198.611	79.994	19.995	103.153	20.126	3.566	0.462
255.500	198.841	79.996	19.998	103.153	20.123	3.775	0.447
256.000	199.116	79.999	19.994	103.152	20.125	3.620	0.481
256.500	199.394	80.002	19.993	103.152	20.125	3.654	0.528
257.000	199.624	79.999	19.994	103.155	20.125	3.652	0.530
257.500	199.835	79.998	19.992	103.155	20.122	3.839	0.475
258.000	200.093	79.996	19.997	103.155	20.125	3.689	0.455
258.500	200.348	80.004	19.993	103.155	20.122	3.867	0.491
259.000	200.579	80.004	19.993	103.155	20.121	3.950	0.500
259.500	200.844	80.005	19.994	103.155	20.123	3.789	0.491
260.000	201.046	80.000	19.991	103.155	20.125	3.654	0.481
260.500	201.354	80.001	19.993	103.156	20.126	3.592	0.489
261.000	201.576	80.000	20.000	103.157	20.124	3.751	0.520
261.500	201.800	79.997	19.999	103.156	20.124	3.725	0.488
262.000	202.063	80.002	19.993	103.155	20.124	3.745	0.467
262.500	202.321	79.998	19.995	103.155	20.124	3.705	0.504
263.000	202.544	79.999	19.996	103.154	20.127	3.514	0.501
263.500	202.808	80.001	19.996	103.154	20.123	3.835	0.484
264.000	203.036	80.001	19.994	103.156	20.126	3.602	0.490
264.500	203.232	80.000	19.994	103.157	20.124	3.743	0.458
265.000	203.533	80.000	19.995	103.155	20.127	3.489	0.461
265.500	203.775	80.000	19.994	103.155	20.125	3.642	0.520
266.000	204.032	80.000	19.993	103.154	20.123	3.819	0.521
266.500	204.245	80.000	19.994	103.154	20.126	3.610	0.484
267.000	204.505	80.000	19.995	103.154	20.121	3.923	0.472
267.500	204.750	80.002	19.993	103.154	20.119	4.110	0.489
268.000	204.970	79.998	19.995	103.154	20.123	3.771	0.485
268.500	205.249	80.000	19.994	103.154	20.121	3.921	0.482
269.000	205.446	79.998	19.994	103.155	20.121	3.953	0.488
269.500	205.702	79.998	19.997	103.154	20.122	3.861	0.465
270.000	205.970	80.000	19.996	103.154	20.120	4.032	0.489
270.500	206.198	79.999	19.992	103.155	20.119	4.116	0.510
271.000	206.445	79.999	19.994	103.154	20.118	4.191	0.485
271.500	206.653	79.996	19.994	103.154	20.120	3.994	0.465
272.000	206.917	79.997	19.997	103.154	20.122	3.892	0.463
272.500	207.197	79.998	19.995	103.153	20.121	3.910	0.508
273.000	207.398	80.000	19.992	103.152	20.121	3.962	0.512
273.500	207.681	79.998	19.995	103.153	20.120	4.014	0.483
274.000	207.951	79.999	19.995	103.153	20.117	4.223	0.519
274.500	208.196	80.000	19.993	103.152	20.121	3.913	0.534
275.000	208.414	79.998	19.995	103.152	20.121	3.958	0.489
275.500	208.651	79.997	19.997	103.148	20.123	3.795	0.459
276.000	208.928	79.999	19.995	103.146	20.120	4.028	0.485
276.500	209.199	79.997	19.995	103.143	20.122	3.861	0.531
277.000	209.449	79.999	19.995	103.143	20.120	3.996	0.534
277.500	209.700	79.998	19.997	103.143	20.118	4.155	0.511
278.000	209.920	79.997	19.996	103.147	20.119	4.123	0.486
278.500	210.185	80.000	19.995	103.148	20.120	4.028	0.478
279.000	210.416	79.998	19.994	103.150	20.120	4.052	0.491
279.500	210.667	79.996	19.997	103.150	20.114	4.456	0.489
280.000	210.915	79.999	19.993	103.149	20.115	4.371	0.490
280.500	211.145	79.998	19.994	103.149	20.117	4.245	0.488
281.000	211.414	79.999	19.995	103.152	20.119	4.122	0.489
281.500	211.645	79.997	19.995	103.158	20.117	4.213	0.499
282.000	211.886	79.999	19.996	103.163	20.121	3.946	0.486
282.500	212.172	79.999	19.995	103.164	20.118	4.195	0.500
283.000	212.367	79.999	19.995	103.164	20.118	4.162	0.504
283.500	212.648	80.000	19.993	103.162	20.116	4.301	0.478
284.000	212.851	79.997	19.996	103.156	20.117	4.267	0.480
284.500	213.127	79.999	19.995	103.152	20.118	4.154	0.482
285.000	213.372	79.999	19.996	103.152	20.116	4.343	0.500
285.500	213.602	80.000	19.995	103.152	20.115	4.393	0.498
286.000	213.876	79.999	19.994	103.152	20.116	4.319	0.490
286.500	214.143	79.998	19.995	103.152	20.113	4.544	0.523
287.000	214.388	79.998	19.994	103.152	20.115	4.353	0.526
287.500	214.618	79.999	19.993	103.154	20.115	4.347	0.493
288.000	214.861	79.999	19.994	103.156	20.112	4.568	0.474
288.500	215.123	79.998	19.995	103.159	20.114	4.460	0.489
289.000	215.397	79.998	19.996	103.160	20.112	4.566	0.521
289.500	215.597	79.999	19.995	103.160	20.110	4.725	0.505
290.000	215.887	79.999	19.996	103.161	20.112	4.578	0.482
290.500	216.105	79.998	19.995	103.161	20.114	4.456	0.499
291.000	216.377	79.997	19.997	103.157	20.112	4.604	0.499
291.500	216.633	79.998	19.994	103.155	20.111	4.679	0.509
292.000	216.880	79.996	19.999	103.155	20.110	4.755	0.516
292.500	217.121	79.998	19.997	103.152	20.109	4.811	0.496
293.000	217.344	79.995	19.998	103.154	20.109	4.793	0.476
293.500	217.607	79.999	19.995	103.154	20.105	5.084	0.475
294.000	217.847	80.000	19.996	103.154	20.111	4.709	0.494
294.500	218.137	80.000	19.992	103.154	20.106	5.046	0.517
295.000	218.376	79.997	19.996	103.156	20.108	4.875	0.530
295.500	218.630	79.999	19.995	103.153	20.108	4.926	0.511
296.000	218.886	80.000	19.994	103.154	20.106	5.036	0.501
296.500	219.125	79.999	19.996	103.154	20.105	5.106	0.502
297.000	219.387	80.000	19.995	103.153	20.104	5.179	0.498
297.500	219.630	80.000	19.995	103.152	20.103	5.255	0.503
298.000	219.873	79.997	19.996	103.153	20.103	5.227	0.496
298.500	220.136	79.999	19.995	103.153	20.103	5.267	0.496
299.000	220.400	79.997	19.996	103.152	20.101	5.387	0.517
299.500	220.652	79.997	20.000	103.153	20.102	5.361	0.522
300.000	220.899	80.001	19.993	103.152	20.101	5.365	0.507
300.500	221.108	79.998	19.999	103.153	20.102	5.347	0.477
301.000	221.376	80.000	19.998	103.152	20.100	5.450	0.466
301.500	221.631	80.000	19.995	103.155	20.101	5.422	0.500
302.000	221.861	80.002	19.994	103.155	20.100	5.478	0.504
302.500	222.155	80.002	19.991	103.155	20.099	5.556	0.505
303.000	222.400	79.998	19.995	103.156	20.101	5.418	0.531
303.500	222.644	79.997	19.996	103.157	20.101	5.399	0.514
304.000	222.918	79.997	19.993	103.156	20.103	5.283	0.504
304.500	223.131	80.001	19.996	103.156	20.100	5.444	0.503
305.000	223.384	80.001	19.997	103.157	20.101	5.379	0.476
305.500	223.642	80.000	19.994	103.157	20.103	5.289	0.488
306.000	223.867	79.994	20.002	103.158	20.101	5.369	0.497
306.500	224.136	79.996	19.996	103.158	20.102	5.337	0.488
307.000	224.348	79.998	19.995	103.158	20.101	5.428	0.487
307.500	224.625	79.997	19.994	103.157	20.103	5.267	0.485
308.000	224.869	79.999	19.998	103.158	20.099	5.520	0.505
308.500	225.106	79.997	19.995	103.156	20.098	5.646	0.501
309.000	225.344	79.996	19.997	103.157	20.098	5.648	0.478
309.500	225.641	79.996	19.996	103.156	20.097	5.692	0.505
310.000	225.881	79.999	19.994	103.155	20.098	5.586	0.536
310.500	226.114	80.002	19.991	103.154	20.098	5.650	0.505
311.000	226.346	79.999	19.994	103.155	20.094	5.911	0.469
311.500	226.633	79.998	19.993	103.155	20.094	5.923	0.492
312.000	226.845	79.999	19.997	103.156	20.095	5.865	0.509
312.500	227.097	79.998	19.995	103.157	20.096	5.773	0.482
313.000	227.350	79.997	19.996	103.157	20.094	5.881	0.485
313.500	227.607	79.999	19.995	103.156	20.093	5.988	0.507
314.000	227.860	79.999	19.995	103.156	20.094	5.899	0.510
314.500	228.133	79.999	19.994	103.156	20.092	6.056	0.518
315.000	228.394	79.999	19.994	103.155	20.092	6.062	0.530
315.500	228.640	79.999	19.995	103.155	20.095	5.870	0.520
316.000	228.906	79.999	19.994	103.156	20.093	5.964	0.510
316.500	229.138	80.001	19.994	103.156	20.092	6.079	0.505
317.000	229.399	80.000	19.994	103.157	20.091	6.101	0.496
317.500	229.696	80.001	19.994	103.159	20.094	5.886	0.525
318.000	229.925	80.002	19.994	103.159	20.089	6.297	0.542
318.500	230.207	80.002	19.992	103.158	20.093	5.996	0.519
319.000	230.431	80.000	19.996	103.158	20.091	6.121	0.509
319.500	230.692	79.998	19.992	103.157	20.091	6.151	0.495
320.000	230.962	79.996	20.001	103.156	20.092	6.092	0.508
320.500	231.194	79.999	19.999	103.154	20.089	6.305	0.516
321.000	231.465	80.001	19.989	103.153	20.088	6.372	0.502
321.500	231.703	79.997	19.997	103.156	20.085	6.536	0.506
322.000	231.972	79.999	19.995	103.156	20.086	6.478	0.508
322.500	232.213	79.999	19.995	103.155	20.086	6.528	0.509
323.000	232.462	79.998	19.995	103.156	20.086	6.522	0.500
323.500	232.715	79.998	19.996	103.157	20.086	6.520	0.496
324.000	232.980	79.997	19.996	103.154	20.083	6.678	0.510
324.500	233.212	79.999	19.995	103.154	20.082	6.777	0.507
325.000	233.490	79.997	19.994	103.155	20.086	6.508	0.504
325.500	233.733	79.997	19.996	103.156	20.085	6.530	0.516
326.000	233.955	79.998	19.996	103.160	20.084	6.658	0.493
326.500	234.193	79.997	19.995	103.160	20.083	6.712	0.462
327.000	234.437	79.998	19.997	103.161	20.084	6.608	0.471
327.500	234.700	79.998	19.996	103.164	20.084	6.660	0.495
328.000	234.992	79.997	19.996	103.164	20.082	6.811	0.531
328.500	235.224	79.996	19.995	103.161	20.082	6.811	0.540
329.000	235.484	79.996	19.994	103.161	20.081	6.881	0.509
329.500	235.740	79.997	19.996	103.161	20.081	6.835	0.504
330.000	235.971	79.997	19.998	103.163	20.081	6.863	0.501
330.500	236.235	79.996	19.997	103.161	20.081	6.835	0.490
331.000	236.481	79.998	19.997	103.160	20.081	6.865	0.502
331.500	236.760	79.997	19.997	103.162	20.080	6.959	0.518
332.000	236.990	79.998	19.997	103.160	20.081	6.837	0.517
332.500	237.257	79.999	19.996	103.158	20.079	6.982	0.503
333.000	237.497	79.997	19.997	103.157	20.078	7.050	0.502
333.500	237.726	79.999	19.996	103.157	20.076	7.249	0.488
334.000	238.015	79.998	19.996	103.156	20.078	7.070	0.494
334.500	238.246	79.998	19.997	103.155	20.078	7.060	0.519
335.000	238.532	79.999	19.996	103.154	20.079	6.971	0.519
335.500	238.726	79.999	19.997	103.153	20.076	7.228	0.499
336.000	238.963	79.999	19.995	103.152	20.078	7.040	0.455
336.500	239.215	79.999	19.995	103.152	20.075	7.281	0.460
337.000	239.483	79.999	19.996	103.152	20.076	7.243	0.504
337.500	239.709	79.999	19.998	103.152	20.073	7.409	0.507
338.000	239.944	79.997	19.997	103.152	20.073	7.440	0.478
338.500	240.245	80.000	19.996	103.154	20.071	7.572	0.499
339.000	240.492	80.001	19.994	103.155	20.074	7.345	0.542
339.500	240.749	79.998	19.996	103.155	20.073	7.470	0.526
340.000	240.969	80.001	19.994	103.154	20.075	7.327	0.491
340.500	241.186	79.998	19.996	103.154	20.074	7.359	0.457
341.000	241.474	80.001	19.995	103.152	20.070	7.664	0.471
341.500	241.724	80.001	19.995	103.151	20.070	7.622	0.522
342.000	242.001	80.001	19.994	103.151	20.068	7.819	0.532
342.500	242.267	80.000	19.995	103.153	20.072	7.508	0.535
343.000	242.527	80.002	19.994	103.155	20.070	7.630	0.534
343.500	242.783	80.000	19.994	103.156	20.068	7.773	0.521
344.000	243.045	80.000	19.995	103.156	20.071	7.550	0.517
344.500	243.303	80.000	19.995	103.156	20.071	7.604	0.519
345.000	243.537	80.001	19.994	103.154	20.069	7.759	0.506
345.500	243.780	80.001	19.993	103.152	20.069	7.699	0.485
346.000	244.015	80.000	19.996	103.151	20.070	7.691	0.477
346.500	244.289	80.000	19.994	103.151	20.068	7.838	0.493
347.000	244.513	79.999	19.994	103.153	20.069	7.753	0.503
347.500	244.749	79.998	19.996	103.154	20.065	7.990	0.479
348.000	245.008	80.000	19.996	103.153	20.066	7.916	0.478
348.500	245.276	80.000	19.995	103.153	20.068	7.811	0.511
349.000	245.533	80.001	19.995	103.156	20.066	7.948	0.526
349.500	245.771	80.000	19.992	103.157	20.065	8.034	0.510
350.000	246.051	79.997	19.998	103.158	20.062	8.213	0.507
350.500	246.280	79.998	19.995	103.157	20.062	8.261	0.514
351.000	246.545	80.000	19.995	103.158	20.063	8.166	0.501
351.500	246.759	80.000	19.994	103.155	20.063	8.152	0.486
352.000	247.005	80.001	19.994	103.152	20.059	8.424	0.470
352.500	247.262	79.998	19.996	103.152	20.061	8.337	0.482
353.000	247.519	79.997	19.996	103.153	20.059	8.426	0.509
353.500	247.769	79.999	19.995	103.153	20.057	8.580	0.510
354.000	248.038	79.998	19.995	103.153	20.060	8.377	0.513
354.500	248.297	79.998	19.995	103.153	20.058	8.502	0.523
355.000	248.554	79.999	19.995	103.153	20.057	8.625	0.521
355.500	248.780	79.997	19.997	103.154	20.061	8.303	0.499
356.000	249.045	79.996	19.995	103.155	20.056	8.707	0.487
356.500	249.303	79.999	19.994	103.158	20.053	8.920	0.507
357.000	249.583	79.998	19.995	103.165	20.057	8.603	0.531
357.500	249.836	79.999	19.994	103.165	20.057	8.604	0.536
358.000	250.111	80.000	19.993	103.163	20.052	8.958	0.531
358.500	250.370	79.998	19.996	103.163	20.049	9.189	0.531
359.000	250.592	79.998	19.995	103.161	20.049	9.205	0.507
359.500	250.841	79.998	19.995	103.158	20.051	9.033	0.475
360.000	251.078	79.999	19.996	103.158	20.049	9.221	0.479
360.500	251.365	79.998	19.996	103.159	20.049	9.167	0.505
361.000	251.576	79.998	19.993	103.158	20.051	9.007	0.511
361.500	251.874	79.998	19.996	103.158	20.048	9.291	0.503
362.000	252.104	79.999	19.994	103.154	20.046	9.396	0.519
362.500	252.371	80.000	19.994	103.154	20.046	9.438	0.513
363.000	252.577	79.999	19.991	103.157	20.047	9.370	0.485
363.500	252.857	79.998	19.995	103.158	20.049	9.218	0.480
364.000	253.095	79.998	19.996	103.157	20.044	9.535	0.502
364.500	253.347	79.997	19.995	103.158	20.046	9.412	0.504
365.000	253.569	79.999	19.995	103.157	20.045	9.457	0.482
365.500	253.827	79.999	19.995	103.156	20.046	9.421	0.477
366.000	254.092	79.998	19.995	103.160	20.044	9.577	0.501
366.500	254.344	79.998	19.996	103.162	20.040	9.813	0.520
367.000	254.584	80.003	19.992	103.163	20.043	9.620	0.504
367.500	254.828	79.998	19.995	103.164	20.044	9.528	0.488
368.000	255.106	79.997	19.995	103.161	20.042	9.729	0.503
368.500	255.346	79.998	19.995	103.157	20.041	9.742	0.520
369.000	255.618	80.000	19.997	103.158	20.040	9.853	0.515
369.500	255.841	79.997	19.998	103.160	20.040	9.841	0.504
370.000	256.085	79.996	19.998	103.164	20.040	9.853	0.481
370.500	256.352	79.995	19.989	103.164	20.038	10.025	0.489
371.000	256.584	80.000	19.994	103.164	20.036	10.161	0.505
371.500	256.838	79.998	19.995	103.163	20.036	10.110	0.492
372.000	257.093	79.999	19.994	103.165	20.034	10.292	0.497
372.500	257.308	80.001	19.997	103.162	20.034	10.285	0.490
373.000	257.543	79.997	19.993	103.162	20.035	10.219	0.460
373.500	257.807	80.003	19.994	103.163	20.031	10.474	0.475
374.000	258.055	80.000	19.993	103.165	20.031	10.515	0.506
374.500	258.290	80.000	19.996	103.167	20.031	10.479	0.498
375.000	258.576	80.000	19.993	103.167	20.033	10.382	0.502
375.500	258.813	79.999	19.994	103.168	20.028	10.683	0.522
376.000	259.086	79.999	19.992	103.167	20.029	10.645	0.516
376.500	259.310	80.001	19.994	103.168	20.027	10.815	0.503
377.000	259.617	79.998	19.995	103.166	20.024	10.976	0.514
377.500	259.858	79.997	19.998	103.176	20.022	11.177	0.539
378.000	260.081	79.998	19.995	103.172	20.018	11.414	0.506
378.500	260.336	79.998	19.995	103.156	20.019	11.368	0.472
379.000	260.567	79.998	19.994	103.139	20.019	11.387	0.482
379.500	260.793	79.997	19.995	103.128	20.017	11.533	0.471
380.000	261.057	79.997	19.996	103.115	20.017	11.553	0.473
380.500	261.323	80.003	19.988	103.118	20.018	11.479	0.510
381.000	261.578	79.996	19.997	103.136	20.015	11.674	0.526
381.500	261.817	79.998	19.997	103.170	20.016	11.620	0.508
382.000	262.083	79.998	19.994	103.206	20.014	11.759	0.499
382.500	262.327	79.999	19.990	103.218	20.013	11.795	0.507
383.000	262.562	80.001	19.992	103.228	20.013	11.837	0.494
383.500	262.840	79.998	19.995	103.234	20.011	11.956	0.496
384.000	263.059	79.998	19.995	103.219	20.011	11.927	0.505
384.500	263.322	79.998	19.995	103.197	20.010	12.009	0.490
385.000	263.569	79.997	19.993	103.191	20.009	12.140	0.496
385.500	263.814	79.998	19.996	103.189	20.006	12.345	0.501
386.000	264.068	79.998	19.996	103.185	20.007	12.240	0.496
386.500	264.295	79.998	19.995	103.182	20.004	12.458	0.490
387.000	264.546	79.999	19.995	103.179	20.005	12.431	0.479
387.500	264.810	79.997	19.995	103.178	20.003	12.552	0.496
388.000	265.053	79.998	19.995	103.178	20.002	12.622	0.511
388.500	265.334	79.998	19.993	103.180	20.002	12.630	0.515
389.000	265.569	80.000	19.996	103.182	19.998	12.912	0.520
389.500	265.798	79.997	19.995	103.186	19.997	12.944	0.490
390.000	266.059	79.997	19.995	103.189	19.997	12.998	0.477
390.500	266.276	79.998	19.997	103.187	19.998	12.927	0.484
391.000	266.566	79.998	19.996	103.187	19.996	13.032	0.492
391.500	266.799	79.996	19.994	103.188	19.993	13.253	0.515
392.000	267.037	79.997	19.994	103.188	19.992	13.375	0.497
392.500	267.280	79.999	19.996	103.189	19.990	13.522	0.476
393.000	267.525	80.002	19.993	103.193	19.987	13.733	0.484
393.500	267.763	79.999	19.995	103.195	19.988	13.652	0.485
394.000	268.041	79.999	19.995	103.194	19.986	13.793	0.499
394.500	268.310	79.998	20.000	103.192	19.984	13.925	0.532
395.000	268.525	79.999	19.996	103.189	19.982	14.052	0.516
395.500	268.793	80.001	19.995	103.189	19.984	13.903	0.484
396.000	269.047	79.999	19.996	103.188	19.983	14.028	0.503
396.500	269.248	80.001	19.996	103.188	19.983	14.024	0.488
397.000	269.498	79.999	19.995	103.189	19.980	14.235	0.453
397.500	269.767	80.000	19.995	103.190	19.980	14.231	0.485
398.000	269.992	79.998	19.997	103.190	19.980	14.183	0.507
398.500	270.287	80.000	19.994	103.189	19.974	14.677	0.507
399.000	270.511	80.000	19.993	103.190	19.974	14.687	0.520
399.500	270.752	80.000	19.995	103.190	19.973	14.755	0.492
400.000	271.011	80.000	19.995	103.190	19.971	14.852	0.482
400.500	271.252	80.000	19.995	103.189	19.969	14.989	0.500
401.000	271.534	79.998	19.998	103.189	19.968	15.104	0.511
401.500	271.769	80.000	19.995	103.188	19.962	15.532	0.520
402.000	272.022	80.001	19.995	103.187	19.962	15.552	0.503
402.500	272.263	80.000	19.994	103.187	19.961	15.589	0.491
403.000	272.503	79.999	19.994	103.186	19.962	15.539	0.488
403.500	272.760	79.999	19.996	103.187	19.956	15.943	0.489
404.000	273.013	80.000	19.996	103.187	19.957	15.913	0.503
404.500	273.279	80.000	19.995	103.187	19.954	16.132	0.514
405.000	273.521	79.999	19.994	103.187	19.954	16.138	0.513
405.500	273.742	79.998	19.994	103.187	19.955	16.064	0.486
406.000	274.007	80.000	19.995	103.187	19.950	16.418	0.474
406.500	274.244	79.999	19.996	103.188	19.946	16.730	0.494
407.000	274.505	79.999	19.996	103.189	19.946	16.670	0.500
407.500	274.745	79.999	19.996	103.189	19.943	16.950	0.499
408.000	275.004	79.999	19.995	103.190	19.941	17.058	0.500
408.500	275.251	79.999	19.995	103.190	19.939	17.195	0.503
409.000	275.499	79.999	19.997	103.189	19.939	17.229	0.501
409.500	275.716	80.000	19.994	103.188	19.937	17.382	0.480
410.000	276.022	79.999	19.997	103.189	19.935	17.501	0.494
410.500	276.262	79.999	19.994	103.189	19.936	17.402	0.534
411.000	276.513	80.000	19.994	103.190	19.933	17.662	0.518
411.500	276.742	79.998	19.995	103.192	19.935	17.489	0.485
412.000	276.983	79.999	19.995	103.196	19.929	17.971	0.475
412.500	277.227	79.999	19.997	103.197	19.926	18.145	0.478
413.000	277.424	79.998	19.996	103.198	19.925	18.237	0.463
413.500	277.694	79.998	19.996	103.201	19.923	18.404	0.454
414.000	277.936	80.000	19.996	103.205	19.918	18.745	0.489
414.500	278.201	79.999	19.995	103.206	19.919	18.635	0.509
415.000	278.426	80.000	19.997	103.207	19.918	18.726	0.499
415.500	278.672	80.000	19.996	103.208	19.920	18.624	0.481
416.000	278.922	79.999	19.995	103.209	19.914	19.042	0.483
416.500	279.155	80.000	19.996	103.209	19.910	19.298	0.489
417.000	279.424	80.000	19.995	103.209	19.909	19.386	0.493
417.500	279.687	80.000	19.996	103.213	19.910	19.332	0.517
418.000	279.911	79.998	19.996	103.217	19.908	19.491	0.509
418.500	280.194	80.000	19.996	103.219	19.904	19.770	0.497
419.000	280.417	80.000	19.996	103.219	19.903	19.850	0.507
419.500	280.632	80.002	19.995	103.219	19.898	20.174	0.472
420.000	280.874	80.000	19.997	103.220	19.899	20.142	0.447
420.500	281.139	80.000	19.996	103.221	19.893	20.532	0.482
421.000	281.371	79.999	19.996	103.222	19.890	20.815	0.502
421.500	281.621	80.000	19.997	103.223	19.889	20.818	0.490
422.000	281.864	79.999	19.995	103.223	19.888	20.921	0.487
422.500	282.080	80.001	19.993	103.223	19.884	21.222	0.476
423.000	282.357	80.000	19.996	103.224	19.886	21.102	0.476
423.500	282.588	80.000	19.997	103.219	19.880	21.490	0.501
424.000	282.815	80.000	19.997	103.216	19.878	21.627	0.483
424.500	283.130	80.002	19.995	103.216	19.876	21.774	0.500
425.000	283.373	80.000	19.997	103.216	19.877	21.744	0.550
425.500	283.629	80.000	19.995	103.215	19.874	21.961	0.528
426.000	283.850	80.000	19.994	103.220	19.874	21.981	0.488
426.500	284.078	80.000	19.996	103.225	19.868	22.387	0.463
427.000	284.336	79.998	19.997	103.226	19.866	22.523	0.468
427.500	284.570	80.000	19.995	103.227	19.865	22.580	0.489
428.000	284.823	80.000	19.995	103.226	19.862	22.799	0.490
428.500	285.056	79.998	19.996	103.226	19.862	22.823	0.486
429.000	285.288	79.998	19.996	103.227	19.857	23.157	0.475
429.500	285.544	79.998	19.996	103.227	19.855	23.332	0.476
430.000	285.789	79.999	19.995	103.227	19.852	23.521	0.495
430.500	286.038	79.998	19.996	103.228	19.849	23.748	0.497
431.000	286.296	79.999	19.995	103.228	19.847	23.943	0.500
431.500	286.556	79.997	19.995	103.228	19.846	24.007	0.512
432.000	286.778	79.997	19.994	103.229	19.845	24.102	0.500
432.500	287.064	79.998	19.995	103.232	19.837	24.615	0.495
433.000	287.288	79.998	19.995	103.235	19.836	24.688	0.509
433.500	287.533	79.999	19.994	103.241	19.834	24.841	0.490
434.000	287.819	79.999	19.994	103.245	19.828	25.306	0.500
434.500	288.019	79.997	19.995	103.248	19.829	25.232	0.508
435.000	288.244	79.998	19.995	103.245	19.827	25.377	0.455
435.500	288.516	79.997	19.995	103.247	19.822	25.735	0.461
436.000	288.738	79.998	19.994	103.248	19.822	25.725	0.496
436.500	289.001	79.996	19.996	103.248	19.818	26.050	0.490
437.000	289.265	79.997	19.994	103.247	19.815	26.288	0.506
437.500	289.511	79.998	19.995	103.249	19.815	26.261	0.518
438.000	289.725	79.997	19.994	103.248	19.809	26.677	0.485
438.500	289.987	79.997	19.995	103.249	19.808	26.764	0.468
439.000	290.270	79.997	19.994	103.251	19.808	26.752	0.511
439.500	290.522	79.999	19.994	103.251	19.803	27.108	0.540
440.000	290.814	79.997	19.997	103.249	19.799	27.446	0.540
440.500	291.019	79.999	19.995	103.251	19.799	27.450	0.520
441.000	291.278	79.998	19.994	103.249	19.797	27.584	0.480
441.500	291.536	79.998	19.994	103.249	19.790	28.057	0.490
442.000	291.778	79.998	19.994	103.252	19.787	28.295	0.509
442.500	292.073	79.999	19.995	103.257	19.785	28.450	0.519
443.000	292.287	79.997	19.995	103.260	19.786	28.382	0.523
443.500	292.552	79.999	19.995	103.262	19.781	28.757	0.494
444.000	292.789	79.998	19.995	103.264	19.778	28.945	0.490
444.500	293.018	79.999	19.997	103.268	19.776	29.089	0.485
445.000	293.282	79.998	19.995	103.269	19.773	29.326	0.480
445.500	293.543	79.998	19.994	103.270	19.771	29.502	0.509
446.000	293.763	79.999	19.994	103.270	19.767	29.754	0.503
446.500	294.023	79.997	19.994	103.271	19.761	30.165	0.481
447.000	294.237	79.998	19.996	103.271	19.760	30.232	0.477
447.500	294.513	79.997	19.995	103.271	19.758	30.389	0.482
448.000	294.742	79.999	19.996	103.271	19.754	30.732	0.497
448.500	295.004	79.999	19.995	103.270	19.753	30.750	0.498
449.000	295.265	79.996	19.995	103.270	19.752	30.854	0.507
449.500	295.469	79.999	19.994	103.271	19.749	31.097	0.494
450.000	295.787	79.997	19.996	103.271	19.744	31.414	0.493
450.500	296.022	79.996	19.998	103.271	19.741	31.661	0.537
451.000	296.275	79.998	19.994	103.272	19.738	31.900	0.521
451.500	296.498	79.999	19.994	103.271	19.736	32.060	0.482
452.000	296.757	79.998	19.995	103.272	19.734	32.192	0.479
452.500	297.029	79.999	19.995	103.274	19.730	32.479	0.507
453.000	297.277	79.998	19.996	103.277	19.728	32.636	0.526
453.500	297.552	79.997	19.995	103.277	19.722	33.017	0.521
454.000	297.751	79.998	19.994	103.277	19.718	33.335	0.498
454.500	297.998	79.997	19.995	103.280	19.717	33.442	0.461
455.000	298.251	79.998	19.993	103.284	19.716	33.499	0.473
455.500	298.469	79.998	19.994	103.281	19.711	33.880	0.485
456.000	298.728	79.998	19.995	103.283	19.710	33.954	0.474
456.500	298.971	79.998	19.994	103.284	19.705	34.288	0.489
457.000	299.274	79.999	19.996	103.283	19.703	34.441	0.524
457.500	299.499	79.998	19.994	103.278	19.699	34.746	0.537
458.000	299.762	79.997	19.996	103.279	19.694	35.070	0.508
458.500	300.002	79.998	19.994	103.279	19.691	35.321	0.495
459.000	300.246	79.998	19.994	103.285	19.687	35.603	0.494
459.500	300.490	79.996	19.995	103.290	19.688	35.544	0.487
460.000	300.759	79.998	19.995	103.295	19.684	35.830	0.501
460.500	300.994	79.998	19.994	103.300	19.679	36.152	0.508
461.000	301.238	79.996	19.995	103.304	19.682	35.928	0.491
461.500	301.513	79.998	19.994	103.304	19.675	36.456	0.499
462.000	301.750	79.999	19.996	103.305	19.673	36.595	0.515
462.500	302.008	79.997	19.996	103.306	19.669	36.936	0.504
463.000	302.246	79.996	19.995	103.305	19.666	37.137	0.496
463.500	302.515	79.997	19.994	103.298	19.661	37.476	0.501
464.000	302.752	79.998	19.994	103.296	19.658	37.717	0.506
464.500	302.969	79.998	19.995	103.295	19.654	38.025	0.480
465.000	303.254	79.999	19.994	103.296	19.651	38.235	0.478
465.500	303.480	79.998	19.997	103.297	19.648	38.467	0.507
466.000	303.716	79.999	19.995	103.305	19.647	38.519	0.487
466.500	303.959	79.999	19.996	103.307	19.644	38.754	0.470
467.000	304.235	79.998	19.994	103.307	19.639	39.125	0.499
467.500	304.502	79.999	19.994	103.307	19.636	39.361	0.531
468.000	304.726	79.999	19.994	103.308	19.635	39.392	0.517
468.500	304.987	79.999	19.994	103.306	19.632	39.625	0.488
469.000	305.255	80.000	19.994	103.306	19.626	40.060	0.507
469.500	305.457	79.998	19.996	103.306	19.626	40.025	0.500
470.000	305.754	79.998	19.994	103.307	19.619	40.552	0.485
470.500	306.019	79.999	19.995	103.306	19.619	40.534	0.530
471.000	306.261	79.999	19.995	103.307	19.614	40.909	0.534
471.500	306.515	80.001	19.994	103.307	19.611	41.150	0.501
472.000	306.751	79.999	19.996	103.309	19.607	41.466	0.493
472.500	306.996	80.001	19.996	103.308	19.605	41.571	0.485
473.000	307.272	80.001	19.994	103.310	19.603	41.739	0.501
473.500	307.482	79.999	19.995	103.310	19.600	41.951	0.504
474.000	307.743	80.001	19.994	103.311	19.594	42.405	0.478
474.500	308.001	80.002	19.991	103.310	19.591	42.616	0.495
475.000	308.271	80.000	19.995	103.315	19.591	42.648	0.524
475.500	308.512	80.001	19.995	103.320	19.587	42.942	0.519
476.000	308.734	80.001	19.994	103.328	19.582	43.284	0.487
476.500	308.996	80.002	19.995	103.334	19.580	43.437	0.474
477.000	309.256	80.000	19.995	103.335	19.574	43.858	0.503
477.500	309.504	80.000	19.995	103.334	19.572	43.985	0.515
478.000	309.777	80.000	19.995	103.331	19.565	44.522	0.515
478.500	309.961	80.001	19.995	103.326	19.565	44.542	0.489
479.000	310.247	80.001	19.996	103.323	19.558	45.040	0.464
479.500	310.490	80.001	19.995	103.324	19.557	45.120	0.500
480.000	310.750	80.001	19.995	103.324	19.554	45.283	0.516
480.500	310.986	80.000	19.996	103.328	19.549	45.643	0.499
481.000	311.238	80.001	19.996	103.331	19.551	45.517	0.492
481.500	311.500	80.001	19.996	103.333	19.543	46.102	0.501
482.000	311.746	80.001	19.995	103.336	19.540	46.320	0.511
482.500	312.012	80.000	19.994	103.340	19.535	46.710	0.510
483.000	312.264	80.000	19.996	103.340	19.530	47.067	0.515
483.500	312.543	80.000	19.995	103.340	19.529	47.131	0.525
484.000	312.776	80.001	19.995	103.344	19.529	47.153	0.522
484.500	313.055	79.999	19.997	103.344	19.526	47.364	0.512
485.000	313.312	80.000	19.997	103.344	19.519	47.855	0.524
485.500	313.542	79.999	19.996	103.343	19.517	47.997	0.511
486.000	313.802	80.000	19.996	103.343	19.515	48.184	0.489
486.500	314.033	79.999	19.995	103.342	19.515	48.188	0.490
487.000	314.291	79.998	19.997	103.342	19.508	48.647	0.490
487.500	314.548	80.000	19.996	103.343	19.507	48.754	0.502
488.000	314.775	79.997	19.997	103.344	19.504	48.951	0.500
488.500	315.056	79.999	19.992	103.345	19.500	49.269	0.496
489.000	315.293	79.998	19.996	103.346	19.496	49.547	0.513
489.500	315.547	79.999	19.997	103.346	19.493	49.755	0.504
490.000	315.776	79.997	19.996	103.347	19.489	50.083	0.487
490.500	316.038	80.000	19.995	103.347	19.488	50.158	0.487
491.000	316.281	79.999	19.996	103.347	19.485	50.321	0.498
491.500	316.526	80.000	19.995	103.346	19.482	50.597	0.497
492.000	316.747	79.999	19.995	103.347	19.482	50.535	0.477
492.500	317.003	80.002	19.995	103.347	19.477	50.927	0.472
493.000	317.232	80.000	19.996	103.348	19.475	51.093	0.481
493.500	317.524	80.000	19.996	103.349	19.470	51.451	0.503
494.000	317.738	80.000	19.995	103.350	19.469	51.514	0.513
494.500	318.009	79.999	19.995	103.350	19.465	51.811	0.495
495.000	318.239	80.000	19.995	103.350	19.463	51.986	0.493
495.500	318.514	80.000	19.997	103.349	19.459	52.220	0.503
496.000	318.773	80.001	19.995	103.349	19.459	52.228	0.519
496.500	319.000	80.000	19.994	103.347	19.454	52.587	0.510
497.000	319.220	80.000	19.994	103.348	19.452	52.724	0.466
497.500	319.464	79.999	19.995	103.347	19.448	53.023	0.455
498.000	319.741	80.001	19.995	103.347	19.447	53.140	0.492
498.500	319.965	79.999	19.996	103.348	19.443	53.451	0.511
499.000	320.257	80.000	19.995	103.352	19.440	53.611	0.508
499.500	320.481	80.001	19.996	103.352	19.440	53.668	0.516
500.000	320.755	79.999	19.995	103.354	19.436	53.932	0.507
500.500	321.033	80.001	19.996	103.359	19.432	54.245	0.525
501.000	321.230	80.001	19.993	103.359	19.430	54.392	0.513
501.500	321.503	80.000	19.995	103.355	19.430	54.398	0.473
502.000	321.718	80.000	19.995	103.356	19.425	54.746	0.479
502.500	321.983	80.000	19.994	103.357	19.424	54.797	0.484
503.000	322.220	80.002	19.997	103.354	19.423	54.908	0.491
503.500	322.461	80.001	19.995	103.352	19.420	55.094	0.489
504.000	322.734	80.001	19.996	103.352	19.419	55.147	0.496
504.500	322.966	80.001	19.994	103.351	19.416	55.371	0.510
505.000	323.190	80.001	19.995	103.348	19.415	55.460	0.480
505.500	323.472	80.001	19.994	103.347	19.410	55.859	0.481
506.000	323.699	80.000	19.997	103.347	19.410	55.799	0.508
506.500	323.961	80.003	19.996	103.347	19.409	55.884	0.499
507.000	324.216	80.003	19.995	103.348	19.406	56.100	0.504
507.500	324.436	80.000	19.994	103.350	19.404	56.245	0.496
508.000	324.704	80.000	19.995	103.350	19.403	56.332	0.481
508.500	324.949	79.994	19.998	103.354	19.402	56.430	0.500
509.000	325.169	79.998	19.996	103.353	19.401	56.482	0.489
509.500	325.409	79.998	19.996	103.352	19.399	56.623	0.463
510.000	325.679	80.000	19.996	103.351	19.400	56.520	0.485
510.500	325.934	79.997	19.996	103.351	19.398	56.717	0.518
511.000	326.169	80.000	19.996	103.349	19.394	56.990	0.508
511.500	326.384	79.996	19.994	103.350	19.397	56.791	0.470
512.000	326.630	79.999	19.993	103.350	19.395	56.922	0.456
512.500	326.891	79.999	19.995	103.351	19.395	56.929	0.484
513.000	327.132	79.995	19.999	103.350	19.393	57.055	0.504
513.500	327.390	79.997	19.994	103.349	19.392	57.155	0.500
514.000	327.618	79.998	19.996	103.350	19.391	57.229	0.492
514.500	327.870	79.999	19.996	103.350	19.390	57.305	0.482
515.000	328.100	79.997	19.996	103.348	19.395	56.931	0.481
515.500	328.331	79.998	19.998	103.349	19.395	56.930	0.472
516.000	328.592	79.999	19.996	103.354	19.392	57.158	0.477
516.500	328.802	79.998	19.995	103.355	19.390	57.257	0.482
517.000	329.094	79.997	19.996	103.356	19.394	56.996	0.486
517.500	329.335	79.997	19.996	103.357	19.391	57.228	0.517
518.000	329.577	79.998	19.994	103.358	19.389	57.334	0.508
518.500	329.824	79.998	19.995	103.354	19.390	57.284	0.486
519.000	330.090	79.997	19.995	103.352	19.390	57.259	0.501
519.500	330.321	79.999	19.996	103.351	19.393	57.074	0.505
520.000	330.599	79.998	19.996	103.351	19.393	57.019	0.503
520.500	330.838	79.997	19.997	103.350	19.393	57.039	0.513
521.000	331.024	79.998	19.995	103.350	19.393	57.016	0.471
521.500	331.291	79.998	19.996	103.350	19.393	57.050	0.438
522.000	331.521	79.997	19.994	103.349	19.394	56.950	0.475
522.500	331.798	79.999	19.994	103.349	19.394	56.932	0.503
523.000	332.029	79.999	19.994	103.349	19.397	56.748	0.507
523.500	332.290	80.000	19.994	103.348	19.399	56.628	0.500
524.000	332.516	80.000	19.994	103.346	19.399	56.591	0.490
524.500	332.800	79.999	19.994	103.345	19.401	56.429	0.499
525.000	333.079	79.999	19.995	103.340	19.400	56.491	0.536
525.500	333.279	80.000	19.994	103.340	19.402	56.348	0.521
526.000	333.541	79.999	19.996	103.336	19.404	56.202	0.471
526.500	333.802	80.000	19.994	103.334	19.408	55.923	0.493
527.000	334.048	80.000	19.994	103.336	19.408	55.908	0.515
527.500	334.276	79.997	19.997	103.337	19.409	55.871	0.490
528.000	334.551	79.995	19.994	103.334	19.413	55.533	0.489
528.500	334.808	79.997	19.992	103.331	19.414	55.477	0.517
529.000	335.050	80.000	19.994	103.327	19.415	55.439	0.516
529.500	335.300	79.999	19.994	103.320	19.418	55.220	0.496
530.000	335.586	80.000	19.995	103.315	19.423	54.818	0.514
530.500	335.808	79.999	19.994	103.310	19.425	54.697	0.521
531.000	336.046	79.998	19.996	103.310	19.428	54.477	0.484
531.500	336.301	79.998	19.995	103.309	19.431	54.237	0.477
532.000	336.567	80.000	19.994	103.308	19.434	54.010	0.507
532.500	336.771	79.998	19.995	103.308	19.441	53.536	0.495
533.000	337.045	80.000	19.995	103.309	19.443	53.362	0.474
533.500	337.291	79.998	19.994	103.306	19.445	53.241	0.499
534.000	337.598	80.000	19.993	103.304	19.447	53.041	0.537
534.500	337.841	79.998	19.994	103.298	19.452	52.670	0.552
535.000	338.054	80.000	19.995	103.292	19.456	52.407	0.503
535.500	338.315	79.997	19.995	103.286	19.460	52.083	0.465
536.000	338.562	79.999	19.995	103.283	19.461	52.037	0.491
536.500	338.820	80.000	19.997	103.277	19.466	51.705	0.506
537.000	339.088	79.998	19.995	103.275	19.471	51.335	0.515
537.500	339.350	79.998	19.997	103.272	19.477	50.843	0.528
538.000	339.597	79.998	19.994	103.271	19.478	50.806	0.520
538.500	339.844	79.998	19.995	103.269	19.486	50.193	0.502
539.000	340.096	79.997	19.997	103.270	19.491	49.820	0.496
539.500	340.343	79.998	19.994	103.269	19.495	49.530	0.499
540.000	340.609	80.001	19.992	103.270	19.501	49.146	0.506
540.500	340.901	79.995	19.998	103.271	19.505	48.801	0.535
541.000	341.127	79.999	19.996	103.270	19.511	48.364	0.538
541.500	341.387	79.996	19.995	103.269	19.517	47.928	0.502
542.000	341.638	79.999	19.994	103.269	19.522	47.601	0.498
542.500	341.859	79.998	19.996	103.263	19.527	47.226	0.492
543.000	342.093	79.998	19.996	103.256	19.533	46.789	0.464
543.500	342.358	79.997	19.993	103.248	19.540	46.277	0.477
544.000	342.611	79.997	19.997	103.241	19.543	46.073	0.508
544.500	342.870	79.999	19.996	103.234	19.549	45.626	0.515
545.000	343.159	79.997	19.997	103.231	19.556	45.105	0.530
545.500	343.408	79.999	19.995	103.230	19.561	44.736	0.543
546.000	343.637	79.992	19.998	103.230	19.566	44.392	0.508
546.500	343.912	79.996	20.001	103.229	19.573	43.861	0.491
547.000	344.187	80.002	19.995	103.228	19.579	43.421	0.527
547.500	344.453	79.998	19.993	103.228	19.585	42.950	0.546
548.000	344.691	79.997	19.995	103.228	19.594	42.347	0.523
548.500	344.915	79.999	19.996	103.224	19.594	42.332	0.483
549.000	345.171	79.999	19.994	103.221	19.604	41.591	0.471
549.500	345.444	79.999	19.995	103.221	19.607	41.358	0.504
550.000	345.692	80.000	19.996	103.215	19.618	40.539	0.525
550.500	345.942	79.998	19.996	103.210	19.623	40.213	0.510
551.000	346.191	80.000	19.995	103.209	19.629	39.795	0.498
551.500	346.487	80.000	19.996	103.206	19.634	39.376	0.522
552.000	346.745	79.999	19.995	103.203	19.640	38.952	0.550
552.500	346.999	79.999	19.996	103.202	19.650	38.213	0.533
553.000	347.275	79.999	19.995	103.200	19.653	38.012	0.521
553.500	347.512	80.000	19.996	103.197	19.660	37.546	0.521
554.000	347.742	79.999	19.994	103.195	19.667	37.020	0.490
554.500	348.038	80.000	19.996	103.190	19.673	36.538	0.497
555.000	348.308	80.001	19.993	103.188	19.679	36.128	0.546
555.500	348.550	80.000	19.995	103.186	19.685	35.696	0.539
556.000	348.808	80.001	19.995	103.184	19.690	35.311	0.506
556.500	349.048	80.001	19.994	103.185	19.699	34.679	0.499
557.000	349.310	80.003	19.995	103.180	19.704	34.326	0.500
557.500	349.586	80.000	19.997	103.173	19.710	33.880	0.520
558.000	349.837	79.998	19.998	103.167	19.715	33.476	0.533
558.500	350.095	79.999	19.993	103.160	19.721	33.064	0.518
559.000	350.374	80.003	19.995	103.157	19.725	32.771	0.523
559.500	350.591	79.998	19.995	103.156	19.735	32.013	0.516
560.000	350.867	80.001	19.994	103.156	19.740	31.671	0.494
560.500	351.144	80.001	19.994	103.156	19.745	31.322	0.524
561.000	351.400	80.001	19.995	103.157	19.753	30.745	0.544
561.500	351.654	80.000	19.994	103.153	19.759	30.315	0.521
562.000	351.905	80.001	19.994	103.153	19.766	29.780	0.507
562.500	352.206	80.002	19.995	103.154	19.770	29.508	0.528
563.000	352.456	80.001	19.993	103.154	19.777	29.014	0.552
563.500	352.708	80.001	19.995	103.155	19.783	28.543	0.527
564.000	352.959	79.998	19.996	103.154	19.787	28.237	0.503
564.500	353.225	79.999	19.996	103.154	19.792	27.920	0.510
565.000	353.495	79.998	19.994	103.153	19.796	27.633	0.526
565.500	353.763	79.999	19.995	103.152	19.802	27.132	0.537
566.000	354.014	79.998	19.994	103.152	19.808	26.702	0.529
566.500	354.250	79.999	19.996	103.150	19.813	26.353	0.503
567.000	354.556	79.999	19.995	103.148	19.816	26.108	0.515
567.500	354.798	79.998	19.995	103.143	19.822	25.708	0.544
568.000	355.071	80.000	19.995	103.138	19.828	25.256	0.531
568.500	355.329	79.998	19.995	103.135	19.836	24.713	0.523
569.000	355.601	79.997	19.995	103.135	19.839	24.436	0.531
569.500	355.837	79.997	19.996	103.138	19.843	24.207	0.519
570.000	356.062	79.998	19.994	103.140	19.847	23.912	0.485
570.500	356.357	79.996	19.997	103.144	19.852	23.527	0.490
571.000	356.609	79.997	19.996	103.141	19.857	23.133	0.533
571.500	356.880	79.998	19.996	103.140	19.862	22.801	0.535
572.000	357.108	79.998	19.996	103.140	19.863	22.691	0.512
572.500	357.364	79.999	19.995	103.143	19.871	22.169	0.491
573.000	357.615	79.998	19.996	103.141	19.874	21.956	0.495
573.500	357.889	79.996	19.996	103.139	19.880	21.518	0.516
574.000	358.127	79.999	19.996	103.136	19.881	21.392	0.519
574.500	358.404	80.000	19.995	103.133	19.888	20.868	0.513
575.000	358.665	79.998	19.996	103.129	19.892	20.579	0.526
575.500	358.947	79.999	19.994	103.130	19.896	20.304	0.540
576.000	359.182	80.000	19.995	103.131	19.898	20.210	0.530
576.500	359.458	80.000	19.996	103.128	19.904	19.732	0.514
577.000	359.726	80.000	19.994	103.123	19.908	19.478	0.528
577.500	359.967	79.999	19.995	103.120	19.908	19.419	0.526
578.000	360.225	80.000	19.995	103.116	19.912	19.144	0.504
578.500	360.435	79.999	19.995	103.114	19.918	18.683	0.483
579.000	360.706	79.999	19.996	103.115	19.922	18.403	0.475
579.500	360.962	80.001	19.995	103.118	19.926	18.118	0.504
580.000	361.228	80.000	19.995	103.119	19.928	17.966	0.524
580.500	361.489	80.001	19.994	103.119	19.930	17.869	0.524
581.000	361.742	80.001	19.995	103.119	19.937	17.355	0.520
581.500	361.968	80.000	19.995	103.117	19.940	17.126	0.496
582.000	362.233	80.000	19.996	103.115	19.944	16.805	0.485
582.500	362.470	80.001	19.995	103.114	19.945	16.787	0.497
583.000	362.767	80.000	19.995	103.114	19.948	16.516	0.518
583.500	363.003	80.001	19.995	103.112	19.952	16.228	0.533
584.000	363.283	80.001	19.996	103.113	19.954	16.118	0.524
584.500	363.525	80.001	19.996	103.112	19.956	15.980	0.519
585.000	363.755	80.001	19.995	103.112	19.960	15.691	0.497
585.500	364.016	80.000	19.995	103.111	19.961	15.586	0.481
586.000	364.250	79.998	19.995	103.113	19.963	15.440	0.493
586.500	364.531	80.000	19.995	103.113	19.965	15.280	0.505
587.000	364.796	80.000	19.995	103.114	19.968	15.102	0.531
587.500	365.075	80.000	19.995	103.115	19.969	15.008	0.545
588.000	365.282	80.000	19.996	103.115	19.973	14.708	0.515
588.500	365.564	80.000	19.994	103.114	19.971	14.850	0.487
589.000	365.786	79.998	19.995	103.114	19.978	14.355	0.496
589.500	366.097	80.000	19.995	103.114	19.981	14.140	0.518
590.000	366.313	79.998	19.995	103.113	19.981	14.166	0.530
590.500	366.566	79.999	19.996	103.113	19.984	13.894	0.498
591.000	366.836	79.999	19.996	103.112	19.985	13.832	0.496
591.500	367.066	79.998	19.995	103.110	19.987	13.712	0.511
592.000	367.359	79.998	19.997	103.109	19.986	13.766	0.512
592.500	367.617	79.999	19.995	103.109	19.988	13.612	0.537
593.000	367.852	79.998	19.996	103.108	19.989	13.540	0.522
593.500	368.133	79.999	19.994	103.107	19.992	13.319	0.504
594.000	368.400	79.997	19.995	103.106	19.995	13.096	0.532
594.500	368.637	79.998	19.996	103.105	19.997	12.995	0.526
595.000	368.908	79.998	19.994	103.102	19.996	13.030	0.506
595.500	369.168	79.998	19.995	103.095	19.998	12.881	0.519
596.000	369.428	79.998	19.996	103.092	20.000	12.781	0.525
596.500	369.662	79.997	19.996	103.091	20.003	12.530	0.507
597.000	369.899	79.999	19.997	103.080	20.006	12.337	0.482
597.500	370.150	79.999	19.997	103.059	20.006	12.274	0.480
598.000	370.396	79.996	19.996	103.050	20.006	12.318	0.493
598.500	370.661	79.998	19.996	103.046	20.008	12.178	0.504
599.000	370.941	79.997	19.997	103.041	20.012	11.875	0.528
599.500	371.146	79.999	19.996	103.051	20.013	11.832	0.515
600.000	371.421	79.999	19.996	103.085	20.013	11.802	0.483
600.500	371.656	79.999	19.997	103.128	20.014	11.694	0.495
601.000	371.922	79.998	19.997	103.141	20.017	11.495	0.505
601.500	372.154	79.998	19.996	103.147	20.019	11.354	0.499
602.000	372.426	79.998	19.997	103.147	20.021	11.230	0.501
602.500	372.713	80.001	19.993	103.135	20.019	11.336	0.531
603.000	372.925	79.999	19.996	103.103	20.024	10.982	0.529
603.500	373.190	79.998	19.996	103.095	20.022	11.131	0.488
604.000	373.426	79.999	19.996	103.094	20.026	10.831	0.489
604.500	373.691	79.999	19.996	103.093	20.027	10.757	0.501
605.000	373.945	79.998	19.996	103.090	20.032	10.442	0.510
605.500	374.172	79.998	19.995	103.090	20.028	10.689	0.500
606.000	374.417	79.998	19.996	103.091	20.029	10.619	0.477
606.500	374.664	79.998	19.995	103.090	20.034	10.288	0.482
607.000	374.918	79.997	19.995	103.093	20.035	10.168	0.497
607.500	375.171	80.000	19.996	103.093	20.032	10.383	0.504
608.000	375.414	79.998	19.996	103.091	20.035	10.184	0.502
608.500	375.651	79.997	19.996	103.086	20.037	10.053	0.488
609.000	375.879	79.998	19.995	103.085	20.038	10.011	0.472
609.500	376.176	79.999	19.995	103.085	20.038	9.962	0.495
610.000	376.396	79.999	19.995	103.089	20.037	10.064	0.521
610.500	376.670	79.997	19.996	103.091	20.041	9.743	0.505
611.000	376.919	79.999	19.997	103.097	20.040	9.851	0.508
611.500	377.189	79.998	19.996	103.097	20.040	9.822	0.521
612.000	377.409	80.001	19.995	103.096	20.043	9.625	0.505
612.500	377.651	80.001	19.996	103.094	20.047	9.332	0.476
613.000	377.906	80.001	19.995	103.096	20.043	9.620	0.479
613.500	378.161	80.002	19.995	103.092	20.045	9.483	0.504
614.000	378.424	79.999	19.995	103.089	20.044	9.573	0.514
614.500	378.683	80.002	19.993	103.086	20.045	9.503	0.520
615.000	378.902	80.000	19.995	103.082	20.044	9.513	0.500
615.500	379.156	79.999	19.995	103.078	20.047	9.290	0.476
616.000	379.429	80.001	19.996	103.081	20.048	9.272	0.500
616.500	379.658	79.999	19.994	103.083	20.047	9.311	0.514
617.000	379.927	79.999	19.994	103.085	20.047	9.341	0.500
617.500	380.160	79.998	19.996	103.087	20.050	9.132	0.500
618.000	380.408	79.999	19.995	103.091	20.050	9.100	0.491
618.500	380.653	79.998	19.995	103.090	20.050	9.133	0.487
619.000	380.892	79.998	19.994	103.087	20.050	9.137	0.489
619.500	381.164	79.999	19.997	103.084	20.049	9.171	0.497
620.000	381.386	79.997	19.995	103.081	20.052	8.977	0.502
620.500	381.680	80.000	19.994	103.077	20.054	8.792	0.505
621.000	381.910	79.999	19.996	103.075	20.053	8.877	0.520
621.500	382.165	79.999	19.995	103.075	20.053	8.923	0.505
622.000	382.437	79.998	19.994	103.076	20.054	8.838	0.506
622.500	382.633	79.997	19.995	103.081	20.056	8.644	0.497
623.000	382.941	79.999	19.994	103.082	20.057	8.595	0.486
623.500	383.156	79.999	19.995	103.082	20.056	8.664	0.514
624.000	383.420	79.997	19.995	103.087	20.060	8.411	0.501
624.500	383.679	79.999	19.996	103.089	20.058	8.517	0.501
625.000	383.893	79.999	19.995	103.085	20.062	8.243	0.498
625.500	384.172	79.998	19.996	103.084	20.061	8.281	0.484
626.000	384.402	79.998	19.995	103.085	20.062	8.222	0.501
626.500	384.624	79.997	19.995	103.084	20.063	8.164	0.480
627.000	384.907	79.998	19.994	103.085	20.061	8.303	0.478
627.500	385.150	79.998	19.995	103.088	20.062	8.197	0.516
628.000	385.399	79.998	19.996	103.089	20.064	8.075	0.509
628.500	385.660	80.000	19.993	103.090	20.061	8.279	0.501
629.000	385.893	80.000	19.993	103.091	20.063	8.192	0.502
629.500	386.137	80.001	19.994	103.094	20.063	8.125	0.486
630.000	386.368	80.001	19.994	103.096	20.064	8.090	0.476
630.500	386.654	80.003	19.997	103.098	20.066	7.949	0.496
631.000	386.894	79.999	19.995	103.097	20.066	7.949	0.521
631.500	387.144	80.001	19.995	103.094	20.067	7.860	0.507
632.000	387.372	80.000	19.995	103.088	20.066	7.938	0.484
632.500	387.651	80.001	19.994	103.081	20.062	8.231	0.493
633.000	387.896	80.001	19.997	103.077	20.070	7.671	0.516
633.500	388.151	80.002	19.995	103.076	20.069	7.704	0.512
634.000	388.400	80.001	19.995	103.075	20.069	7.719	0.502
634.500	388.687	80.001	19.997	103.077	20.068	7.819	0.520
635.000	388.883	79.998	19.996	103.079	20.067	7.853	0.510
635.500	389.157	80.002	19.993	103.078	20.067	7.881	0.477
636.000	389.397	80.000	19.994	103.080	20.065	8.000	0.492
636.500	389.644	80.004	19.995	103.087	20.066	7.909	0.500
637.000	389.936	80.002	19.993	103.091	20.067	7.867	0.512
637.500	390.162	80.000	19.993	103.096	20.066	7.922	0.529
638.000	390.408	80.000	19.995	103.081	20.070	7.665	0.496
638.500	390.649	80.001	19.995	103.063	20.069	7.709	0.480
639.000	390.899	80.001	19.994	103.044	20.073	7.448	0.489
639.500	391.142	80.000	19.996	103.029	20.071	7.588	0.492
640.000	391.421	80.000	19.995	103.019	20.072	7.520	0.507
640.500	391.657	80.001	19.994	103.035	20.073	7.460	0.518
641.000	391.938	80.001	19.994	103.052	20.072	7.488	0.516
641.500	392.189	79.999	19.995	103.093	20.069	7.689	0.525
642.000	392.406	79.999	19.994	103.124	20.071	7.568	0.500
642.500	392.706	80.001	19.996	103.138	20.071	7.593	0.492
643.000	392.921	79.998	19.991	103.142	20.071	7.599	0.516
643.500	393.206	80.003	19.991	103.141	20.072	7.521	0.507
644.000	393.479	80.002	19.995	103.113	20.075	7.296	0.529
644.500	393.733	79.997	19.995	103.091	20.076	7.215	0.543
645.000	394.010	79.999	19.994	103.081	20.071	7.550	0.529
645.500	394.243	80.002	19.994	103.079	20.073	7.408	0.520
646.000	394.483	79.998	19.995	103.079	20.075	7.281	0.492
646.500	394.754	79.997	19.989	103.078	20.076	7.227	0.492
647.000	394.999	80.002	19.992	103.078	20.075	7.259	0.514
647.500	395.267	80.004	19.988	103.079	20.078	7.040	0.514
648.000	395.520	80.000	19.995	103.080	20.076	7.185	0.517
648.500	395.751	80.000	19.995	103.080	20.073	7.406	0.503
649.000	396.013	80.000	19.994	103.081	20.077	7.159	0.488
649.500	396.243	80.000	19.994	103.080	20.076	7.193	0.492
650.000	396.502	80.000	19.993	103.080	20.077	7.119	0.491
650.500	396.733	79.999	19.995	103.078	20.077	7.179	0.489
651.000	397.007	80.000	19.994	103.078	20.077	7.131	0.497
651.500	397.263	80.000	19.996	103.077	20.077	7.137	0.518
652.000	397.507	80.001	19.995	103.079	20.073	7.403	0.515
652.500	397.795	79.999	19.994	103.080	20.078	7.060	0.516
653.000	398.034	80.000	19.995	103.080	20.081	6.874	0.530
653.500	398.302	80.001	19.995	103.082	20.078	7.096	0.517
654.000	398.560	80.000	19.995	103.084	20.077	7.110	0.517
654.500	398.822	80.002	19.995	103.082	20.079	6.970	0.523
655.000	399.074	80.003	19.993	103.081	20.080	6.920	0.517
655.500	399.277	80.000	19.990	103.082	20.080	6.940	0.484
656.000	399.580	80.002	19.994	103.080	20.078	7.071	0.480
656.500	399.788	80.002	19.996	103.076	20.079	6.995	0.508
657.000	400.042	80.001	19.996	103.075	20.079	7.022	0.487
657.500	400.316	80.002	19.994	103.074	20.078	7.034	0.495
658.000	400.600	80.002	19.995	103.073	20.078	7.058	0.543
658.500	400.799	80.001	19.996	103.073	20.077	7.155	0.521
659.000	401.082	80.001	19.995	103.076	20.079	7.020	0.482
659.500	401.317	80.002	19.995	103.077	20.081	6.868	0.500
660.000	401.607	80.002	19.995	103.077	20.079	6.966	0.522
660.500	401.854	80.002	19.995	103.076	20.080	6.940	0.531
661.000	402.118	80.002	19.994	103.075	20.080	6.924	0.524
661.500	402.359	80.002	19.993	103.072	20.079	6.968	0.508
662.000	402.601	80.004	19.994	103.072	20.082	6.810	0.495
662.500	402.890	80.001	19.996	103.072	20.079	6.988	0.507
663.000	403.117	80.000	19.995	103.072	20.079	6.984	0.523
663.500	403.349	80.002	19.996	103.072	20.082	6.806	0.487
664.000	403.626	80.002	19.995	103.071	20.078	7.063	0.484
664.500	403.857	80.001	19.997	103.072	20.079	7.014	0.508
665.000	404.125	80.001	19.995	103.072	20.079	6.968	0.504
665.500	404.367	80.002	19.995	103.075	20.082	6.812	0.504
666.000	404.642	79.999	19.997	103.078	20.083	6.729	0.514
666.500	404.903	80.001	19.995	103.079	20.078	7.088	0.527
667.000	405.166	79.999	19.996	103.078	20.082	6.763	0.530
667.500	405.383	79.999	19.996	103.078	20.086	6.468	0.502
668.000	405.633	80.000	19.995	103.075	20.082	6.779	0.473
668.500	405.913	80.000	19.995	103.072	20.084	6.627	0.499
669.000	406.165	79.998	19.996	103.071	20.082	6.765	0.531
669.500	406.387	79.999	19.995	103.071	20.081	6.834	0.503
670.000	406.676	79.999	19.997	103.071	20.083	6.713	0.493
670.500	406.912	79.998	19.997	103.072	20.079	7.028	0.518
671.000	407.178	79.999	19.995	103.072	20.082	6.765	0.514
671.500	407.453	79.998	19.996	103.073	20.086	6.475	0.522
672.000	407.668	80.000	19.995	103.075	20.083	6.711	0.515
672.500	407.917	79.999	19.995	103.074	20.085	6.581	0.477
673.000	408.163	80.000	19.993	103.075	20.085	6.531	0.480
673.500	408.445	80.002	19.994	103.076	20.083	6.673	0.512
674.000	408.701	79.999	19.995	103.077	20.083	6.683	0.532
674.500	408.960	79.998	19.995	103.076	20.087	6.440	0.526
675.000	409.219	79.999	19.995	103.076	20.085	6.543	0.517
675.500	409.452	79.998	19.995	103.076	20.087	6.412	0.505
676.000	409.720	80.001	19.996	103.075	20.085	6.531	0.497
676.500	409.966	79.993	19.995	103.074	20.086	6.521	0.507
677.000	410.223	79.999	19.997	103.073	20.085	6.563	0.508
677.500	410.493	79.997	19.993	103.072	20.083	6.685	0.515
678.000	410.759	79.998	19.995	103.070	20.087	6.422	0.532
678.500	410.972	79.999	19.996	103.070	20.084	6.637	0.507
679.000	411.216	79.999	19.996	103.070	20.085	6.593	0.468
679.500	411.487	80.001	19.995	103.070	20.086	6.459	0.486
680.000	411.737	79.999	19.996	103.071	20.083	6.702	0.518
680.500	411.983	79.999	19.995	103.072	20.087	6.395	0.509
681.000	412.252	79.999	19.996	103.072	20.086	6.495	0.506
681.500	412.538	80.000	19.996	103.072	20.088	6.360	0.535
682.000	412.755	79.999	19.994	103.073	20.085	6.569	0.529
682.500	413.017	80.000	19.995	103.074	20.085	6.565	0.491
683.000	413.263	79.994	19.998	103.074	20.088	6.375	0.494
683.500	413.494	79.998	19.994	103.074	20.086	6.484	0.493
684.000	413.743	79.999	19.996	103.074	20.088	6.315	0.479
684.500	413.975	79.999	19.997	103.073	20.086	6.489	0.481
685.000	414.256	79.998	19.996	103.073	20.084	6.606	0.497
685.500	414.510	79.998	19.995	103.073	20.086	6.493	0.524
686.000	414.765	79.999	19.993	103.073	20.086	6.479	0.522
686.500	414.986	79.998	19.995	103.074	20.083	6.688	0.492
687.000	415.269	79.999	19.996	103.075	20.087	6.444	0.490
687.500	415.489	80.000	19.993	103.074	20.085	6.562	0.504
688.000	415.747	79.997	19.995	103.075	20.087	6.397	0.491
688.500	415.982	79.998	19.998	103.076	20.088	6.360	0.485
689.000	416.235	79.997	19.996	103.074	20.087	6.446	0.490
689.500	416.531	79.997	19.996	103.075	20.091	6.154	0.519
690.000	416.719	79.998	19.996	103.077	20.087	6.422	0.517
690.500	417.016	80.000	19.995	103.078	20.087	6.382	0.484
691.000	417.272	79.999	19.995	103.079	20.085	6.565	0.518
691.500	417.513	79.997	19.995	103.080	20.084	6.609	0.525
692.000	417.754	79.998	19.996	103.079	20.084	6.611	0.490
692.500	418.025	79.998	19.996	103.078	20.083	6.705	0.497
693.000	418.325	79.997	19.993	103.081	20.083	6.732	0.542
693.500	418.537	79.999	19.996	103.076	20.085	6.565	0.541
694.000	418.775	79.998	19.989	103.052	20.083	6.673	0.480
694.500	419.057	79.995	19.995	103.036	20.082	6.790	0.485
695.000	419.301	79.995	19.998	103.026	20.083	6.699	0.523
695.500	419.521	79.999	19.996	103.016	20.082	6.744	0.495
696.000	419.814	79.996	19.997	103.022	20.085	6.593	0.489
696.500	420.070	79.996	19.996	103.077	20.086	6.471	0.531
697.000	420.306	79.998	19.996	103.107	20.088	6.368	0.521
697.500	420.587	79.997	19.996	103.120	20.089	6.280	0.504
698.000	420.821	79.999	19.996	103.126	20.086	6.499	0.516
698.500	421.080	79.998	19.995	103.123	20.085	6.587	0.504
699.000	421.336	79.999	19.996	103.093	20.087	6.423	0.504
699.500	421.599	79.998	19.996	103.078	20.086	6.497	0.517
700.000	421.823	79.996	19.996	103.074	20.087	6.389	0.503
700.500	422.097	79.997	19.996	103.074	20.083	6.726	0.493
701.000	422.335	79.998	19.996	103.074	20.081	6.816	0.505
701.500	422.594	79.997	19.996	103.075	20.085	6.563	0.504
702.000	422.858	79.998	19.995	103.076	20.083	6.707	0.510
702.500	423.080	79.998	19.995	103.076	20.086	6.519	0.505
703.000	423.369	79.998	19.995	103.076	20.084	6.621	0.499
703.500	423.574	79.997	19.996	103.077	20.084	6.651	0.503
704.000	423.854	79.998	19.995	103.076	20.082	6.778	0.490
704.500	424.100	79.998	19.997	103.076	20.085	6.543	0.505
705.000	424.387	79.999	19.995	103.076	20.086	6.467	0.529
705.500	424.595	79.998	19.994	103.076	20.085	6.553	0.514
706.000	424.895	79.998	19.995	103.076	20.086	6.511	0.502
706.500	425.117	79.998	19.994	103.076	20.088	6.340	0.515
707.000	425.366	79.997	19.995	103.076	20.083	6.697	0.497
707.500	425.619	79.998	19.995	103.077	20.087	6.387	0.487
708.000	425.862	79.997	19.995	103.077	20.083	6.670	0.499
708.500	426.112	79.998	19.994	103.076	20.087	6.403	0.494
709.000	426.391	79.998	19.995	103.077	20.088	6.348	0.511
709.500	426.646	80.000	19.994	103.077	20.088	6.305	0.531
710.000	426.896	80.000	19.994	103.077	20.089	6.261	0.520
710.500	427.146	79.997	19.993	103.077	20.089	6.243	0.503
711.000	427.375	80.000	19.995	103.078	20.088	6.379	0.490
711.500	427.655	80.000	19.995	103.077	20.090	6.172	0.494
712.000	427.917	79.999	19.993	103.077	20.089	6.243	0.525
712.500	428.165	79.998	19.995	103.076	20.088	6.355	0.526
713.000	428.408	79.999	19.996	103.076	20.087	6.445	0.501
713.500	428.676	80.000	19.996	103.075	20.087	6.410	0.501
714.000	428.904	80.000	19.995	103.074	20.091	6.145	0.503
714.500	429.127	80.000	19.994	103.074	20.089	6.234	0.473
715.000	429.400	80.000	19.990	103.074	20.090	6.194	0.474
715.500	429.690	79.999	19.992	103.075	20.090	6.219	0.530
716.000	429.906	80.000	19.993	103.075	20.090	6.193	0.534
716.500	430.154	79.999	19.995	103.076	20.089	6.259	0.485
717.000	430.418	80.001	19.994	103.075	20.090	6.201	0.488
717.500	430.672	79.999	19.995	103.080	20.092	6.065	0.515
718.000	430.933	80.000	19.993	103.066	20.091	6.137	0.517
718.500	431.181	80.000	19.994	103.046	20.092	6.017	0.512
719.000	431.437	80.001	19.996	103.030	20.089	6.256	0.506
719.500	431.654	80.000	19.995	103.021	20.090	6.175	0.489
720.000	431.923	80.000	19.996	103.010	20.092	6.029	0.480
720.500	432.177	79.996	19.999	103.022	20.093	5.953	0.504
721.000	432.449	79.998	19.995	103.067	20.093	6.009	0.524
721.500	432.733	79.998	19.993	103.099	20.093	5.991	0.541
722.000	432.971	79.998	19.991	103.113	20.091	6.157	0.539
722.500	433.215	80.000	19.994	103.120	20.092	6.021	0.502
723.000	433.461	79.999	19.997	103.120	20.091	6.097	0.486
723.500	433.739	80.001	19.990	103.094	20.092	6.081	0.507
724.000	434.007	80.001	19.995	103.077	20.095	5.859	0.535
724.500	434.257	80.002	19.995	103.072	20.092	6.021	0.532
725.000	434.509	80.001	19.995	103.071	20.091	6.141	0.510
725.500	434.781	79.999	19.995	103.071	20.091	6.153	0.512
726.000	435.026	79.998	19.997	103.072	20.094	5.882	0.521
726.500	435.262	80.000	19.995	103.067	20.093	5.970	0.500
727.000	435.548	79.998	19.997	103.066	20.093	5.984	0.502
727.500	435.781	80.000	19.996	103.065	20.095	5.854	0.520
728.000	436.038	79.998	19.997	103.064	20.092	6.043	0.505
728.500	436.274	79.995	19.998	103.064	20.094	5.886	0.492
729.000	436.519	79.996	20.001	103.067	20.095	5.800	0.487
729.500	436.801	80.001	19.992	103.067	20.093	5.961	0.504
730.000	437.050	79.999	19.995	103.068	20.096	5.766	0.529
730.500	437.303	80.000	19.995	103.070	20.095	5.859	0.516
731.000	437.564	80.000	19.995	103.070	20.096	5.766	0.508
731.500	437.799	80.000	19.996	103.068	20.097	5.672	0.505
732.000	438.070	80.000	19.995	103.069	20.093	5.987	0.501
732.500	438.320	79.998	19.995	103.068	20.094	5.882	0.513
733.000	438.567	80.000	19.995	103.067	20.092	6.021	0.510
733.500	438.787	79.998	19.998	103.068	20.096	5.768	0.482
734.000	439.094	80.002	19.992	103.071	20.098	5.647	0.497
734.500	439.330	79.999	19.996	103.073	20.094	5.882	0.535
735.000	439.558	80.001	19.995	103.073	20.093	5.970	0.504
735.500	439.833	80.000	19.995	103.072	20.094	5.882	0.483
736.000	439.998	80.001	19.998	103.072	20.095	5.868	0.472
736.500	440.286	80.004	19.992	103.071	20.094	5.926	0.447
737.000	440.556	80.003	19.993	103.069	20.094	5.905	0.505
737.500	440.826	80.004	19.996	103.064	20.091	6.147	0.548
738.000	441.005	80.003	19.993	103.062	20.094	5.874	0.494
738.500	441.281	80.002	19.994	103.061	20.094	5.880	0.452
739.000	441.526	80.003	19.995	103.062	20.096	5.790	0.488
739.500	441.775	80.002	19.995	103.063	20.095	5.858	0.508
740.000	442.021	80.003	19.996	103.068	20.093	5.999	0.495
740.500	442.245	80.002	19.994	103.072	20.094	5.897	0.483
741.000	442.529	80.001	19.995	103.073	20.095	5.824	0.489
741.500	442.795	80.005	19.995	103.072	20.093	5.959	0.528
742.000	443.022	80.002	19.994	103.071	20.098	5.632	0.522
742.500	443.256	80.005	19.992	103.071	20.093	5.975	0.477
743.000	443.509	80.005	19.990	103.069	20.095	5.829	0.474
743.500	443.773	80.004	19.993	103.068	20.095	5.849	0.502
744.000	443.986	79.998	19.998	103.066	20.096	5.729	0.497
744.500	444.243	80.002	19.993	103.061	20.093	6.004	0.473
745.000	444.508	79.998	19.995	103.057	20.096	5.765	0.496
745.500	444.743	80.007	19.987	103.053	20.098	5.588	0.511
746.000	444.968	80.000	19.994	103.054	20.098	5.584	0.479
746.500	445.199	80.002	19.993	103.056	20.099	5.560	0.458
747.000	445.431	80.003	19.992	103.063	20.101	5.399	0.460
747.500	445.709	79.993	20.002	103.068	20.097	5.674	0.487
748.000	445.953	80.002	19.994	103.072	20.099	5.570	0.516
748.500	446.153	79.996	19.995	103.069	20.098	5.646	0.483
749.000	446.448	79.996	19.992	103.068	20.101	5.399	0.469
749.500	446.654	79.997	19.999	103.068	20.098	5.580	0.497
750.000	446.914	79.995	19.998	103.067	20.102	5.309	0.483
750.500	447.126	79.997	19.999	103.068	20.101	5.395	0.469
751.000	447.358	79.997	19.995	103.072	20.101	5.369	0.458
751.500	447.626	79.996	19.996	103.074	20.100	5.443	0.472
752.000	447.844	79.997	19.995	103.072	20.101	5.387	0.493
752.500	448.144	79.994	19.994	103.073	20.100	5.437	0.502
753.000	448.394	79.997	19.994	103.074	20.101	5.379	0.534
753.500	448.626	80.004	19.993	103.074	20.100	5.491	0.516
754.000	448.864	79.998	19.991	103.077	20.100	5.477	0.476
754.500	449.107	80.001	19.992	103.080	20.101	5.391	0.475
755.000	449.349	80.000	19.997	103.083	20.102	5.353	0.483
755.500	449.583	79.994	19.996	103.082	20.097	5.654	0.480
756.000	449.864	79.998	19.999	103.081	20.101	5.429	0.495
756.500	450.093	80.001	19.993	103.078	20.099	5.510	0.513
757.000	450.340	80.000	19.990	103.078	20.100	5.433	0.493
757.500	450.576	79.999	19.997	103.077	20.099	5.552	0.479
758.000	450.881	80.000	19.997	103.077	20.099	5.530	0.512
758.500	451.138	80.001	19.986	103.077	20.100	5.445	0.551
759.000	451.366	80.000	19.991	103.080	20.098	5.600	0.524
759.500	451.651	80.000	19.997	103.079	20.100	5.494	0.499
760.000	451.863	79.993	20.001	103.077	20.099	5.578	0.505
760.500	452.154	80.000	19.994	103.077	20.101	5.383	0.500
761.000	452.406	80.002	19.994	103.077	20.101	5.387	0.523
761.500	452.682	79.996	19.994	103.076	20.098	5.602	0.536
762.000	452.940	80.000	19.995	103.076	20.099	5.534	0.531
762.500	453.172	79.999	19.998	103.076	20.099	5.560	0.512
763.000	453.464	79.999	19.997	103.076	20.102	5.339	0.507
763.500	453.755	79.998	19.996	103.075	20.101	5.411	0.553
764.000	453.994	79.997	19.995	103.074	20.104	5.197	0.556
764.500	454.274	79.998	19.998	103.075	20.099	5.532	0.524
765.000	454.521	79.998	19.999	103.074	20.097	5.680	0.523
765.500	454.808	79.998	19.994	103.074	20.098	5.628	0.531
766.000	455.073	80.002	19.998	103.074	20.098	5.632	0.543
766.500	455.332	79.998	19.995	103.074	20.098	5.620	0.538
767.000	455.602	80.000	19.993	103.074	20.098	5.614	0.526
767.500	455.843	79.997	19.992	103.075	20.097	5.686	0.520
768.000	456.146	80.001	19.989	103.076	20.098	5.612	0.528
768.500	456.413	79.996	19.994	103.077	20.099	5.540	0.557
769.000	456.685	79.997	19.994	103.078	20.101	5.383	0.554
769.500	456.918	80.000	19.994	103.078	20.099	5.512	0.522
770.000	457.193	79.999	19.995	103.077	20.100	5.469	0.507
770.500	457.475	79.998	19.994	103.077	20.100	5.439	0.533
771.000	457.743	79.999	19.997	103.076	20.103	5.263	0.554
771.500	458.022	80.000	19.995	103.076	20.101	5.427	0.548
772.000	458.262	79.999	19.995	103.076	20.101	5.395	0.533
772.500	458.533	79.998	19.995	103.077	20.102	5.301	0.515
773.000	458.818	79.997	19.994	103.076	20.102	5.289	0.534
773.500	459.103	79.998	19.994	103.076	20.102	5.333	0.563
774.000	459.391	79.997	19.997	103.077	20.103	5.253	0.571
774.500	459.616	79.999	19.994	103.076	20.102	5.315	0.543
775.000	459.909	79.999	19.996	103.077	20.102	5.297	0.515
775.500	460.202	79.999	19.994	103.076	20.102	5.347	0.552
776.000	460.448	79.998	19.995	103.077	20.103	5.263	0.563
776.500	460.715	79.999	19.995	103.077	20.102	5.333	0.526
777.000	461.017	79.998	19.997	103.076	20.100	5.445	0.541
777.500	461.273	79.998	19.995	103.075	20.102	5.349	0.563
778.000	461.572	79.998	19.995	103.075	20.104	5.144	0.556
778.500	461.786	79.997	19.995	103.074	20.103	5.234	0.534
779.000	462.072	79.996	19.995	103.074	20.105	5.116	0.507
779.500	462.366	79.997	19.995	103.074	20.103	5.216	0.540
780.000	462.616	79.997	19.997	103.075	20.107	4.972	0.562
780.500	462.876	79.996	19.996	103.074	20.104	5.144	0.527
781.000	463.181	79.995	19.996	103.074	20.105	5.070	0.538
781.500	463.445	79.997	19.996	103.074	20.106	5.044	0.567
782.000	463.730	79.997	19.995	103.073	20.103	5.220	0.559
782.500	463.963	79.998	19.996	103.073	20.103	5.243	0.534
783.000	464.256	79.998	19.996	103.073	20.106	5.052	0.522
783.500	464.519	79.997	19.996	103.074	20.108	4.891	0.541
784.000	464.808	79.998	19.996	103.073	20.106	5.046	0.554
784.500	465.085	79.997	19.998	103.073	20.105	5.100	0.559
785.000	465.338	80.000	19.998	103.072	20.107	4.957	0.548
785.500	465.661	79.998	19.995	103.072	20.104	5.176	0.553
786.000	465.939	79.998	19.995	103.071	20.105	5.078	0.588
786.500	466.181	79.997	19.996	103.072	20.104	5.182	0.560
787.000	466.474	79.997	19.997	103.072	20.104	5.144	0.528
787.500	466.725	79.999	19.995	103.071	20.106	5.035	0.540
788.000	467.010	79.998	19.996	103.072	20.108	4.895	0.540
788.500	467.274	79.997	19.997	103.071	20.105	5.130	0.542
789.000	467.586	80.000	19.994	103.071	20.109	4.825	0.562
789.500	467.824	79.999	19.997	103.071	20.106	5.031	0.563
790.000	468.125	79.998	19.996	103.071	20.110	4.720	0.545
790.500	468.399	80.000	19.996	103.070	20.107	4.965	0.557
791.000	468.647	79.999	19.996	103.070	20.109	4.791	0.549
791.500	468.963	79.999	19.995	103.070	20.106	4.999	0.543
792.000	469.226	80.000	19.995	103.070	20.108	4.877	0.571
792.500	469.510	79.999	19.996	103.071	20.108	4.901	0.563
793.000	469.809	80.000	19.995	103.072	20.110	4.767	0.565
793.500	470.075	79.999	19.997	103.072	20.108	4.913	0.574
794.000	470.339	80.000	19.995	103.072	20.108	4.913	0.547
794.500	470.666	80.002	19.993	103.072	20.107	4.960	0.561
795.000	470.903	80.003	19.994	103.072	20.108	4.920	0.577
795.500	471.200	79.999	19.995	103.071	20.110	4.719	0.549
796.000	471.426	80.001	19.996	103.069	20.112	4.609	0.529
796.500	471.740	80.000	19.994	103.064	20.112	4.587	0.531
797.000	472.009	80.001	19.994	103.062	20.110	4.739	0.561
797.500	472.255	80.001	19.995	103.059	20.113	4.546	0.549
798.000	472.542	80.000	19.995	103.060	20.111	4.675	0.524
798.500	472.816	80.000	19.994	103.062	20.107	4.957	0.547
799.000	473.092	80.000	19.994	103.067	20.109	4.817	0.556
799.500	473.392	79.999	19.995	103.069	20.110	4.775	0.563
800.000	473.673	80.000	19.994	103.069	20.114	4.482	0.578
800.500	473.945	80.000	19.995	103.064	20.112	4.602	0.567
801.000	474.186	79.998	19.994	103.062	20.114	4.432	0.533
801.500	474.504	79.998	19.995	103.061	20.113	4.522	0.536
802.000	474.793	79.999	19.996	103.061	20.114	4.470	0.583
802.500	475.094	80.000	19.995	103.061	20.114	4.478	0.598
803.000	475.330	80.001	19.995	103.067	20.113	4.528	0.563
803.500	475.644	79.999	19.996	103.069	20.113	4.550	0.543
804.000	475.901	80.000	19.994	103.069	20.115	4.378	0.561
804.500	476.151	80.000	19.995	103.069	20.114	4.474	0.539
805.000	476.408	80.000	19.995	103.071	20.117	4.237	0.507
805.500	476.709	80.000	19.995	103.071	20.114	4.470	0.533
806.000	477.008	80.001	19.995	103.072	20.116	4.319	0.579
806.500	477.263	80.001	19.995	103.072	20.111	4.694	0.576
807.000	477.530	80.000	19.996	103.073	20.114	4.441	0.538
807.500	477.794	80.000	19.995	103.074	20.115	4.397	0.527
808.000	478.072	79.999	19.994	103.072	20.111	4.692	0.536
808.500	478.372	80.000	19.995	103.069	20.115	4.353	0.560
809.000	478.622	79.999	19.996	103.069	20.113	4.536	0.565
809.500	478.909	80.002	19.995	103.068	20.116	4.327	0.544
810.000	479.180	80.000	19.995	103.066	20.116	4.333	0.547
810.500	479.450	80.000	19.996	103.065	20.114	4.438	0.550
811.000	479.748	80.001	19.994	103.067	20.117	4.225	0.554
811.500	480.028	80.001	19.994	103.067	20.119	4.098	0.573
812.000	480.244	80.001	19.996	103.066	20.116	4.315	0.537
812.500	480.520	80.000	19.996	103.066	20.114	4.469	0.495
813.000	480.832	79.999	19.995	103.068	20.118	4.185	0.540
813.500	481.095	80.000	19.994	103.066	20.113	4.490	0.581
814.000	481.369	80.001	19.995	103.066	20.117	4.217	0.556
814.500	481.620	80.001	19.995	103.067	20.119	4.088	0.531
815.000	481.883	80.001	19.997	103.065	20.119	4.060	0.519
815.500	482.206	80.001	19.994	103.065	20.119	4.082	0.550
816.000	482.458	80.001	19.996	103.063	20.114	4.415	0.581
816.500	482.677	80.002	19.995	103.061	20.124	3.703	0.523
817.000	482.977	80.000	19.994	103.056	20.111	4.698	0.495
817.500	483.207	80.000	19.994	103.056	20.115	4.394	0.525
818.000	483.527	80.001	19.995	103.058	20.121	3.940	0.540
818.500	483.748	80.000	19.994	103.060	20.109	4.782	0.545
819.000	484.076	80.000	19.994	103.060	20.110	4.734	0.545
819.500	484.283	80.002	19.995	103.061	20.121	3.962	0.542
820.000	484.520	80.002	19.993	103.063	20.112	4.613	0.489
820.500	484.815	80.002	19.994	103.063	20.112	4.619	0.488
821.000	485.025	80.003	19.994	103.063	20.123	3.785	0.519
821.500	485.479	80.001	19.995	103.064	20.119	4.094	0.585
822.000	485.574	80.001	19.994	103.064	20.114	4.469	0.607
822.500	485.880	80.002	19.995	103.059	20.112	4.612	0.475
823.000	486.189	80.002	19.994	103.053	20.112	4.610	0.507
823.500	486.446	80.002	19.995	103.053	20.127	3.490	0.590
824.000	486.805	80.001	19.994	103.055	20.120	4.048	0.591
824.500	486.895	80.000	19.994	103.059	20.117	4.205	0.533
825.000	487.307	80.001	19.994	103.061	20.122	3.862	0.476
825.500	487.503	80.000	19.994	103.061	20.120	4.040	0.555
826.000	487.854	80.000	19.995	103.057	20.125	3.679	0.578
826.500	487.921	79.998	19.995	103.056	20.121	3.942	0.483
827.000	488.412	80.000	19.995	103.055	20.122	3.835	0.488
827.500	488.499	80.001	19.992	103.057	20.120	4.018	0.567
828.000	488.800	80.000	19.996	103.060	20.122	3.849	0.483
828.500	488.965	79.999	19.996	103.064	20.124	3.713	0.427
829.000	489.363	79.998	19.995	103.062	20.124	3.753	0.515
829.500	489.782	80.000	19.995	103.059	20.124	3.755	0.690
830.000	489.910	79.999	19.994	103.054	20.123	3.759	0.682
830.500	490.003	79.998	19.994	103.052	20.123	3.761	0.384
831.000	490.090	79.999	19.994	103.046	20.126	3.559	0.201
831.500	490.904	79.999	19.994	103.043	20.124	3.725	0.541
832.000	490.658	79.999	19.994	103.045	20.122	3.871	0.734
832.500	490.806	79.999	19.995	103.044	20.120	4.008	0.235
833.000	491.466	80.000	19.995	103.046	20.122	3.888	0.355
833.500	492.162	79.999	19.995	103.049	20.125	3.669	1.082
834.000	492.061	80.000	19.993	103.049	20.127	3.494	0.976
834.500	492.249	79.999	19.994	103.051	20.122	3.865	0.341
835.000	492.976	79.999	19.994	103.056	20.123	3.773	0.501
835.500	493.193	79.998	19.996	103.059	20.126	3.592	0.930
836.000	493.262	80.000	19.994	103.058	20.121	3.959	0.615
836.500	493.248	80.000	19.994	103.061	20.124	3.703	0.171
837.000	493.159	80.000	19.995	103.063	20.127	3.520	-0.024
837.500	493.994	79.998	19.995	103.057	20.126	3.605	0.321
838.000	494.111	79.999	19.995	103.052	20.125	3.681	0.849
838.500	494.375	80.000	19.994	103.051	20.125	3.673	0.667
839.000	494.679	79.997	19.998	103.048	20.125	3.677	0.475
839.500	494.849	79.999	19.994	103.046	20.125	3.616	0.521
840.000	495.137	79.999	19.994	103.052	20.126	3.550	0.466
840.500	495.468	80.001	19.996	103.058	20.123	3.787	0.539
841.000	495.583	79.997	19.996	103.062	20.123	3.796	0.533
841.500	495.956	79.995	19.995	103.059	20.126	3.581	0.467
842.000	496.208	79.999	19.996	103.055	20.128	3.412	0.556
842.500	496.440	79.997	20.002	103.050	20.126	3.552	0.554
843.000	496.665	79.998	19.996	103.049	20.127	3.506	0.471
843.500	496.975	80.000	19.996	103.047	20.126	3.565	0.496
844.000	497.240	79.998	19.996	103.052	20.125	3.633	0.555
844.500	497.480	79.998	19.995	103.055	20.127	3.523	0.540
845.000	497.778	79.999	19.996	103.055	20.125	3.649	0.522
845.500	497.946	79.999	19.995	103.052	20.126	3.569	0.502
846.000	498.235	79.996	19.996	103.049	20.126	3.575	0.462
846.500	498.530	79.998	19.996	103.043	20.126	3.606	0.521
847.000	498.788	79.998	19.996	103.043	20.125	3.617	0.569
847.500	499.057	79.999	19.997	103.046	20.129	3.390	0.539
848.000	499.265	79.998	19.997	103.048	20.128	3.464	0.502
848.500	499.527	79.998	19.996	103.050	20.127	3.517	0.474
849.000	499.755	79.998	19.995	103.051	20.129	3.394	0.480
849.500	500.010	80.000	19.995	103.048	20.125	3.675	0.487
850.000	500.303	80.000	19.994	103.043	20.129	3.340	0.516
850.500	500.602	80.000	19.996	103.045	20.129	3.340	0.569
851.000	500.789	79.999	19.999	103.048	20.126	3.564	0.539
851.500	501.077	80.000	19.996	103.053	20.127	3.484	0.481
852.000	501.335	80.000	19.995	103.059	20.128	3.458	0.510
852.500	501.583	80.001	19.996	103.060	20.127	3.472	0.526
853.000	501.818	80.000	19.996	103.056	20.130	3.288	0.495
853.500	502.036	79.999	19.996	103.051	20.129	3.394	0.468
854.000	502.391	80.001	19.995	103.049	20.128	3.422	0.513
854.500	502.630	79.999	19.996	103.051	20.128	3.412	0.584
855.000	502.832	79.999	19.994	103.057	20.131	3.219	0.517
855.500	503.131	79.999	19.995	103.059	20.130	3.278	0.471
856.000	503.437	80.000	19.996	103.062	20.124	3.695	0.553
856.500	503.656	79.999	19.996	103.057	20.128	3.434	0.565
857.000	503.851	79.999	19.996	103.052	20.127	3.482	0.470
857.500	504.123	79.998	19.996	103.045	20.125	3.622	0.440
858.000	504.449	79.999	19.994	103.046	20.129	3.384	0.532
858.500	504.683	80.000	19.996	103.048	20.125	3.658	0.579
859.000	504.893	80.000	19.995	103.053	20.128	3.446	0.502
859.500	505.180	79.998	19.997	103.055	20.127	3.478	0.471
860.000	505.437	79.998	19.997	103.056	20.128	3.404	0.520
860.500	505.655	79.999	19.997	103.053	20.130	3.253	0.509
861.000	505.984	79.999	19.996	103.047	20.131	3.201	0.511
861.500	506.197	79.999	19.994	103.045	20.129	3.332	0.544
862.000	506.490	79.998	19.996	103.048	20.133	3.081	0.524
862.500	506.726	79.998	19.997	103.049	20.132	3.167	0.518
863.000	506.981	79.999	19.995	103.050	20.128	3.396	0.510
863.500	507.219	79.999	19.994	103.054	20.130	3.270	0.492
864.000	507.507	80.000	19.996	103.053	20.131	3.245	0.509
864.500	507.780	80.000	19.996	103.051	20.128	3.416	0.544
865.000	508.025	80.000	19.995	103.050	20.130	3.291	0.540
865.500	508.245	79.998	19.996	103.049	20.126	3.578	0.492
866.000	508.515	79.998	19.995	103.047	20.129	3.379	0.477
866.500	508.771	79.999	19.997	103.050	20.132	3.167	0.508
867.000	509.062	79.998	19.996	103.046	20.128	3.396	0.537
867.500	509.285	79.999	19.996	103.043	20.128	3.450	0.530
868.000	509.567	79.998	19.997	103.045	20.129	3.382	0.509
868.500	509.841	79.999	19.996	103.043	20.129	3.382	0.531
869.000	510.077	79.998	19.996	103.036	20.129	3.336	0.533
869.500	510.326	79.999	19.996	103.036	20.128	3.408	0.497
870.000	510.596	80.001	19.996	103.040	20.127	3.500	0.503
870.500	510.817	79.999	19.997	103.043	20.129	3.378	0.505
871.000	511.073	80.000	19.997	103.044	20.126	3.609	0.484
871.500	511.392	79.999	19.996	103.045	20.127	3.500	0.526
872.000	511.628	80.000	19.997	103.047	20.127	3.494	0.565
872.500	511.841	80.000	19.996	103.048	20.126	3.560	0.502
873.000	512.126	80.000	19.997	103.046	20.127	3.514	0.473
873.500	512.395	80.002	19.996	103.048	20.129	3.367	0.526
874.000	512.613	80.000	19.997	103.048	20.127	3.472	0.521
874.500	512.885	80.000	19.997	103.046	20.129	3.368	0.489
875.000	513.194	80.000	19.995	103.041	20.130	3.283	0.536
875.500	513.414	80.000	19.997	103.038	20.130	3.265	0.555
876.000	513.710	79.999	19.997	103.036	20.128	3.458	0.522
876.500	513.963	80.001	19.996	103.036	20.125	3.628	0.532
877.000	514.226	80.002	19.995	103.036	20.129	3.382	0.532
877.500	514.488	80.001	19.996	103.037	20.129	3.330	0.520
878.000	514.752	79.999	19.995	103.036	20.126	3.558	0.525
878.500	514.992	79.999	19.997	103.037	20.132	3.111	0.515
879.000	515.266	79.998	19.996	103.040	20.126	3.586	0.509
879.500	515.511	80.000	19.995	103.045	20.129	3.323	0.516
880.000	515.785	80.000	19.996	103.048	20.130	3.321	0.519
880.500	516.049	79.999	19.995	103.050	20.129	3.327	0.529
881.000	516.267	79.999	19.995	103.050	20.129	3.386	0.510
881.500	516.577	79.999	19.995	103.051	20.132	3.173	0.505
882.000	516.805	80.002	19.995	103.050	20.131	3.213	0.533
882.500	517.056	80.001	19.996	103.048	20.133	3.085	0.509
883.000	517.330	79.999	19.995	103.045	20.131	3.211	0.502
883.500	517.593	79.999	19.995	103.043	20.130	3.279	0.531
884.000	517.847	80.000	19.995	103.040	20.131	3.195	0.527
884.500	518.127	80.000	19.995	103.037	20.129	3.345	0.525
885.000	518.345	80.001	19.994	103.039	20.129	3.384	0.516
885.500	518.633	80.001	19.994	103.041	20.129	3.366	0.502
886.000	518.855	79.998	19.995	103.043	20.131	3.219	0.508
886.500	519.108	80.000	19.994	103.043	20.130	3.271	0.492
887.000	519.400	80.000	19.994	103.042	20.131	3.237	0.510
887.500	519.662	79.999	19.994	103.041	20.133	3.055	0.550
888.000	519.925	80.001	19.996	103.039	20.130	3.287	0.539
888.500	520.153	79.998	19.994	103.041	20.132	3.155	0.508
889.000	520.452	80.000	19.995	103.042	20.133	3.075	0.510
889.500	520.685	80.001	19.995	103.042	20.133	3.091	0.530
890.000	520.968	80.000	19.994	103.041	20.130	3.269	0.523
890.500	521.222	79.999	19.995	103.041	20.128	3.444	0.526
891.000	521.455	79.999	19.995	103.037	20.132	3.117	0.512
891.500	521.730	80.000	19.995	103.036	20.132	3.123	0.498
892.000	521.980	80.000	19.995	103.036	20.130	3.293	0.517
892.500	522.251	80.000	19.995	103.037	20.131	3.177	0.523
893.000	522.512	80.001	19.994	103.038	20.130	3.286	0.527
893.500	522.748	80.001	19.995	103.038	20.131	3.245	0.514
894.000	523.071	80.001	19.994	103.037	20.131	3.213	0.528
894.500	523.276	80.000	19.995	103.037	20.133	3.065	0.544
895.000	523.576	80.002	19.994	103.038	20.132	3.129	0.517
895.500	523.856	80.001	19.994	103.037	20.131	3.183	0.542
896.000	524.089	80.002	19.995	103.038	20.134	3.031	0.546
896.500	524.365	80.000	19.995	103.039	20.132	3.113	0.511
897.000	524.624	80.002	19.995	103.040	20.132	3.121	0.522
897.500	524.857	80.000	19.996	103.039	20.133	3.093	0.514
898.000	525.127	80.000	19.995	103.038	20.132	3.133	0.498
898.500	525.392	80.001	19.996	103.038	20.135	2.926	0.519
899.000	525.599	80.002	19.994	103.039	20.132	3.143	0.503
899.500	525.893	80.002	19.995	103.039	20.131	3.233	0.486
900.000	526.126	80.002	19.994	103.039	20.134	3.005	0.514
900.500	526.407	80.001	19.995	103.039	20.133	3.059	0.520
901.000	526.658	80.000	19.995	103.040	20.132	3.147	0.523
901.500	526.909	80.000	19.995	103.038	20.133	3.053	0.517
902.000	527.195	80.001	19.994	103.042	20.130	3.259	0.519
902.500	527.459	80.001	19.995	103.043	20.131	3.217	0.544
903.000	527.711	80.000	19.996	103.043	20.128	3.410	0.533
903.500	527.950	79.999	19.994	103.047	20.131	3.181	0.504
904.000	528.198	80.000	19.995	103.047	20.128	3.430	0.489
904.500	528.496	80.000	19.994	103.046	20.131	3.187	0.516
905.000	528.731	79.998	19.993	103.045	20.129	3.370	0.539
905.500	529.005	80.000	19.994	103.046	20.128	3.398	0.521
906.000	529.243	80.000	19.995	103.042	20.128	3.456	0.510
906.500	529.479	79.999	19.995	103.042	20.130	3.255	0.493
907.000	529.752	79.999	19.995	103.041	20.128	3.412	0.491
907.500	529.999	79.998	19.995	103.040	20.130	3.309	0.514
908.000	530.290	79.999	19.995	103.042	20.128	3.399	0.529
908.500	530.538	79.997	19.999	103.042	20.130	3.253	0.539
909.000	530.804	79.999	19.995	103.043	20.129	3.367	0.526
909.500	531.060	79.997	19.997	103.042	20.131	3.225	0.518
910.000	531.361	79.999	19.996	103.041	20.131	3.213	0.540
910.500	531.605	80.001	19.996	103.041	20.129	3.384	0.551
911.000	531.868	80.000	19.995	103.043	20.131	3.235	0.526
911.500	532.128	80.000	19.995	103.044	20.129	3.347	0.516
912.000	532.345	80.002	19.996	103.044	20.131	3.219	0.500
912.500	532.638	79.997	20.000	103.047	20.131	3.247	0.493
913.000	532.853	79.999	19.997	103.044	20.129	3.323	0.509
913.500	533.133	79.998	19.995	103.043	20.130	3.257	0.502
914.000	533.377	79.999	19.994	103.043	20.129	3.325	0.509
914.500	533.629	80.001	19.996	103.043	20.129	3.335	0.509
915.000	533.873	80.002	19.993	103.041	20.133	3.033	0.496
915.500	534.177	80.000	19.996	103.041	20.134	3.023	0.522
916.000	534.438	79.999	19.996	103.041	20.130	3.279	0.557
916.500	534.669	79.996	19.999	103.040	20.134	2.986	0.529
917.000	534.939	79.997	19.997	103.039	20.133	3.071	0.496
917.500	535.213	79.999	19.993	103.039	20.132	3.123	0.522
918.000	535.458	79.997	19.996	103.038	20.133	3.041	0.532
918.500	535.696	80.000	19.993	103.036	20.133	3.040	0.501
919.000	535.946	79.999	19.993	103.034	20.134	2.968	0.485
919.500	536.193	79.990	20.001	103.035	20.136	2.882	0.493
920.000	536.459	79.998	19.995	103.034	20.132	3.149	0.505
920.500	536.731	79.999	19.996	103.034	20.134	2.978	0.525
921.000	537.008	79.998	19.994	103.037	20.131	3.235	0.543
921.500	537.249	79.997	19.997	103.037	20.132	3.121	0.534
922.000	537.466	79.997	19.999	103.036	20.132	3.129	0.488
922.500	537.791	80.000	19.997	103.037	20.133	3.085	0.500
923.000	538.086	79.996	20.001	103.036	20.133	3.062	0.581
923.500	538.269	79.999	19.994	103.033	20.134	2.982	0.549
924.000	538.533	80.000	19.995	103.033	20.135	2.950	0.462
924.500	538.755	79.999	19.995	103.033	20.134	3.018	0.466
925.000	539.035	80.000	19.995	103.035	20.136	2.882	0.494
925.500	539.330	80.000	19.995	103.036	20.134	3.028	0.539
926.000	539.555	79.997	19.995	103.037	20.134	3.002	0.548
926.500	539.811	79.998	19.991	103.036	20.135	2.932	0.501
927.000	540.074	79.997	19.994	103.037	20.131	3.245	0.500
927.500	540.331	79.996	19.996	103.036	20.133	3.089	0.519
928.000	540.592	80.001	19.993	103.034	20.135	2.888	0.519
928.500	540.851	79.997	19.993	103.035	20.133	3.044	0.519
929.000	541.111	79.991	20.002	103.035	20.135	2.950	0.520
929.500	541.367	80.000	20.000	103.032	20.136	2.874	0.518
930.000	541.615	79.998	19.997	103.030	20.136	2.866	0.510
930.500	541.877	79.998	19.996	103.031	20.135	2.944	0.507
931.000	542.130	80.000	19.995	103.029	20.136	2.856	0.512
931.500	542.367	80.001	19.991	103.030	20.133	3.085	0.502
932.000	542.655	79.996	19.997	103.033	20.135	2.886	0.508
932.500	542.929	79.998	19.999	103.034	20.132	3.155	0.544
933.000	543.175	79.998	19.996	103.034	20.134	2.960	0.541
933.500	543.442	79.999	19.995	103.033	20.139	2.655	0.516
934.000	543.712	80.000	19.995	103.032	20.135	2.902	0.525
934.500	543.927	80.000	19.992	103.031	20.136	2.882	0.511
935.000	544.142	79.997	19.996	103.033	20.136	2.838	0.458
935.500	544.415	80.001	19.994	103.033	20.133	3.087	0.459
936.000	544.687	79.998	19.996	103.034	20.136	2.834	0.516
936.500	544.923	79.999	19.997	103.034	20.136	2.832	0.527
937.000	545.185	80.001	19.994	103.033	20.135	2.924	0.503
937.500	545.427	80.003	19.991	103.031	20.134	3.012	0.500
938.000	545.651	79.999	19.997	103.033	20.133	3.057	0.485
938.500	545.932	79.998	19.995	103.032	20.138	2.690	0.485
939.000	546.202	79.999	19.996	103.032	20.136	2.838	0.528
939.500	546.441	79.999	19.997	103.034	20.138	2.740	0.530
940.000	546.716	79.999	19.996	103.035	20.135	2.956	0.511
940.500	547.001	80.000	19.994	103.034	20.135	2.938	0.537
941.000	547.211	80.002	19.995	103.035	20.137	2.762	0.528
941.500	547.476	79.991	19.998	103.036	20.137	2.790	0.485
942.000	547.712	79.996	19.999	103.036	20.138	2.718	0.488
942.500	547.989	80.000	19.995	103.036	20.141	2.503	0.507
943.000	548.256	79.994	19.996	103.037	20.139	2.633	0.528
943.500	548.499	79.993	20.002	103.036	20.139	2.615	0.527
944.000	548.768	79.996	19.995	103.034	20.137	2.760	0.511
944.500	548.979	79.998	19.997	103.034	20.135	2.910	0.496
945.000	549.275	79.996	19.996	103.035	20.136	2.818	0.493
945.500	549.504	79.998	19.998	103.034	20.139	2.635	0.516
946.000	549.776	79.996	19.999	103.034	20.138	2.686	0.513
946.500	550.015	80.002	19.990	103.035	20.136	2.848	0.506
947.000	550.271	79.999	20.000	103.035	20.137	2.756	0.503
947.500	550.534	79.998	19.993	103.035	20.140	2.523	0.507
948.000	550.791	79.996	20.000	103.035	20.140	2.531	0.520
948.500	551.069	80.000	19.995	103.036	20.136	2.848	0.527
949.000	551.321	80.000	19.997	103.039	20.138	2.667	0.532
949.500	551.575	79.999	19.996	103.038	20.137	2.748	0.518
950.000	551.814	79.996	19.997	103.038	20.138	2.710	0.500
950.500	552.046	79.997	19.998	103.038	20.137	2.796	0.482
951.000	552.321	80.001	19.994	103.036	20.141	2.519	0.489
951.500	552.544	79.999	19.995	103.034	20.138	2.736	0.503
952.000	552.826	80.001	19.995	103.034	20.136	2.822	0.502
952.500	553.050	80.002	19.995	103.034	20.139	2.647	0.506
953.000	553.366	79.996	19.998	103.034	20.133	3.042	0.523
953.500	553.617	80.002	19.995	103.035	20.136	2.816	0.553
954.000	553.855	80.001	19.995	103.034	20.137	2.780	0.528
954.500	554.105	80.001	19.996	103.033	20.135	2.894	0.489
955.000	554.378	79.999	19.996	103.034	20.135	2.938	0.506
955.500	554.658	80.000	19.995	103.033	20.135	2.896	0.538
956.000	554.897	79.999	19.995	103.034	20.136	2.858	0.536
956.500	555.191	80.001	19.995	103.034	20.135	2.944	0.526
957.000	555.406	79.997	20.000	103.035	20.137	2.800	0.521
957.500	555.695	79.999	19.994	103.034	20.135	2.894	0.506
958.000	555.922	79.998	19.993	103.035	20.134	2.984	0.510
958.500	556.185	80.001	19.995	103.035	20.133	3.032	0.503
959.000	556.447	79.996	19.994	103.035	20.134	2.968	0.508
959.500	556.690	79.999	19.995	103.034	20.135	2.914	0.516
960.000	556.950	79.998	19.995	103.035	20.135	2.934	0.504
960.500	557.199	80.001	19.995	103.035	20.135	2.938	0.505
961.000	557.473	79.999	19.994	103.035	20.135	2.896	0.516
961.500	557.661	80.001	19.998	103.035	20.135	2.912	0.493
962.000	557.939	80.001	19.995	103.036	20.138	2.732	0.464
962.500	558.189	79.999	19.997	103.035	20.137	2.794	0.497
963.000	558.467	79.999	19.995	103.034	20.137	2.794	0.528
963.500	558.725	79.998	19.995	103.034	20.134	2.966	0.532
964.000	558.965	80.000	19.995	103.034	20.136	2.846	0.517
964.500	559.195	79.998	19.995	103.034	20.139	2.633	0.484
965.000	559.481	79.998	19.995	103.035	20.136	2.824	0.493
965.500	559.677	79.999	19.996	103.036	20.139	2.627	0.499
966.000	559.952	80.000	19.997	103.036	20.136	2.868	0.476
966.500	560.195	79.997	19.999	103.036	20.135	2.916	0.494
967.000	560.459	80.001	19.996	103.035	20.134	3.016	0.512
967.500	560.703	79.999	19.996	103.034	20.133	3.042	0.508
968.000	560.960	80.000	19.995	103.033	20.135	2.892	0.504
968.500	561.189	79.999	19.996	103.033	20.137	2.752	0.493
969.000	561.460	79.999	19.995	103.032	20.138	2.716	0.493
969.500	561.706	80.000	19.996	103.033	20.135	2.950	0.508
970.000	561.963	80.000	19.997	103.034	20.135	2.920	0.510
970.500	562.208	80.000	19.997	103.034	20.135	2.924	0.503
971.000	562.453	80.000	19.997	103.033	20.136	2.858	0.496
971.500	562.721	80.000	19.996	103.033	20.137	2.812	0.502
972.000	562.950	79.999	19.996	103.033	20.137	2.776	0.505
972.500	563.228	79.999	19.995	103.031	20.134	2.974	0.502
973.000	563.465	80.001	19.995	103.032	20.139	2.625	0.511
973.500	563.724	80.000	19.996	103.031	20.138	2.724	0.506
974.000	563.969	80.000	19.995	103.031	20.137	2.748	0.500
974.500	564.224	80.002	19.995	103.031	20.135	2.924	0.501
975.000	564.456	80.000	19.995	103.031	20.139	2.595	0.493
975.500	564.745	80.001	19.997	103.031	20.136	2.846	0.504
976.000	564.973	80.003	19.994	103.031	20.141	2.509	0.519
976.500	565.240	80.003	19.995	103.031	20.138	2.730	0.506
977.000	565.490	80.003	19.994	103.032	20.137	2.762	0.506
977.500	565.732	80.003	19.994	103.033	20.138	2.699	0.505
978.000	566.014	80.001	19.997	103.033	20.139	2.643	0.508
978.500	566.266	80.002	19.996	103.033	20.138	2.707	0.529
979.000	566.483	80.000	19.994	103.033	20.135	2.918	0.501
979.500	566.751	80.002	19.995	103.033	20.137	2.763	0.476
980.000	567.011	80.001	19.996	103.032	20.135	2.892	0.507
980.500	567.253	80.002	19.995	103.031	20.140	2.549	0.516
981.000	567.507	80.002	19.994	103.032	20.138	2.679	0.499
981.500	567.767	80.001	19.995	103.031	20.141	2.475	0.505
982.000	568.004	80.002	19.994	103.031	20.136	2.880	0.506
982.500	568.282	80.001	19.994	103.031	20.135	2.912	0.506
983.000	568.543	80.001	19.995	103.031	20.138	2.679	0.526
983.500	568.768	80.001	19.995	103.031	20.138	2.712	0.512
984.000	568.988	80.000	19.993	103.032	20.141	2.491	0.466
984.500	569.297	80.000	19.996	103.032	20.137	2.760	0.487
985.000	569.543	80.002	19.994	103.032	20.137	2.758	0.542
985.500	569.791	80.000	19.993	103.032	20.138	2.720	0.524
986.000	570.034	79.999	19.995	103.032	20.137	2.808	0.492
986.500	570.298	80.000	19.995	103.032	20.138	2.700	0.499
987.000	570.555	80.001	19.995	103.032	20.138	2.730	0.514
987.500	570.805	79.998	19.995	103.033	20.140	2.537	0.514
988.000	571.078	79.999	19.995	103.034	20.136	2.824	0.516
988.500	571.340	79.999	19.993	103.033	20.138	2.693	0.529
989.000	571.616	79.999	19.995	103.027	20.139	2.659	0.536
989.500	571.801	80.000	19.995	103.024	20.138	2.717	0.500
990.000	572.113	79.999	19.995	103.022	20.141	2.507	0.479
990.500	572.351	79.998	19.994	103.022	20.139	2.657	0.523
991.000	572.632	79.999	19.995	103.023	20.137	2.746	0.534
991.500	572.874	80.000	19.995	103.027	20.138	2.695	0.521
992.000	573.108	79.999	19.996	103.029	20.142	2.385	0.499
992.500	573.367	80.001	19.993	103.030	20.138	2.675	0.484
993.000	573.642	79.995	19.998	103.030	20.140	2.593	0.514
993.500	573.869	79.996	19.994	103.031	20.138	2.689	0.518
994.000	574.151	79.996	19.993	103.033	20.140	2.577	0.506
994.500	574.439	79.996	19.999	103.034	20.142	2.413	0.540
995.000	574.688	79.995	19.995	103.034	20.137	2.772	0.553
995.500	574.964	80.000	19.997	103.033	20.139	2.615	0.531
996.000	575.207	80.000	19.995	103.032	20.141	2.491	0.522
996.500	575.445	79.999	19.996	103.032	20.137	2.770	0.500
997.000	575.725	80.001	19.995	103.032	20.138	2.669	0.499
997.500	575.987	79.999	19.995	103.033	20.141	2.471	0.530
998.000	576.229	79.998	19.997	103.033	20.139	2.609	0.523
998.500	576.464	79.994	19.998	103.033	20.138	2.720	0.490
999.000	576.726	80.000	19.995	103.029	20.138	2.698	0.487
999.500	576.976	79.999	19.996	103.029	20.141	2.509	0.505
1000.000	577.216	79.999	19.994	103.029	20.140	2.529	0.501
1000.500	577.495	80.001	19.993	103.028	20.140	2.529	0.504
1001.000	577.743	79.997	19.998	103.029	20.140	2.591	0.523
1001.500	577.976	79.999	19.994	103.032	20.142	2.443	0.504
1002.000	578.264	80.002	19.993	103.031	20.143	2.346	0.501
1002.500	578.528	79.999	19.994	103.032	20.137	2.768	0.536
1003.000	578.768	80.004	19.992	103.032	20.137	2.788	0.528
1003.500	579.029	79.999	19.994	103.031	20.139	2.621	0.502
1004.000	579.302	79.996	19.996	103.032	20.137	2.754	0.517
1004.500	579.554	79.999	19.995	103.031	20.140	2.593	0.530
1005.000	579.815	79.996	19.993	103.031	20.141	2.521	0.519
1005.500	580.063	79.993	19.993	103.034	20.139	2.657	0.511
1006.000	580.331	80.000	19.996	103.036	20.141	2.477	0.513
1006.500	580.541	80.000	19.996	103.034	20.137	2.748	0.497
1007.000	580.830	79.999	19.991	103.035	20.137	2.752	0.489
1007.500	581.085	79.999	19.991	103.035	20.140	2.547	0.521
1008.000	581.331	80.001	19.994	103.035	20.137	2.784	0.522
1008.500	581.628	79.999	19.996	103.034	20.137	2.750	0.522
1009.000	581.844	80.003	19.990	103.034	20.141	2.519	0.528
1009.500	582.117	80.001	19.991	103.035	20.138	2.734	0.501
1010.000	582.377	80.000	19.993	103.036	20.140	2.577	0.511
1010.500	582.571	79.998	19.996	103.035	20.140	2.563	0.493
1011.000	582.855	79.997	19.992	103.034	20.138	2.696	0.466
1011.500	583.077	80.002	19.994	103.035	20.139	2.621	0.492
1012.000	583.359	80.000	19.990	103.032	20.139	2.653	0.505
1012.500	583.566	80.002	19.994	103.032	20.140	2.529	0.496
1013.000	583.857	79.999	19.990	103.031	20.139	2.597	0.494
1013.500	584.076	80.001	19.994	103.032	20.138	2.693	0.504
1014.000	584.345	79.996	19.995	103.029	20.136	2.824	0.499
1014.500	584.592	79.996	20.000	103.030	20.140	2.557	0.502
1015.000	584.887	79.997	19.997	103.029	20.142	2.393	0.529
1015.500	585.134	79.996	19.997	103.030	20.142	2.449	0.542
1016.000	585.369	79.999	19.992	103.030	20.143	2.361	0.512
1016.500	585.613	79.996	19.996	103.035	20.142	2.431	0.481
1017.000	585.871	79.995	19.988	103.033	20.138	2.704	0.490
1017.500	586.103	79.997	19.995	103.035	20.140	2.555	0.496
1018.000	586.376	79.998	19.995	103.035	20.140	2.529	0.498
1018.500	586.640	80.000	19.994	103.035	20.140	2.561	0.521
1019.000	586.873	80.000	19.996	103.035	20.139	2.637	0.517
1019.500	587.147	79.998	19.996	103.037	20.140	2.559	0.502
1020.000	587.373	79.998	19.995	103.035	20.140	2.523	0.504
1020.500	587.657	79.999	19.994	103.036	20.141	2.477	0.505
1021.000	587.922	79.999	19.994	103.036	20.143	2.314	0.529
1021.500	588.152	79.998	19.995	103.035	20.139	2.637	0.522
1022.000	588.371	79.999	19.996	103.034	20.141	2.519	0.472
1022.500	588.689	79.997	19.993	103.033	20.140	2.591	0.493
1023.000	588.914	79.998	19.996	103.032	20.139	2.603	0.540
1023.500	589.198	79.993	19.998	103.031	20.141	2.511	0.526
1024.000	589.444	79.997	19.997	103.030	20.141	2.481	0.519
1024.499	589.676	79.997	19.999	103.029	20.144	2.280	0.504
1024.999	589.958	79.996	19.991	103.030	20.140	2.535	0.496
1025.499	590.204	79.997	19.993	103.032	20.143	2.344	0.521
1025.999	590.439	79.999	19.997	103.033	20.142	2.439	0.505
1026.499	590.676	79.997	19.997	103.034	20.140	2.565	0.477
1026.999	590.972	79.999	19.995	103.035	20.142	2.445	0.503
1027.499	591.195	79.999	19.994	103.037	20.141	2.479	0.526
1027.999	591.424	80.000	19.995	103.036	20.143	2.352	0.486
1028.499	591.730	79.998	19.997	103.030	20.144	2.300	0.493
1028.999	591.959	80.000	19.994	103.030	20.144	2.298	0.535
1029.499	592.241	80.001	19.995	103.028	20.142	2.434	0.523
1029.999	592.473	80.000	19.996	103.024	20.146	2.144	0.513
1030.499	592.717	80.001	19.995	103.024	20.145	2.210	0.494
1030.999	592.971	80.000	19.994	103.029	20.142	2.378	0.487
1031.499	593.198	80.001	19.994	103.030	20.139	2.635	0.490
1031.999	593.483	79.999	19.995	103.032	20.143	2.352	0.497
1032.499	593.738	80.002	19.994	103.035	20.147	2.050	0.526
1032.999	594.007	80.001	19.993	103.035	20.144	2.242	0.532
1033.499	594.273	80.001	19.994	103.031	20.143	2.338	0.529
1033.999	594.526	80.000	19.995	103.025	20.145	2.210	0.527
1034.499	594.765	80.001	19.994	103.024	20.145	2.228	0.505
1034.999	595.028	80.000	19.997	103.024	20.143	2.308	0.497
1035.500	595.311	80.001	19.995	103.023	20.141	2.501	0.524
1036.000	595.541	80.000	19.996	103.025	20.142	2.379	0.530
1036.499	595.820	80.002	19.994	103.025	20.141	2.495	0.511
1036.999	596.069	80.000	19.995	103.023	20.144	2.264	0.518
1037.499	596.305	80.002	19.994	103.022	20.143	2.340	0.507
1037.999	596.537	80.001	19.994	103.022	20.138	2.671	0.477
1038.499	596.804	80.000	19.996	103.022	20.144	2.274	0.484
1038.999	597.063	80.001	19.994	103.023	20.141	2.451	0.512
1039.499	597.317	80.000	19.994	103.022	20.142	2.417	0.519
1039.999	597.549	80.001	19.995	103.020	20.144	2.234	0.499
1040.499	597.814	80.000	19.995	103.019	20.141	2.507	0.491
1040.999	598.053	80.000	19.995	103.019	20.144	2.268	0.501
1041.499	598.300	80.000	19.999	103.022	20.140	2.553	0.495
1041.999	598.590	79.999	19.993	103.024	20.141	2.499	0.512
1042.499	598.812	80.000	19.996	103.025	20.141	2.507	0.525
1042.999	599.056	80.000	19.995	103.026	20.142	2.429	0.489
1043.499	599.310	80.001	19.994	103.025	20.142	2.437	0.481
1043.999	599.550	80.001	19.995	103.023	20.142	2.378	0.496
1044.499	599.818	80.001	19.996	103.024	20.141	2.454	0.502
1044.999	600.039	79.997	19.997	103.025	20.143	2.362	0.498
1045.499	600.318	80.000	19.996	103.026	20.144	2.240	0.494
1045.999	600.558	80.000	19.995	103.028	20.142	2.396	0.510
1046.499	600.811	80.000	19.995	103.028	20.138	2.677	0.506
1046.999	601.070	79.999	19.996	103.028	20.146	2.136	0.503
1047.499	601.311	79.993	19.997	103.028	20.145	2.204	0.507
1047.999	601.596	80.000	19.992	103.028	20.144	2.244	0.513
1048.499	601.845	79.999	19.995	103.026	20.144	2.238	0.530
1048.999	602.074	79.998	19.996	103.025	20.144	2.258	0.506
1049.499	602.327	79.998	19.998	103.025	20.145	2.174	0.480
1049.999	602.563	80.000	19.998	103.026	20.146	2.155	0.485
1050.499	602.812	80.004	19.994	103.026	20.143	2.304	0.487
1050.999	603.070	80.004	19.996	103.027	20.143	2.350	0.496
1051.499	603.302	80.001	19.998	103.029	20.143	2.358	0.498
1051.999	603.521	79.998	19.997	103.029	20.142	2.382	0.471
1052.499	603.777	80.001	19.995	103.028	20.147	2.051	0.463
1052.999	604.038	79.999	19.996	103.027	20.142	2.380	0.496
1053.499	604.281	80.002	19.993	103.027	20.145	2.158	0.510
1053.999	604.539	80.005	19.996	103.027	20.145	2.160	0.502
1054.499	604.775	80.002	19.995	103.025	20.142	2.437	0.497
1054.999	605.047	80.000	19.996	103.022	20.141	2.461	0.501
1055.499	605.278	80.001	19.993	103.018	20.144	2.276	0.506
1055.999	605.503	80.001	20.000	103.017	20.141	2.513	0.480
1056.499	605.758	80.002	19.996	103.015	20.144	2.238	0.468
1056.999	605.999	80.000	19.996	103.017	20.143	2.348	0.488
1057.500	606.272	79.999	19.998	103.021	20.144	2.300	0.505
1058.000	606.512	80.000	19.999	103.025	20.141	2.509	0.513
1058.499	606.784	80.000	19.996	103.021	20.147	2.073	0.512
1058.999	606.986	80.002	19.992	103.016	20.145	2.170	0.493
1059.499	607.233	79.994	20.007	103.012	20.144	2.272	0.461
1059.999	607.497	80.002	19.996	103.009	20.142	2.390	0.480
1060.499	607.703	80.001	19.998	103.008	20.141	2.499	0.491
1060.999	607.988	80.001	19.996	103.009	20.144	2.302	0.480
1061.499	608.221	80.000	19.995	103.012	20.143	2.362	0.505
1061.999	608.496	80.002	19.993	103.016	20.144	2.246	0.513
1062.499	608.676	79.998	19.999	103.018	20.145	2.206	0.482
1062.999	608.968	79.999	19.996	103.021	20.144	2.294	0.463
1063.499	609.234	80.001	19.995	103.021	20.142	2.418	0.514
1063.999	609.456	80.003	19.993	103.024	20.143	2.342	0.523
1064.499	609.700	79.999	19.996	103.022	20.144	2.256	0.477
1064.999	609.963	80.001	19.995	103.021	20.142	2.420	0.486
1065.499	610.186	80.000	19.997	103.022	20.142	2.386	0.497
1065.999	610.436	79.999	19.993	103.025	20.140	2.528	0.480
1066.499	610.719	79.997	19.997	103.026	20.143	2.368	0.503
1066.999	610.928	79.998	19.998	103.028	20.142	2.402	0.513
1067.499	611.180	80.001	19.995	103.025	20.142	2.378	0.476
1068.000	611.453	79.998	19.994	103.020	20.144	2.262	0.492
1068.500	611.672	79.997	19.994	103.020	20.148	1.971	0.509
1068.999	611.955	80.000	19.991	103.017	20.143	2.340	0.497
1069.499	612.200	80.000	19.995	103.014	20.143	2.312	0.515
1069.999	612.417	79.999	19.992	103.016	20.143	2.304	0.495
1070.499	612.688	79.999	19.993	103.023	20.147	2.083	0.475
1070.999	612.917	80.000	19.993	103.025	20.146	2.146	0.494
1071.499	613.176	80.002	19.995	103.029	20.145	2.170	0.494
1071.999	613.388	79.998	19.997	103.027	20.144	2.238	0.479
1072.499	613.637	80.001	19.996	103.023	20.143	2.320	0.466
1072.999	613.902	79.997	19.995	103.017	20.144	2.276	0.488
1073.499	614.162	80.005	19.990	103.015	20.139	2.629	0.519
1074.000	614.401	79.998	19.991	103.014	20.143	2.329	0.512
1074.500	614.638	79.989	20.001	103.022	20.142	2.393	0.488
1074.999	614.895	80.001	19.992	103.022	20.144	2.296	0.485
1075.499	615.131	79.996	20.000	103.022	20.142	2.415	0.493
1075.999	615.364	79.995	20.003	103.018	20.142	2.377	0.481
1076.499	615.682	80.000	19.996	103.012	20.144	2.276	0.510
1076.999	615.892	79.998	19.994	103.009	20.144	2.268	0.540
1077.499	616.138	80.000	19.992	103.013	20.141	2.481	0.492
1077.999	616.395	80.002	19.995	103.019	20.141	2.459	0.480
1078.499	616.636	79.998	19.994	103.025	20.142	2.397	0.501
1078.999	616.878	80.000	19.996	103.032	20.142	2.400	0.490
1079.499	617.131	80.000	19.993	103.029	20.143	2.308	0.488
1079.999	617.378	79.996	19.997	103.029	20.139	2.635	0.497
1080.499	617.624	79.998	19.996	103.021	20.142	2.402	0.497
1080.999	617.883	79.995	19.998	103.016	20.141	2.519	0.499
1081.499	618.139	79.998	19.995	103.014	20.142	2.412	0.510
1081.999	618.392	80.000	19.992	103.016	20.141	2.491	0.512
1082.499	618.658	80.000	19.995	103.017	20.139	2.633	0.514
1082.999	618.902	79.998	19.995	103.024	20.142	2.413	0.514
1083.499	619.176	79.997	19.991	103.029	20.139	2.651	0.514
1084.000	619.374	79.998	19.996	103.032	20.139	2.603	0.495
1084.500	619.635	80.005	19.994	103.035	20.140	2.575	0.466
1084.999	619.877	80.002	19.990	103.037	20.141	2.456	0.481
1085.499	620.141	79.996	19.995	103.036	20.141	2.520	0.504
1085.999	620.388	79.998	19.995	103.032	20.141	2.484	0.509
1086.499	620.608	79.996	19.998	103.030	20.141	2.495	0.489
1086.999	620.905	80.001	19.991	103.030	20.142	2.378	0.492
1087.499	621.146	79.996	19.991	103.031	20.142	2.388	0.527
1087.999	621.355	79.995	19.995	103.031	20.140	2.539	0.494
1088.499	621.626	79.996	19.997	103.031	20.142	2.449	0.465
1088.999	621.884	80.001	19.991	103.028	20.141	2.473	0.504
1089.499	622.144	80.000	19.995	103.027	20.140	2.527	0.523
1089.999	622.353	79.999	19.995	103.023	20.142	2.387	0.493
1090.499	622.617	80.001	19.994	103.020	20.142	2.439	0.471
1090.999	622.878	79.999	19.991	103.017	20.139	2.625	0.499
1091.499	623.105	80.001	19.992	103.018	20.139	2.659	0.506
1091.999	623.353	79.999	19.995	103.017	20.139	2.605	0.481
1092.499	623.590	79.999	19.995	103.021	20.139	2.595	0.480
1092.999	623.886	79.999	19.994	103.023	20.142	2.387	0.509
1093.499	624.134	79.999	19.993	103.026	20.139	2.625	0.539
1093.999	624.312	79.999	19.994	103.026	20.138	2.719	0.485
1094.499	624.585	79.999	19.995	103.023	20.138	2.675	0.439
1094.999	624.845	79.999	19.993	103.015	20.139	2.609	0.492
1095.500	625.109	79.999	19.995	103.011	20.139	2.651	0.528
1096.000	625.365	79.999	19.995	103.009	20.139	2.653	0.522
1096.499	625.612	79.999	19.993	103.006	20.139	2.641	0.511
1097.000	625.849	79.999	19.994	103.011	20.141	2.505	0.494
1097.500	626.103	79.998	19.995	103.018	20.143	2.360	0.488
1097.999	626.370	79.996	19.995	103.024	20.139	2.595	0.505
1098.499	626.596	80.001	19.989	103.025	20.138	2.669	0.507
1098.999	626.840	80.001	19.993	103.028	20.140	2.545	0.482
1099.499	627.111	79.999	19.996	103.026	20.139	2.633	0.492
1099.999	627.362	80.002	19.996	103.024	20.139	2.615	0.519
1100.499	627.601	80.000	19.994	103.024	20.139	2.625	0.506
1100.999	627.867	80.000	19.993	103.028	20.140	2.571	0.497
1101.499	628.152	79.998	19.998	103.032	20.141	2.457	0.528
1101.999	628.377	79.997	19.998	103.033	20.143	2.368	0.531
1102.499	628.625	80.000	19.997	103.034	20.140	2.581	0.492
1102.999	628.907	80.006	19.992	103.035	20.141	2.494	0.502
1103.499	629.145	79.996	19.996	103.035	20.141	2.482	0.525
1104.000	629.416	80.003	19.992	103.028	20.137	2.763	0.514
1104.500	629.624	79.998	19.997	103.023	20.137	2.783	0.494
1104.999	629.901	80.001	19.995	103.020	20.139	2.607	0.482
1105.499	630.127	79.999	19.995	103.017	20.138	2.709	0.494
1105.999	630.389	79.997	19.998	103.014	20.141	2.498	0.496
1106.499	630.645	80.000	19.990	103.019	20.140	2.547	0.503
1107.000	630.913	79.998	19.999	103.024	20.141	2.474	0.521
1107.500	631.141	80.001	19.991	103.027	20.139	2.649	0.510
1107.999	631.382	79.999	19.995	103.030	20.140	2.575	0.482
1108.499	631.629	80.001	19.993	103.029	20.138	2.701	0.478
1108.999	631.907	80.000	19.992	103.026	20.141	2.477	0.506
1109.499	632.115	80.004	19.995	103.026	20.140	2.549	0.506
1109.999	632.383	80.004	19.993	103.027	20.138	2.733	0.481
1110.499	632.642	79.999	19.998	103.027	20.140	2.583	0.501
1110.999	632.910	80.005	19.996	103.029	20.140	2.563	0.527
1111.499	633.155	80.007	19.996	103.033	20.139	2.629	0.520
1111.999	633.372	80.000	19.994	103.029	20.137	2.768	0.487
1112.500	633.645	80.001	19.996	103.024	20.141	2.457	0.476
1113.000	633.873	80.000	19.991	103.019	20.140	2.573	0.496
1113.499	634.125	79.999	19.994	103.014	20.139	2.635	0.490
1113.999	634.413	80.003	19.995	103.014	20.137	2.748	0.510
1114.499	634.681	80.001	19.995	103.013	20.139	2.609	0.548
1114.999	634.897	79.994	20.001	103.013	20.140	2.531	0.519
1115.499	635.209	80.004	19.995	103.015	20.139	2.607	0.506
1115.999	635.436	80.001	19.995	103.018	20.141	2.515	0.534
1116.499	635.643	80.000	19.998	103.013	20.139	2.627	0.487
1116.999	635.976	80.001	19.997	103.013	20.141	2.451	0.487
1117.499	636.195	79.997	19.996	103.016	20.141	2.521	0.546
1117.999	636.429	80.004	19.993	103.016	20.138	2.675	0.502
1118.500	636.693	79.999	19.993	103.017	20.140	2.583	0.475
1119.000	636.928	80.000	19.996	103.023	20.137	2.746	0.498
1119.499	637.194	80.000	19.996	103.025	20.138	2.675	0.500
1119.999	637.443	80.002	19.992	103.024	20.137	2.773	0.508
1120.499	637.665	79.999	19.996	103.024	20.141	2.499	0.493
1120.999	637.961	80.001	19.996	103.026	20.140	2.527	0.495
1121.499	638.179	80.000	19.995	103.027	20.138	2.697	0.516
1121.999	638.431	80.000	19.995	103.028	20.138	2.705	0.492
1122.499	638.660	80.000	19.995	103.030	20.139	2.649	0.475
1122.999	638.965	80.000	19.996	103.032	20.139	2.635	0.508
1123.499	639.194	80.002	19.994	103.033	20.139	2.595	0.534
1123.999	639.457	80.001	19.996	103.032	20.139	2.635	0.513
1124.499	639.690	79.999	19.994	103.030	20.140	2.571	0.494
1124.999	639.951	80.001	19.995	103.029	20.139	2.597	0.495
1125.499	640.229	80.000	19.996	103.028	20.139	2.653	0.517
1125.999	640.440	79.999	19.992	103.027	20.139	2.645	0.514
1126.499	640.702	79.998	19.999	103.027	20.136	2.848	0.481
1126.999	640.970	80.000	19.993	103.030	20.138	2.740	0.501
1127.499	641.201	79.998	19.992	103.031	20.138	2.685	0.515
1127.999	641.445	80.001	19.995	103.031	20.138	2.739	0.487
1128.499	641.697	80.002	19.995	103.032	20.140	2.591	0.485
1128.999	641.952	80.003	19.993	103.031	20.139	2.635	0.501
1129.499	642.190	79.999	20.000	103.032	20.138	2.669	0.500
1129.999	642.504	79.998	19.998	103.030	20.137	2.754	0.523
1130.499	642.723	79.997	19.998	103.029	20.133	3.088	0.543
1130.999	642.970	79.999	19.997	103.024	20.132	3.108	0.500
1131.499	643.204	80.003	19.993	103.020	20.135	2.892	0.473
1131.999	643.465	80.003	19.993	103.019	20.137	2.810	0.488
1132.499	643.726	80.001	19.996	103.021	20.136	2.852	0.509
1132.999	643.972	80.002	19.992	103.023	20.138	2.719	0.515
1133.499	644.212	80.001	19.995	103.029	20.139	2.663	0.496
1133.999	644.463	80.001	19.994	103.035	20.134	2.966	0.488
1134.499	644.716	79.998	19.999	103.035	20.137	2.801	0.497
1134.999	644.958	80.000	19.996	103.035	20.134	3.022	0.499
1135.499	645.199	80.002	19.994	103.035	20.138	2.673	0.489
1135.999	645.503	80.002	19.995	103.034	20.140	2.587	0.514
1136.499	645.703	79.999	19.991	103.033	20.137	2.808	0.524
1136.999	645.984	80.006	19.993	103.034	20.134	3.020	0.493
1137.499	646.245	80.006	19.995	103.032	20.138	2.683	0.512
1137.999	646.446	80.001	19.991	103.030	20.135	2.946	0.501
1138.499	646.747	80.000	19.995	103.031	20.135	2.898	0.481
1138.999	646.964	80.001	19.995	103.028	20.137	2.806	0.510
1139.499	647.211	80.001	19.995	103.027	20.135	2.928	0.491
1139.999	647.473	80.002	19.994	103.029	20.136	2.860	0.487
1140.499	647.753	79.999	19.998	103.031	20.133	3.044	0.526
1140.999	647.984	80.001	19.994	103.029	20.132	3.115	0.527
1141.499	648.254	79.999	19.997	103.030	20.133	3.070	0.506
1141.999	648.501	79.999	19.997	103.028	20.134	3.024	0.509
1142.499	648.722	80.000	19.995	103.028	20.136	2.848	0.493
1142.999	648.989	79.999	19.995	103.028	20.135	2.926	0.478
1143.499	649.242	80.001	19.996	103.026	20.135	2.920	0.504
1143.999	649.501	79.998	19.996	103.023	20.132	3.111	0.516
1144.499	649.759	79.999	19.995	103.020	20.132	3.135	0.515
1144.999	650.007	79.999	19.996	103.016	20.133	3.040	0.511
1145.499	650.270	79.998	19.994	103.012	20.132	3.168	0.508
1145.999	650.495	79.996	19.997	103.010	20.134	2.960	0.500
1146.500	650.795	79.998	19.994	103.012	20.135	2.900	0.507
1147.000	651.031	79.996	19.997	103.019	20.134	2.988	0.530
1147.499	651.327	79.998	19.997	103.023	20.137	2.741	0.534
1147.999	651.526	79.999	19.996	103.027	20.136	2.872	0.513
1148.499	651.778	79.997	19.995	103.031	20.135	2.906	0.473
1148.999	652.044	79.998	19.996	103.031	20.135	2.928	0.485
1149.499	652.302	79.999	19.995	103.030	20.136	2.864	0.521
1149.999	652.542	79.999	19.995	103.031	20.135	2.954	0.511
1150.499	652.827	79.999	19.996	103.032	20.134	2.960	0.512
1150.999	653.104	79.998	19.996	103.032	20.135	2.885	0.544
1151.499	653.292	79.999	19.995	103.033	20.133	3.064	0.514
1151.999	653.555	79.999	19.995	103.033	20.130	3.248	0.458
1152.499	653.835	79.998	19.996	103.030	20.132	3.150	0.497
1152.999	654.077	79.999	19.995	103.030	20.135	2.913	0.532
1153.499	654.322	79.998	19.995	103.031	20.132	3.110	0.504
1153.999	654.569	79.997	19.995	103.033	20.138	2.697	0.489
1154.499	654.848	80.000	19.995	103.034	20.134	2.967	0.509
1154.999	655.060	79.999	19.995	103.030	20.135	2.932	0.509
1155.500	655.359	79.999	19.995	103.026	20.134	3.004	0.501
1156.000	655.588	80.000	19.994	103.023	20.137	2.769	0.519
1156.499	655.845	79.999	19.995	103.018	20.138	2.681	0.507
1156.999	656.095	80.001	19.994	103.017	20.136	2.830	0.497
1157.499	656.343	79.999	19.994	103.024	20.137	2.743	0.502
1157.999	656.611	79.998	19.996	103.026	20.135	2.920	0.507
1158.499	656.808	80.000	19.993	103.027	20.137	2.755	0.491
1158.999	657.108	80.000	19.996	103.029	20.139	2.661	0.481
1159.500	657.333	79.998	19.996	103.027	20.138	2.685	0.511
1160.000	657.613	79.998	19.994	103.021	20.137	2.749	0.515
1160.499	657.852	80.001	19.994	103.020	20.137	2.812	0.512
1160.999	658.133	80.001	19.994	103.018	20.139	2.619	0.520
1161.499	658.414	80.000	19.994	103.013	20.138	2.738	0.541
1161.999	658.615	80.000	19.994	103.010	20.137	2.768	0.521
1162.499	658.902	80.000	19.996	103.009	20.136	2.818	0.485
1162.999	659.135	80.000	19.996	103.004	20.136	2.826	0.504
1163.500	659.378	80.001	19.994	103.001	20.138	2.707	0.498
1164.001	659.641	80.000	19.995	103.000	20.138	2.677	0.491
1164.500	659.858	80.000	19.994	102.999	20.140	2.575	0.493
1164.999	660.138	80.000	19.996	102.999	20.141	2.453	0.489
1165.499	660.412	80.000	19.995	103.004	20.136	2.828	0.526
1165.999	660.627	79.999	19.996	103.010	20.141	2.521	0.522
1166.499	660.924	80.000	19.996	103.018	20.138	2.719	0.501
1166.999	661.104	79.999	19.995	103.024	20.138	2.677	0.494
1167.499	661.459	80.000	19.994	103.029	20.138	2.693	0.506
1167.999	661.637	80.000	19.994	103.027	20.137	2.759	0.534
1168.499	661.956	80.001	19.993	103.022	20.137	2.791	0.515
1168.999	662.200	79.999	19.994	103.016	20.141	2.459	0.530
1169.499	662.466	80.001	19.995	103.010	20.139	2.627	0.536
1169.999	662.665	80.000	19.994	103.010	20.137	2.781	0.488
1170.499	662.941	79.999	19.993	103.014	20.139	2.631	0.471
1170.999	663.190	79.999	19.997	103.019	20.135	2.939	0.500
1171.499	663.458	79.999	19.996	103.025	20.137	2.805	0.521
1171.999	663.631	79.999	19.995	103.031	20.136	2.865	0.479
1172.499	663.943	80.000	19.996	103.031	20.138	2.713	0.463
1172.999	664.173	79.999	19.995	103.026	20.136	2.859	0.514
1173.499	664.416	79.999	19.997	103.024	20.136	2.868	0.508
1174.000	664.696	79.998	19.997	103.023	20.135	2.922	0.498
1174.500	664.951	79.998	19.995	103.019	20.138	2.667	0.528
1174.999	665.165	79.999	19.994	103.016	20.135	2.904	0.502
1175.499	665.472	79.998	19.995	103.020	20.136	2.871	0.495
1175.999	665.699	79.999	19.996	103.023	20.136	2.823	0.528
1176.499	665.948	79.999	19.996	103.023	20.139	2.631	0.505
1176.999	666.215	80.000	19.995	103.025	20.137	2.779	0.496
1177.499	666.458	79.999	19.993	103.029	20.137	2.793	0.513
1177.999	666.745	79.998	19.995	103.024	20.138	2.695	0.520
1178.499	666.968	79.999	19.995	103.022	20.138	2.699	0.520
1178.999	667.241	79.999	19.994	103.019	20.135	2.910	0.503
1179.499	667.484	79.999	19.994	103.022	20.138	2.717	0.506
1179.999	667.748	79.999	19.994	103.021	20.140	2.587	0.512
1180.499	667.981	80.000	19.995	103.020	20.138	2.701	0.502
1180.999	668.284	79.996	19.995	103.015	20.137	2.789	0.516
1181.499	668.471	79.998	19.996	103.011	20.137	2.759	0.513
1181.999	668.734	79.997	19.994	103.004	20.134	3.020	0.470
1182.499	668.968	79.998	19.993	103.001	20.136	2.846	0.474
1182.999	669.229	79.997	19.996	103.003	20.133	3.088	0.496
1183.499	669.483	79.998	19.996	103.008	20.135	2.956	0.505
1183.999	669.741	79.999	19.994	103.011	20.133	3.052	0.513
1184.499	670.014	79.996	20.000	103.018	20.135	2.890	0.522
1184.999	670.253	79.998	19.992	103.018	20.135	2.910	0.522
1185.499	670.487	79.998	19.997	103.015	20.134	2.976	0.492
1185.999	670.765	80.000	19.993	103.014	20.133	3.100	0.492
1186.499	670.996	79.999	19.993	103.015	20.135	2.928	0.510
1186.999	671.239	79.999	19.997	103.010	20.138	2.718	0.492
1187.499	671.496	80.000	19.995	103.010	20.135	2.922	0.487
1187.999	671.749	80.000	19.992	103.014	20.133	3.036	0.505
1188.499	671.965	80.000	19.994	103.016	20.137	2.751	0.490
1188.999	672.233	80.001	19.994	103.017	20.136	2.814	0.477
1189.499	672.513	80.002	19.995	103.023	20.141	2.517	0.516
1189.999	672.759	80.002	19.995	103.028	20.135	2.891	0.537
1190.499	672.995	80.001	19.992	103.028	20.137	2.749	0.504
1190.999	673.291	80.002	19.996	103.030	20.138	2.675	0.507
1191.499	673.514	80.002	19.994	103.028	20.140	2.570	0.526
1191.999	673.789	80.002	19.994	103.023	20.137	2.769	0.508
1192.499	674.024	80.001	19.994	103.021	20.137	2.797	0.504
1192.999	674.338	80.000	19.994	103.021	20.137	2.759	0.530
1193.499	674.572	80.000	19.995	103.023	20.135	2.894	0.549
1193.999	674.839	80.000	19.996	103.026	20.137	2.765	0.525
1194.500	675.046	80.001	19.997	103.027	20.138	2.725	0.488
1195.000	675.306	80.002	19.994	103.024	20.139	2.595	0.471
1195.499	675.586	80.001	19.995	103.019	20.135	2.956	0.504
1195.999	675.641	80.000	19.995	103.017	20.137	2.785	0.437
1196.500	676.102	80.001	19.993	103.017	20.137	2.755	0.425
1197.000	676.286	80.002	19.994	103.020	20.138	2.727	0.581
1197.499	676.599	80.000	19.996	103.027	20.138	2.699	0.571
1197.999	676.816	80.000	19.996	103.031	20.136	2.881	0.514
1198.499	677.077	79.999	19.995	103.031	20.141	2.450	0.504
1198.999	677.335	80.001	19.994	103.028	20.135	2.922	0.498
1199.499	677.553	80.001	19.994	103.027	20.140	2.573	0.497
1199.999	677.810	80.000	19.995	103.024	20.136	2.817	0.476
1200.499	678.049	80.000	19.994	103.018	20.139	2.605	0.486
1200.999	678.308	79.999	19.995	103.013	20.140	2.548	0.497
1201.499	678.546	80.000	19.995	103.010	20.140	2.582	0.497
1201.999	678.792	80.000	19.995	103.005	20.139	2.657	0.490
1202.499	679.052	79.999	19.995	103.002	20.139	2.604	0.495
1202.999	679.281	80.003	19.994	103.003	20.139	2.598	0.498
1203.499	679.594	80.001	19.995	103.010	20.138	2.687	0.516
1203.999	679.782	79.999	19.994	103.014	20.137	2.795	0.522
1204.499	680.041	79.998	19.998	103.014	20.138	2.723	0.474
1204.999	680.311	80.001	19.994	103.018	20.137	2.745	0.488
1205.499	680.544	79.999	19.995	103.021	20.139	2.604	0.516
1206.000	680.793	79.999	19.997	103.016	20.135	2.907	0.493
1206.500	681.049	79.999	19.993	103.015	20.140	2.578	0.494
1206.999	681.297	80.001	19.992	103.016	20.140	2.584	0.505
1207.499	681.564	80.000	19.994	103.013	20.139	2.613	0.509
1207.999	681.801	79.998	19.995	103.009	20.141	2.510	0.509
1208.499	682.033	79.999	19.996	103.012	20.140	2.549	0.486
1209.000	682.295	79.999	19.996	103.012	20.142	2.416	0.482
1209.500	682.538	80.000	19.997	103.015	20.142	2.382	0.499
1209.999	682.774	80.001	19.996	103.018	20.140	2.533	0.492
1210.499	683.010	79.999	19.994	103.019	20.139	2.635	0.476
1211.000	683.291	80.001	19.994	103.017	20.137	2.777	0.495
1211.500	683.515	80.000	19.996	103.014	20.141	2.503	0.511
1211.999	683.767	80.000	19.996	103.008	20.139	2.639	0.491
1212.499	684.026	80.000	19.995	103.003	20.140	2.526	0.494
1212.999	684.284	80.000	19.995	103.000	20.136	2.815	0.514
1213.499	684.501	80.000	19.994	102.998	20.139	2.600	0.496
1213.999	684.751	79.999	19.995	102.997	20.142	2.422	0.470
1214.499	685.016	80.001	19.995	102.998	20.139	2.665	0.490
1214.999	685.233	79.999	19.996	102.998	20.137	2.743	0.499
1215.499	685.539	80.000	19.994	102.998	20.137	2.755	0.503
1215.999	685.756	80.001	19.994	102.998	20.139	2.622	0.523
1216.499	686.013	80.002	19.992	102.998	20.136	2.827	0.499
1216.999	686.231	80.001	19.995	102.999	20.138	2.670	0.474
1217.499	686.496	79.998	19.996	103.002	20.142	2.418	0.479
1217.999	686.702	79.999	19.997	103.003	20.138	2.721	0.477
1218.499	686.966	80.001	19.992	103.003	20.135	2.891	0.471
1218.999	687.224	79.999	19.995	103.007	20.138	2.707	0.495
1219.499	687.470	80.002	19.994	103.011	20.137	2.791	0.513
1219.999	687.716	80.000	19.996	103.014	20.138	2.666	0.498
1220.499	687.982	80.001	19.994	103.018	20.136	2.859	0.502
1220.999	688.213	80.002	19.996	103.023	20.139	2.640	0.504
1221.499	688.474	80.000	19.996	103.023	20.138	2.676	0.494
1221.999	688.730	80.001	19.995	103.021	20.136	2.849	0.505
1222.499	688.986	79.999	19.997	103.017	20.139	2.644	0.515
1222.999	689.266	80.004	19.994	103.012	20.138	2.689	0.524
1223.499	689.504	80.005	19.993	103.007	20.140	2.562	0.527
1223.999	689.735	79.998	19.995	103.006	20.138	2.705	0.494
1224.499	689.976	80.000	19.997	103.002	20.137	2.767	0.470
1224.999	690.200	80.004	19.995	103.001	20.139	2.612	0.468
1225.499	690.467	80.000	19.995	103.000	20.135	2.953	0.478
1225.999	690.711	79.999	19.995	102.999	20.139	2.616	0.501
1226.499	690.968	79.998	19.996	102.998	20.138	2.707	0.506
1226.999	691.218	79.998	19.998	102.997	20.137	2.763	0.504
1227.499	691.507	80.000	19.994	102.997	20.140	2.528	0.523
1227.999	691.707	79.999	19.997	102.996	20.137	2.759	0.514
1228.499	691.968	79.997	19.995	102.996	20.138	2.723	0.475
1228.999	692.222	80.000	19.995	102.995	20.140	2.548	0.488
1229.499	692.504	79.998	19.997	102.996	20.138	2.666	0.525
1229.999	692.743	79.999	19.996	102.997	20.142	2.400	0.528
1230.499	693.006	79.999	19.997	102.997	20.140	2.524	0.512
1230.999	693.244	79.999	19.996	102.996	20.137	2.761	0.502
1231.499	693.464	79.998	19.997	102.996	20.137	2.787	0.479
1231.999	693.759	79.999	19.995	102.995	20.139	2.650	0.486
1232.499	693.991	79.995	19.998	102.995	20.140	2.576	0.521
1233.000	694.241	79.998	19.998	102.995	20.136	2.825	0.504
1233.500	694.520	80.000	19.996	102.996	20.140	2.522	0.506
1233.999	694.736	79.998	19.997	102.996	20.138	2.671	0.512
1234.499	694.978	79.997	19.998	102.996	20.140	2.543	0.477
1234.999	695.282	79.998	19.996	102.996	20.138	2.699	0.502
1235.499	695.498	79.997	19.997	102.997	20.140	2.587	0.533
1235.999	695.785	79.998	19.998	102.999	20.140	2.533	0.511
1236.499	696.038	80.000	19.997	102.998	20.141	2.466	0.522
1236.999	696.259	79.998	19.997	102.999	20.142	2.398	0.507
1237.499	696.533	79.999	19.997	102.998	20.139	2.651	0.485
1237.999	696.768	79.999	19.996	102.998	20.141	2.454	0.502
1238.499	697.035	79.998	19.998	102.995	20.138	2.681	0.505
1238.999	697.278	79.998	19.996	102.995	20.139	2.635	0.506
1239.499	697.552	79.998	19.996	102.995	20.142	2.396	0.514
1239.999	697.810	79.999	19.996	102.996	20.142	2.420	0.525
1240.499	698.021	80.000	19.995	102.997	20.139	2.634	0.500
1240.999	698.287	79.997	19.994	102.997	20.140	2.542	0.472
1241.499	698.553	79.999	19.997	102.998	20.142	2.412	0.504
1241.999	698.819	80.001	19.992	102.998	20.144	2.284	0.532
1242.499	699.065	79.997	19.997	102.997	20.139	2.625	0.522
1242.999	699.310	79.998	19.997	102.997	20.137	2.745	0.502
1243.500	699.586	79.999	19.996	102.998	20.136	2.878	0.506
1244.000	699.854	80.001	19.995	102.999	20.139	2.615	0.532
1244.499	700.082	80.000	19.998	103.004	20.137	2.789	0.520
1244.999	700.334	80.000	19.988	103.009	20.139	2.601	0.488
1245.499	700.602	80.002	19.995	103.016	20.140	2.593	0.500
1245.999	700.860	80.000	19.996	103.019	20.140	2.593	0.523
1246.499	701.150	79.999	19.996	103.020	20.134	2.963	0.537
1247.000	701.416	79.997	19.998	103.014	20.137	2.749	0.552
1247.500	701.628	79.998	19.996	103.008	20.136	2.849	0.517
1247.999	701.894	80.000	19.994	103.001	20.137	2.777	0.478
1248.499	702.176	80.000	19.995	103.001	20.139	2.619	0.513
1248.999	702.473	79.999	19.994	103.006	20.137	2.795	0.564
1249.499	702.737	80.003	19.990	103.009	20.139	2.625	0.570
1249.999	702.998	79.999	19.996	103.012	20.137	2.751	0.543
1250.499	703.203	79.996	20.000	103.011	20.136	2.851	0.495
1250.999	703.495	79.999	20.000	103.005	20.139	2.600	0.481
1251.499	703.733	79.997	19.998	102.997	20.139	2.617	0.513
1251.999	704.016	79.999	19.995	102.994	20.137	2.751	0.525
1252.499	704.290	80.000	19.995	102.998	20.137	2.767	0.539
1252.999	704.553	80.001	19.993	103.005	20.136	2.869	0.548
1253.499	704.803	80.001	19.997	103.011	20.140	2.593	0.525
1253.999	705.062	79.999	19.996	103.017	20.139	2.623	0.511
1254.500	705.328	79.997	19.997	103.016	20.138	2.721	0.516
1255.000	705.604	80.001	19.993	103.014	20.139	2.603	0.533
1255.499	705.867	79.999	19.995	103.008	20.139	2.627	0.541
1255.999	706.134	80.001	19.994	103.006	20.139	2.605	0.535
1256.499	706.379	79.998	19.999	103.005	20.138	2.735	0.521
1256.999	706.662	79.998	19.987	103.006	20.141	2.519	0.520
1257.499	706.918	79.999	19.993	103.005	20.140	2.561	0.534
1257.999	707.143	80.001	19.996	103.007	20.140	2.565	0.510
1258.499	707.449	79.997	19.995	103.009	20.137	2.791	0.506
1258.999	707.695	79.997	19.996	103.008	20.137	2.747	0.542
1259.499	707.954	79.999	19.995	103.011	20.140	2.540	0.528
1259.999	708.214	79.999	19.997	103.010	20.142	2.390	0.512
1260.499	708.471	79.998	19.995	103.007	20.140	2.576	0.518
1261.000	708.741	79.998	19.996	103.003	20.141	2.460	0.522
1261.500	709.013	79.997	19.995	103.001	20.141	2.498	0.534
1261.999	709.270	79.999	19.997	103.002	20.140	2.572	0.535
1262.499	709.555	79.999	19.996	103.004	20.142	2.436	0.536
1262.999	709.860	79.997	19.996	103.007	20.140	2.538	0.566
1263.499	710.084	79.999	19.995	103.009	20.140	2.547	0.560
1263.999	710.319	79.997	19.996	103.014	20.142	2.420	0.495
1264.499	710.599	80.000	19.992	103.020	20.142	2.394	0.487
1264.999	710.900	79.999	19.996	103.021	20.144	2.286	0.548
1265.499	711.140	79.998	19.995	103.020	20.141	2.492	0.561
1265.999	711.416	79.997	19.995	103.023	20.141	2.462	0.529
1266.499	711.675	80.000	19.995	103.023	20.141	2.482	0.526
1266.999	711.932	80.000	19.994	103.022	20.142	2.402	0.526
1267.499	712.214	80.000	19.993	103.023	20.143	2.334	0.527
1267.999	712.482	80.000	19.994	103.024	20.143	2.346	0.544
1268.499	712.725	80.000	19.996	103.019	20.143	2.372	0.530
1268.999	712.979	79.999	19.997	103.015	20.145	2.208	0.504
1269.499	713.229	80.002	19.995	103.009	20.144	2.294	0.501
1269.999	713.497	79.999	19.993	103.001	20.140	2.530	0.511
1270.500	713.749	80.001	19.996	103.000	20.143	2.332	0.519
1271.000	714.017	80.000	19.994	103.000	20.140	2.589	0.520
1271.499	714.307	79.999	19.998	102.999	20.144	2.256	0.539
1272.000	714.535	79.998	20.000	103.000	20.141	2.500	0.538
1272.500	714.796	80.000	19.994	102.999	20.142	2.376	0.503
1273.000	715.055	80.000	19.994	102.998	20.144	2.292	0.504
1273.500	715.338	80.000	19.995	103.002	20.141	2.494	0.531
1273.999	715.607	80.000	19.996	103.007	20.144	2.296	0.548
1274.500	715.844	80.000	19.993	103.011	20.143	2.346	0.529
1275.000	716.096	80.001	19.995	103.015	20.144	2.234	0.497
1275.499	716.394	80.000	19.993	103.019	20.141	2.462	0.520
1275.999	716.599	79.999	19.995	103.020	20.144	2.244	0.527
1276.499	716.895	79.998	19.997	103.014	20.142	2.410	0.502
1276.999	717.148	80.002	19.993	103.009	20.144	2.292	0.525
1277.499	717.378	80.000	19.995	103.006	20.145	2.230	0.516
1277.999	717.674	80.001	19.993	103.002	20.141	2.460	0.504
1278.499	717.911	80.001	19.993	102.997	20.146	2.115	0.529
1278.999	718.149	80.000	19.993	102.999	20.142	2.438	0.504
1279.499	718.412	80.003	19.994	103.003	20.141	2.494	0.488
1279.999	718.669	79.998	19.991	103.004	20.142	2.400	0.511
1280.499	718.898	79.999	19.996	103.006	20.143	2.312	0.503
1280.999	719.129	79.999	19.991	103.009	20.139	2.617	0.473
1281.499	719.412	80.000	19.991	103.011	20.141	2.494	0.487
1281.999	719.619	79.999	19.995	103.010	20.140	2.537	0.502
1282.499	719.887	80.006	19.995	103.014	20.143	2.348	0.483
1282.999	720.129	79.995	19.999	103.014	20.142	2.398	0.492
1283.499	720.400	80.002	19.996	103.013	20.145	2.178	0.511
1283.999	720.647	79.997	19.988	103.011	20.143	2.360	0.515
1284.499	720.888	79.997	19.998	103.014	20.142	2.448	0.503
1284.999	721.105	80.000	19.997	103.015	20.142	2.408	0.473
1285.499	721.394	79.996	20.007	103.018	20.142	2.432	0.482
1285.999	721.614	80.000	19.991	103.014	20.145	2.193	0.507
1286.499	721.869	79.996	19.997	103.012	20.144	2.267	0.492
1286.999	722.102	80.001	19.995	103.006	20.142	2.420	0.482
1287.499	722.356	80.001	19.992	103.002	20.143	2.342	0.487
1287.999	722.606	80.000	19.994	103.000	20.143	2.354	0.495
1288.499	722.874	80.000	19.991	103.003	20.143	2.352	0.511
1288.999	723.081	79.999	19.992	103.003	20.139	2.626	0.497
1289.499	723.301	79.999	19.994	103.004	20.141	2.490	0.451
1289.999	723.564	80.003	19.994	103.007	20.142	2.408	0.455
1290.499	723.803	80.000	19.994	103.007	20.139	2.621	0.492
1290.999	724.068	80.003	19.994	103.007	20.143	2.368	0.503
1291.499	724.271	80.001	19.995	103.007	20.141	2.462	0.486
1291.999	724.589	80.000	19.994	103.010	20.140	2.526	0.495
1292.499	724.800	79.999	19.996	103.012	20.143	2.370	0.525
1292.999	725.062	80.000	19.996	103.017	20.140	2.588	0.501
1293.500	725.353	80.000	19.995	103.019	20.141	2.458	0.513
1294.000	725.560	80.003	19.996	103.023	20.142	2.418	0.526
1294.499	725.822	80.000	19.992	103.019	20.144	2.294	0.484
1294.999	726.064	80.002	19.991	103.013	20.143	2.356	0.487
1295.499	726.307	79.999	19.999	103.007	20.141	2.458	0.494
1295.999	726.532	80.001	19.994	103.001	20.143	2.354	0.477
1296.499	726.754	80.003	19.996	102.996	20.142	2.380	0.457
1296.999	727.070	80.002	19.994	102.995	20.144	2.285	0.492
1297.499	727.262	80.001	19.996	102.994	20.141	2.516	0.523
1297.999	727.515	79.999	19.998	102.994	20.143	2.348	0.477
1298.499	727.786	80.007	19.991	102.995	20.142	2.384	0.484
1298.999	728.023	80.005	19.991	102.995	20.149	1.919	0.516
1299.499	728.276	79.998	19.996	102.997	20.143	2.342	0.499
1299.999	728.525	80.004	19.995	102.998	20.146	2.155	0.496
1300.499	728.785	80.004	19.993	102.997	20.156	1.427	0.506
1300.999	729.033	79.999	19.996	103.000	20.158	1.269	0.509
1301.499	729.280	80.000	19.996	103.004	20.149	1.895	0.501
1301.999	729.512	80.001	19.995	103.002	20.149	1.919	0.487
1302.499	729.817	80.003	19.988	103.002	20.142	2.442	0.508
1302.999	730.014	79.999	19.991	103.005	20.140	2.558	0.519
1303.499	730.296	80.000	19.992	103.002	20.140	2.522	0.490
1303.999	730.525	80.000	19.992	102.998	20.141	2.454	0.495
1304.499	730.747	79.998	19.994	102.999	20.142	2.438	0.481
1305.000	730.998	79.998	19.997	102.998	20.140	2.590	0.462
1305.500	731.254	79.998	19.998	102.996	20.140	2.562	0.490
1305.999	731.500	79.999	19.994	102.995	20.141	2.476	0.505
1306.499	731.750	80.003	19.996	102.994	20.140	2.576	0.499
1306.999	731.997	79.994	19.998	102.992	20.141	2.474	0.496
1307.499	732.237	79.997	19.998	102.991	20.141	2.512	0.492
1307.999	732.486	79.998	19.997	102.991	20.140	2.542	0.488
1308.499	732.769	80.001	19.996	102.992	20.142	2.390	0.510
1308.999	732.947	79.996	19.996	102.992	20.140	2.536	0.497
1309.499	733.226	79.997	19.996	102.992	20.141	2.480	0.459
1309.999	733.507	80.001	19.995	102.993	20.140	2.550	0.509
1310.499	733.772	79.999	19.993	102.993	20.138	2.689	0.553
1311.000	733.972	79.999	19.995	102.994	20.141	2.482	0.506
1311.500	734.234	79.995	19.991	102.998	20.141	2.510	0.464
1311.999	734.442	79.999	19.995	102.999	20.141	2.520	0.466
1312.499	734.734	79.993	19.995	102.999	20.139	2.626	0.485
1313.000	734.968	79.996	19.998	102.999	20.139	2.648	0.513
1313.500	735.204	79.999	19.997	103.001	20.140	2.586	0.498
1313.999	735.429	80.000	19.997	103.000	20.140	2.530	0.466
1314.499	735.672	79.998	19.997	102.999	20.141	2.502	0.464
1314.999	735.942	79.998	19.996	102.999	20.140	2.588	0.490
1315.500	736.178	79.999	19.998	102.999	20.138	2.675	0.510
1316.001	736.438	80.003	19.993	102.996	20.138	2.697	0.501
1316.500	736.703	80.000	20.000	102.994	20.140	2.548	0.511
1316.999	736.981	80.001	19.994	102.995	20.139	2.631	0.534
1317.499	737.204	79.997	19.995	102.997	20.140	2.593	0.522
1317.999	737.501	80.003	19.995	102.999	20.141	2.482	0.511
1318.499	737.674	79.995	20.001	103.000	20.141	2.466	0.494
1318.999	737.963	79.995	19.993	102.998	20.141	2.498	0.466
1319.499	738.223	80.000	19.996	102.999	20.143	2.362	0.506
1319.999	738.412	79.994	19.999	102.997	20.141	2.460	0.499
1320.500	738.738	80.002	19.995	102.994	20.142	2.424	0.482
1321.000	738.945	80.001	19.995	102.994	20.136	2.829	0.524
1321.499	739.244	79.998	20.001	102.996	20.143	2.322	0.519
1321.999	739.481	79.995	19.997	102.994	20.142	2.436	0.521
1322.499	739.737	80.004	19.989	102.995	20.139	2.594	0.514
1322.999	739.991	79.999	19.996	102.996	20.140	2.554	0.501
1323.499	740.249	80.001	19.996	102.997	20.144	2.274	0.511
1323.999	740.484	80.000	19.997	102.997	20.143	2.352	0.502
1324.499	740.773	79.998	19.994	102.999	20.146	2.093	0.509
1324.999	740.981	79.999	19.997	103.000	20.143	2.350	0.511
1325.499	741.255	79.999	19.995	103.000	20.144	2.240	0.490
1325.999	741.526	79.998	19.998	103.003	20.141	2.482	0.513
1326.499	741.729	80.000	19.996	103.003	20.143	2.348	0.509
1326.999	742.020	80.000	19.996	103.005	20.143	2.366	0.485
1327.499	742.244	79.999	19.996	103.007	20.141	2.474	0.504
1327.999	742.528	79.999	19.996	103.012	20.145	2.168	0.511
1328.499	742.765	80.000	19.995	103.010	20.142	2.426	0.515
1328.999	742.981	79.999	19.997	103.009	20.144	2.232	0.487
1329.499	743.225	79.998	19.996	103.006	20.145	2.222	0.457
1329.999	743.483	79.998	19.997	103.004	20.144	2.240	0.481
