Sample ID:	C:\MCC\MCC Cal\Test\Fiber_Cement_Board\Fiber_Cement_Board_30_2.txt
Sample Weight (mg):	3.79
Heating Rate (C/s):	0.5
Combustor Temp (C):	900
N2 Flow Rate (cc/min):	80
O2 Flow Rate (cc/min):	20
Calibration File:	C:\MCC\MCC Cal\Coeff1 JN10440_30_210304.txt.txt
T Correction Coefficients:	0	1.024463	0
Time Shift (s):	14
*
Time (s)	Temperature (C)	N2 flow rate (cc/min)	O2 flow rate (cc/min)	Flow Rate (cc/min)	Oxygen (%)	HRR (W/g)	Heating rate (C/s)
0.000	106.272	79.985	19.992	99.866	20.034	-0.168	-0.009
0.500	106.279	79.985	19.992	99.867	20.032	-0.002	-0.005
1.001	106.256	79.987	19.992	99.868	20.031	0.124	-0.008
1.500	106.272	79.985	19.990	99.868	20.030	0.193	-0.012
2.000	106.279	79.988	19.992	99.869	20.033	-0.062	0.007
2.500	106.283	79.986	19.993	99.869	20.029	0.293	0.017
3.000	106.278	79.984	19.992	99.869	20.029	0.308	0.005
3.500	106.268	79.985	19.992	99.868	20.031	0.120	-0.008
4.001	106.278	79.985	19.991	99.869	20.030	0.200	-0.007
4.501	106.247	79.985	19.991	99.869	20.032	0.064	-0.010
5.000	106.239	79.984	19.991	99.866	20.035	-0.197	-0.030
5.500	106.258	79.985	19.990	99.864	20.032	0.013	-0.014
6.000	106.277	79.985	19.991	99.865	20.037	-0.412	0.025
6.500	106.263	79.986	19.990	99.866	20.037	-0.408	0.021
7.000	106.294	79.986	19.991	99.868	20.031	0.091	0.010
7.500	106.268	79.985	19.993	99.873	20.033	-0.071	0.010
8.000	106.285	79.985	19.992	99.875	20.036	-0.337	-0.002
8.500	106.301	79.984	19.992	99.878	20.035	-0.186	0.012
9.000	106.311	79.984	19.991	99.882	20.026	0.517	0.030
9.500	106.310	79.984	19.991	99.887	20.028	0.324	0.018
10.000	106.294	79.985	19.991	99.893	20.029	0.299	-0.004
10.501	106.303	79.984	19.992	99.900	20.026	0.547	-0.013
11.001	106.308	79.986	19.992	99.910	20.018	1.141	0.003
11.500	106.350	79.984	19.990	99.914	20.027	0.461	0.031
12.001	106.317	79.985	19.991	99.915	20.028	0.373	0.028
12.501	106.292	79.986	19.992	99.919	20.020	0.987	-0.024
13.000	106.344	79.986	19.992	99.927	20.026	0.506	-0.015
13.500	106.371	79.984	19.991	99.931	20.023	0.737	0.053
14.000	106.350	79.985	19.992	99.936	20.025	0.630	0.042
14.501	106.349	79.984	19.991	99.937	20.021	0.930	-0.008
15.001	106.373	79.985	19.991	99.937	20.021	0.948	0.001
15.501	106.353	79.986	19.992	99.938	20.020	1.049	0.013
16.001	106.392	79.985	19.992	99.937	20.019	1.087	0.012
16.500	106.367	79.984	19.992	99.940	20.019	1.138	0.016
17.001	106.428	79.983	19.991	99.950	20.016	1.373	0.025
17.501	106.436	79.984	19.991	99.957	20.009	1.914	0.053
18.000	106.453	79.984	19.991	99.959	20.012	1.713	0.047
18.500	106.448	79.985	19.991	99.964	20.012	1.671	0.019
19.000	106.519	79.987	19.992	99.968	20.008	1.992	0.039
19.500	106.566	79.986	19.991	99.979	20.013	1.602	0.092
20.000	106.542	79.986	19.993	99.957	20.009	1.897	0.070
20.500	106.610	79.987	19.992	99.937	20.009	1.893	0.033
21.001	106.637	79.986	19.991	99.926	20.010	1.844	0.069
21.501	106.649	79.987	19.992	99.921	20.011	1.720	0.067
22.000	106.650	79.988	19.992	99.907	20.014	1.533	0.026
22.501	106.717	79.985	19.992	99.933	20.006	2.186	0.040
23.001	106.693	79.987	19.992	99.976	20.009	1.933	0.056
23.500	106.733	79.985	19.992	100.028	20.008	2.040	0.030
24.000	106.779	79.986	19.993	100.057	20.012	1.640	0.051
24.500	106.810	79.986	19.993	100.072	20.005	2.230	0.082
25.000	106.848	79.987	19.992	100.079	20.006	2.170	0.074
25.501	106.870	79.987	19.993	100.065	20.009	1.933	0.065
26.001	106.914	79.985	19.994	100.033	20.004	2.319	0.063
26.501	106.942	79.987	19.992	100.019	20.005	2.250	0.068
27.000	107.030	79.986	19.992	100.011	20.005	2.223	0.094
27.500	107.029	79.986	19.992	100.006	20.009	1.900	0.102
28.001	107.094	79.985	19.992	100.003	20.009	1.886	0.076
28.501	107.130	79.985	19.992	100.002	20.004	2.322	0.083
29.000	107.210	79.986	19.994	100.003	20.005	2.260	0.109
29.500	107.224	79.986	19.993	100.009	20.000	2.684	0.105
30.000	107.270	79.986	19.993	100.014	20.008	2.033	0.077
30.500	107.336	79.985	19.991	100.021	20.008	1.964	0.086
31.000	107.379	79.983	19.992	100.024	20.004	2.344	0.110
31.500	107.448	79.985	19.993	100.025	20.000	2.670	0.111
32.000	107.538	79.985	19.992	100.027	20.000	2.648	0.136
32.500	107.588	79.983	19.991	100.032	20.006	2.184	0.149
33.000	107.659	79.985	19.992	100.038	20.004	2.364	0.131
33.500	107.717	79.983	19.992	100.043	20.006	2.184	0.125
34.000	107.793	79.982	19.993	100.047	20.004	2.310	0.131
34.500	107.826	79.983	19.993	100.045	20.004	2.366	0.121
35.000	107.918	79.982	19.992	100.042	20.004	2.297	0.118
35.500	107.984	79.984	19.992	100.035	20.005	2.228	0.142
36.000	108.053	79.985	19.994	100.030	19.999	2.706	0.146
36.501	108.083	79.983	19.993	100.026	20.001	2.557	0.117
37.001	108.175	79.983	19.991	100.025	19.999	2.770	0.111
37.501	108.277	79.985	19.993	100.027	20.006	2.180	0.158
38.001	108.337	79.984	19.992	100.032	20.004	2.308	0.178
38.501	108.398	79.984	19.993	100.039	20.003	2.426	0.142
39.001	108.496	79.984	19.992	100.047	20.000	2.670	0.140
39.501	108.557	79.985	19.994	100.054	20.002	2.522	0.159
40.000	108.683	79.983	19.992	100.060	20.001	2.575	0.173
40.500	108.790	79.983	19.993	100.062	19.999	2.735	0.210
41.000	108.854	79.983	19.992	100.062	20.001	2.557	0.202
41.500	108.931	79.985	19.994	100.062	20.003	2.457	0.156
42.000	109.049	79.984	19.992	100.063	19.997	2.945	0.169
42.500	109.123	79.984	19.992	100.063	20.003	2.428	0.194
43.000	109.206	79.985	19.992	100.061	19.995	3.063	0.174
43.500	109.324	79.983	19.991	100.057	19.994	3.192	0.178
44.000	109.416	79.985	19.992	100.056	19.995	3.041	0.205
44.500	109.514	79.982	19.992	100.054	20.000	2.688	0.200
45.000	109.573	79.985	19.994	100.054	19.997	2.892	0.174
45.500	109.667	79.984	19.993	100.054	19.998	2.857	0.155
46.000	109.776	79.984	19.993	100.059	19.994	3.152	0.178
46.500	109.896	79.984	19.994	100.059	19.991	3.434	0.216
47.000	109.999	79.985	19.993	100.059	19.992	3.356	0.226
47.500	110.110	79.984	19.995	100.058	19.993	3.267	0.219
48.000	110.251	79.982	19.993	100.060	19.995	3.101	0.233
48.500	110.341	79.983	19.993	100.062	19.991	3.365	0.241
49.000	110.422	79.984	19.993	100.063	19.991	3.392	0.201
49.500	110.540	79.984	19.995	100.064	19.990	3.454	0.185
50.001	110.619	79.983	19.993	100.064	19.997	2.930	0.198
50.501	110.729	79.984	19.993	100.062	19.997	2.928	0.193
51.001	110.850	79.984	19.993	100.061	19.995	3.092	0.210
51.501	110.973	79.983	19.993	100.061	19.997	2.901	0.237
52.000	111.061	79.984	19.993	100.061	19.992	3.334	0.227
52.500	111.217	79.983	19.992	100.061	19.994	3.130	0.228
53.000	111.330	79.983	19.993	100.063	19.991	3.422	0.257
53.500	111.422	79.983	19.995	100.064	19.992	3.354	0.237
54.000	111.548	79.983	19.993	100.064	19.994	3.141	0.211
54.500	111.652	79.982	19.993	100.064	19.989	3.545	0.224
55.000	111.741	79.984	19.994	100.064	19.995	3.086	0.212
55.500	111.867	79.983	19.993	100.064	19.999	2.786	0.204
56.000	112.014	79.983	19.994	100.063	19.993	3.276	0.244
56.500	112.126	79.984	19.993	100.064	19.988	3.681	0.266
57.000	112.249	79.983	19.993	100.066	19.994	3.132	0.247
57.500	112.401	79.982	19.991	100.065	19.987	3.727	0.255
58.001	112.514	79.982	19.993	100.065	19.992	3.317	0.270
58.501	112.640	79.983	19.994	100.065	19.993	3.259	0.252
59.000	112.759	79.984	19.992	100.065	19.993	3.217	0.242
59.500	112.906	79.984	19.992	100.067	19.993	3.226	0.255
60.000	113.036	79.983	19.993	100.070	19.995	3.046	0.272
60.500	113.168	79.984	19.992	100.070	19.998	2.857	0.270
61.000	113.364	79.982	19.992	100.071	19.995	3.106	0.295
61.500	113.458	79.984	19.993	100.073	19.993	3.237	0.309
62.000	113.568	79.984	19.992	100.071	19.989	3.597	0.247
62.500	113.664	79.983	19.992	100.069	19.994	3.146	0.205
63.001	113.855	79.984	19.992	100.069	19.991	3.415	0.246
63.501	113.964	79.983	19.992	100.064	19.994	3.168	0.294
64.000	114.141	79.984	19.993	100.031	19.988	3.686	0.293
64.500	114.270	79.983	19.992	100.011	19.989	3.539	0.296
65.000	114.418	79.983	19.992	100.002	19.994	3.135	0.291
65.501	114.528	79.984	19.993	100.002	19.989	3.579	0.267
66.001	114.659	79.983	19.994	100.014	19.992	3.364	0.250
66.500	114.835	79.984	19.992	100.081	19.991	3.433	0.274
67.000	114.963	79.984	19.993	100.118	19.989	3.555	0.306
67.500	115.080	79.983	19.993	100.134	19.993	3.215	0.275
68.000	115.258	79.983	19.993	100.137	19.995	3.104	0.270
68.500	115.418	79.984	19.993	100.129	19.994	3.126	0.316
69.000	115.560	79.983	19.992	100.094	19.987	3.741	0.320
69.500	115.699	79.986	19.993	100.080	19.990	3.477	0.292
70.000	115.840	79.983	19.991	100.075	19.988	3.630	0.280
70.501	115.989	79.984	19.992	100.075	19.995	3.109	0.285
71.001	116.154	79.985	19.993	100.080	19.990	3.504	0.302
71.500	116.267	79.984	19.990	100.084	19.990	3.531	0.296
72.000	116.429	79.984	19.991	100.086	19.988	3.693	0.276
72.500	116.612	79.983	19.992	100.087	19.987	3.706	0.310
73.000	116.750	79.984	19.992	100.090	19.982	4.137	0.333
73.500	116.964	79.985	19.991	100.093	19.989	3.586	0.336
74.001	117.087	79.984	19.992	100.090	19.986	3.779	0.344
74.501	117.221	79.985	19.992	100.090	19.989	3.564	0.297
75.000	117.375	79.986	19.993	100.088	19.987	3.722	0.273
75.501	117.569	79.985	19.992	100.084	19.986	3.793	0.318
76.001	117.728	79.985	19.991	100.083	19.988	3.635	0.351
76.501	117.888	79.986	19.992	100.088	19.987	3.702	0.336
77.000	118.050	79.985	19.991	100.090	19.987	3.737	0.320
77.500	118.169	79.985	19.993	100.097	19.981	4.239	0.301
78.000	118.337	79.985	19.991	100.103	19.984	3.973	0.284
78.500	118.483	79.987	19.992	100.102	19.982	4.115	0.301
79.000	118.634	79.987	19.991	100.102	19.985	3.937	0.306
79.500	118.815	79.984	19.992	100.098	19.984	3.951	0.315
80.000	118.979	79.986	19.991	100.096	19.985	3.913	0.339
80.500	119.143	79.985	19.992	100.094	19.987	3.771	0.336
81.000	119.320	79.985	19.992	100.096	19.989	3.553	0.335
81.500	119.474	79.986	19.993	100.098	19.987	3.711	0.336
82.000	119.661	79.985	19.992	100.102	19.987	3.698	0.336
82.500	119.835	79.985	19.992	100.104	19.987	3.733	0.351
83.001	119.993	79.984	19.992	100.105	19.984	4.015	0.346
83.501	120.186	79.986	19.993	100.103	19.980	4.355	0.341
84.000	120.341	79.984	19.994	100.101	19.985	3.899	0.350
84.500	120.508	79.985	19.992	100.101	19.981	4.248	0.335
85.000	120.682	79.986	19.992	100.100	19.987	3.724	0.331
85.500	120.883	79.984	19.993	100.101	19.987	3.757	0.358
86.001	121.014	79.985	19.992	100.102	19.987	3.746	0.354
86.501	121.170	79.986	19.994	100.104	19.990	3.520	0.309
87.000	121.377	79.985	19.992	100.105	19.991	3.409	0.324
87.500	121.561	79.986	19.993	100.104	19.988	3.675	0.377
88.001	121.715	79.984	19.991	100.106	19.993	3.235	0.365
88.501	121.888	79.985	19.993	100.110	19.988	3.615	0.332
89.001	122.090	79.985	19.992	100.110	19.991	3.391	0.351
89.501	122.292	79.986	19.993	100.110	19.984	3.953	0.389
90.000	122.492	79.984	19.992	100.110	19.983	4.037	0.403
90.500	122.651	79.985	19.993	100.108	19.991	3.373	0.381
91.000	122.854	79.984	19.991	100.105	19.991	3.436	0.361
91.500	123.030	79.985	19.992	100.107	19.980	4.339	0.371
92.000	123.204	79.986	19.993	100.110	19.988	3.664	0.364
92.500	123.389	79.986	19.992	100.110	19.988	3.622	0.354
93.001	123.597	79.986	19.991	100.110	19.984	3.948	0.376
93.501	123.767	79.987	19.991	100.111	19.989	3.589	0.386
94.000	123.972	79.986	19.991	100.108	19.989	3.591	0.376
94.500	124.165	79.986	19.993	100.105	19.983	4.090	0.386
95.000	124.377	79.984	19.991	100.106	19.984	3.953	0.402
95.500	124.539	79.988	19.993	100.106	19.985	3.882	0.390
96.001	124.734	79.986	19.992	100.104	19.981	4.210	0.365
96.501	124.969	79.985	19.991	100.104	19.985	3.877	0.393
97.001	125.159	79.987	19.991	100.104	19.987	3.778	0.428
97.501	125.371	79.986	19.991	100.103	19.985	3.933	0.414
98.000	125.523	79.987	19.991	100.104	19.981	4.255	0.383
98.500	125.750	79.987	19.991	100.104	19.987	3.773	0.372
99.000	125.922	79.988	19.992	100.105	19.980	4.337	0.389
99.500	126.119	79.988	19.992	100.107	19.983	4.053	0.384
100.001	126.355	79.987	19.992	100.112	19.987	3.708	0.401
100.501	126.526	79.988	19.993	100.112	19.985	3.913	0.420
101.001	126.713	79.987	19.993	100.113	19.984	3.988	0.383
101.501	126.947	79.988	19.993	100.115	19.985	3.868	0.390
102.000	127.135	79.989	19.993	100.114	19.983	4.077	0.421
102.500	127.357	79.988	19.994	100.111	19.982	4.161	0.415
103.000	127.559	79.988	19.993	100.112	19.978	4.492	0.417
103.500	127.772	79.988	19.992	100.111	19.986	3.788	0.419
104.000	127.950	79.987	19.992	100.109	19.987	3.731	0.403
104.501	128.156	79.986	19.993	100.108	19.984	3.944	0.388
105.001	128.359	79.987	19.993	100.106	19.985	3.924	0.397
105.500	128.569	79.986	19.993	100.104	19.981	4.211	0.411
106.000	128.783	79.985	19.991	100.104	19.984	3.973	0.419
106.500	128.972	79.987	19.993	100.104	19.981	4.255	0.413
107.001	129.223	79.985	19.992	100.106	19.991	3.442	0.421
107.501	129.404	79.986	19.992	100.112	19.983	4.086	0.436
108.000	129.607	79.985	19.993	100.114	19.987	3.718	0.408
108.500	129.775	79.985	19.992	100.116	19.986	3.786	0.377
109.000	129.997	79.984	19.992	100.116	19.987	3.757	0.380
109.500	130.198	79.984	19.993	100.113	19.981	4.235	0.406
110.000	130.414	79.984	19.993	100.107	19.982	4.121	0.420
110.500	130.610	79.986	19.994	100.104	19.985	3.862	0.415
111.000	130.804	79.984	19.994	100.104	19.988	3.682	0.401
111.501	131.042	79.983	19.993	100.104	19.988	3.671	0.411
112.001	131.210	79.983	19.992	100.103	19.980	4.308	0.419
112.500	131.477	79.984	19.993	100.104	19.988	3.689	0.421
113.000	131.690	79.982	19.992	100.104	19.987	3.769	0.458
113.500	131.922	79.983	19.993	100.102	19.985	3.891	0.462
114.000	132.124	79.984	19.994	100.101	19.987	3.757	0.440
114.500	132.308	79.985	19.995	100.103	19.988	3.695	0.411
115.000	132.535	79.984	19.992	100.103	19.985	3.940	0.399
115.500	132.755	79.984	19.994	100.107	19.978	4.519	0.429
116.000	132.980	79.985	19.993	100.110	19.985	3.888	0.446
116.501	133.212	79.984	19.993	100.116	19.987	3.731	0.451
117.001	133.392	79.984	19.993	100.119	19.984	4.008	0.434
117.501	133.627	79.983	19.993	100.122	19.987	3.715	0.413
118.001	133.883	79.986	19.994	100.119	19.989	3.586	0.453
118.501	134.055	79.983	19.993	100.118	19.984	4.022	0.460
119.000	134.273	79.985	19.995	100.112	19.983	4.053	0.409
119.500	134.508	79.985	19.993	100.108	19.989	3.553	0.421
120.000	134.733	79.984	19.993	100.105	19.985	3.940	0.456
120.500	134.961	79.983	19.992	100.104	19.987	3.769	0.457
121.001	135.203	79.985	19.994	100.104	19.988	3.682	0.462
121.501	135.357	79.985	19.994	100.105	19.982	4.157	0.433
122.000	135.565	79.985	19.993	100.109	19.986	3.840	0.379
122.501	135.811	79.984	19.993	100.112	19.993	3.264	0.408
123.001	136.069	79.985	19.993	100.112	19.989	3.589	0.479
123.500	136.288	79.983	19.991	100.113	19.986	3.831	0.491
124.000	136.507	79.983	19.992	100.111	19.985	3.924	0.458
124.500	136.760	79.984	19.992	100.108	19.989	3.571	0.455
125.000	137.001	79.985	19.994	100.107	19.994	3.200	0.483
125.500	137.187	79.986	19.995	100.108	19.985	3.866	0.460
126.000	137.410	79.983	19.992	100.109	19.985	3.875	0.418
126.501	137.642	79.984	19.993	100.109	19.986	3.782	0.432
127.001	137.851	79.985	19.992	100.109	19.990	3.515	0.448
127.500	138.109	79.985	19.993	100.109	19.983	4.099	0.454
128.000	138.326	79.983	19.993	100.108	19.989	3.566	0.471
128.500	138.521	79.986	19.994	100.108	19.994	3.198	0.443
129.000	138.773	79.985	19.994	100.109	19.981	4.197	0.430
129.500	139.001	79.985	19.993	100.110	19.987	3.720	0.463
130.000	139.241	79.984	19.993	100.110	19.984	3.953	0.474
130.500	139.431	79.985	19.994	100.110	19.986	3.815	0.449
131.000	139.659	79.984	19.994	100.110	19.994	3.142	0.424
131.500	139.917	79.985	19.993	100.110	19.986	3.840	0.452
132.000	140.145	79.985	19.993	100.109	19.992	3.284	0.486
132.500	140.385	79.982	19.993	100.108	19.991	3.415	0.477
133.000	140.626	79.982	19.994	100.108	19.988	3.615	0.474
133.500	140.784	79.984	19.995	100.108	19.989	3.591	0.440
134.000	141.052	79.984	19.994	100.112	19.991	3.426	0.413
134.500	141.298	79.984	19.994	100.116	19.985	3.939	0.470
135.000	141.525	79.983	19.994	100.118	19.986	3.824	0.494
135.500	141.743	79.982	19.994	100.117	19.987	3.700	0.460
136.000	142.031	79.984	19.993	100.115	19.988	3.633	0.475
136.500	142.199	79.983	19.994	100.111	19.982	4.177	0.481
137.000	142.479	79.983	19.995	100.107	19.987	3.751	0.452
137.500	142.703	79.983	19.993	100.105	19.984	3.977	0.476
138.000	142.912	79.983	19.993	100.105	19.988	3.620	0.468
138.500	143.197	79.983	19.992	100.106	19.988	3.618	0.463
139.000	143.414	79.983	19.994	100.107	19.985	3.864	0.498
139.500	143.629	79.982	19.993	100.108	19.986	3.811	0.468
140.000	143.881	79.982	19.994	100.108	19.983	4.075	0.450
140.500	144.133	79.983	19.994	100.108	19.986	3.811	0.486
141.000	144.338	79.984	19.994	100.108	19.996	3.013	0.480
141.500	144.573	79.982	19.993	100.108	19.987	3.710	0.448
142.000	144.833	79.983	19.994	100.106	19.988	3.623	0.467
142.500	145.051	79.983	19.993	100.107	19.983	4.095	0.486
143.000	145.316	79.982	19.993	100.108	19.985	3.892	0.481
143.500	145.492	79.982	19.993	100.107	19.985	3.928	0.462
144.000	145.735	79.982	19.994	100.106	19.987	3.713	0.430
144.500	145.967	79.982	19.994	100.107	19.988	3.632	0.446
145.000	146.211	79.984	19.995	100.107	19.987	3.772	0.475
145.500	146.450	79.982	19.993	100.108	19.983	4.089	0.480
146.000	146.670	79.984	19.994	100.112	19.984	3.955	0.471
146.500	146.923	79.985	19.994	100.113	19.986	3.847	0.466
147.000	147.148	79.984	19.992	100.114	19.984	4.025	0.476
147.500	147.376	79.984	19.992	100.115	19.983	4.096	0.466
148.000	147.617	79.983	19.993	100.114	19.984	3.951	0.461
148.501	147.839	79.985	19.993	100.110	19.993	3.245	0.466
149.000	148.121	79.983	19.993	100.110	19.990	3.453	0.484
149.500	148.343	79.984	19.993	100.111	19.992	3.333	0.504
150.000	148.601	79.985	19.993	100.111	19.994	3.162	0.492
150.500	148.882	79.984	19.992	100.112	19.989	3.549	0.509
151.000	149.066	79.986	19.994	100.111	19.987	3.740	0.502
151.500	149.291	79.986	19.992	100.110	19.981	4.195	0.437
152.000	149.555	79.984	19.990	100.105	19.982	4.183	0.449
152.500	149.773	79.986	19.992	100.097	19.985	3.904	0.486
153.000	150.037	79.985	19.993	100.064	19.983	4.059	0.482
153.500	150.237	79.984	19.992	100.044	19.987	3.764	0.473
154.000	150.485	79.987	19.992	100.033	19.986	3.804	0.456
154.500	150.724	79.986	19.992	100.030	19.985	3.935	0.468
155.000	150.939	79.987	19.992	100.036	19.984	3.953	0.471
155.500	151.186	79.987	19.992	100.070	19.990	3.449	0.458
156.000	151.431	79.987	19.993	100.097	19.989	3.540	0.477
156.500	151.704	79.985	19.991	100.121	19.982	4.155	0.504
157.000	151.908	79.986	19.992	100.169	19.985	3.939	0.497
157.500	152.172	79.987	19.992	100.186	19.991	3.428	0.473
158.000	152.423	79.986	19.992	100.187	19.992	3.306	0.491
158.500	152.637	79.987	19.992	100.181	19.995	3.082	0.489
159.000	152.823	79.986	19.993	100.169	19.985	3.875	0.433
159.500	153.133	79.986	19.992	100.128	19.993	3.280	0.448
160.000	153.311	79.985	19.992	100.115	19.989	3.586	0.492
160.500	153.577	79.984	19.992	100.111	19.987	3.715	0.466
161.000	153.813	79.985	19.992	100.111	19.987	3.728	0.473
161.500	154.066	79.985	19.992	100.108	19.991	3.440	0.496
162.000	154.310	79.985	19.992	100.106	19.992	3.326	0.493
162.500	154.543	79.988	19.993	100.102	19.989	3.542	0.487
163.000	154.779	79.987	19.993	100.101	19.986	3.826	0.473
163.500	155.007	79.986	19.994	100.101	19.990	3.471	0.466
164.000	155.273	79.987	19.994	100.102	19.991	3.411	0.479
164.500	155.481	79.985	19.993	100.103	19.993	3.215	0.484
165.000	155.690	79.985	19.992	100.106	19.985	3.861	0.446
165.500	155.942	79.986	19.994	100.106	19.987	3.711	0.439
166.000	156.228	79.985	19.992	100.106	19.990	3.493	0.500
166.500	156.507	79.984	19.991	100.105	19.994	3.193	0.552
167.001	156.708	79.985	19.992	100.104	19.996	3.035	0.523
167.500	156.978	79.986	19.991	100.101	19.988	3.657	0.475
168.000	157.197	79.986	19.993	100.101	19.982	4.150	0.480
168.500	157.459	79.986	19.992	100.101	19.990	3.460	0.485
169.000	157.683	79.986	19.993	100.101	19.988	3.639	0.483
169.500	157.934	79.985	19.992	100.102	19.986	3.813	0.480
170.000	158.150	79.984	19.992	100.103	19.983	4.041	0.471
170.500	158.404	79.986	19.993	100.102	19.990	3.511	0.468
171.000	158.660	79.987	19.991	100.102	19.987	3.762	0.490
171.500	158.910	79.987	19.992	100.102	19.983	4.033	0.508
172.000	159.154	79.987	19.993	100.102	19.986	3.850	0.500
172.500	159.406	79.986	19.993	100.101	19.988	3.684	0.495
173.000	159.644	79.986	19.991	100.101	19.987	3.777	0.493
173.500	159.870	79.986	19.992	100.101	19.989	3.584	0.477
174.000	160.083	79.986	19.992	100.101	19.990	3.451	0.452
174.500	160.361	79.985	19.992	100.101	19.984	3.988	0.465
175.000	160.617	79.988	19.992	100.101	19.990	3.506	0.513
175.500	160.852	79.987	19.992	100.101	19.986	3.779	0.513
176.000	161.110	79.986	19.991	100.101	19.989	3.564	0.492
176.500	161.340	79.988	19.991	100.101	19.986	3.815	0.490
177.000	161.554	79.988	19.992	100.101	19.994	3.171	0.466
177.500	161.827	79.989	19.992	100.101	19.988	3.655	0.466
178.000	162.051	79.987	19.992	100.101	19.991	3.420	0.492
178.500	162.315	79.988	19.992	100.100	19.975	4.745	0.492
179.000	162.572	79.987	19.992	100.100	19.989	3.611	0.505
179.500	162.779	79.988	19.992	100.101	19.990	3.531	0.493
180.000	163.082	79.988	19.993	100.100	19.985	3.939	0.487
180.500	163.295	79.988	19.992	100.101	19.984	3.950	0.513
181.000	163.556	79.988	19.992	100.102	19.988	3.632	0.495
181.500	163.803	79.988	19.992	100.103	19.988	3.650	0.491
182.000	164.046	79.988	19.991	100.103	19.987	3.704	0.499
182.500	164.315	79.986	19.992	100.103	19.990	3.473	0.500
183.000	164.580	79.988	19.992	100.102	19.988	3.633	0.523
183.500	164.784	79.987	19.991	100.102	19.988	3.651	0.502
184.000	165.044	79.988	19.991	100.102	19.991	3.409	0.467
184.500	165.321	79.986	19.991	100.102	19.989	3.613	0.501
185.000	165.560	79.987	19.991	100.103	19.989	3.586	0.527
185.500	165.790	79.986	19.992	100.103	19.992	3.293	0.493
186.000	166.035	79.986	19.991	100.103	19.993	3.246	0.472
186.500	166.272	79.985	19.991	100.103	19.990	3.482	0.478
187.000	166.498	79.986	19.991	100.102	19.992	3.364	0.473
187.500	166.779	79.984	19.991	100.102	19.992	3.313	0.485
188.000	167.017	79.986	19.992	100.102	19.985	3.886	0.513
188.500	167.258	79.985	19.991	100.103	19.992	3.333	0.499
189.000	167.495	79.986	19.993	100.104	19.990	3.462	0.479
189.500	167.782	79.985	19.991	100.105	19.996	3.004	0.501
190.000	167.995	79.985	19.991	100.105	19.995	3.115	0.512
190.500	168.257	79.985	19.991	100.103	19.996	3.013	0.488
191.000	168.536	79.985	19.993	100.100	19.994	3.162	0.508
191.500	168.793	79.984	19.992	100.094	19.992	3.344	0.539
192.000	169.008	79.985	19.992	100.093	19.992	3.322	0.504
192.500	169.284	79.982	19.990	100.093	19.996	3.029	0.481
193.000	169.502	79.985	19.992	100.095	19.993	3.242	0.493
193.500	169.765	79.983	19.994	100.098	19.995	3.042	0.488
194.000	170.001	79.985	19.992	100.103	19.995	3.049	0.490
194.500	170.277	79.984	19.992	100.103	19.998	2.866	0.505
195.000	170.524	79.984	19.994	100.102	19.999	2.778	0.518
195.500	170.736	79.985	19.994	100.102	19.991	3.379	0.491
196.000	170.978	79.985	19.994	100.102	19.994	3.126	0.457
196.500	171.250	79.985	19.993	100.103	19.993	3.281	0.484
197.000	171.506	79.984	19.993	100.103	19.993	3.202	0.521
197.500	171.768	79.986	19.993	100.100	19.992	3.321	0.522
198.000	172.036	79.983	19.993	100.099	20.000	2.704	0.524
198.500	172.239	79.985	19.992	100.098	20.001	2.609	0.501
199.001	172.502	79.984	19.992	100.099	19.998	2.866	0.468
199.500	172.760	79.984	19.993	100.099	19.993	3.226	0.493
200.000	173.037	79.985	19.993	100.101	19.996	3.008	0.528
200.500	173.295	79.985	19.992	100.099	20.000	2.662	0.535
201.000	173.557	79.983	19.992	100.098	19.995	3.108	0.528
201.500	173.787	79.982	19.992	100.094	19.993	3.221	0.506
202.000	174.049	79.982	19.992	100.092	19.993	3.237	0.492
202.500	174.284	79.984	19.993	100.090	19.992	3.288	0.495
203.000	174.547	79.984	19.992	100.092	19.988	3.654	0.498
203.500	174.794	79.984	19.992	100.092	19.994	3.141	0.504
204.000	175.055	79.984	19.993	100.093	19.997	2.886	0.509
204.500	175.298	79.983	19.992	100.093	19.995	3.115	0.506
205.000	175.517	79.984	19.993	100.094	19.998	2.804	0.483
205.501	175.789	79.984	19.992	100.093	19.995	3.059	0.477
206.000	176.087	79.985	19.993	100.089	19.997	2.882	0.531
206.500	176.313	79.985	19.993	100.089	19.998	2.837	0.547
207.000	176.560	79.984	19.991	100.087	19.996	2.957	0.498
207.500	176.780	79.984	19.993	100.087	19.995	3.091	0.470
208.000	177.037	79.983	19.991	100.086	19.990	3.492	0.472
208.500	177.286	79.984	19.992	100.088	19.999	2.758	0.492
209.000	177.573	79.983	19.993	100.088	19.994	3.197	0.521
209.500	177.793	79.985	19.993	100.093	19.999	2.760	0.521
210.000	178.053	79.984	19.993	100.091	19.996	3.019	0.494
210.500	178.285	79.983	19.992	100.088	19.995	3.095	0.486
211.000	178.521	79.985	19.994	100.086	19.995	3.059	0.480
211.500	178.755	79.985	19.992	100.082	20.000	2.653	0.469
212.000	179.009	79.986	19.993	100.078	19.995	3.062	0.479
212.500	179.250	79.985	19.994	100.075	19.998	2.837	0.491
213.000	179.505	79.985	19.994	100.077	19.994	3.186	0.495
213.500	179.762	79.985	19.993	100.078	19.996	3.033	0.504
214.000	179.977	79.986	19.994	100.076	19.995	3.088	0.492
214.500	180.272	79.986	19.993	100.073	19.994	3.166	0.491
215.000	180.513	79.985	19.994	100.075	19.994	3.177	0.523
215.500	180.757	79.985	19.993	100.073	19.997	2.937	0.510
216.000	180.976	79.986	19.993	100.073	19.996	3.026	0.474
216.500	181.254	79.983	19.992	100.080	20.001	2.611	0.480
217.000	181.480	79.985	19.995	100.084	19.992	3.306	0.501
217.500	181.737	79.983	19.994	100.085	19.998	2.811	0.494
218.001	181.987	79.984	19.994	100.090	20.002	2.482	0.495
218.500	182.223	79.983	19.993	100.090	19.992	3.341	0.496
219.000	182.495	79.984	19.994	100.088	19.993	3.217	0.497
219.500	182.715	79.984	19.993	100.091	19.994	3.172	0.500
220.000	182.958	79.984	19.993	100.088	19.997	2.884	0.477
220.500	183.211	79.984	19.993	100.087	19.992	3.303	0.480
221.000	183.482	79.985	19.993	100.086	19.994	3.141	0.510
221.500	183.713	79.983	19.995	100.081	19.999	2.779	0.513
222.000	183.978	79.984	19.993	100.079	19.992	3.290	0.499
222.500	184.179	79.983	19.993	100.079	20.000	2.695	0.481
223.000	184.460	79.984	19.994	100.082	19.993	3.257	0.474
223.500	184.735	79.984	19.995	100.087	19.996	2.975	0.519
224.000	184.939	79.982	19.994	100.089	19.997	2.930	0.518
224.500	185.220	79.983	19.993	100.089	19.992	3.312	0.482
225.000	185.456	79.984	19.994	100.088	19.997	2.930	0.501
225.500	185.745	79.983	19.994	100.087	19.993	3.279	0.521
226.000	185.957	79.982	19.993	100.085	19.996	2.990	0.513
226.501	186.231	79.982	19.995	100.083	19.996	3.026	0.494
227.000	186.496	79.983	19.993	100.078	19.998	2.850	0.512
227.500	186.718	79.982	19.993	100.083	19.995	3.112	0.513
228.000	186.975	79.983	19.994	100.083	19.994	3.170	0.483
228.500	187.226	79.985	19.994	100.082	19.999	2.777	0.493
229.000	187.469	79.983	19.992	100.082	19.998	2.846	0.501
229.500	187.705	79.983	19.992	100.082	19.997	2.950	0.487
230.000	187.984	79.984	19.993	100.079	19.997	2.914	0.497
230.500	188.194	79.985	19.994	100.075	19.995	3.050	0.502
231.000	188.440	79.986	19.994	100.074	20.000	2.701	0.473
231.500	188.678	79.985	19.993	100.074	19.994	3.196	0.470
232.000	188.925	79.984	19.994	100.073	19.987	3.762	0.484
232.500	189.148	79.986	19.993	100.070	19.993	3.201	0.477
233.000	189.429	79.986	19.993	100.068	19.996	3.003	0.487
233.500	189.688	79.986	19.993	100.071	19.991	3.367	0.522
234.000	189.913	79.986	19.993	100.073	19.987	3.771	0.512
234.501	190.204	79.986	19.993	100.075	19.996	2.961	0.500
235.000	190.437	79.986	19.993	100.075	19.992	3.334	0.520
235.500	190.698	79.986	19.993	100.075	19.988	3.643	0.509
236.000	190.986	79.985	19.991	100.073	19.995	3.061	0.522
236.501	191.177	79.988	19.993	100.069	19.993	3.208	0.514
237.000	191.407	79.988	19.993	100.069	19.997	2.937	0.450
237.500	191.630	79.987	19.992	100.070	19.995	3.092	0.437
238.000	191.918	79.986	19.991	100.069	19.995	3.088	0.482
238.500	192.149	79.985	19.992	100.072	19.992	3.308	0.515
239.000	192.388	79.987	19.992	100.075	19.992	3.361	0.494
239.500	192.663	79.986	19.991	100.074	19.997	2.946	0.492
240.000	192.899	79.985	19.992	100.072	19.994	3.121	0.513
240.500	193.135	79.988	19.993	100.070	19.994	3.190	0.492
241.000	193.389	79.985	19.992	100.065	19.992	3.345	0.481
241.500	193.619	79.985	19.992	100.063	19.992	3.288	0.487
242.000	193.890	79.986	19.992	100.063	19.999	2.735	0.493
242.500	194.135	79.986	19.993	100.063	19.995	3.099	0.508
243.000	194.371	79.985	19.992	100.064	19.993	3.217	0.498
243.500	194.644	79.983	19.991	100.064	19.999	2.710	0.495
244.000	194.849	79.985	19.993	100.064	20.002	2.517	0.494
244.500	195.106	79.986	19.993	100.064	19.998	2.857	0.470
245.000	195.342	79.984	19.992	100.066	19.999	2.781	0.477
245.500	195.605	79.985	19.992	100.068	19.995	3.110	0.496
246.000	195.810	79.984	19.991	100.070	19.994	3.163	0.483
246.500	196.074	79.986	19.992	100.071	19.998	2.806	0.468
247.000	196.343	79.984	19.991	100.072	19.997	2.948	0.501
247.500	196.589	79.984	19.992	100.069	19.996	2.977	0.524
248.000	196.792	79.984	19.991	100.067	20.000	2.664	0.482
248.500	197.068	79.985	19.992	100.068	19.993	3.203	0.464
249.000	197.318	79.982	19.992	100.072	19.996	2.988	0.503
249.500	197.540	79.984	19.991	100.074	19.996	3.012	0.499
250.001	197.818	79.985	19.993	100.075	19.998	2.792	0.485
250.501	198.023	79.985	19.993	100.076	19.999	2.733	0.491
251.000	198.358	79.985	19.993	100.076	19.998	2.841	0.512
251.500	198.531	79.984	19.991	100.072	19.995	3.037	0.524
252.000	198.780	79.986	19.993	100.070	19.995	3.097	0.465
252.500	199.012	79.984	19.992	100.070	20.001	2.575	0.452
253.000	199.267	79.984	19.992	100.070	20.002	2.488	0.484
253.500	199.531	79.984	19.992	100.070	19.997	2.919	0.503
254.000	199.755	79.985	19.992	100.071	19.995	3.110	0.504
254.500	199.978	79.985	19.992	100.071	19.996	2.957	0.467
255.000	200.253	79.986	19.993	100.071	19.990	3.465	0.472
255.500	200.481	79.985	19.993	100.071	19.993	3.223	0.501
256.000	200.744	79.987	19.992	100.068	20.000	2.657	0.497
256.500	201.000	79.985	19.993	100.066	19.994	3.152	0.505
257.000	201.243	79.986	19.991	100.068	19.998	2.866	0.509
257.500	201.509	79.986	19.992	100.068	19.997	2.915	0.504
258.000	201.699	79.988	19.993	100.070	19.998	2.832	0.482
258.500	201.998	79.985	19.991	100.071	19.999	2.721	0.473
259.000	202.216	79.986	19.993	100.072	19.997	2.883	0.503
259.500	202.511	79.986	19.991	100.068	19.999	2.721	0.514
260.000	202.736	79.987	19.992	100.067	19.999	2.715	0.516
260.500	203.004	79.987	19.992	100.065	19.995	3.074	0.507
261.000	203.225	79.986	19.991	100.066	20.000	2.684	0.491
261.500	203.472	79.987	19.990	100.066	19.996	3.003	0.478
262.000	203.731	79.987	19.991	100.065	19.996	3.021	0.487
262.500	203.975	79.986	19.992	100.066	19.993	3.232	0.505
263.000	204.241	79.986	19.992	100.068	19.994	3.163	0.507
263.500	204.440	79.987	19.992	100.072	19.991	3.407	0.487
264.000	204.742	79.986	19.992	100.073	20.000	2.655	0.482
264.500	204.985	79.986	19.992	100.073	19.998	2.808	0.523
265.000	205.230	79.987	19.992	100.074	19.992	3.343	0.517
265.500	205.483	79.985	19.991	100.073	19.998	2.801	0.493
266.000	205.721	79.984	19.991	100.068	19.992	3.321	0.495
266.500	205.947	79.985	19.991	100.068	19.998	2.846	0.478
267.000	206.199	79.986	19.991	100.068	19.998	2.799	0.471
267.500	206.482	79.986	19.992	100.068	19.997	2.877	0.507
268.001	206.734	79.985	19.992	100.067	19.990	3.450	0.535
268.500	206.972	79.985	19.992	100.067	19.999	2.746	0.512
269.000	207.204	79.984	19.991	100.067	20.002	2.488	0.480
269.500	207.468	79.983	19.991	100.067	19.995	3.083	0.483
270.000	207.730	79.985	19.992	100.067	19.992	3.354	0.511
270.500	207.979	79.986	19.993	100.067	19.993	3.239	0.519
271.000	208.210	79.985	19.991	100.067	19.999	2.761	0.496
271.500	208.423	79.984	19.991	100.067	19.994	3.130	0.462
272.000	208.716	79.985	19.993	100.065	20.003	2.455	0.475
272.500	208.938	79.985	19.991	100.066	19.998	2.868	0.510
273.001	209.172	79.984	19.991	100.066	19.999	2.772	0.485
273.500	209.463	79.985	19.992	100.067	19.999	2.750	0.490
274.000	209.714	79.984	19.991	100.066	19.992	3.305	0.534
274.500	209.967	79.984	19.992	100.067	19.994	3.163	0.524
275.000	210.226	79.985	19.991	100.067	19.998	2.808	0.508
275.500	210.467	79.984	19.992	100.068	19.995	3.103	0.506
276.000	210.678	79.985	19.992	100.068	20.000	2.684	0.476
276.500	210.917	79.983	19.991	100.068	19.997	2.912	0.451
277.000	211.150	79.984	19.991	100.067	19.994	3.150	0.461
277.500	211.391	79.984	19.992	100.066	20.000	2.697	0.473
278.000	211.644	79.985	19.993	100.065	19.999	2.768	0.484
278.500	211.869	79.986	19.992	100.067	19.997	2.946	0.485
279.000	212.153	79.984	19.992	100.068	20.001	2.555	0.493
279.500	212.442	79.983	19.993	100.068	20.000	2.701	0.541
280.000	212.623	79.985	19.992	100.068	19.999	2.744	0.522
280.500	212.924	79.985	19.995	100.067	20.000	2.664	0.476
281.000	213.154	79.984	19.992	100.065	19.998	2.861	0.507
281.500	213.426	79.985	19.992	100.064	20.002	2.524	0.517
282.000	213.669	79.986	19.993	100.064	20.002	2.530	0.508
282.500	213.920	79.986	19.993	100.064	20.003	2.413	0.504
283.000	214.162	79.984	19.993	100.064	20.004	2.306	0.493
283.500	214.421	79.982	19.990	100.063	20.007	2.129	0.497
284.000	214.669	79.984	19.991	100.063	20.005	2.280	0.505
284.500	214.915	79.985	19.993	100.062	20.006	2.160	0.501
285.000	215.159	79.986	19.993	100.062	20.006	2.178	0.492
285.500	215.408	79.985	19.993	100.062	20.003	2.433	0.491
286.000	215.649	79.986	19.995	100.062	19.999	2.783	0.491
286.500	215.933	79.985	19.994	100.063	20.005	2.240	0.508
287.000	216.140	79.986	19.993	100.065	19.999	2.766	0.509
287.500	216.414	79.985	19.993	100.072	20.003	2.391	0.486
288.000	216.650	79.985	19.992	100.072	20.002	2.479	0.495
288.500	216.910	79.984	19.992	100.071	20.007	2.060	0.503
289.000	217.180	79.984	19.993	100.071	20.000	2.690	0.514
289.500	217.425	79.986	19.992	100.069	20.005	2.231	0.523
290.000	217.688	79.984	19.993	100.063	20.004	2.368	0.512
290.500	217.941	79.985	19.992	100.064	19.999	2.750	0.512
291.000	218.170	79.984	19.993	100.064	20.002	2.461	0.499
291.500	218.418	79.985	19.992	100.064	20.004	2.299	0.479
292.000	218.695	79.985	19.993	100.063	20.003	2.386	0.501
292.500	218.900	79.984	19.994	100.062	20.000	2.646	0.504
293.000	219.204	79.984	19.993	100.061	20.002	2.495	0.496
293.500	219.456	79.985	19.993	100.064	20.010	1.867	0.533
294.000	219.689	79.984	19.993	100.064	20.006	2.191	0.521
294.500	219.930	79.984	19.992	100.064	20.003	2.393	0.480
295.001	220.179	79.984	19.994	100.065	20.004	2.315	0.482
295.500	220.459	79.984	19.992	100.065	20.005	2.264	0.509
296.000	220.691	79.984	19.993	100.063	20.003	2.422	0.520
296.500	220.956	79.985	19.994	100.063	19.999	2.768	0.504
297.000	221.218	79.984	19.993	100.062	20.000	2.648	0.512
297.500	221.437	79.984	19.994	100.062	20.007	2.066	0.504
298.000	221.729	79.985	19.993	100.060	20.003	2.444	0.496
298.500	221.964	79.983	19.993	100.060	20.005	2.240	0.519
299.000	222.245	79.983	19.992	100.060	20.006	2.175	0.522
299.500	222.493	79.984	19.993	100.059	20.005	2.251	0.522
300.000	222.756	79.985	19.992	100.059	20.004	2.311	0.520
300.500	222.983	79.984	19.993	100.060	20.001	2.604	0.501
301.000	223.273	79.983	19.991	100.060	20.005	2.282	0.504
301.500	223.485	79.984	19.993	100.058	19.999	2.717	0.509
302.000	223.734	79.982	19.993	100.056	20.006	2.158	0.481
302.500	223.975	79.986	19.994	100.055	20.004	2.335	0.475
303.000	224.245	79.983	19.993	100.054	20.006	2.158	0.500
303.500	224.466	79.984	19.994	100.053	20.005	2.293	0.501
304.000	224.739	79.983	19.992	100.056	20.005	2.249	0.493
304.500	225.004	79.984	19.992	100.060	20.000	2.688	0.516
305.000	225.268	79.984	19.993	100.062	20.001	2.553	0.533
305.500	225.483	79.983	19.993	100.063	19.996	3.007	0.504
306.000	225.788	79.983	19.993	100.063	20.004	2.370	0.500
306.500	226.005	79.984	19.992	100.063	20.004	2.375	0.521
307.001	226.283	79.984	19.993	100.062	20.000	2.670	0.508
307.500	226.542	79.985	19.993	100.061	20.004	2.306	0.516
308.000	226.789	79.985	19.993	100.059	20.004	2.357	0.522
308.500	227.030	79.983	19.993	100.059	19.999	2.730	0.497
309.000	227.258	79.983	19.994	100.058	20.001	2.552	0.478
309.500	227.540	79.985	19.992	100.059	19.999	2.712	0.489
310.000	227.809	79.985	19.993	100.060	19.996	2.979	0.531
310.500	228.044	79.983	19.992	100.063	19.997	2.934	0.528
311.000	228.308	79.984	19.994	100.063	20.000	2.672	0.501
311.500	228.577	79.985	19.992	100.065	20.007	2.089	0.516
312.000	228.842	79.984	19.993	100.065	20.007	2.122	0.534
312.500	229.076	79.984	19.993	100.065	20.005	2.224	0.516
313.000	229.319	79.985	19.993	100.064	20.006	2.191	0.488
313.500	229.595	79.984	19.994	100.064	20.002	2.533	0.498
314.000	229.836	79.984	19.994	100.062	20.004	2.366	0.519
314.500	230.098	79.984	19.992	100.062	20.006	2.151	0.510
315.000	230.353	79.985	19.993	100.062	19.999	2.726	0.510
315.500	230.631	79.985	19.992	100.061	19.999	2.761	0.524
316.000	230.848	79.985	19.992	100.059	20.007	2.115	0.514
316.500	231.087	79.986	19.995	100.054	20.001	2.612	0.476
317.000	231.346	79.986	19.994	100.048	20.003	2.455	0.477
317.500	231.635	79.987	19.993	100.045	20.005	2.266	0.523
318.000	231.849	79.986	19.993	100.042	20.007	2.066	0.525
318.500	232.123	79.986	19.993	100.044	20.001	2.541	0.496
319.000	232.319	79.984	19.992	100.050	20.005	2.235	0.479
319.500	232.616	79.984	19.992	100.052	20.001	2.610	0.481
320.000	232.875	79.985	19.993	100.055	20.006	2.175	0.524
320.500	233.113	79.985	19.993	100.057	20.005	2.237	0.526
321.000	233.371	79.985	19.992	100.057	20.006	2.153	0.496
321.500	233.621	79.984	19.992	100.057	20.004	2.366	0.502
322.000	233.848	79.986	19.993	100.060	20.003	2.399	0.493
322.500	234.121	79.985	19.993	100.060	20.005	2.288	0.488
323.000	234.354	79.984	19.991	100.062	20.000	2.668	0.503
323.500	234.589	79.983	19.991	100.061	20.002	2.503	0.487
324.000	234.859	79.982	19.991	100.059	20.000	2.634	0.487
324.500	235.112	79.985	19.991	100.059	19.999	2.779	0.514
325.000	235.385	79.985	19.992	100.057	19.994	3.160	0.524
325.500	235.633	79.984	19.992	100.054	19.998	2.794	0.523
326.000	235.883	79.985	19.992	100.054	20.001	2.566	0.510
326.500	236.113	79.984	19.992	100.055	20.004	2.355	0.489
327.000	236.362	79.984	19.993	100.053	20.003	2.393	0.480
327.500	236.615	79.984	19.991	100.055	20.011	1.769	0.490
328.000	236.856	79.984	19.991	100.059	19.998	2.845	0.497
328.500	237.154	79.984	19.992	100.060	20.004	2.326	0.516
329.000	237.373	79.983	19.991	100.060	20.010	1.829	0.528
329.500	237.635	79.984	19.993	100.058	20.006	2.184	0.499
330.000	237.847	79.984	19.992	100.057	20.002	2.476	0.477
330.500	238.103	79.985	19.991	100.057	20.004	2.346	0.471
331.000	238.370	79.985	19.993	100.056	19.996	2.965	0.496
331.500	238.575	79.984	19.992	100.056	19.999	2.734	0.497
332.000	238.838	79.985	19.993	100.059	20.001	2.585	0.470
332.500	239.067	79.985	19.991	100.054	20.005	2.215	0.480
333.000	239.320	79.985	19.992	100.047	20.009	1.944	0.487
333.500	239.577	79.985	19.992	100.042	20.004	2.303	0.495
334.000	239.854	79.985	19.992	100.043	20.008	1.964	0.522
334.500	240.073	79.986	19.993	100.042	20.003	2.379	0.515
335.000	240.374	79.987	19.993	100.044	20.003	2.415	0.508
335.501	240.580	79.987	19.992	100.045	20.000	2.688	0.513
336.000	240.812	79.988	19.993	100.045	20.006	2.162	0.472
336.500	241.064	79.986	19.992	100.048	20.003	2.377	0.461
337.000	241.314	79.987	19.992	100.050	20.010	1.842	0.493
337.500	241.577	79.986	19.991	100.052	20.009	1.917	0.508
338.000	241.839	79.987	19.993	100.054	20.005	2.277	0.519
338.500	242.075	79.986	19.991	100.052	20.000	2.634	0.511
339.000	242.344	79.987	19.991	100.045	20.004	2.308	0.502
339.500	242.563	79.988	19.991	100.039	20.005	2.253	0.496
340.000	242.869	79.987	19.993	100.037	20.009	1.938	0.506
340.500	243.107	79.987	19.991	100.036	20.007	2.082	0.534
341.000	243.330	79.987	19.992	100.036	20.010	1.838	0.502
341.500	243.578	79.986	19.991	100.038	20.010	1.847	0.466
342.000	243.801	79.986	19.991	100.043	20.006	2.162	0.471
342.500	244.070	79.987	19.992	100.043	20.006	2.141	0.482
343.000	244.301	79.987	19.993	100.040	20.003	2.385	0.497
343.501	244.589	79.986	19.991	100.045	20.005	2.248	0.510
344.000	244.778	79.984	19.991	100.042	20.000	2.659	0.498
344.500	245.057	79.985	19.993	100.039	20.006	2.130	0.472
345.000	245.316	79.984	19.990	100.042	20.004	2.344	0.503
345.500	245.612	79.984	19.992	100.045	20.005	2.293	0.546
346.000	245.825	79.984	19.992	100.044	20.010	1.855	0.532
346.500	246.036	79.985	19.992	100.047	20.008	1.968	0.467
347.000	246.322	79.985	19.994	100.045	20.005	2.270	0.460
347.501	246.574	79.985	19.991	100.040	20.004	2.303	0.517
348.000	246.807	79.985	19.993	100.034	20.009	1.891	0.511
348.500	247.058	79.984	19.993	100.034	20.003	2.430	0.485
349.000	247.315	79.985	19.991	100.032	20.007	2.064	0.496
349.500	247.588	79.985	19.991	100.036	20.007	2.086	0.519
350.000	247.811	79.983	19.991	100.041	20.008	2.009	0.513
350.500	248.051	79.985	19.991	100.047	20.016	1.356	0.479
351.001	248.299	79.983	19.992	100.050	20.010	1.818	0.476
351.501	248.573	79.983	19.993	100.054	20.008	1.984	0.505
352.000	248.828	79.984	19.993	100.053	20.008	1.964	0.525
352.500	249.065	79.985	19.991	100.050	20.010	1.811	0.510
353.000	249.346	79.984	19.992	100.045	20.007	2.117	0.505
353.500	249.588	79.984	19.993	100.038	20.001	2.561	0.520
354.000	249.817	79.985	19.993	100.033	20.010	1.826	0.497
354.500	250.087	79.984	19.991	100.034	20.004	2.355	0.485
355.000	250.351	79.985	19.992	100.040	20.011	1.787	0.517
355.500	250.578	79.985	19.992	100.044	20.008	1.980	0.513
356.000	250.813	79.984	19.993	100.050	20.009	1.948	0.477
356.500	251.085	79.985	19.992	100.053	20.012	1.664	0.484
357.000	251.354	79.985	19.990	100.052	20.012	1.658	0.524
357.500	251.565	79.985	19.991	100.045	20.007	2.057	0.511
358.000	251.765	79.985	19.991	100.042	20.011	1.724	0.445
358.500	252.060	79.983	19.992	100.040	20.007	2.086	0.453
359.000	252.305	79.983	19.991	100.042	20.006	2.177	0.518
359.500	252.583	79.985	19.992	100.042	20.009	1.944	0.532
360.000	252.788	79.985	19.992	100.049	20.009	1.891	0.503
360.500	253.067	79.984	19.993	100.050	20.011	1.767	0.483
361.000	253.268	79.984	19.991	100.048	20.008	2.009	0.482
361.500	253.519	79.984	19.991	100.044	20.011	1.787	0.466
362.000	253.789	79.984	19.992	100.041	20.006	2.150	0.487
362.500	254.045	79.985	19.992	100.040	20.011	1.795	0.523
363.000	254.306	79.984	19.992	100.041	20.006	2.179	0.521
363.500	254.587	79.984	19.992	100.042	20.008	2.017	0.529
364.000	254.772	79.984	19.991	100.047	20.004	2.321	0.504
364.500	255.022	79.985	19.993	100.048	20.007	2.099	0.451
365.000	255.269	79.984	19.992	100.046	20.011	1.782	0.466
365.500	255.524	79.984	19.991	100.043	20.006	2.201	0.500
366.000	255.787	79.984	19.992	100.046	20.012	1.662	0.510
366.500	256.052	79.985	19.991	100.044	20.009	1.955	0.523
367.000	256.264	79.985	19.992	100.039	20.013	1.602	0.502
367.500	256.531	79.984	19.991	100.042	20.006	2.166	0.478
368.000	256.771	79.985	19.992	100.040	20.009	1.902	0.493
368.500	256.998	79.986	19.992	100.040	20.010	1.815	0.487
369.000	257.252	79.985	19.993	100.041	20.013	1.613	0.474
369.500	257.512	79.984	19.992	100.046	20.010	1.840	0.497
370.000	257.753	79.984	19.993	100.046	20.012	1.655	0.507
370.500	258.004	79.986	19.994	100.047	20.006	2.166	0.497
371.000	258.265	79.985	19.994	100.046	20.008	1.995	0.502
371.500	258.475	79.984	19.994	100.048	20.015	1.434	0.491
372.000	258.738	79.984	19.993	100.050	20.010	1.806	0.472
372.500	258.986	79.983	19.993	100.047	20.012	1.640	0.492
373.000	259.275	79.983	19.992	100.045	20.013	1.580	0.524
373.500	259.497	79.983	19.993	100.041	20.009	1.886	0.524
374.000	259.737	79.984	19.994	100.037	20.011	1.740	0.487
374.500	259.973	79.984	19.993	100.034	20.010	1.826	0.469
375.000	260.209	79.985	19.993	100.034	20.013	1.620	0.474
375.500	260.451	79.984	19.994	100.036	20.018	1.212	0.475
376.000	260.744	79.983	19.993	100.039	20.005	2.237	0.507
376.500	260.976	79.983	19.992	100.043	20.008	1.966	0.530
377.000	261.218	79.984	19.993	100.043	20.006	2.135	0.499
377.500	261.439	79.982	19.992	100.043	20.011	1.782	0.469
378.000	261.689	79.983	19.993	100.044	20.011	1.733	0.467
378.500	261.925	79.984	19.993	100.042	20.010	1.811	0.478
379.000	262.179	79.983	19.994	100.038	20.008	2.017	0.488
379.500	262.481	79.983	19.992	100.034	20.013	1.593	0.523
380.000	262.692	79.986	19.994	100.033	20.011	1.749	0.534
380.500	262.968	79.982	19.992	100.033	20.011	1.718	0.500
381.000	263.205	79.983	19.994	100.035	20.012	1.664	0.500
381.500	263.480	79.983	19.993	100.034	20.009	1.895	0.513
382.000	263.705	79.985	19.994	100.035	20.010	1.851	0.506
382.500	263.942	79.984	19.993	100.039	20.012	1.713	0.481
383.000	264.209	79.983	19.992	100.044	20.010	1.844	0.483
383.500	264.462	79.982	19.991	100.046	20.011	1.753	0.512
384.000	264.704	79.983	19.992	100.048	20.011	1.738	0.508
384.500	264.962	79.982	19.991	100.048	20.005	2.246	0.497
385.000	265.207	79.983	19.992	100.044	20.013	1.618	0.501
385.500	265.438	79.984	19.992	100.037	20.012	1.707	0.489
386.000	265.712	79.984	19.992	100.033	20.005	2.242	0.491
386.501	265.921	79.984	19.992	100.033	20.012	1.680	0.494
387.000	266.186	79.984	19.993	100.036	20.012	1.684	0.478
387.500	266.429	79.985	19.993	100.040	20.006	2.182	0.491
388.000	266.682	79.985	19.993	100.042	20.002	2.526	0.502
388.500	266.923	79.987	19.993	100.041	20.008	1.984	0.495
389.000	267.187	79.983	19.993	100.044	20.004	2.319	0.500
389.500	267.444	79.985	19.993	100.043	20.007	2.093	0.513
390.000	267.665	79.983	19.992	100.040	20.009	1.891	0.499
390.500	267.932	79.984	19.993	100.042	20.006	2.204	0.483
391.000	268.148	79.982	19.992	100.047	20.003	2.408	0.485
391.500	268.412	79.984	19.993	100.048	20.003	2.392	0.482
392.000	268.678	79.984	19.991	100.047	20.007	2.088	0.505
392.500	268.931	79.984	19.993	100.046	20.005	2.241	0.525
393.000	269.171	79.985	19.993	100.045	20.007	2.086	0.506
393.500	269.453	79.985	19.993	100.038	20.004	2.297	0.507
394.000	269.732	79.986	19.993	100.034	20.005	2.241	0.542
394.500	269.968	79.984	19.994	100.035	20.007	2.091	0.538
395.000	270.221	79.984	19.993	100.041	20.009	1.931	0.502
395.500	270.448	79.985	19.992	100.041	20.008	1.973	0.484
396.000	270.712	79.984	19.992	100.046	20.006	2.199	0.485
396.500	270.971	79.985	19.993	100.050	20.010	1.826	0.506
397.000	271.244	79.984	19.992	100.051	20.009	1.904	0.527
397.500	271.443	79.984	19.993	100.047	20.005	2.221	0.502
398.000	271.717	79.985	19.993	100.048	20.008	2.044	0.473
398.500	271.969	79.984	19.993	100.048	20.004	2.375	0.500
399.000	272.184	79.986	19.993	100.046	20.007	2.051	0.497
399.500	272.454	79.984	19.992	100.044	20.006	2.159	0.476
400.000	272.689	79.983	19.993	100.042	20.006	2.148	0.495
400.500	272.934	79.986	19.994	100.039	20.003	2.419	0.493
401.000	273.187	79.987	19.994	100.036	20.008	1.995	0.489
401.500	273.404	79.983	19.993	100.035	20.007	2.095	0.484
402.000	273.655	79.986	19.994	100.034	20.005	2.279	0.469
402.500	273.901	79.985	19.993	100.031	20.003	2.417	0.483
403.000	274.166	79.984	19.993	100.030	20.003	2.406	0.504
403.500	274.420	79.984	19.992	100.031	20.007	2.064	0.515
404.000	274.647	79.986	19.994	100.032	20.005	2.212	0.500
404.500	274.922	79.985	19.992	100.033	20.004	2.337	0.492
405.000	275.178	79.984	19.992	100.038	20.010	1.844	0.517
405.500	275.409	79.986	19.992	100.042	20.005	2.215	0.509
406.000	275.676	79.985	19.993	100.042	20.001	2.577	0.492
406.500	275.926	79.986	19.993	100.041	20.004	2.357	0.507
407.000	276.197	79.986	19.993	100.043	20.000	2.663	0.519
407.500	276.393	79.985	19.993	100.043	20.009	1.908	0.494
408.000	276.654	79.985	19.993	100.041	20.005	2.266	0.462
408.500	276.896	79.986	19.992	100.041	20.001	2.567	0.480
409.000	277.182	79.987	19.992	100.044	20.003	2.388	0.516
409.500	277.419	79.985	19.992	100.043	20.005	2.270	0.525
410.000	277.678	79.985	19.991	100.043	20.004	2.350	0.509
410.500	277.932	79.985	19.992	100.042	20.006	2.203	0.505
411.000	278.177	79.984	19.991	100.041	20.005	2.226	0.506
411.500	278.416	79.987	19.992	100.037	20.005	2.221	0.492
412.000	278.636	79.986	19.991	100.037	20.004	2.306	0.472
412.500	278.923	79.986	19.991	100.036	20.003	2.414	0.483
413.000	279.145	79.987	19.991	100.042	20.001	2.572	0.507
413.500	279.398	79.986	19.991	100.042	20.011	1.775	0.492
414.000	279.658	79.988	19.991	100.040	20.005	2.263	0.494
414.500	279.887	79.986	19.991	100.039	20.005	2.228	0.501
415.000	280.128	79.986	19.991	100.039	20.002	2.481	0.479
415.500	280.401	79.987	19.992	100.033	20.010	1.811	0.492
416.000	280.616	79.987	19.992	100.037	20.004	2.359	0.501
416.500	280.865	79.986	19.991	100.043	20.005	2.257	0.476
417.000	281.133	79.987	19.992	100.045	20.000	2.661	0.491
417.500	281.349	79.987	19.993	100.042	20.002	2.510	0.500
418.000	281.630	79.988	19.991	100.042	20.003	2.410	0.490
418.500	281.835	79.986	19.991	100.039	20.004	2.368	0.492
419.000	282.097	79.988	19.992	100.034	20.006	2.183	0.477
419.500	282.342	79.987	19.990	100.031	20.007	2.079	0.487
420.000	282.633	79.989	19.992	100.035	20.008	1.986	0.522
420.500	282.886	79.989	19.992	100.035	20.006	2.210	0.540
421.000	283.140	79.986	19.991	100.033	20.003	2.439	0.525
421.500	283.381	79.988	19.992	100.033	20.005	2.263	0.501
422.000	283.611	79.988	19.992	100.035	20.005	2.250	0.483
422.500	283.892	79.987	19.992	100.036	20.002	2.532	0.491
423.000	284.121	79.985	19.992	100.035	20.002	2.514	0.511
423.500	284.382	79.987	19.992	100.036	20.006	2.210	0.500
424.000	284.639	79.986	19.991	100.034	20.009	1.951	0.504
424.500	284.921	79.985	19.992	100.034	20.002	2.505	0.528
425.000	285.159	79.987	19.992	100.033	20.005	2.288	0.529
425.500	285.402	79.986	19.992	100.035	20.002	2.505	0.501
426.000	285.636	79.985	19.992	100.037	20.002	2.498	0.479
426.500	285.917	79.985	19.992	100.036	20.003	2.434	0.496
427.000	286.112	79.984	19.992	100.034	20.006	2.130	0.496
427.500	286.367	79.987	19.992	100.033	20.008	1.995	0.463
428.000	286.675	79.984	19.992	100.031	20.002	2.483	0.506
428.500	286.926	79.986	19.992	100.029	20.004	2.321	0.561
429.000	287.178	79.984	19.992	100.029	20.003	2.448	0.531
429.500	287.399	79.985	19.993	100.028	20.002	2.485	0.488
430.000	287.642	79.983	19.992	100.026	20.008	1.993	0.468
430.500	287.923	79.985	19.992	100.029	20.006	2.139	0.494
431.000	288.177	79.983	19.992	100.033	20.006	2.186	0.530
431.500	288.420	79.986	19.992	100.034	20.001	2.567	0.516
432.000	288.650	79.984	19.991	100.036	20.010	1.817	0.485
432.500	288.922	79.984	19.991	100.038	20.009	1.899	0.487
433.000	289.152	79.985	19.993	100.037	20.005	2.243	0.502
433.500	289.464	79.985	19.992	100.039	20.002	2.494	0.522
434.000	289.700	79.984	19.992	100.045	20.003	2.410	0.545
434.500	289.934	79.984	19.992	100.046	19.997	2.882	0.509
435.000	290.198	79.985	19.993	100.043	20.007	2.101	0.484
435.500	290.471	79.983	19.992	100.040	20.008	1.966	0.517
436.000	290.700	79.986	19.993	100.037	20.003	2.397	0.520
436.500	290.964	79.985	19.992	100.030	19.999	2.725	0.498
437.000	291.190	79.983	19.991	100.028	20.005	2.288	0.491
437.500	291.449	79.983	19.992	100.031	20.006	2.171	0.487
438.000	291.756	79.983	19.992	100.039	20.004	2.375	0.525
438.500	291.983	79.985	19.991	100.042	20.006	2.159	0.550
439.000	292.231	79.985	19.991	100.043	20.003	2.412	0.504
439.500	292.463	79.985	19.992	100.043	20.002	2.494	0.477
440.000	292.745	79.985	19.992	100.041	20.003	2.445	0.497
440.500	292.997	79.984	19.992	100.033	20.003	2.396	0.524
441.000	293.230	79.985	19.992	100.029	20.003	2.434	0.510
441.500	293.482	79.985	19.992	100.028	19.997	2.951	0.485
442.000	293.778	79.984	19.990	100.029	20.001	2.616	0.516
442.500	293.975	79.983	19.991	100.029	20.005	2.275	0.521
443.000	294.292	79.985	19.992	100.029	19.999	2.776	0.503
443.500	294.510	79.985	19.992	100.028	19.998	2.816	0.525
444.000	294.751	79.986	19.992	100.029	19.998	2.812	0.498
444.500	295.027	79.986	19.993	100.028	20.002	2.492	0.488
445.000	295.268	79.985	19.992	100.031	19.999	2.723	0.517
445.500	295.566	79.985	19.991	100.031	20.006	2.208	0.528
446.000	295.798	79.985	19.992	100.033	19.999	2.709	0.534
446.500	296.060	79.985	19.991	100.038	20.002	2.463	0.512
447.000	296.268	79.985	19.992	100.046	20.002	2.514	0.482
447.500	296.544	79.985	19.991	100.050	20.004	2.312	0.477
448.000	296.801	79.984	19.991	100.052	20.000	2.623	0.508
448.500	297.056	79.984	19.992	100.051	20.001	2.576	0.522
449.000	297.300	79.986	19.992	100.044	19.999	2.754	0.505
449.500	297.534	79.984	19.993	100.036	19.996	2.960	0.488
450.000	297.804	79.984	19.991	100.031	19.999	2.783	0.491
450.501	298.092	79.983	19.992	100.028	20.000	2.647	0.531
451.000	298.324	79.984	19.992	100.028	19.991	3.435	0.539
451.500	298.547	79.985	19.993	100.028	20.004	2.363	0.488
452.000	298.785	79.984	19.992	100.029	19.999	2.743	0.458
452.500	299.063	79.984	19.993	100.031	19.997	2.929	0.488
453.000	299.346	79.983	19.992	100.033	20.008	2.033	0.539
453.500	299.600	79.984	19.992	100.034	19.999	2.723	0.549
454.000	299.811	79.985	19.993	100.035	19.998	2.798	0.501
454.500	300.070	79.984	19.991	100.038	19.997	2.931	0.467
455.000	300.332	79.984	19.991	100.036	20.004	2.314	0.495
455.500	300.574	79.984	19.992	100.036	19.997	2.920	0.512
456.000	300.851	79.984	19.992	100.036	20.001	2.585	0.512
456.500	301.104	79.982	19.993	100.038	20.003	2.414	0.525
457.000	301.338	79.984	19.993	100.035	19.998	2.856	0.508
457.500	301.562	79.984	19.993	100.035	20.002	2.505	0.473
458.000	301.837	79.983	19.992	100.032	20.003	2.427	0.479
458.500	302.050	79.982	19.992	100.031	20.000	2.703	0.493
459.000	302.368	79.985	19.993	100.029	19.999	2.729	0.509
459.500	302.589	79.984	19.993	100.028	19.997	2.878	0.535
460.000	302.846	79.983	19.993	100.029	20.000	2.658	0.509
460.500	303.124	79.983	19.992	100.029	20.001	2.609	0.506
461.000	303.350	79.983	19.991	100.029	19.995	3.038	0.519
461.500	303.598	79.983	19.993	100.030	19.997	2.909	0.489
462.000	303.860	79.985	19.993	100.034	20.002	2.467	0.492
462.500	304.119	79.985	19.994	100.033	20.000	2.627	0.515
463.000	304.378	79.984	19.992	100.032	20.000	2.669	0.519
463.500	304.600	79.983	19.991	100.032	20.000	2.651	0.499
464.000	304.902	79.983	19.992	100.030	19.998	2.802	0.502
464.500	305.109	79.985	19.994	100.025	20.000	2.678	0.517
465.000	305.354	79.985	19.993	100.026	19.993	3.251	0.481
465.500	305.661	79.984	19.993	100.028	19.996	2.971	0.502
466.000	305.919	79.984	19.993	100.029	19.998	2.862	0.559
466.500	306.162	79.984	19.993	100.029	20.002	2.507	0.534
467.000	306.408	79.985	19.994	100.029	19.999	2.747	0.495
467.500	306.676	79.984	19.994	100.028	19.996	2.986	0.501
468.000	306.917	79.984	19.993	100.025	19.997	2.911	0.512
468.500	307.175	79.986	19.993	100.024	20.002	2.536	0.504
469.000	307.400	79.986	19.993	100.024	20.000	2.685	0.491
469.500	307.682	79.984	19.992	100.025	19.997	2.911	0.495
470.000	307.924	79.987	19.993	100.024	19.999	2.740	0.516
470.500	308.175	79.987	19.994	100.023	19.999	2.762	0.509
471.000	308.394	79.986	19.992	100.024	19.994	3.128	0.482
471.500	308.698	79.986	19.993	100.025	20.001	2.618	0.497
472.000	308.955	79.988	19.994	100.025	20.001	2.607	0.542
472.500	309.171	79.986	19.992	100.026	19.997	2.920	0.517
473.000	309.452	79.987	19.992	100.026	19.996	3.009	0.485
473.500	309.731	79.987	19.991	100.025	19.997	2.949	0.529
474.000	309.937	79.986	19.993	100.025	19.996	2.953	0.523
474.500	310.225	79.987	19.993	100.024	19.989	3.608	0.490
475.000	310.467	79.984	19.991	100.025	19.994	3.142	0.512
475.500	310.670	79.987	19.993	100.024	20.000	2.676	0.487
476.000	310.967	79.986	19.992	100.024	19.994	3.160	0.472
476.500	311.215	79.985	19.993	100.023	19.997	2.895	0.522
477.000	311.498	79.986	19.991	100.023	20.000	2.658	0.538
477.500	311.744	79.987	19.993	100.023	19.995	3.080	0.530
478.000	312.012	79.987	19.992	100.023	19.997	2.913	0.522
478.500	312.285	79.986	19.992	100.023	19.998	2.858	0.528
479.000	312.518	79.984	19.992	100.023	19.995	3.106	0.523
479.500	312.746	79.985	19.993	100.023	20.000	2.676	0.483
480.000	313.000	79.985	19.993	100.023	19.998	2.829	0.472
480.500	313.268	79.984	19.992	100.023	19.996	2.975	0.502
481.000	313.531	79.985	19.994	100.023	19.997	2.889	0.527
481.500	313.760	79.986	19.993	100.022	19.997	2.913	0.512
482.000	314.034	79.985	19.993	100.023	19.999	2.782	0.497
482.500	314.304	79.986	19.993	100.023	19.999	2.725	0.523
483.000	314.525	79.985	19.994	100.023	20.001	2.620	0.517
483.500	314.785	79.985	19.994	100.024	19.994	3.135	0.486
484.000	315.044	79.985	19.993	100.024	19.993	3.277	0.501
484.500	315.304	79.984	19.992	100.023	19.998	2.825	0.519
485.000	315.580	79.984	19.993	100.024	20.003	2.427	0.527
485.500	315.788	79.985	19.994	100.023	19.997	2.911	0.510
486.000	316.055	79.984	19.993	100.023	19.996	2.964	0.480
486.500	316.305	79.986	19.995	100.022	20.001	2.609	0.496
487.000	316.545	79.985	19.993	100.023	19.999	2.731	0.504
487.500	316.781	79.984	19.993	100.022	19.998	2.833	0.483
488.000	317.049	79.985	19.994	100.023	19.997	2.940	0.490
488.500	317.313	79.985	19.992	100.022	19.998	2.827	0.518
489.000	317.563	79.986	19.994	100.022	19.998	2.802	0.523
489.500	317.822	79.986	19.994	100.022	19.994	3.164	0.511
490.000	318.057	79.985	19.993	100.023	19.997	2.933	0.501
490.500	318.293	79.986	19.995	100.022	19.996	3.024	0.482
491.000	318.559	79.985	19.993	100.022	19.991	3.408	0.487
491.500	318.797	79.985	19.994	100.023	19.995	3.078	0.503
492.000	319.011	79.987	19.994	100.023	20.002	2.512	0.478
492.500	319.296	79.985	19.994	100.023	19.999	2.723	0.476
493.000	319.553	79.986	19.993	100.023	19.997	2.871	0.520
493.500	319.815	79.986	19.993	100.024	19.997	2.947	0.530
494.000	320.070	79.985	19.994	100.024	19.998	2.838	0.518
494.500	320.325	79.987	19.993	100.023	19.997	2.936	0.513
495.000	320.543	79.986	19.993	100.023	19.995	3.078	0.492
495.500	320.804	79.987	19.994	100.022	19.991	3.415	0.477
496.000	321.046	79.987	19.994	100.023	19.994	3.158	0.491
496.500	321.315	79.987	19.993	100.024	19.992	3.346	0.506
497.000	321.595	79.988	19.994	100.026	19.994	3.142	0.530
497.500	321.835	79.986	19.993	100.026	19.997	2.889	0.535
498.000	322.062	79.986	19.992	100.027	19.997	2.951	0.493
498.500	322.348	79.987	19.992	100.026	19.991	3.373	0.490
499.000	322.589	79.987	19.994	100.025	19.996	2.954	0.520
499.500	322.860	79.986	19.992	100.025	19.995	3.060	0.519
500.000	323.110	79.989	19.993	100.025	19.999	2.776	0.516
500.500	323.353	79.987	19.992	100.025	19.994	3.158	0.507
501.000	323.605	79.987	19.993	100.027	19.992	3.353	0.494
501.500	323.871	79.986	19.993	100.027	19.994	3.171	0.507
502.000	324.110	79.988	19.992	100.028	19.999	2.780	0.511
502.500	324.304	79.986	19.992	100.030	19.994	3.186	0.468
503.000	324.589	79.986	19.992	100.031	19.998	2.851	0.456
503.500	324.887	79.984	19.991	100.032	19.989	3.584	0.531
504.000	325.096	79.984	19.991	100.034	19.992	3.328	0.545
504.500	325.328	79.985	19.993	100.034	19.997	2.942	0.474
505.000	325.611	79.985	19.991	100.034	19.994	3.135	0.478
505.500	325.879	79.985	19.993	100.034	19.994	3.118	0.533
506.000	326.107	79.986	19.993	100.033	19.996	2.978	0.524
506.500	326.401	79.984	19.993	100.031	19.997	2.940	0.509
507.000	326.640	79.985	19.993	100.030	19.995	3.040	0.527
507.500	326.885	79.984	19.992	100.028	19.993	3.240	0.509
508.000	327.111	79.985	19.992	100.029	19.995	3.049	0.478
508.500	327.343	79.985	19.993	100.030	19.995	3.060	0.464
509.000	327.627	79.985	19.993	100.032	19.988	3.612	0.487
509.500	327.849	79.983	19.992	100.033	19.996	3.013	0.511
510.000	328.102	79.984	19.993	100.033	19.993	3.251	0.490
510.500	328.371	79.984	19.993	100.032	19.992	3.302	0.498
511.000	328.607	79.986	19.994	100.031	19.992	3.286	0.513
511.500	328.869	79.983	19.993	100.030	19.995	3.053	0.502
512.000	329.123	79.984	19.992	100.029	19.992	3.311	0.507
512.500	329.389	79.983	19.992	100.029	19.989	3.555	0.518
513.000	329.619	79.983	19.992	100.028	19.992	3.311	0.508
513.500	329.869	79.983	19.993	100.028	19.989	3.575	0.489
514.000	330.138	79.983	19.993	100.028	19.990	3.508	0.500
514.500	330.387	79.984	19.993	100.028	19.994	3.195	0.519
515.000	330.617	79.983	19.992	100.028	19.992	3.335	0.498
515.500	330.887	79.983	19.993	100.029	19.990	3.481	0.489
516.000	331.144	79.983	19.993	100.030	19.986	3.814	0.514
516.500	331.424	79.985	19.992	100.030	19.993	3.204	0.532
517.000	331.656	79.983	19.993	100.029	19.993	3.273	0.524
517.500	331.899	79.984	19.993	100.029	19.988	3.639	0.493
518.000	332.135	79.983	19.991	100.029	19.988	3.633	0.477
518.500	332.378	79.985	19.993	100.029	19.989	3.586	0.479
519.000	332.681	79.984	19.991	100.029	19.985	3.901	0.512
519.500	332.957	79.984	19.993	100.029	19.990	3.453	0.562
520.000	333.190	79.986	19.992	100.029	19.992	3.355	0.544
520.500	333.399	79.984	19.993	100.028	19.990	3.490	0.475
521.000	333.689	79.984	19.992	100.029	19.991	3.422	0.471
521.500	333.957	79.984	19.992	100.029	19.985	3.868	0.529
522.000	334.209	79.984	19.991	100.028	19.988	3.661	0.539
522.500	334.446	79.984	19.992	100.029	19.993	3.215	0.504
523.000	334.659	79.985	19.991	100.028	19.988	3.632	0.470
523.500	334.915	79.984	19.991	100.028	19.986	3.825	0.459
524.000	335.185	79.983	19.990	100.028	19.989	3.550	0.498
524.500	335.487	79.984	19.992	100.028	19.992	3.304	0.549
525.000	335.712	79.984	19.991	100.028	19.986	3.850	0.550
525.500	335.940	79.986	19.993	100.027	19.991	3.370	0.490
526.000	336.195	79.986	19.993	100.029	19.989	3.592	0.468
526.500	336.476	79.985	19.992	100.028	19.990	3.466	0.509
527.000	336.695	79.985	19.993	100.030	19.988	3.641	0.518
527.500	336.971	79.985	19.993	100.034	19.983	4.041	0.497
528.000	337.232	79.985	19.993	100.035	19.987	3.746	0.516
528.500	337.472	79.984	19.991	100.034	19.994	3.155	0.519
529.000	337.714	79.985	19.991	100.033	19.987	3.746	0.491
529.500	337.958	79.985	19.992	100.032	19.990	3.477	0.484
530.000	338.212	79.985	19.992	100.027	19.986	3.821	0.492
530.500	338.476	79.985	19.992	100.028	19.987	3.748	0.508
531.000	338.736	79.985	19.992	100.030	19.983	4.049	0.521
531.500	338.979	79.985	19.991	100.032	19.984	4.012	0.513
532.000	339.256	79.985	19.991	100.034	19.987	3.712	0.512
532.500	339.485	79.985	19.991	100.034	19.986	3.841	0.513
533.000	339.763	79.985	19.991	100.031	19.989	3.543	0.506
533.500	339.978	79.985	19.992	100.028	19.988	3.650	0.500
534.000	340.257	79.986	19.992	100.026	19.987	3.750	0.494
534.500	340.502	79.984	19.993	100.025	19.984	3.981	0.509
535.000	340.741	79.985	19.993	100.024	19.984	3.983	0.504
535.500	341.001	79.984	19.991	100.024	19.976	4.635	0.492
536.000	341.288	79.983	19.992	100.025	19.988	3.681	0.523
536.500	341.519	79.985	19.993	100.027	19.985	3.914	0.532
537.000	341.753	79.984	19.993	100.028	19.983	4.034	0.491
537.500	341.995	79.984	19.991	100.031	19.984	3.956	0.471
538.000	342.287	79.985	19.993	100.035	19.982	4.183	0.505
538.500	342.520	79.984	19.992	100.038	19.985	3.872	0.529
539.000	342.752	79.986	19.993	100.036	19.981	4.269	0.495
539.500	343.036	79.987	19.993	100.034	19.986	3.841	0.490
540.000	343.302	79.984	19.992	100.032	19.984	4.007	0.533
540.500	343.504	79.984	19.992	100.030	19.987	3.765	0.510
541.000	343.760	79.986	19.993	100.028	19.984	3.941	0.463
541.500	344.033	79.985	19.992	100.028	19.980	4.298	0.493
542.000	344.289	79.985	19.993	100.027	19.985	3.918	0.529
542.500	344.540	79.984	19.992	100.027	19.981	4.269	0.518
543.000	344.781	79.986	19.993	100.025	19.981	4.218	0.499
543.500	345.045	79.987	19.993	100.024	19.986	3.841	0.499
544.000	345.268	79.987	19.994	100.024	19.985	3.934	0.496
544.500	345.530	79.985	19.993	100.025	19.983	4.080	0.486
545.000	345.798	79.987	19.992	100.025	19.983	4.034	0.508
545.500	346.072	79.985	19.993	100.025	19.980	4.333	0.536
546.000	346.286	79.985	19.992	100.027	19.980	4.305	0.515
546.500	346.553	79.986	19.993	100.026	19.984	4.001	0.484
547.000	346.774	79.986	19.994	100.027	19.976	4.666	0.484
547.500	347.098	79.987	19.993	100.027	19.982	4.136	0.516
548.000	347.317	79.987	19.993	100.027	19.983	4.043	0.544
548.500	347.561	79.987	19.994	100.026	19.981	4.234	0.503
549.000	347.804	79.986	19.992	100.026	19.979	4.391	0.475
549.500	348.061	79.986	19.992	100.024	19.981	4.189	0.494
550.000	348.305	79.986	19.993	100.023	19.979	4.409	0.500
550.500	348.585	79.987	19.993	100.023	19.982	4.172	0.512
551.000	348.821	79.987	19.992	100.025	19.982	4.138	0.520
551.500	349.073	79.986	19.992	100.024	19.975	4.697	0.502
552.000	349.308	79.987	19.993	100.025	19.974	4.817	0.488
552.500	349.613	79.987	19.993	100.025	19.983	4.056	0.514
553.000	349.822	79.986	19.992	100.025	19.975	4.708	0.528
553.500	350.059	79.988	19.993	100.023	19.977	4.533	0.480
554.000	350.339	79.988	19.995	100.024	19.976	4.611	0.481
554.500	350.593	79.988	19.992	100.025	19.973	4.861	0.525
555.000	350.858	79.985	19.994	100.024	19.974	4.775	0.526
555.500	351.116	79.987	19.991	100.024	19.974	4.815	0.521
556.000	351.391	79.986	19.993	100.023	19.974	4.793	0.528
556.500	351.643	79.986	19.993	100.024	19.979	4.433	0.529
557.000	351.900	79.986	19.992	100.025	19.976	4.611	0.518
557.500	352.115	79.984	19.993	100.026	19.973	4.884	0.491
558.000	352.454	79.987	19.993	100.026	19.971	5.055	0.513
558.500	352.689	79.987	19.993	100.026	19.974	4.820	0.564
559.000	352.935	79.985	19.993	100.026	19.975	4.704	0.528
559.500	353.201	79.985	19.993	100.024	19.980	4.320	0.497
560.000	353.431	79.985	19.992	100.024	19.973	4.848	0.503
560.500	353.708	79.984	19.992	100.026	19.974	4.764	0.501
561.000	353.943	79.986	19.993	100.028	19.973	4.917	0.510
561.500	354.209	79.984	19.992	100.028	19.972	4.986	0.507
562.000	354.452	79.987	19.995	100.029	19.973	4.879	0.505
562.500	354.702	79.986	19.993	100.029	19.969	5.232	0.501
563.000	354.969	79.985	19.992	100.029	19.972	4.968	0.505
563.500	355.237	79.986	19.993	100.026	19.969	5.197	0.526
564.000	355.449	79.985	19.993	100.027	19.971	5.063	0.507
564.500	355.711	79.985	19.992	100.026	19.973	4.901	0.477
565.000	355.977	79.984	19.992	100.026	19.973	4.882	0.501
565.501	356.214	79.984	19.992	100.026	19.968	5.279	0.516
566.000	356.489	79.985	19.993	100.026	19.973	4.888	0.508
566.500	356.734	79.985	19.994	100.026	19.967	5.387	0.516
567.000	356.981	79.984	19.992	100.026	19.968	5.290	0.506
567.500	357.256	79.984	19.991	100.026	19.971	5.026	0.507
568.000	357.490	79.982	19.992	100.029	19.971	5.012	0.516
568.500	357.749	79.984	19.991	100.030	19.973	4.868	0.501
569.001	358.005	79.984	19.992	100.030	19.973	4.846	0.504
569.501	358.250	79.984	19.992	100.029	19.972	4.966	0.508
570.000	358.519	79.986	19.993	100.033	19.972	4.964	0.507
570.500	358.767	79.985	19.992	100.032	19.967	5.379	0.516
571.000	359.025	79.987	19.994	100.031	19.969	5.183	0.512
571.500	359.266	79.988	19.993	100.031	19.972	4.999	0.503
572.001	359.503	79.986	19.993	100.032	19.971	5.055	0.489
572.500	359.773	79.985	19.993	100.027	19.969	5.177	0.493
573.000	360.064	79.986	19.993	100.025	19.965	5.551	0.534
573.500	360.319	79.985	19.993	100.024	19.965	5.560	0.553
574.000	360.546	79.985	19.993	100.024	19.967	5.421	0.513
574.500	360.785	79.984	19.992	100.025	19.965	5.563	0.473
575.000	361.055	79.986	19.993	100.026	19.970	5.172	0.488
575.500	361.324	79.986	19.993	100.027	19.966	5.458	0.524
576.000	361.537	79.986	19.992	100.027	19.968	5.261	0.511
576.500	361.790	79.985	19.991	100.026	19.965	5.543	0.474
577.000	362.053	79.986	19.993	100.025	19.969	5.254	0.491
577.500	362.290	79.986	19.992	100.026	19.963	5.705	0.508
578.000	362.585	79.984	19.993	100.026	19.960	5.951	0.516
578.500	362.835	79.985	19.993	100.025	19.965	5.510	0.538
579.000	363.050	79.985	19.993	100.025	19.970	5.097	0.505
579.501	363.305	79.986	19.992	100.025	19.970	5.170	0.467
580.000	363.550	79.986	19.992	100.024	19.968	5.301	0.485
580.500	363.803	79.986	19.993	100.024	19.965	5.571	0.500
581.000	364.132	79.985	19.992	100.026	19.969	5.194	0.540
581.500	364.354	79.986	19.992	100.029	19.969	5.245	0.566
582.000	364.579	79.984	19.991	100.029	19.966	5.456	0.499
582.500	364.847	79.986	19.992	100.029	19.961	5.889	0.470
583.000	365.093	79.986	19.991	100.027	19.965	5.507	0.503
583.500	365.327	79.985	19.993	100.027	19.967	5.374	0.497
584.000	365.578	79.984	19.993	100.024	19.968	5.336	0.483
584.501	365.860	79.984	19.992	100.024	19.968	5.303	0.510
585.000	366.109	79.984	19.992	100.025	19.962	5.760	0.532
585.500	366.356	79.985	19.991	100.026	19.963	5.691	0.513
586.000	366.625	79.985	19.992	100.026	19.963	5.751	0.506
586.500	366.885	79.985	19.991	100.026	19.961	5.840	0.523
587.000	367.057	79.984	19.992	100.026	19.969	5.230	0.480
587.500	367.323	79.984	19.993	100.026	19.960	5.951	0.435
588.000	367.577	79.985	19.993	100.025	19.966	5.478	0.479
588.500	367.846	79.983	19.992	100.026	19.964	5.645	0.522
589.000	368.092	79.985	19.992	100.028	19.967	5.347	0.520
589.500	368.364	79.984	19.991	100.028	19.960	5.929	0.517
590.000	368.631	79.986	19.992	100.027	19.959	6.026	0.529
590.500	368.896	79.984	19.991	100.027	19.960	5.971	0.535
591.000	369.105	79.984	19.993	100.026	19.966	5.432	0.503
591.500	369.340	79.986	19.994	100.025	19.963	5.751	0.459
592.000	369.636	79.984	19.991	100.024	19.963	5.687	0.488
592.500	369.888	79.985	19.992	100.024	19.960	5.993	0.540
593.000	370.131	79.986	19.993	100.024	19.968	5.272	0.521
593.500	370.388	79.985	19.992	100.024	19.965	5.572	0.497
594.000	370.627	79.985	19.993	100.025	19.959	6.044	0.498
594.500	370.862	79.986	19.993	100.025	19.962	5.807	0.485
595.000	371.118	79.985	19.991	100.026	19.963	5.713	0.483
595.500	371.386	79.984	19.991	100.025	19.965	5.582	0.507
596.000	371.629	79.985	19.991	100.026	19.963	5.678	0.517
596.500	371.909	79.984	19.992	100.024	19.967	5.349	0.517
597.000	372.137	79.986	19.993	100.025	19.965	5.560	0.516
597.500	372.433	79.984	19.993	100.025	19.970	5.174	0.516
598.000	372.693	79.984	19.993	100.024	19.965	5.507	0.540
598.500	372.953	79.985	19.992	100.024	19.963	5.735	0.538
599.000	373.186	79.984	19.990	100.024	19.968	5.258	0.507
599.500	373.431	79.985	19.991	100.024	19.967	5.380	0.485
600.000	373.685	79.985	19.992	100.023	19.966	5.474	0.488
600.500	373.912	79.986	19.993	100.022	19.963	5.722	0.490
601.000	374.154	79.985	19.993	100.021	19.963	5.731	0.475
601.500	374.410	79.984	19.992	100.021	19.966	5.427	0.483
602.000	374.662	79.984	19.991	100.022	19.966	5.500	0.502
602.500	374.906	79.986	19.992	100.023	19.971	5.074	0.502
603.000	375.194	79.986	19.993	100.023	19.966	5.500	0.514
603.501	375.461	79.985	19.992	100.025	19.966	5.451	0.544
604.000	375.700	79.984	19.993	100.026	19.969	5.178	0.531
604.500	375.952	79.986	19.992	100.026	19.966	5.451	0.498
605.000	376.192	79.983	19.993	100.025	19.971	5.057	0.491
605.500	376.430	79.985	19.993	100.025	19.971	5.030	0.485
606.000	376.688	79.986	19.993	100.025	19.965	5.556	0.487
606.500	376.968	79.985	19.993	100.023	19.970	5.156	0.517
607.000	377.203	79.983	19.992	100.022	19.966	5.422	0.527
607.500	377.468	79.984	19.991	100.023	19.965	5.511	0.507
608.000	377.760	79.985	19.991	100.022	19.973	4.923	0.528
608.500	377.989	79.983	19.992	100.018	19.968	5.320	0.539
609.000	378.227	79.984	19.993	100.017	19.967	5.347	0.494
609.500	378.505	79.985	19.992	100.018	19.971	5.063	0.491
610.000	378.747	79.985	19.992	100.018	19.969	5.191	0.519
610.500	379.025	79.985	19.992	100.017	19.970	5.154	0.521
611.000	379.256	79.985	19.993	100.021	19.969	5.231	0.514
611.500	379.496	79.985	19.994	100.022	19.971	5.085	0.489
612.000	379.757	79.983	19.992	100.023	19.969	5.223	0.486
612.500	380.017	79.986	19.992	100.023	19.965	5.564	0.511
613.000	380.263	79.984	19.992	100.023	19.972	4.965	0.514
613.500	380.497	79.984	19.991	100.020	19.971	5.042	0.493
614.000	380.759	79.984	19.993	100.019	19.975	4.754	0.488
614.500	381.041	79.984	19.992	100.019	19.969	5.220	0.520
615.000	381.253	79.986	19.992	100.019	19.975	4.719	0.519
615.500	381.519	79.985	19.992	100.019	19.975	4.725	0.486
616.000	381.729	79.983	19.992	100.021	19.972	4.996	0.477
616.500	382.000	79.983	19.993	100.021	19.971	5.036	0.479
617.000	382.255	79.986	19.993	100.017	19.972	4.927	0.503
617.500	382.514	79.982	19.991	100.017	19.974	4.823	0.520
618.000	382.773	79.983	19.991	100.017	19.972	4.938	0.516
618.500	383.030	79.984	19.992	100.016	19.978	4.435	0.517
619.000	383.253	79.984	19.993	100.017	19.978	4.437	0.498
619.500	383.526	79.984	19.992	100.018	19.976	4.679	0.488
620.000	383.775	79.984	19.991	100.014	19.978	4.506	0.509
620.500	383.998	79.984	19.992	100.011	19.977	4.520	0.498
621.000	384.291	79.986	19.991	100.012	19.984	3.940	0.494
621.500	384.524	79.986	19.992	100.013	19.977	4.588	0.520
622.000	384.805	79.984	19.993	100.015	19.979	4.355	0.520
622.500	385.022	79.985	19.992	100.017	19.981	4.268	0.506
623.000	385.274	79.985	19.992	100.017	19.983	4.047	0.483
623.500	385.505	79.984	19.992	100.012	19.987	3.732	0.476
624.000	385.786	79.984	19.992	100.010	19.991	3.379	0.497
624.500	386.027	79.985	19.993	100.005	19.986	3.798	0.517
625.000	386.280	79.983	19.992	100.005	19.987	3.768	0.509
625.500	386.528	79.985	19.992	100.006	19.988	3.621	0.498
626.000	386.791	79.986	19.992	100.006	19.992	3.361	0.506
626.500	386.991	79.985	19.991	100.009	19.996	3.009	0.487
627.000	387.310	79.986	19.993	100.013	19.995	3.106	0.491
627.500	387.519	79.986	19.991	100.013	19.994	3.117	0.524
628.000	387.777	79.987	19.992	100.009	19.995	3.035	0.498
628.500	388.037	79.985	19.993	100.006	19.993	3.253	0.493
629.000	388.315	79.984	19.992	100.002	19.993	3.235	0.528
629.500	388.539	79.987	19.992	100.004	19.992	3.288	0.519
630.000	388.792	79.987	19.993	100.006	19.992	3.317	0.489
630.500	389.055	79.985	19.991	100.014	19.995	3.066	0.497
631.000	389.282	79.986	19.992	100.017	19.995	3.057	0.503
631.500	389.522	79.986	19.992	100.021	20.000	2.667	0.478
632.000	389.781	79.985	19.992	100.020	19.998	2.853	0.483
632.500	390.077	79.986	19.991	100.017	19.995	3.039	0.527
633.000	390.285	79.985	19.992	100.011	20.003	2.445	0.529
633.500	390.562	79.984	19.992	100.011	20.000	2.669	0.494
634.000	390.811	79.985	19.993	100.012	20.001	2.620	0.505
634.500	391.078	79.984	19.992	100.014	20.005	2.268	0.521
635.000	391.312	79.985	19.993	100.016	19.999	2.782	0.509
635.500	391.564	79.985	19.992	100.021	20.004	2.325	0.494
636.000	391.836	79.986	19.993	100.024	20.008	2.008	0.504
636.500	392.095	79.983	19.992	100.023	20.000	2.625	0.527
637.000	392.360	79.986	19.993	100.022	20.000	2.665	0.528
637.500	392.618	79.985	19.993	100.022	20.005	2.241	0.524
638.000	392.856	79.986	19.995	100.022	20.008	2.013	0.509
638.500	393.144	79.986	19.993	100.024	20.008	1.999	0.511
639.000	393.382	79.985	19.993	100.022	20.001	2.543	0.526
639.500	393.686	79.984	19.993	100.020	20.008	2.032	0.534
640.000	393.906	79.984	19.992	100.018	20.012	1.690	0.533
640.500	394.203	79.985	19.993	100.016	20.011	1.786	0.521
641.000	394.407	79.984	19.993	100.016	20.013	1.617	0.509
641.500	394.693	79.983	19.992	100.015	20.009	1.948	0.495
642.000	394.923	79.983	19.993	100.017	20.006	2.170	0.503
642.500	395.203	79.983	19.992	100.016	20.007	2.050	0.513
643.000	395.441	79.983	19.991	100.011	20.012	1.686	0.514
643.500	395.679	79.984	19.992	100.006	20.013	1.566	0.497
644.000	395.944	79.986	19.994	100.007	20.011	1.775	0.490
644.500	396.210	79.982	19.991	100.009	20.010	1.830	0.517
645.000	396.442	79.986	19.993	100.012	20.012	1.644	0.515
645.500	396.696	79.985	19.993	100.019	20.009	1.897	0.492
646.000	396.979	79.984	19.991	100.023	20.008	1.972	0.511
646.500	397.223	79.985	19.992	100.026	20.008	2.046	0.532
647.000	397.467	79.984	19.993	100.027	20.013	1.608	0.508
647.500	397.737	79.985	19.993	100.027	20.012	1.651	0.501
648.000	397.930	79.986	19.994	100.027	20.006	2.156	0.488
648.500	398.206	79.985	19.992	100.028	20.014	1.531	0.466
649.000	398.488	79.985	19.991	100.028	20.011	1.766	0.514
649.500	398.735	79.985	19.992	100.023	20.009	1.946	0.544
650.000	398.994	79.986	19.993	100.018	20.012	1.662	0.517
650.500	399.227	79.984	19.992	100.014	20.012	1.642	0.499
651.000	399.469	79.986	19.992	100.009	20.011	1.753	0.483
651.500	399.726	79.985	19.993	100.007	20.015	1.422	0.487
652.000	400.014	79.986	19.991	100.009	20.009	1.939	0.522
652.500	400.265	79.985	19.992	100.011	20.006	2.203	0.542
653.000	400.510	79.987	19.993	100.012	20.007	2.099	0.518
653.500	400.764	79.986	19.992	100.014	20.009	1.939	0.498
654.000	401.000	79.987	19.992	100.014	20.005	2.285	0.495
654.500	401.245	79.986	19.992	100.016	20.008	2.021	0.485
655.000	401.530	79.987	19.992	100.016	20.013	1.573	0.506
655.500	401.797	79.986	19.992	100.016	20.013	1.617	0.541
656.000	402.031	79.985	19.992	100.018	20.012	1.677	0.526
656.501	402.295	79.987	19.992	100.018	20.011	1.730	0.500
657.001	402.538	79.987	19.992	100.014	20.006	2.132	0.502
657.500	402.765	79.987	19.992	100.015	20.008	1.972	0.489
658.000	403.037	79.985	19.992	100.013	20.013	1.633	0.485
658.500	403.280	79.986	19.993	100.012	20.015	1.449	0.507
659.000	403.592	79.987	19.992	100.011	20.013	1.633	0.535
659.500	403.794	79.986	19.993	100.014	20.017	1.247	0.534
660.000	404.054	79.984	19.993	100.013	20.013	1.611	0.488
660.500	404.307	79.985	19.993	100.017	20.006	2.179	0.488
661.000	404.557	79.986	19.992	100.015	20.013	1.617	0.508
661.500	404.835	79.984	19.992	100.013	20.013	1.560	0.516
662.000	405.075	79.984	19.993	100.011	20.008	2.014	0.523
662.500	405.320	79.987	19.992	100.010	20.014	1.515	0.501
663.000	405.597	79.984	19.992	100.008	20.009	1.899	0.503
663.500	405.811	79.984	19.993	100.005	20.009	1.884	0.507
664.000	406.057	79.984	19.993	100.004	20.011	1.782	0.476
664.500	406.307	79.983	19.994	100.005	20.010	1.855	0.478
665.000	406.601	79.984	19.993	100.003	20.006	2.134	0.520
665.500	406.798	79.985	19.994	100.002	20.011	1.788	0.517
666.000	407.083	79.984	19.994	100.006	20.012	1.675	0.486
666.500	407.325	79.983	19.992	100.009	20.012	1.637	0.504
667.001	407.590	79.984	19.992	100.006	20.015	1.440	0.517
667.500	407.829	79.984	19.993	100.003	20.010	1.817	0.506
668.000	408.077	79.984	19.992	100.000	20.013	1.631	0.496
668.500	408.337	79.985	19.993	99.996	20.011	1.744	0.498
669.000	408.569	79.984	19.993	99.995	20.013	1.577	0.500
669.500	408.857	79.982	19.993	99.999	20.012	1.699	0.506
670.000	409.109	79.985	19.993	100.005	20.012	1.715	0.530
670.500	409.347	79.984	19.993	100.006	20.008	2.023	0.515
671.000	409.622	79.983	19.993	100.010	20.012	1.693	0.501
671.501	409.846	79.984	19.992	100.011	20.009	1.950	0.506
672.000	410.146	79.985	19.993	100.011	20.011	1.748	0.511
672.500	410.402	79.983	19.992	100.009	20.012	1.664	0.540
673.000	410.667	79.984	19.992	100.014	20.011	1.755	0.539
673.500	410.883	79.986	19.993	100.016	20.007	2.116	0.501
674.000	411.165	79.983	19.992	100.016	20.011	1.733	0.489
674.500	411.417	79.984	19.991	100.013	20.010	1.866	0.516
675.000	411.663	79.985	19.992	100.016	20.011	1.722	0.516
675.500	411.929	79.985	19.991	100.016	20.011	1.766	0.505
676.000	412.174	79.984	19.992	100.016	20.014	1.491	0.512
676.500	412.360	79.986	19.992	100.012	20.010	1.824	0.471
677.000	412.680	79.983	19.991	100.014	20.006	2.194	0.469
677.500	412.911	79.986	19.992	100.013	20.003	2.427	0.528
678.000	413.189	79.984	19.993	100.010	20.008	1.983	0.530
678.500	413.433	79.984	19.992	100.005	20.002	2.465	0.515
679.000	413.637	79.985	19.991	100.008	20.008	2.010	0.485
679.500	413.866	79.986	19.991	100.009	20.009	1.934	0.441
680.000	414.141	79.985	19.992	100.009	20.011	1.777	0.469
680.500	414.409	79.984	19.992	100.012	20.010	1.804	0.523
681.000	414.638	79.986	19.992	100.016	20.012	1.704	0.520
681.500	414.900	79.986	19.992	100.017	20.006	2.201	0.494
682.000	415.135	79.984	19.991	100.014	20.005	2.221	0.494
682.500	415.405	79.986	19.993	100.008	20.011	1.759	0.501
683.000	415.654	79.985	19.992	100.008	20.006	2.210	0.512
683.500	415.888	79.983	19.993	100.004	20.005	2.285	0.501
684.000	416.113	79.984	19.993	100.001	20.006	2.210	0.471
684.500	416.405	79.984	19.992	100.005	20.005	2.221	0.488
685.000	416.647	79.985	19.992	100.011	20.005	2.236	0.526
685.500	416.896	79.984	19.991	100.012	20.007	2.092	0.513
686.000	417.146	79.985	19.992	100.017	20.010	1.846	0.495
686.500	417.392	79.984	19.992	100.022	20.009	1.939	0.498
687.000	417.700	79.983	19.992	100.023	20.007	2.059	0.525
687.500	417.901	79.982	19.992	100.024	20.009	1.899	0.532
688.000	418.172	79.985	19.993	100.022	20.011	1.755	0.490
688.500	418.428	79.985	19.992	100.017	20.009	1.950	0.499
689.000	418.653	79.984	19.992	100.015	20.012	1.648	0.504
689.500	418.912	79.984	19.993	100.013	20.010	1.839	0.482
690.000	419.157	79.985	19.992	100.007	20.007	2.077	0.494
690.500	419.462	79.983	19.991	100.004	20.008	2.039	0.527
691.001	419.679	79.983	19.991	100.003	20.011	1.744	0.536
691.500	419.942	79.982	19.992	100.005	20.009	1.901	0.501
692.000	420.190	79.983	19.992	100.007	20.011	1.753	0.495
692.500	420.436	79.984	19.992	100.011	20.009	1.928	0.502
693.000	420.717	79.984	19.992	100.012	20.004	2.294	0.511
693.500	420.981	79.985	19.994	100.013	20.011	1.719	0.536
694.000	421.223	79.984	19.992	100.016	20.002	2.458	0.525
694.500	421.460	79.983	19.992	100.016	20.008	1.999	0.492
695.000	421.704	79.985	19.993	100.013	20.012	1.653	0.480
695.500	421.957	79.983	19.993	100.013	20.009	1.910	0.490
696.000	422.221	79.984	19.992	100.009	20.016	1.373	0.507
696.500	422.489	79.982	19.992	100.005	20.011	1.720	0.524
697.000	422.676	79.984	19.992	100.002	20.007	2.057	0.494
697.500	422.967	79.982	19.992	100.007	20.011	1.742	0.466
698.000	423.196	79.984	19.993	100.010	20.012	1.669	0.499
698.500	423.452	79.983	19.993	100.014	20.010	1.848	0.503
699.000	423.712	79.984	19.992	100.015	20.010	1.815	0.500
699.500	423.953	79.985	19.992	100.018	20.013	1.597	0.509
700.000	424.177	79.983	19.992	100.018	20.012	1.699	0.483
700.500	424.450	79.983	19.992	100.018	20.008	2.041	0.481
701.000	424.753	79.984	19.992	100.021	20.012	1.637	0.536
701.500	425.019	79.983	19.992	100.023	20.012	1.659	0.572
702.000	425.214	79.983	19.992	100.021	20.009	1.937	0.515
702.500	425.499	79.985	19.991	100.019	20.010	1.837	0.471
703.000	425.782	79.984	19.992	100.018	20.018	1.220	0.524
703.500	425.997	79.984	19.992	100.013	20.006	2.176	0.533
704.000	426.278	79.986	19.991	100.009	20.015	1.409	0.497
704.500	426.491	79.985	19.991	100.009	20.003	2.405	0.495
705.000	426.793	79.986	19.991	100.005	20.017	1.256	0.504
705.500	427.018	79.984	19.991	100.005	19.999	2.715	0.521
706.000	427.289	79.986	19.991	100.009	20.010	1.857	0.512
706.500	427.557	79.987	19.992	100.013	20.015	1.429	0.517
707.000	427.795	79.986	19.992	100.015	20.003	2.411	0.522
707.501	428.056	79.987	19.992	100.020	20.004	2.369	0.503
708.000	428.264	79.985	19.991	100.022	20.021	0.903	0.484
708.500	428.591	79.986	19.991	100.023	20.017	1.271	0.502
709.000	428.826	79.986	19.993	100.022	20.007	2.119	0.549
709.500	429.057	79.987	19.992	100.020	20.013	1.611	0.514
710.000	429.352	79.987	19.992	100.016	20.014	1.544	0.496
710.500	429.560	79.987	19.992	100.016	20.016	1.335	0.514
711.000	429.808	79.985	19.991	100.013	20.010	1.810	0.479
711.500	430.110	79.986	19.992	100.009	20.013	1.608	0.503
712.000	430.369	79.987	19.992	100.005	20.013	1.619	0.556
712.500	430.608	79.986	19.991	100.007	20.012	1.702	0.530
713.000	430.806	79.986	19.992	100.005	20.012	1.682	0.468
713.500	431.096	79.987	19.992	100.004	20.011	1.764	0.463
714.000	431.486	79.987	19.991	100.003	20.009	1.903	0.584
714.500	431.590	79.987	19.991	100.005	20.013	1.562	0.587
715.000	431.826	79.987	19.991	100.004	20.006	2.169	0.417
715.500	432.213	79.986	19.992	100.003	20.013	1.566	0.481
716.000	432.404	79.986	19.991	100.002	20.011	1.737	0.600
716.500	432.539	79.986	19.992	100.004	20.014	1.540	0.452
717.000	433.073	79.986	19.992	100.004	20.013	1.597	0.498
717.500	433.135	79.986	19.992	100.004	20.004	2.334	0.632
718.000	433.262	79.986	19.992	100.007	20.011	1.766	0.392
718.500	433.781	79.986	19.992	100.010	20.005	2.258	0.418
719.000	433.839	79.985	19.991	100.014	20.010	1.814	0.611
719.500	433.807	79.986	19.992	100.015	20.008	2.038	0.301
720.000	434.577	79.987	19.993	100.015	20.008	1.983	0.382
720.500	434.488	79.984	19.993	100.013	20.015	1.460	0.710
721.000	434.845	79.987	19.993	100.007	20.011	1.755	0.475
721.500	435.407	79.985	19.993	100.002	20.010	1.879	0.593
722.000	435.735	79.985	19.993	100.004	20.012	1.710	0.904
722.500	436.148	79.984	19.993	100.003	20.009	1.912	0.815
723.000	436.006	79.985	19.991	100.000	20.011	1.757	0.506
723.500	436.013	79.986	19.994	100.005	20.010	1.872	0.068
724.000	436.585	79.985	19.992	100.008	20.010	1.868	0.222
724.500	436.748	79.985	19.993	100.003	20.013	1.617	0.658
725.000	437.076	79.986	19.993	100.001	20.010	1.846	0.613
725.500	437.261	79.985	19.993	100.000	20.007	2.052	0.502
726.000	437.540	79.985	19.993	99.998	20.011	1.779	0.488
726.500	437.813	79.986	19.992	100.001	20.013	1.633	0.508
727.000	438.001	79.986	19.993	100.006	20.013	1.562	0.506
727.500	438.188	79.987	19.992	100.007	20.009	1.939	0.418
728.000	438.498	79.986	19.992	100.013	20.013	1.571	0.436
728.500	438.840	79.987	19.993	100.013	20.009	1.883	0.575
729.000	438.956	79.987	19.992	100.006	20.010	1.841	0.555
729.500	439.322	79.986	19.991	99.999	20.010	1.872	0.470
730.000	439.521	79.987	19.992	99.996	20.008	2.016	0.523
730.500	439.798	79.988	19.992	99.995	20.005	2.251	0.520
731.000	440.031	79.987	19.992	99.997	20.009	1.932	0.493
731.500	440.244	79.986	19.991	99.998	20.010	1.823	0.478
732.000	440.502	79.987	19.992	100.000	20.009	1.908	0.458
732.500	440.818	79.987	19.992	100.004	20.011	1.788	0.522
733.000	441.004	79.987	19.992	100.001	20.011	1.766	0.538
733.500	441.206	79.988	19.991	99.994	20.011	1.719	0.446
734.000	441.484	79.987	19.991	99.997	20.008	1.979	0.434
734.500	441.751	79.988	19.993	99.997	20.014	1.511	0.512
735.000	441.964	79.988	19.993	99.997	20.006	2.174	0.512
735.500	442.288	79.987	19.992	100.002	20.014	1.493	0.508
736.000	442.467	79.987	19.992	100.006	20.006	2.161	0.520
736.500	442.730	79.987	19.993	100.005	20.011	1.786	0.473
737.000	443.022	79.989	19.993	100.008	20.007	2.050	0.498
737.500	443.188	79.986	19.992	100.009	20.012	1.657	0.506
738.000	443.525	79.985	19.993	100.007	20.012	1.662	0.480
738.500	443.773	79.986	19.992	100.006	20.005	2.267	0.544
739.000	444.004	79.988	19.993	100.004	20.010	1.832	0.532
739.500	444.248	79.986	19.991	100.001	20.014	1.524	0.477
740.000	444.475	79.987	19.993	99.997	20.005	2.238	0.473
740.500	444.744	79.987	19.993	99.993	20.011	1.721	0.483
741.000	445.033	79.986	19.992	99.990	20.012	1.666	0.528
741.500	445.196	79.985	19.993	99.990	20.012	1.639	0.505
742.000	445.451	79.985	19.993	99.990	20.008	1.966	0.435
742.500	445.691	79.984	19.992	99.993	20.008	2.023	0.456
743.000	445.976	79.984	19.994	99.994	20.008	1.965	0.510
743.500	446.221	79.984	19.993	99.996	20.006	2.147	0.527
744.000	446.465	79.983	19.993	99.995	20.009	1.961	0.510
744.500	446.716	79.983	19.992	99.994	20.011	1.777	0.492
745.000	446.972	79.983	19.993	99.995	20.006	2.172	0.501
745.500	447.209	79.984	19.993	100.000	20.009	1.945	0.500
746.000	447.446	79.984	19.993	100.001	20.008	2.039	0.483
746.500	447.731	79.983	19.993	100.004	20.008	2.034	0.498
747.000	447.984	79.982	19.992	100.007	20.012	1.684	0.530
747.500	448.247	79.982	19.993	100.005	20.009	1.961	0.528
748.000	448.488	79.983	19.993	100.007	20.005	2.261	0.510
748.500	448.753	79.983	19.994	100.010	20.010	1.828	0.505
749.000	449.005	79.982	19.992	100.007	20.012	1.660	0.511
749.500	449.194	79.982	19.994	100.003	20.007	2.128	0.479
750.000	449.434	79.983	19.992	100.005	20.005	2.290	0.435
750.500	449.682	79.983	19.994	100.004	20.009	1.941	0.459
751.000	449.973	79.983	19.993	100.003	20.010	1.826	0.513
751.500	450.191	79.983	19.994	100.002	20.010	1.813	0.524
752.000	450.457	79.983	19.994	100.005	20.010	1.872	0.496
752.500	450.733	79.983	19.993	100.006	20.011	1.781	0.513
753.000	450.943	79.983	19.994	100.006	20.006	2.159	0.514
753.500	451.209	79.984	19.993	100.003	20.010	1.868	0.482
754.000	451.476	79.984	19.994	100.004	20.010	1.839	0.505
754.500	451.681	79.985	19.994	100.000	20.009	1.921	0.502
755.001	451.955	79.983	19.993	99.998	20.010	1.839	0.476
755.500	452.238	79.984	19.993	99.992	20.007	2.074	0.518
756.000	452.486	79.983	19.993	99.994	20.009	1.904	0.544
756.500	452.757	79.984	19.993	99.999	20.011	1.730	0.525
757.000	452.993	79.983	19.993	100.006	20.011	1.786	0.513
757.500	453.193	79.984	19.994	100.012	20.012	1.639	0.472
758.000	453.462	79.982	19.992	100.018	20.013	1.591	0.453
758.500	453.761	79.983	19.993	100.021	20.008	1.997	0.518
759.000	453.991	79.983	19.992	100.022	20.017	1.287	0.548
759.500	454.229	79.985	19.993	100.022	20.008	1.992	0.498
760.000	454.478	79.982	19.992	100.022	20.006	2.163	0.478
760.500	454.752	79.984	19.992	100.022	20.009	1.921	0.505
761.000	454.981	79.985	19.992	100.020	20.006	2.145	0.513
761.500	455.241	79.983	19.990	100.018	20.009	1.908	0.496
762.000	455.510	79.984	19.992	100.018	20.011	1.770	0.508
762.500	455.746	79.984	19.991	100.015	20.008	2.041	0.517
763.000	456.018	79.983	19.992	100.009	20.010	1.872	0.507
763.500	456.291	79.984	19.992	100.007	20.005	2.283	0.527
764.000	456.491	79.984	19.991	100.007	20.006	2.181	0.509
764.500	456.751	79.985	19.992	100.007	20.010	1.866	0.466
765.000	456.986	79.984	19.992	100.009	20.008	2.003	0.477
765.500	457.266	79.984	19.992	100.014	20.011	1.777	0.505
766.000	457.561	79.983	19.991	100.013	20.004	2.323	0.545
766.500	457.773	79.984	19.991	100.015	20.004	2.310	0.541
767.000	458.036	79.983	19.991	100.012	20.004	2.325	0.491
767.500	458.285	79.983	19.992	100.010	20.012	1.700	0.494
768.000	458.536	79.983	19.991	100.006	20.008	2.001	0.506
768.500	458.827	79.983	19.991	100.007	20.004	2.305	0.521
769.000	459.076	79.984	19.992	100.005	20.001	2.587	0.541
769.500	459.347	79.983	19.992	100.003	20.009	1.945	0.530
770.000	459.557	79.982	19.992	100.002	20.005	2.212	0.500
770.500	459.819	79.984	19.992	100.005	20.008	1.999	0.476
771.000	460.071	79.983	19.993	100.007	20.008	2.005	0.493
771.500	460.357	79.982	19.991	100.007	20.010	1.837	0.526
772.000	460.587	79.984	19.991	100.011	20.007	2.123	0.527
772.500	460.872	79.982	19.990	100.013	20.007	2.116	0.516
773.000	461.082	79.982	19.992	100.013	20.008	2.039	0.505
773.500	461.331	79.983	19.991	100.011	20.009	1.957	0.477
774.000	461.607	79.981	19.990	100.011	20.006	2.163	0.492
774.500	461.841	79.983	19.992	100.006	20.006	2.134	0.518
775.000	462.064	79.984	19.991	100.005	20.007	2.112	0.483
775.500	462.371	79.983	19.992	100.003	20.014	1.533	0.493
776.000	462.633	79.983	19.991	100.005	20.008	2.043	0.550
776.500	462.843	79.983	19.992	100.011	20.009	1.897	0.520
777.000	463.135	79.982	19.992	100.017	20.006	2.136	0.487
777.500	463.330	79.984	19.992	100.021	20.005	2.269	0.495
778.000	463.604	79.983	19.992	100.025	20.007	2.077	0.478
778.500	463.845	79.982	19.992	100.023	20.006	2.187	0.492
779.000	464.103	79.983	19.992	100.016	20.013	1.613	0.507
779.500	464.329	79.982	19.992	100.009	20.009	1.910	0.491
780.000	464.602	79.983	19.990	100.006	20.009	1.941	0.491
780.500	464.836	79.984	19.992	99.999	20.010	1.848	0.503
781.000	465.081	79.985	19.992	99.997	20.010	1.813	0.493
781.500	465.372	79.984	19.992	100.001	20.010	1.879	0.507
782.000	465.591	79.985	19.992	100.001	20.009	1.955	0.523
782.500	465.890	79.985	19.992	99.997	20.008	1.994	0.514
783.000	466.103	79.984	19.992	100.002	20.008	2.023	0.515
783.500	466.378	79.986	19.992	100.002	20.006	2.199	0.500
784.000	466.623	79.985	19.992	100.001	20.006	2.177	0.504
784.500	466.894	79.984	19.992	100.005	20.009	1.917	0.518
785.000	467.128	79.984	19.992	100.009	20.009	1.881	0.510
785.500	467.396	79.985	19.993	100.012	20.007	2.126	0.503
786.000	467.634	79.987	19.992	100.015	20.010	1.835	0.504
786.500	467.908	79.985	19.992	100.014	20.007	2.068	0.509
787.000	468.149	79.985	19.991	100.013	20.009	1.961	0.513
787.500	468.426	79.985	19.992	100.011	20.005	2.230	0.517
788.000	468.619	79.985	19.991	100.008	20.009	1.950	0.494
788.500	468.877	79.987	19.993	100.007	20.008	1.981	0.461
789.000	469.159	79.985	19.992	100.010	20.004	2.352	0.495
789.500	469.410	79.987	19.992	100.010	20.009	1.899	0.536
790.000	469.682	79.986	19.991	100.015	20.011	1.777	0.529
790.500	469.925	79.986	19.992	100.017	20.008	1.997	0.519
791.000	470.203	79.987	19.992	100.016	20.009	1.941	0.518
791.500	470.431	79.985	19.992	100.016	20.010	1.855	0.514
792.000	470.724	79.986	19.993	100.014	20.009	1.919	0.514
792.500	470.939	79.987	19.991	100.012	20.009	1.901	0.515
793.000	471.190	79.986	19.991	100.011	20.012	1.681	0.487
793.500	471.415	79.987	19.991	100.013	20.014	1.526	0.471
794.000	471.699	79.986	19.991	100.013	20.011	1.721	0.493
794.500	471.977	79.985	19.992	100.016	20.011	1.719	0.535
795.000	472.234	79.987	19.992	100.018	20.012	1.655	0.548
795.500	472.469	79.985	19.992	100.019	20.018	1.216	0.514
796.000	472.732	79.985	19.992	100.020	20.009	1.901	0.495
796.500	473.024	79.986	19.992	100.020	20.014	1.480	0.526
797.001	473.240	79.984	19.991	100.019	20.010	1.879	0.532
797.500	473.510	79.984	19.990	100.015	20.013	1.615	0.497
798.000	473.791	79.985	19.991	100.014	20.008	2.005	0.518
798.500	474.058	79.985	19.991	100.014	20.009	1.919	0.549
799.000	474.305	79.984	19.992	100.015	20.007	2.090	0.531
799.500	474.583	79.985	19.992	100.015	20.009	1.906	0.520
800.000	474.843	79.985	19.993	100.014	20.011	1.786	0.532
800.500	475.092	79.984	19.991	100.016	20.008	1.983	0.523
801.000	475.329	79.984	19.991	100.015	20.012	1.690	0.498
801.500	475.645	79.986	19.992	100.010	20.011	1.748	0.520
802.000	475.848	79.986	19.992	100.009	20.013	1.579	0.536
802.500	476.142	79.985	19.992	100.012	20.009	1.934	0.508
803.000	476.391	79.986	19.992	100.008	20.012	1.697	0.520
803.500	476.653	79.986	19.991	100.002	20.013	1.564	0.527
804.000	476.914	79.985	19.992	100.000	20.011	1.737	0.517
804.500	477.167	79.986	19.992	99.996	20.012	1.708	0.518
805.000	477.443	79.985	19.993	99.995	20.012	1.651	0.521
805.500	477.707	79.985	19.993	99.999	20.011	1.766	0.535
806.000	477.945	79.984	19.992	100.005	20.013	1.591	0.522
806.500	478.233	79.985	19.992	100.009	20.014	1.480	0.514
807.000	478.464	79.985	19.993	100.009	20.011	1.741	0.522
807.500	478.726	79.986	19.992	100.008	20.013	1.613	0.506
808.000	478.985	79.986	19.993	100.005	20.008	1.976	0.507
808.500	479.229	79.986	19.992	100.004	20.010	1.848	0.512
809.000	479.489	79.986	19.993	100.004	20.011	1.784	0.504
809.500	479.726	79.985	19.992	100.006	20.010	1.872	0.500
810.000	479.974	79.984	19.993	100.003	20.007	2.099	0.491
810.500	480.275	79.987	19.993	100.003	20.009	1.921	0.517
811.000	480.521	79.986	19.993	100.002	20.012	1.682	0.548
811.500	480.784	79.987	19.993	99.997	20.009	1.946	0.528
812.000	481.037	79.987	19.992	99.996	20.009	1.961	0.513
812.500	481.313	79.987	19.993	99.998	20.012	1.704	0.523
813.000	481.553	79.987	19.992	99.999	20.009	1.910	0.522
813.500	481.842	79.985	19.993	99.997	20.010	1.875	0.523
814.000	482.091	79.987	19.991	100.002	20.007	2.090	0.534
814.500	482.325	79.987	19.993	100.008	20.003	2.456	0.510
815.000	482.555	79.987	19.992	100.012	20.008	2.030	0.474
815.500	482.855	79.986	19.993	100.013	20.006	2.167	0.497
816.000	483.100	79.987	19.993	100.012	20.010	1.808	0.538
816.500	483.325	79.986	19.992	100.012	20.010	1.879	0.508
817.000	483.590	79.987	19.992	100.011	20.010	1.821	0.480
817.500	483.827	79.987	19.993	100.006	20.011	1.764	0.496
818.000	484.066	79.987	19.992	100.000	20.008	2.036	0.489
818.500	484.352	79.986	19.991	99.999	20.007	2.072	0.500
819.000	484.613	79.987	19.992	99.998	20.007	2.125	0.536
819.500	484.878	79.986	19.992	99.998	20.011	1.797	0.537
820.000	485.141	79.986	19.991	100.001	20.009	1.904	0.527
820.500	485.404	79.986	19.992	100.007	20.014	1.513	0.527
821.000	485.631	79.986	19.992	100.013	20.012	1.660	0.508
821.500	485.902	79.986	19.991	100.016	20.014	1.544	0.494
822.000	486.143	79.985	19.992	100.019	20.010	1.826	0.506
822.500	486.399	79.984	19.992	100.019	20.008	2.012	0.504
823.000	486.657	79.985	19.993	100.017	20.006	2.136	0.505
823.500	486.904	79.985	19.992	100.013	20.008	2.023	0.510
824.000	487.131	79.984	19.992	100.011	20.010	1.863	0.490
824.500	487.423	79.984	19.992	100.005	20.007	2.063	0.496
825.000	487.672	79.985	19.992	100.001	20.008	2.016	0.530
825.500	487.925	79.984	19.992	99.998	20.009	1.959	0.522
826.000	488.205	79.984	19.993	99.999	20.008	2.036	0.518
826.500	488.418	79.985	19.993	99.999	20.008	2.030	0.513
827.000	488.710	79.984	19.993	100.002	20.011	1.764	0.499
827.500	488.941	79.984	19.992	100.003	20.011	1.786	0.514
828.000	489.205	79.983	19.993	100.001	20.007	2.118	0.509
828.500	489.470	79.984	19.992	100.001	20.015	1.462	0.512
829.000	489.731	79.984	19.992	99.999	20.006	2.198	0.528
829.500	490.011	79.983	19.992	100.001	20.013	1.619	0.534
830.000	490.238	79.984	19.992	100.007	20.010	1.806	0.524
830.500	490.521	79.982	19.992	100.015	20.014	1.495	0.508
831.000	490.749	79.984	19.992	100.019	20.011	1.770	0.510
831.500	491.010	79.983	19.993	100.023	20.007	2.061	0.500
832.001	491.234	79.983	19.992	100.020	20.011	1.728	0.487
832.500	491.515	79.983	19.993	100.014	20.011	1.790	0.495
833.000	491.767	79.983	19.992	100.008	20.013	1.588	0.519
833.500	492.049	79.982	19.992	100.005	20.009	1.957	0.534
834.000	492.294	79.983	19.992	100.003	20.013	1.633	0.531
834.500	492.534	79.983	19.993	100.002	20.009	1.888	0.506
835.000	492.817	79.982	19.994	100.006	20.011	1.768	0.504
835.500	493.076	79.982	19.991	100.003	20.010	1.845	0.532
836.000	493.307	79.982	19.993	100.001	20.010	1.801	0.516
836.500	493.578	79.981	19.992	100.000	20.010	1.805	0.496
837.000	493.852	79.985	19.992	99.999	20.013	1.621	0.524
837.500	494.131	79.982	19.993	99.998	20.012	1.695	0.549
838.000	494.373	79.983	19.992	100.000	20.013	1.562	0.537
838.500	494.634	79.984	19.992	100.004	20.008	2.032	0.512
839.000	494.904	79.983	19.993	100.002	20.013	1.562	0.517
839.500	495.174	79.984	19.991	99.999	20.007	2.101	0.535
840.000	495.407	79.983	19.993	99.998	20.007	2.094	0.521
840.500	495.648	79.984	19.994	99.999	20.008	1.979	0.488
841.000	495.914	79.984	19.994	99.996	20.013	1.597	0.491
841.500	496.185	79.985	19.993	99.997	20.012	1.684	0.522
842.000	496.419	79.983	19.993	99.998	20.014	1.542	0.521
842.500	496.679	79.984	19.993	99.999	20.013	1.595	0.499
843.000	496.963	79.985	19.994	99.997	20.011	1.768	0.519
843.500	497.242	79.984	19.993	99.997	20.013	1.613	0.554
844.000	497.476	79.984	19.994	99.999	20.013	1.611	0.538
844.500	497.715	79.985	19.993	100.002	20.010	1.855	0.493
845.000	497.985	79.984	19.992	100.000	20.006	2.187	0.491
845.500	498.242	79.985	19.994	99.998	20.015	1.457	0.518
846.000	498.482	79.985	19.992	99.995	20.013	1.621	0.512
846.500	498.769	79.986	19.993	99.989	20.018	1.204	0.512
847.000	499.023	79.984	19.992	99.984	20.013	1.588	0.534
847.500	499.279	79.984	19.993	99.985	20.008	1.970	0.526
848.000	499.545	79.983	19.992	99.987	20.013	1.622	0.516
848.500	499.776	79.983	19.992	99.993	20.010	1.804	0.509
849.000	500.052	79.984	19.992	99.997	20.013	1.582	0.502
849.500	500.298	79.984	19.992	100.004	20.016	1.384	0.514
850.000	500.533	79.984	19.992	100.010	20.015	1.449	0.501
850.500	500.803	79.983	19.992	100.016	20.012	1.690	0.493
851.000	501.054	79.984	19.992	100.017	20.013	1.630	0.513
851.500	501.309	79.983	19.992	100.017	20.012	1.677	0.514
852.000	501.589	79.984	19.992	100.012	20.008	1.990	0.521
852.500	501.817	79.986	19.992	100.011	20.010	1.839	0.522
853.000	502.078	79.983	19.992	100.011	20.009	1.928	0.499
853.500	502.354	79.984	19.992	100.013	20.008	1.970	0.513
854.000	502.559	79.983	19.992	100.016	20.012	1.713	0.509
854.500	502.846	79.985	19.993	100.016	20.007	2.125	0.486
855.000	503.111	79.985	19.991	100.010	20.012	1.639	0.522
855.500	503.368	79.984	19.992	100.002	20.010	1.815	0.537
856.000	503.646	79.983	19.992	99.996	20.013	1.573	0.528
856.500	503.881	79.984	19.993	99.990	20.009	1.948	0.524
857.000	504.121	79.983	19.993	99.991	20.010	1.855	0.494
857.500	504.395	79.983	19.993	99.990	20.009	1.913	0.494
858.000	504.663	79.984	19.994	99.992	20.009	1.955	0.528
858.500	504.898	79.984	19.993	99.994	20.015	1.460	0.522
859.000	505.121	79.984	19.991	100.001	20.013	1.633	0.480
859.500	505.387	79.984	19.992	100.003	20.013	1.633	0.474
860.000	505.664	79.984	19.992	100.004	20.012	1.657	0.516
860.500	505.909	79.985	19.992	100.005	20.012	1.693	0.532
861.000	506.195	79.984	19.991	100.006	20.009	1.888	0.527
861.500	506.447	79.985	19.992	99.999	20.007	2.127	0.535
862.000	506.703	79.985	19.992	99.997	20.005	2.220	0.523
862.500	506.944	79.985	19.993	99.998	20.011	1.763	0.502
863.000	507.217	79.984	19.992	99.999	20.011	1.783	0.506
863.500	507.441	79.985	19.993	100.001	20.010	1.801	0.505
864.000	507.736	79.986	19.993	100.005	20.008	1.972	0.508
864.500	507.920	79.984	19.992	100.008	20.012	1.637	0.499
865.000	508.174	79.985	19.993	100.011	20.011	1.719	0.459
865.500	508.448	79.985	19.993	100.014	20.007	2.063	0.483
866.000	508.706	79.986	19.993	100.012	20.008	1.994	0.530
866.500	508.954	79.985	19.992	100.013	20.017	1.302	0.519
867.000	509.248	79.985	19.992	100.015	20.009	1.917	0.524
867.500	509.441	79.986	19.994	100.017	20.008	2.019	0.515
868.000	509.743	79.988	19.992	100.017	20.010	1.879	0.491
868.500	509.986	79.986	19.993	100.019	20.007	2.061	0.520
869.000	510.249	79.985	19.992	100.017	20.009	1.932	0.525
869.500	510.513	79.985	19.992	100.012	20.009	1.901	0.517
870.000	510.729	79.986	19.993	100.011	20.009	1.897	0.504
870.500	510.993	79.987	19.993	100.010	20.007	2.068	0.480
871.000	511.242	79.987	19.991	100.007	20.010	1.848	0.496
871.500	511.525	79.985	19.992	100.004	20.009	1.943	0.522
872.001	511.743	79.985	19.992	100.002	20.009	1.941	0.516
872.501	512.027	79.986	19.991	99.998	20.007	2.048	0.501
873.000	512.302	79.987	19.992	99.997	20.009	1.893	0.531
873.500	512.528	79.987	19.993	99.995	20.009	1.941	0.530
874.000	512.774	79.987	19.993	99.996	20.007	2.054	0.486
874.500	513.047	79.988	19.993	99.999	20.001	2.554	0.496
875.000	513.317	79.985	19.993	99.999	20.004	2.336	0.531
875.500	513.567	79.985	19.992	100.000	20.007	2.105	0.532
876.000	513.825	79.986	19.992	100.006	20.004	2.349	0.514
876.500	514.090	79.986	19.992	100.009	20.007	2.108	0.515
877.000	514.390	79.985	19.992	100.011	20.009	1.890	0.544
877.500	514.639	79.985	19.992	100.012	20.004	2.312	0.557
878.000	514.900	79.986	19.992	100.010	20.003	2.427	0.529
878.500	515.153	79.984	19.993	100.010	20.003	2.427	0.512
879.000	515.416	79.984	19.992	100.013	20.008	1.974	0.515
879.501	515.676	79.985	19.993	100.014	20.002	2.473	0.520
880.000	515.928	79.984	19.992	100.019	20.003	2.447	0.518
880.500	516.122	79.984	19.993	100.018	20.004	2.338	0.479
881.000	516.439	79.984	19.992	100.014	20.004	2.363	0.478
881.500	516.680	79.986	19.992	100.011	20.006	2.187	0.535
882.000	516.976	79.985	19.992	100.009	20.002	2.482	0.548
882.500	517.220	79.986	19.992	100.010	20.006	2.132	0.539
883.000	517.457	79.985	19.993	100.013	20.003	2.405	0.511
883.500	517.696	79.985	19.992	100.018	20.000	2.689	0.478
884.000	517.961	79.986	19.991	100.021	20.004	2.345	0.490
884.500	518.246	79.985	19.992	100.021	20.005	2.287	0.526
885.000	518.536	79.987	19.993	100.014	20.003	2.438	0.562
885.500	518.764	79.985	19.991	100.012	20.005	2.258	0.547
886.000	519.048	79.988	19.992	100.007	20.007	2.110	0.515
886.500	519.262	79.986	19.991	100.005	20.008	2.001	0.505
887.000	519.558	79.987	19.992	100.008	20.004	2.336	0.504
887.500	519.782	79.986	19.992	100.014	20.005	2.283	0.515
888.000	520.045	79.986	19.992	100.015	20.004	2.336	0.503
888.500	520.291	79.987	19.991	100.020	20.008	2.041	0.498
889.000	520.516	79.986	19.991	100.018	20.003	2.380	0.490
889.500	520.807	79.986	19.993	100.012	20.004	2.356	0.493
890.000	521.074	79.987	19.990	100.006	20.001	2.598	0.537
890.500	521.303	79.986	19.991	100.004	20.005	2.254	0.527
891.000	521.583	79.986	19.992	100.001	20.007	2.121	0.503
891.500	521.795	79.988	19.992	100.000	20.008	2.032	0.500
892.000	522.029	79.986	19.990	100.003	20.004	2.371	0.469
892.500	522.331	79.986	19.992	100.004	20.008	2.023	0.491
893.000	522.578	79.987	19.992	100.004	20.007	2.125	0.543
893.500	522.846	79.986	19.991	100.003	20.006	2.174	0.532
894.000	523.074	79.987	19.991	100.003	20.003	2.423	0.505
894.500	523.316	79.987	19.992	100.007	20.006	2.183	0.483
895.000	523.614	79.985	19.992	100.009	20.003	2.411	0.505
895.500	523.901	79.987	19.992	100.009	20.003	2.398	0.563
896.000	524.097	79.986	19.991	100.010	20.007	2.125	0.534
896.500	524.370	79.986	19.992	100.009	20.006	2.160	0.476
897.000	524.596	79.988	19.993	100.004	20.007	2.116	0.484
897.500	524.927	79.985	19.991	100.004	20.006	2.174	0.528
898.000	525.178	79.985	19.991	100.004	20.007	2.094	0.569
898.500	525.410	79.985	19.992	100.003	20.007	2.090	0.532
899.000	525.663	79.986	19.991	100.005	20.006	2.185	0.484
899.500	525.933	79.986	19.992	100.004	20.007	2.081	0.505
900.000	526.176	79.986	19.991	100.001	20.005	2.267	0.518
900.500	526.444	79.985	19.993	100.000	20.011	1.790	0.511
901.000	526.698	79.986	19.992	100.000	20.006	2.143	0.517
901.500	526.930	79.986	19.993	99.997	20.007	2.081	0.504
902.000	527.187	79.984	19.992	99.995	20.008	2.032	0.488
902.500	527.477	79.985	19.993	99.997	20.003	2.445	0.518
903.000	527.739	79.985	19.993	100.001	20.013	1.590	0.549
903.500	527.988	79.985	19.993	100.002	20.011	1.770	0.531
904.000	528.206	79.985	19.992	100.008	20.004	2.338	0.489
904.500	528.503	79.985	19.992	100.012	20.010	1.859	0.491
905.000	528.735	79.985	19.992	100.010	20.002	2.504	0.522
905.500	529.033	79.984	19.992	100.006	20.009	1.934	0.529
906.000	529.270	79.984	19.994	100.002	20.006	2.189	0.532
906.500	529.537	79.984	19.993	99.998	20.007	2.098	0.520
907.000	529.769	79.985	19.994	99.995	20.008	1.967	0.502
907.500	530.028	79.984	19.992	99.994	20.005	2.285	0.495
908.000	530.283	79.983	19.993	99.996	20.009	1.916	0.502
908.500	530.548	79.985	19.992	99.998	20.004	2.311	0.517
909.000	530.790	79.985	19.992	99.999	20.006	2.134	0.514
909.500	531.098	79.984	19.991	99.998	20.009	1.912	0.528
910.000	531.347	79.985	19.992	100.000	20.007	2.063	0.553
910.500	531.602	79.984	19.992	99.998	20.006	2.194	0.531
911.000	531.808	79.985	19.993	99.995	20.004	2.331	0.482
911.500	532.111	79.983	19.991	99.993	20.009	1.892	0.485
912.000	532.355	79.983	19.993	99.992	20.010	1.825	0.528
912.500	532.574	79.984	19.992	99.991	20.006	2.203	0.505
913.000	532.866	79.985	19.992	99.996	20.012	1.706	0.487
913.500	533.138	79.983	19.993	99.998	20.005	2.276	0.538
914.000	533.415	79.985	19.992	100.000	20.004	2.318	0.556
914.500	533.662	79.986	19.993	99.999	20.007	2.094	0.537
915.000	533.963	79.986	19.993	99.995	20.007	2.076	0.536
915.500	534.174	79.986	19.992	99.991	20.004	2.344	0.530
916.000	534.458	79.982	19.992	99.991	20.008	2.005	0.503
916.500	534.724	79.985	19.992	99.990	20.004	2.347	0.523
917.000	535.003	79.983	19.992	99.990	20.006	2.209	0.548
917.500	535.253	79.983	19.993	99.991	20.001	2.553	0.537
918.000	535.491	79.984	19.993	99.989	20.008	1.963	0.508
918.500	535.753	79.984	19.993	99.990	20.000	2.669	0.494
919.000	535.997	79.985	19.993	99.991	20.003	2.407	0.503
919.500	536.276	79.985	19.992	99.994	20.001	2.569	0.515
920.000	536.511	79.984	19.992	99.998	20.004	2.309	0.518
920.500	536.808	79.986	19.993	99.998	20.003	2.380	0.523
921.000	537.054	79.984	19.993	99.996	20.009	1.954	0.538
921.500	537.272	79.986	19.993	99.995	20.005	2.229	0.504
922.000	537.555	79.982	19.992	99.991	20.006	2.154	0.482
922.500	537.817	79.984	19.993	99.986	20.007	2.123	0.522
923.000	538.066	79.984	19.993	99.988	20.007	2.050	0.528
923.500	538.331	79.983	19.993	99.990	20.003	2.396	0.512
924.000	538.555	79.983	19.994	99.995	20.005	2.243	0.502
924.500	538.855	79.983	19.994	99.997	20.005	2.276	0.507
925.000	539.123	79.986	19.994	100.000	20.007	2.063	0.545
925.500	539.362	79.985	19.993	99.997	20.006	2.178	0.537
926.000	539.645	79.984	19.994	99.995	20.002	2.487	0.515
926.500	539.894	79.984	19.994	99.989	20.008	2.018	0.527
927.000	540.154	79.983	19.994	99.988	20.010	1.879	0.521
927.500	540.414	79.984	19.994	99.992	20.004	2.342	0.514
928.000	540.655	79.983	19.993	99.997	20.005	2.258	0.510
928.500	540.932	79.984	19.993	100.001	20.002	2.464	0.509
929.000	541.167	79.985	19.993	100.008	20.005	2.229	0.515
929.500	541.441	79.982	19.993	100.010	20.010	1.855	0.511
930.000	541.678	79.982	19.993	100.005	20.004	2.360	0.510
930.500	541.950	79.985	19.993	100.005	20.007	2.050	0.510
931.000	542.187	79.981	19.993	100.002	20.010	1.877	0.509
931.501	542.456	79.983	19.993	99.996	20.007	2.108	0.508
932.000	542.703	79.984	19.993	99.996	20.009	1.946	0.511
932.500	542.958	79.983	19.994	99.999	20.003	2.423	0.509
933.000	543.208	79.985	19.993	99.996	20.007	2.088	0.504
933.500	543.463	79.984	19.993	99.996	20.007	2.112	0.505
934.000	543.744	79.984	19.993	99.998	20.006	2.141	0.520
934.500	543.980	79.983	19.994	99.996	20.008	1.972	0.527
935.001	544.276	79.984	19.993	99.995	20.012	1.641	0.525
935.501	544.498	79.982	19.994	99.998	20.011	1.743	0.525
936.001	544.769	79.984	19.992	99.997	20.008	1.976	0.506
936.501	544.996	79.984	19.993	99.995	20.009	1.961	0.495
937.001	545.263	79.983	19.993	99.995	20.007	2.085	0.496
937.500	545.508	79.985	19.992	99.992	20.012	1.686	0.503
938.000	545.756	79.985	19.992	99.987	20.009	1.950	0.503
938.500	546.055	79.981	19.992	99.988	20.006	2.178	0.520
939.000	546.312	79.983	19.992	99.990	20.012	1.704	0.551
939.500	546.543	79.984	19.992	99.992	20.007	2.067	0.522
940.000	546.787	79.985	19.992	99.997	20.009	1.917	0.482
940.500	547.092	79.985	19.992	100.002	20.009	1.928	0.512
941.000	547.308	79.984	19.991	100.006	20.014	1.502	0.535
941.500	547.621	79.986	19.992	100.007	20.009	1.946	0.525
942.000	547.821	79.986	19.991	100.009	20.009	1.895	0.521
942.500	548.109	79.984	19.992	100.012	20.012	1.657	0.501
943.000	548.335	79.986	19.992	100.014	20.007	2.072	0.501
943.500	548.599	79.983	19.993	100.010	20.007	2.105	0.502
944.000	548.890	79.985	19.991	100.008	20.008	1.979	0.523
944.500	549.116	79.983	19.991	100.005	20.014	1.484	0.536
945.000	549.384	79.985	19.991	99.998	20.010	1.812	0.505
945.500	549.673	79.987	19.992	99.991	20.011	1.795	0.525
946.000	549.929	79.986	19.992	99.991	20.005	2.269	0.551
946.500	550.184	79.986	19.992	99.993	20.005	2.231	0.528
947.000	550.458	79.986	19.993	99.993	20.006	2.198	0.520
947.500	550.707	79.987	19.992	99.996	20.006	2.132	0.526
948.000	550.957	79.985	19.992	99.998	20.005	2.271	0.510
948.500	551.232	79.985	19.992	99.998	20.008	2.045	0.512
949.000	551.481	79.986	19.992	99.999	20.010	1.841	0.525
949.500	551.755	79.986	19.991	99.999	20.011	1.728	0.524
950.000	552.007	79.986	19.991	99.999	20.006	2.130	0.524
950.500	552.242	79.984	19.991	100.000	20.006	2.209	0.507
951.000	552.520	79.985	19.992	100.006	20.004	2.338	0.500
951.500	552.795	79.986	19.992	100.010	20.008	2.025	0.533
952.000	553.027	79.986	19.993	100.014	20.005	2.232	0.531
952.500	553.289	79.987	19.993	100.010	20.007	2.103	0.501
953.000	553.573	79.987	19.992	100.006	20.007	2.105	0.520
953.500	553.846	79.986	19.992	99.999	20.007	2.056	0.551
954.000	554.099	79.985	19.993	99.992	20.004	2.365	0.541
954.500	554.388	79.987	19.991	99.990	20.008	2.034	0.534
955.000	554.620	79.985	19.991	99.993	20.005	2.271	0.532
955.500	554.890	79.985	19.992	99.994	20.006	2.138	0.512
956.000	555.124	79.985	19.992	99.996	20.012	1.657	0.503
956.500	555.411	79.985	19.992	99.996	20.007	2.114	0.513
957.000	555.655	79.986	19.992	99.995	20.004	2.302	0.526
957.500	555.929	79.986	19.992	99.993	20.008	1.983	0.525
958.000	556.125	79.985	19.991	99.994	20.008	2.041	0.494
958.500	556.429	79.984	19.991	99.994	20.008	1.983	0.485
959.000	556.688	79.985	19.992	99.995	20.010	1.823	0.532
959.500	556.921	79.984	19.991	99.994	20.008	2.014	0.528
960.000	557.137	79.986	19.991	99.999	20.006	2.154	0.470
960.500	557.379	79.985	19.991	100.000	20.014	1.513	0.453
961.000	557.681	79.983	19.991	100.000	20.008	1.970	0.502
961.500	557.917	79.985	19.992	100.000	20.011	1.732	0.541
962.000	558.181	79.985	19.991	100.002	20.007	2.101	0.519
962.500	558.455	79.983	19.991	99.996	20.009	1.927	0.519
963.000	558.747	79.986	19.993	99.997	20.004	2.300	0.552
963.500	559.001	79.986	19.991	99.998	20.008	1.979	0.556
964.000	559.216	79.986	19.992	99.998	20.008	1.976	0.507
964.500	559.465	79.985	19.991	99.995	20.011	1.741	0.466
965.000	559.760	79.988	19.993	99.996	20.003	2.436	0.504
965.500	559.990	79.984	19.992	99.993	20.006	2.147	0.535
966.000	560.229	79.986	19.991	99.989	20.010	1.859	0.497
966.500	560.527	79.985	19.992	99.989	20.009	1.932	0.503
967.000	560.774	79.986	19.991	99.993	20.009	1.923	0.541
967.500	561.035	79.986	19.991	99.997	20.007	2.063	0.527
968.000	561.273	79.987	19.992	99.996	20.007	2.105	0.504
968.500	561.538	79.988	19.991	99.996	20.008	2.029	0.501
969.000	561.816	79.986	19.992	99.997	20.006	2.131	0.522
969.500	562.045	79.987	19.992	99.993	20.008	2.009	0.525
970.000	562.334	79.988	19.991	99.991	20.007	2.056	0.513
970.500	562.555	79.987	19.991	99.994	20.004	2.351	0.514
971.000	562.833	79.987	19.991	99.998	20.010	1.819	0.505
971.500	563.055	79.988	19.991	99.997	20.008	1.963	0.499
972.000	563.334	79.987	19.991	99.996	20.005	2.240	0.500
972.500	563.592	79.988	19.991	99.994	20.007	2.058	0.519
973.000	563.837	79.987	19.991	99.991	20.007	2.054	0.520
973.500	564.134	79.987	19.992	99.987	20.007	2.109	0.523
974.000	564.353	79.988	19.991	99.989	20.009	1.916	0.529
974.500	564.576	79.987	19.991	99.991	20.007	2.092	0.479
975.000	564.863	79.989	19.991	99.994	20.011	1.770	0.476
975.500	565.122	79.987	19.992	99.995	20.010	1.832	0.528
976.000	565.359	79.989	19.992	99.996	20.010	1.850	0.521
976.500	565.634	79.989	19.992	99.993	20.006	2.154	0.504
977.000	565.895	79.988	19.993	99.991	20.011	1.765	0.524
977.500	566.171	79.988	19.992	99.988	20.004	2.311	0.536
978.000	566.422	79.985	19.990	99.986	20.005	2.256	0.532
978.500	566.674	79.987	19.993	99.985	20.003	2.382	0.515
979.000	566.932	79.987	19.992	99.985	20.007	2.061	0.506
979.500	567.159	79.987	19.992	99.984	20.003	2.449	0.498
980.000	567.380	79.988	19.992	99.984	20.001	2.544	0.466
980.500	567.688	79.986	19.991	99.985	20.003	2.389	0.488
981.000	567.938	79.987	19.991	99.986	20.004	2.322	0.543
981.500	568.172	79.985	19.993	99.988	20.004	2.305	0.521
982.000	568.426	79.985	19.993	99.988	20.006	2.138	0.486
982.500	568.711	79.986	19.992	99.989	20.008	1.967	0.513
983.000	568.951	79.985	19.992	99.990	20.007	2.098	0.532
983.500	569.228	79.985	19.992	99.993	20.003	2.378	0.521
984.000	569.469	79.986	19.992	99.995	20.004	2.353	0.517
984.500	569.724	79.984	19.992	99.995	20.007	2.096	0.507
985.000	569.995	79.986	19.993	99.994	20.003	2.400	0.511
985.500	570.208	79.985	19.993	99.993	20.000	2.631	0.505
986.000	570.453	79.986	19.993	99.989	20.006	2.167	0.471
986.500	570.735	79.986	19.992	99.985	20.006	2.178	0.493
987.000	570.971	79.986	19.993	99.985	20.008	1.987	0.522
987.500	571.235	79.985	19.993	99.984	20.004	2.333	0.509
988.000	571.532	79.986	19.993	99.984	20.005	2.285	0.530
988.500	571.774	79.984	19.992	99.984	20.005	2.260	0.550
989.000	572.018	79.985	19.991	99.985	20.008	2.029	0.512
989.500	572.270	79.985	19.993	99.990	20.007	2.100	0.491
990.000	572.517	79.984	19.993	99.996	20.008	2.005	0.498
990.500	572.777	79.986	19.993	99.999	20.003	2.393	0.503
991.000	573.079	79.986	19.993	100.000	20.002	2.493	0.534
991.500	573.284	79.983	19.993	100.000	20.005	2.287	0.535
992.000	573.550	79.986	19.994	99.996	20.004	2.302	0.489
992.500	573.834	79.986	19.993	99.990	20.001	2.571	0.510
993.000	574.105	79.983	19.991	99.987	20.006	2.160	0.552
993.500	574.368	79.984	19.993	99.986	20.007	2.101	0.544
994.000	574.575	79.985	19.992	99.986	20.010	1.854	0.502
994.500	574.853	79.986	19.993	99.985	20.006	2.192	0.478
995.000	575.095	79.985	19.992	99.986	20.006	2.172	0.502
995.500	575.349	79.985	19.992	99.989	20.002	2.518	0.508
996.000	575.624	79.984	19.993	99.991	20.005	2.260	0.512
996.500	575.864	79.986	19.992	99.991	20.003	2.394	0.521
997.000	576.149	79.984	19.991	99.993	20.001	2.564	0.520
997.500	576.380	79.986	19.992	99.993	20.005	2.256	0.521
998.000	576.616	79.987	19.994	99.990	20.006	2.205	0.492
998.500	576.876	79.984	19.992	99.988	20.000	2.636	0.481
999.000	577.159	79.985	19.992	99.988	20.002	2.485	0.519
999.500	577.376	79.987	19.992	99.986	20.005	2.227	0.521
1000.000	577.627	79.984	19.992	99.987	20.001	2.602	0.484
1000.500	577.897	79.984	19.992	99.989	19.998	2.861	0.495
1001.000	578.143	79.985	19.991	99.989	20.002	2.524	0.518
1001.500	578.397	79.985	19.992	99.990	20.004	2.342	0.508
1002.000	578.671	79.985	19.992	99.991	20.004	2.322	0.514
1002.500	578.920	79.985	19.992	99.991	20.006	2.154	0.526
1003.000	579.185	79.984	19.991	99.993	20.004	2.367	0.518
1003.500	579.412	79.986	19.994	99.992	20.000	2.653	0.503
1004.000	579.665	79.986	19.992	99.994	20.000	2.666	0.486
1004.500	579.882	79.985	19.991	99.995	20.005	2.243	0.475
1005.000	580.134	79.985	19.992	99.995	20.003	2.404	0.470
1005.500	580.373	79.985	19.993	99.994	20.005	2.227	0.480
1006.000	580.664	79.983	19.992	99.998	20.005	2.263	0.511
1006.500	580.922	79.985	19.991	100.000	20.001	2.555	0.540
1007.000	581.165	79.982	19.991	100.003	20.006	2.169	0.525
1007.500	581.399	79.984	19.991	100.004	20.001	2.560	0.489
1008.000	581.684	79.985	19.993	100.006	20.003	2.414	0.498
1008.500	581.963	79.985	19.993	100.007	20.003	2.418	0.541
1009.001	582.141	79.985	19.992	100.010	20.007	2.074	0.510
1009.500	582.453	79.984	19.993	100.010	20.002	2.505	0.473
1010.000	582.658	79.983	19.993	100.008	20.003	2.394	0.504
1010.500	582.872	79.985	19.993	100.006	20.001	2.584	0.468
1011.000	583.176	79.984	19.993	100.002	19.999	2.715	0.469
1011.500	583.414	79.984	19.994	99.996	20.008	2.038	0.530
1012.000	583.666	79.982	19.993	99.991	20.008	2.045	0.515
1012.500	583.910	79.985	19.994	99.992	20.003	2.398	0.493
1013.000	584.176	79.984	19.993	99.993	20.002	2.515	0.503
1013.500	584.424	79.983	19.993	99.995	20.002	2.498	0.513
1014.000	584.667	79.984	19.994	99.995	20.005	2.234	0.503
1014.500	584.912	79.984	19.994	99.994	20.005	2.287	0.489
1015.000	585.161	79.982	19.993	99.994	20.005	2.234	0.491
1015.500	585.429	79.982	19.993	99.996	20.003	2.453	0.505
1016.000	585.637	79.982	19.993	99.992	20.004	2.355	0.497
1016.500	585.917	79.984	19.993	99.995	20.003	2.404	0.483
1017.001	586.186	79.983	19.994	99.998	20.004	2.332	0.519
1017.500	586.446	79.983	19.992	99.996	20.000	2.621	0.539
1018.000	586.700	79.984	19.994	99.997	19.999	2.723	0.521
1018.500	586.946	79.984	19.993	100.004	20.003	2.440	0.507
1019.000	587.217	79.985	19.994	100.007	20.005	2.219	0.508
1019.500	587.471	79.984	19.993	100.011	20.004	2.368	0.521
1020.000	587.698	79.984	19.991	100.015	19.999	2.770	0.503
1020.500	587.962	79.983	19.991	100.013	19.999	2.743	0.486
1021.000	588.187	79.984	19.992	100.008	19.997	2.934	0.490
1021.500	588.461	79.985	19.992	100.002	20.002	2.527	0.494
1022.000	588.727	79.984	19.992	99.997	20.002	2.513	0.520
1022.500	588.979	79.985	19.993	99.992	20.005	2.287	0.529
1023.000	589.208	79.984	19.992	99.991	20.000	2.660	0.500
1023.500	589.517	79.984	19.993	99.992	20.000	2.644	0.510
1024.000	589.738	79.986	19.993	99.993	20.001	2.613	0.534
1024.501	589.983	79.985	19.992	99.994	20.000	2.635	0.498
1025.001	590.233	79.984	19.993	99.994	19.998	2.864	0.480
1025.501	590.497	79.986	19.991	99.994	19.999	2.777	0.504
1026.001	590.749	79.984	19.992	99.992	19.998	2.832	0.515
1026.501	591.040	79.987	19.990	99.991	19.998	2.830	0.530
1027.001	591.277	79.986	19.991	99.978	20.002	2.493	0.536
1027.501	591.522	79.986	19.991	99.955	19.998	2.806	0.504
1028.000	591.769	79.986	19.990	99.943	20.002	2.513	0.486
1028.500	592.055	79.986	19.991	99.943	20.000	2.633	0.513
1029.000	592.310	79.985	19.990	99.946	20.003	2.387	0.537
1029.501	592.548	79.985	19.991	99.976	20.006	2.192	0.517
1030.001	592.816	79.986	19.992	100.037	20.004	2.349	0.500
1030.500	593.070	79.987	19.993	100.060	20.002	2.466	0.514
1031.001	593.343	79.985	19.991	100.065	20.003	2.404	0.525
1031.501	593.578	79.987	19.992	100.062	20.005	2.278	0.517
1032.001	593.842	79.989	19.992	100.043	20.002	2.500	0.504
1032.501	594.122	79.986	19.991	100.005	20.003	2.382	0.521
1033.001	594.355	79.985	19.992	99.993	20.002	2.522	0.528
1033.501	594.604	79.986	19.992	99.989	20.000	2.686	0.498
1034.000	594.871	79.986	19.992	99.995	20.005	2.249	0.499
1034.500	595.139	79.988	19.992	100.002	20.000	2.669	0.526
1035.001	595.380	79.985	19.992	100.005	20.003	2.436	0.522
1035.501	595.616	79.987	19.992	100.004	20.000	2.680	0.492
1036.000	595.920	79.986	19.993	100.002	19.998	2.868	0.509
1036.500	596.131	79.986	19.991	99.995	20.002	2.469	0.528
1037.000	596.390	79.986	19.991	99.988	20.003	2.427	0.493
1037.501	596.628	79.985	19.991	99.984	20.002	2.538	0.484
1038.001	596.913	79.985	19.992	99.987	20.003	2.411	0.510
1038.500	597.182	79.985	19.993	99.989	20.001	2.586	0.538
1039.000	597.418	79.987	19.993	99.991	20.002	2.493	0.529
1039.500	597.703	79.985	19.992	99.994	20.001	2.569	0.513
1040.000	597.935	79.986	19.991	99.994	19.999	2.755	0.519
1040.501	598.199	79.987	19.992	99.993	20.004	2.331	0.506
1041.001	598.446	79.987	19.992	99.991	20.002	2.520	0.503
1041.500	598.710	79.986	19.992	99.989	20.003	2.442	0.511
1042.000	598.965	79.984	19.991	99.987	20.001	2.544	0.515
1042.500	599.247	79.986	19.993	99.988	20.002	2.511	0.528
1043.000	599.452	79.985	19.992	99.988	20.001	2.546	0.513
1043.500	599.759	79.986	19.992	99.989	20.000	2.635	0.500
1044.000	599.996	79.984	19.992	99.988	20.000	2.633	0.528
1044.500	600.242	79.986	19.993	99.990	20.004	2.342	0.513
1045.000	600.526	79.984	19.993	99.994	20.000	2.622	0.506
1045.500	600.778	79.985	19.992	99.997	19.998	2.819	0.533
1046.001	600.985	79.984	19.991	100.000	19.996	2.968	0.498
1046.501	601.251	79.986	19.992	100.006	19.998	2.833	0.466
1047.000	601.537	79.986	19.992	100.007	20.000	2.649	0.513
1047.500	601.771	79.987	19.993	100.004	20.000	2.695	0.536
1048.000	602.006	79.985	19.992	100.004	20.004	2.360	0.494
1048.500	602.271	79.986	19.991	100.001	20.005	2.267	0.484
1049.000	602.516	79.988	19.992	99.996	20.000	2.644	0.505
1049.500	602.772	79.988	19.992	99.993	20.001	2.589	0.506
1050.000	603.026	79.989	19.992	99.997	20.001	2.595	0.505
1050.500	603.293	79.988	19.992	99.999	20.003	2.378	0.516
1051.001	603.551	79.989	19.991	100.000	19.999	2.719	0.523
1051.501	603.836	79.988	19.991	100.001	20.001	2.555	0.534
1052.000	604.036	79.987	19.990	100.000	20.004	2.311	0.514
1052.500	604.309	79.988	19.992	99.995	20.002	2.515	0.479
1053.000	604.568	79.987	19.992	99.990	20.005	2.258	0.502
1053.500	604.821	79.987	19.992	99.993	20.001	2.573	0.522
1054.000	605.057	79.989	19.992	99.990	19.999	2.748	0.501
1054.500	605.318	79.987	19.992	99.990	20.001	2.560	0.493
1055.000	605.576	79.985	19.992	99.992	19.997	2.879	0.508
1055.500	605.824	79.988	19.991	99.994	20.003	2.442	0.513
1056.000	606.087	79.987	19.992	99.992	20.001	2.602	0.509
1056.500	606.321	79.987	19.990	99.998	20.002	2.500	0.504
1057.000	606.588	79.987	19.991	100.005	19.996	2.977	0.499
1057.500	606.816	79.988	19.992	100.005	20.000	2.638	0.498
1058.000	607.061	79.988	19.991	100.002	20.001	2.611	0.484
1058.500	607.336	79.985	19.991	99.999	20.002	2.469	0.497
1059.000	607.575	79.985	19.992	99.995	20.002	2.520	0.517
1059.500	607.823	79.987	19.991	99.994	20.001	2.565	0.500
1060.001	608.061	79.987	19.991	99.997	20.002	2.489	0.486
1060.501	608.322	79.987	19.991	100.001	20.002	2.491	0.493
1061.001	608.599	79.985	19.992	100.003	20.004	2.363	0.519
1061.501	608.853	79.984	19.992	100.000	20.007	2.121	0.534
1062.000	609.102	79.983	19.991	99.995	20.004	2.318	0.517
1062.500	609.390	79.986	19.991	99.994	20.005	2.243	0.520
1063.000	609.624	79.985	19.991	99.991	20.007	2.076	0.530
1063.500	609.887	79.985	19.992	99.990	20.000	2.651	0.509
1064.000	610.127	79.987	19.992	99.991	20.005	2.291	0.500
1064.500	610.396	79.984	19.991	99.993	20.009	1.950	0.506
1065.000	610.611	79.984	19.991	99.990	20.005	2.223	0.496
1065.500	610.912	79.985	19.992	99.994	20.003	2.393	0.500
1066.000	611.179	79.982	19.991	99.995	20.008	1.965	0.542
1066.500	611.431	79.984	19.991	99.998	20.005	2.287	0.544
1067.001	611.717	79.984	19.992	99.999	20.005	2.214	0.528
1067.501	611.933	79.985	19.992	100.000	20.005	2.220	0.519
1068.000	612.187	79.985	19.991	99.999	20.006	2.185	0.486
1068.500	612.470	79.983	19.992	100.001	20.005	2.251	0.504
1069.000	612.699	79.985	19.992	99.999	20.004	2.318	0.525
1069.500	612.957	79.985	19.992	100.002	20.006	2.205	0.499
1070.000	613.166	79.984	19.992	100.008	20.006	2.143	0.477
1070.500	613.494	79.985	19.992	100.012	20.002	2.467	0.502
1071.000	613.703	79.985	19.992	100.011	20.004	2.325	0.537
1071.500	613.991	79.984	19.992	100.009	20.001	2.578	0.517
1072.000	614.250	79.985	19.992	100.004	20.003	2.456	0.522
1072.500	614.489	79.986	19.992	99.997	20.005	2.274	0.522
1073.000	614.786	79.985	19.992	99.993	20.007	2.118	0.517
1073.500	615.026	79.986	19.991	99.993	20.001	2.569	0.537
1074.000	615.272	79.985	19.991	99.995	20.006	2.163	0.512
1074.500	615.525	79.983	19.992	99.997	20.000	2.633	0.493
1075.000	615.798	79.984	19.992	99.997	20.002	2.504	0.512
1075.500	616.059	79.983	19.992	99.999	20.006	2.191	0.530
1076.000	616.329	79.985	19.993	99.998	20.002	2.487	0.532
1076.500	616.592	79.984	19.992	99.996	19.999	2.728	0.532
1077.000	616.823	79.983	19.992	99.995	20.003	2.389	0.514
1077.500	617.075	79.984	19.993	99.992	20.003	2.422	0.488
1078.000	617.338	79.984	19.993	99.988	20.003	2.424	0.499
1078.500	617.557	79.981	19.992	99.987	20.004	2.360	0.499
1079.001	617.858	79.984	19.992	99.988	20.005	2.280	0.501
1079.501	618.122	79.984	19.993	99.990	20.004	2.322	0.542
1080.000	618.402	79.983	19.993	99.995	20.006	2.198	0.555
1080.500	618.627	79.984	19.992	100.000	20.000	2.702	0.524
1081.000	618.884	79.982	19.992	100.002	20.006	2.174	0.493
1081.500	619.131	79.983	19.991	100.004	20.005	2.287	0.493
1082.000	619.383	79.984	19.993	100.006	20.003	2.387	0.502
1082.500	619.635	79.984	19.991	100.009	20.007	2.116	0.501
1083.000	619.898	79.983	19.992	100.007	20.003	2.398	0.510
1083.500	620.127	79.984	19.991	100.004	20.005	2.280	0.504
1084.000	620.373	79.983	19.992	100.002	20.001	2.582	0.483
1084.500	620.626	79.984	19.992	99.997	20.003	2.411	0.487
1085.000	620.887	79.983	19.991	99.990	20.004	2.302	0.506
1085.500	621.102	79.984	19.992	99.988	20.002	2.489	0.495
1086.000	621.391	79.984	19.991	99.989	20.005	2.222	0.490
1086.500	621.624	79.983	19.992	99.991	20.005	2.211	0.513
1087.000	621.883	79.983	19.993	99.993	20.000	2.635	0.507
1087.500	622.149	79.985	19.992	99.995	19.998	2.850	0.509
1088.000	622.416	79.982	19.991	99.997	20.001	2.571	0.530
1088.500	622.655	79.985	19.991	99.997	20.002	2.533	0.520
1089.000	622.939	79.985	19.993	99.996	20.000	2.640	0.515
1089.500	623.170	79.984	19.992	99.996	20.001	2.553	0.519
1090.000	623.406	79.981	19.991	99.996	20.000	2.655	0.491
1090.500	623.698	79.984	19.991	99.995	20.001	2.615	0.497
1091.000	623.961	79.984	19.992	99.998	20.002	2.502	0.542
1091.501	624.220	79.986	19.992	99.998	19.998	2.842	0.539
1092.001	624.470	79.983	19.992	99.998	19.997	2.910	0.515
1092.500	624.725	79.984	19.992	99.995	19.999	2.720	0.507
1093.000	624.983	79.985	19.992	99.995	20.004	2.303	0.509
1093.500	625.226	79.985	19.992	99.992	20.002	2.464	0.507
1094.000	625.486	79.984	19.992	99.991	20.000	2.679	0.502
1094.500	625.735	79.985	19.992	99.990	20.000	2.666	0.506
1095.000	625.961	79.984	19.991	99.990	20.001	2.613	0.492
1095.501	626.225	79.983	19.992	99.989	19.998	2.813	0.483
1096.001	626.478	79.983	19.993	99.989	19.998	2.797	0.504
1096.500	626.723	79.981	19.991	99.988	19.997	2.902	0.507
1097.000	626.970	79.986	19.992	99.987	19.996	3.001	0.495
1097.501	627.216	79.986	19.993	99.986	19.994	3.130	0.492
1098.001	627.515	79.985	19.993	99.986	20.001	2.555	0.519
1098.500	627.750	79.981	19.992	99.986	19.995	3.112	0.540
1099.000	627.987	79.984	19.993	99.988	19.997	2.903	0.503
1099.500	628.291	79.984	19.993	99.990	20.000	2.684	0.507
1100.000	628.517	79.982	19.992	99.992	19.998	2.835	0.535
1100.500	628.736	79.984	19.993	99.993	19.996	3.003	0.488
1101.000	628.996	79.985	19.993	99.993	19.999	2.748	0.462
1101.500	629.255	79.984	19.993	99.995	19.997	2.901	0.499
1102.000	629.528	79.985	19.993	99.999	20.000	2.644	0.525
1102.500	629.750	79.985	19.993	100.001	19.999	2.739	0.513
1103.000	629.994	79.984	19.994	100.003	20.001	2.555	0.481
1103.500	630.288	79.986	19.993	100.002	20.000	2.664	0.502
1104.000	630.528	79.984	19.993	99.998	19.999	2.755	0.535
1104.500	630.772	79.983	19.993	99.992	19.994	3.181	0.509
1105.000	631.034	79.985	19.993	99.989	19.997	2.910	0.495
1105.500	631.297	79.985	19.993	99.990	19.999	2.766	0.516
1106.000	631.568	79.984	19.992	99.996	19.995	3.046	0.530
1106.500	631.821	79.986	19.994	99.999	19.997	2.928	0.529
1107.000	632.058	79.983	19.993	100.003	19.999	2.768	0.507
1107.500	632.334	79.986	19.993	100.004	19.998	2.850	0.502
1108.000	632.540	79.987	19.992	99.999	19.998	2.848	0.497
1108.500	632.832	79.985	19.992	99.993	19.997	2.923	0.490
1109.000	633.036	79.985	19.993	99.990	19.995	3.052	0.497
1109.500	633.309	79.987	19.992	99.987	19.998	2.819	0.487
1110.000	633.547	79.985	19.992	99.988	19.997	2.914	0.494
1110.500	633.836	79.987	19.992	99.988	20.001	2.599	0.519
1111.001	634.116	79.986	19.992	99.987	19.997	2.910	0.548
1111.501	634.390	79.987	19.992	99.987	19.998	2.799	0.561
1112.000	634.617	79.986	19.992	99.987	19.995	3.039	0.527
1112.500	634.885	79.987	19.993	99.985	19.994	3.116	0.498
1113.000	635.119	79.986	19.992	99.987	19.996	2.977	0.499
1113.500	635.382	79.984	19.992	99.990	19.998	2.861	0.500
1114.000	635.649	79.986	19.991	99.994	19.996	2.972	0.513
1114.500	635.929	79.985	19.992	99.994	19.996	3.008	0.538
1115.001	636.181	79.987	19.991	99.995	19.995	3.081	0.539
1115.501	636.419	79.987	19.992	99.995	19.991	3.380	0.511
1116.000	636.675	79.987	19.992	100.000	19.991	3.418	0.492
1116.500	636.911	79.986	19.992	100.001	19.992	3.305	0.492
1117.000	637.187	79.987	19.991	100.003	19.994	3.161	0.502
1117.500	637.398	79.986	19.991	100.002	19.996	2.985	0.500
1118.000	637.661	79.986	19.991	99.999	19.995	3.072	0.480
1118.500	637.930	79.987	19.992	99.994	19.997	2.928	0.502
1119.000	638.176	79.984	19.991	99.991	19.996	2.961	0.524
1119.500	638.425	79.985	19.992	99.990	20.000	2.644	0.506
1120.000	638.688	79.985	19.993	99.989	19.996	2.966	0.504
1120.500	638.954	79.984	19.991	99.989	19.995	3.039	0.520
1121.000	639.212	79.986	19.993	99.988	19.997	2.897	0.526
1121.501	639.455	79.987	19.992	99.986	19.996	2.983	0.513
1122.001	639.700	79.984	19.992	99.986	19.997	2.921	0.494
1122.500	639.976	79.984	19.991	99.986	19.998	2.804	0.505
1123.000	640.231	79.985	19.991	99.986	19.999	2.764	0.526
1123.500	640.442	79.984	19.992	99.986	19.999	2.773	0.498
1124.000	640.691	79.984	19.992	99.986	19.999	2.704	0.463
1124.501	640.996	79.986	19.992	99.990	19.998	2.839	0.507
1125.001	641.265	79.986	19.992	99.990	19.998	2.808	0.564
1125.500	641.509	79.986	19.991	99.991	19.997	2.888	0.544
1126.000	641.750	79.987	19.991	99.991	19.995	3.045	0.499
1126.501	642.025	79.987	19.992	99.991	19.996	2.955	0.500
1127.001	642.278	79.985	19.992	99.986	19.997	2.923	0.522
1127.501	642.544	79.984	19.991	99.986	19.995	3.050	0.524
1128.001	642.775	79.985	19.991	99.986	19.996	2.974	0.508
1128.501	643.022	79.984	19.991	99.987	19.993	3.247	0.488
1129.001	643.287	79.987	19.993	99.989	19.997	2.879	0.495
1129.500	643.509	79.986	19.991	99.991	19.996	2.979	0.500
1130.000	643.759	79.985	19.991	99.992	19.994	3.163	0.480
1130.500	644.029	79.987	19.992	99.992	19.996	2.961	0.495
1131.000	644.291	79.988	19.992	99.994	19.998	2.788	0.526
1131.500	644.541	79.986	19.992	99.992	19.999	2.773	0.523
1132.000	644.774	79.989	19.991	99.990	19.998	2.795	0.497
1132.500	645.068	79.986	19.992	99.993	20.000	2.653	0.504
1133.000	645.309	79.990	19.993	99.993	20.001	2.564	0.531
1133.500	645.541	79.987	19.991	99.989	19.995	3.045	0.504
1134.000	645.815	79.985	19.992	99.989	19.995	3.074	0.490
1134.500	646.034	79.987	19.991	99.989	19.999	2.713	0.500
1135.000	646.309	79.987	19.992	99.987	19.997	2.935	0.494
1135.500	646.575	79.986	19.992	99.987	20.000	2.692	0.517
1136.000	646.844	79.986	19.991	99.988	19.998	2.827	0.538
1136.500	647.117	79.987	19.992	99.990	19.998	2.798	0.539
1137.000	647.327	79.987	19.992	99.992	19.996	2.975	0.513
1137.500	647.618	79.985	19.991	99.992	19.996	2.968	0.492
1138.000	647.859	79.985	19.991	99.992	19.993	3.206	0.517
1138.500	648.124	79.986	19.991	99.990	19.997	2.942	0.519
1139.001	648.363	79.985	19.991	99.989	19.996	3.016	0.504
1139.501	648.600	79.986	19.991	99.987	20.001	2.579	0.490
1140.000	648.847	79.986	19.992	99.990	19.998	2.824	0.480
1140.500	649.147	79.985	19.991	99.995	19.994	3.140	0.516
1141.000	649.387	79.985	19.992	99.996	19.995	3.073	0.544
1141.500	649.625	79.985	19.992	99.997	19.997	2.890	0.509
1142.000	649.910	79.986	19.992	99.997	19.996	2.961	0.501
1142.500	650.119	79.985	19.993	99.995	19.994	3.152	0.509
1143.000	650.389	79.983	19.991	99.986	19.996	3.003	0.487
1143.500	650.653	79.985	19.991	99.985	19.992	3.325	0.507
1144.000	650.885	79.985	19.991	99.985	19.997	2.883	0.515
1144.500	651.153	79.986	19.991	99.986	19.996	2.954	0.498
1145.001	651.416	79.984	19.991	99.987	19.994	3.139	0.515
1145.501	651.681	79.985	19.992	99.991	19.993	3.249	0.529
1146.001	651.944	79.984	19.991	99.991	19.992	3.325	0.528
1146.500	652.171	79.984	19.992	99.973	19.991	3.410	0.509
1147.000	652.450	79.983	19.991	99.948	19.991	3.390	0.498
1147.500	652.689	79.985	19.991	99.936	19.992	3.343	0.512
1148.000	652.952	79.985	19.992	99.929	19.994	3.188	0.510
1148.500	653.197	79.986	19.991	99.931	19.991	3.365	0.505
1149.001	653.450	79.985	19.991	99.965	19.995	3.094	0.503
1149.501	653.742	79.985	19.991	100.032	19.992	3.327	0.521
1150.000	653.936	79.984	19.991	100.056	19.995	3.070	0.516
1150.500	654.242	79.984	19.991	100.066	19.999	2.744	0.493
1151.000	654.450	79.984	19.992	100.066	19.995	3.110	0.507
1151.500	654.751	79.985	19.991	100.051	19.998	2.868	0.511
1152.001	654.971	79.984	19.991	100.008	19.992	3.320	0.515
1152.501	655.212	79.984	19.992	99.996	19.994	3.132	0.491
1153.000	655.466	79.985	19.991	99.992	19.992	3.300	0.478
1153.500	655.762	79.986	19.992	99.991	19.993	3.205	0.522
1154.000	656.017	79.983	19.991	99.991	19.993	3.263	0.550
1154.500	656.239	79.986	19.991	99.990	19.994	3.125	0.514
1155.000	656.521	79.983	19.993	99.990	19.996	2.992	0.490
1155.500	656.748	79.985	19.993	99.990	19.994	3.165	0.506
1156.000	657.027	79.984	19.991	99.990	19.998	2.850	0.508
1156.500	657.289	79.984	19.992	99.989	19.995	3.079	0.524
1157.000	657.553	79.985	19.992	99.996	19.998	2.790	0.534
1157.500	657.801	79.985	19.992	100.001	19.997	2.877	0.519
1158.000	658.067	79.988	19.992	100.001	19.994	3.156	0.513
1158.501	658.329	79.984	19.992	100.001	19.994	3.156	0.521
1159.001	658.593	79.988	19.992	100.000	19.996	2.981	0.527
1159.501	658.813	79.984	19.992	99.992	19.995	3.101	0.505
1160.000	659.104	79.985	19.992	99.986	19.996	3.001	0.498
1160.501	659.276	79.987	19.992	99.987	19.995	3.094	0.487
1161.001	659.566	79.988	19.993	99.987	19.997	2.912	0.463
1161.500	659.784	79.984	19.991	99.988	19.996	3.017	0.485
1162.000	660.009	79.986	19.992	99.989	19.996	2.972	0.475
1162.500	660.438	79.987	19.993	99.988	19.996	2.981	0.548
1163.000	660.644	79.985	19.992	99.986	19.998	2.812	0.645
1163.500	660.893	79.985	19.992	99.985	19.998	2.788	0.545
1164.000	661.164	79.984	19.992	99.985	19.995	3.059	0.487
1164.500	661.391	79.985	19.992	99.989	19.995	3.087	0.509
1165.000	661.668	79.984	19.992	99.992	19.995	3.114	0.501
1165.500	661.925	79.984	19.992	99.997	19.996	2.970	0.519
1166.000	662.223	79.986	19.992	99.998	19.993	3.198	0.544
1166.500	662.433	79.986	19.992	99.996	19.996	2.961	0.531
1167.000	662.724	79.987	19.992	99.993	19.993	3.265	0.505
1167.500	662.969	79.987	19.992	99.990	19.995	3.079	0.519
1168.000	663.223	79.987	19.992	99.985	19.997	2.886	0.518
1168.500	663.449	79.987	19.992	99.987	19.996	2.965	0.490
1169.000	663.762	79.986	19.993	99.988	19.996	3.030	0.509
1169.501	663.981	79.983	19.992	99.987	19.995	3.107	0.535
1170.001	664.286	79.986	19.993	99.987	19.998	2.793	0.528
1170.501	664.489	79.983	19.991	99.988	19.996	2.979	0.516
1171.000	664.778	79.983	19.992	99.991	19.997	2.919	0.500
1171.500	665.046	79.985	19.993	99.993	19.996	2.966	0.524
1172.000	665.267	79.987	19.992	99.993	19.995	3.048	0.523
1172.500	665.546	79.983	19.992	99.993	19.994	3.169	0.495
1173.000	665.769	79.983	19.992	99.993	19.996	3.016	0.501
1173.500	666.063	79.982	19.992	99.988	19.998	2.843	0.509
1174.000	666.340	79.984	19.992	99.985	19.995	3.047	0.544
1174.500	666.583	79.986	19.992	99.986	19.995	3.034	0.546
1175.000	666.843	79.986	19.993	99.986	19.994	3.132	0.511
1175.500	667.092	79.985	19.991	99.987	19.996	2.963	0.506
1176.001	667.342	79.985	19.993	99.989	19.993	3.205	0.504
1176.501	667.618	79.987	19.992	99.992	19.993	3.278	0.513
1177.000	667.861	79.986	19.992	99.991	19.993	3.236	0.523
1177.500	668.101	79.983	19.992	99.990	19.991	3.398	0.501
1178.000	668.365	79.986	19.992	99.989	19.991	3.389	0.493
1178.501	668.655	79.986	19.992	99.987	19.996	2.999	0.529
1179.001	668.883	79.982	19.992	99.984	19.996	2.959	0.536
1179.500	669.154	79.985	19.992	99.985	19.999	2.748	0.508
1180.000	669.392	79.985	19.992	99.986	19.992	3.329	0.504
1180.500	669.656	79.987	19.992	99.990	19.995	3.090	0.506
1181.000	669.921	79.986	19.992	99.991	19.994	3.196	0.515
1181.501	670.148	79.988	19.993	99.991	19.996	2.970	0.511
1182.001	670.485	79.986	19.992	99.991	19.991	3.389	0.528
1182.500	670.674	79.986	19.993	99.991	19.991	3.382	0.545
1183.000	670.957	79.985	19.992	99.987	19.992	3.291	0.499
1183.500	671.221	79.986	19.993	99.985	19.992	3.351	0.509
1184.000	671.458	79.986	19.992	99.985	19.992	3.349	0.524
1184.500	671.728	79.984	19.992	99.985	19.991	3.398	0.504
1185.001	671.957	79.986	19.993	99.985	19.990	3.496	0.503
1185.501	672.251	79.987	19.992	99.984	19.993	3.218	0.511
1186.000	672.459	79.986	19.992	99.984	19.992	3.334	0.513
1186.500	672.758	79.987	19.993	99.984	19.991	3.422	0.505
1187.000	673.024	79.986	19.993	99.983	19.994	3.176	0.536
1187.500	673.290	79.986	19.993	99.982	19.993	3.274	0.548
1188.000	673.521	79.986	19.993	99.982	19.991	3.396	0.515
1188.501	673.796	79.986	19.993	99.982	19.993	3.234	0.501
1189.001	674.043	79.984	19.994	99.985	19.992	3.336	0.514
1189.501	674.272	79.985	19.994	99.986	19.993	3.207	0.499
1190.001	674.551	79.986	19.993	99.987	19.993	3.269	0.492
1190.500	674.794	79.987	19.993	99.988	19.998	2.868	0.514
1191.000	675.075	79.986	19.993	99.989	19.993	3.274	0.523
1191.501	675.343	79.985	19.993	99.986	19.994	3.116	0.536
1192.001	675.599	79.984	19.994	99.986	19.993	3.207	0.537
1192.500	675.843	79.987	19.992	99.986	19.995	3.094	0.513
1193.000	676.084	79.983	19.993	99.984	19.991	3.411	0.493
1193.500	676.357	79.984	19.993	99.985	19.997	2.877	0.499
1194.000	676.601	79.984	19.992	99.985	19.993	3.201	0.515
1194.500	676.874	79.986	19.992	99.985	19.997	2.939	0.517
1195.000	677.107	79.985	19.992	99.985	19.996	3.017	0.512
1195.500	677.375	79.986	19.992	99.986	19.996	2.990	0.504
1196.001	677.610	79.985	19.994	99.986	19.994	3.145	0.502
1196.501	677.855	79.984	19.993	99.986	19.994	3.150	0.491
1197.001	678.109	79.984	19.993	99.986	19.995	3.043	0.489
1197.501	678.341	79.986	19.994	99.988	19.989	3.575	0.492
1198.001	678.611	79.986	19.994	99.989	19.996	2.994	0.494
1198.501	678.875	79.986	19.993	99.989	19.996	2.952	0.518
1199.000	679.112	79.986	19.992	99.989	19.996	3.005	0.517
1199.500	679.369	79.984	19.993	99.989	19.995	3.114	0.497
1200.000	679.596	79.984	19.992	99.989	19.998	2.863	0.489
1200.500	679.855	79.985	19.992	99.988	19.992	3.338	0.485
1201.000	680.111	79.985	19.992	99.988	19.994	3.152	0.501
1201.501	680.372	79.987	19.992	99.990	19.994	3.167	0.516
1202.001	680.619	79.987	19.992	99.991	19.991	3.407	0.513
1202.501	680.880	79.985	19.991	99.990	19.997	2.892	0.508
1203.000	681.139	79.985	19.991	99.992	19.994	3.145	0.514
1203.500	681.399	79.985	19.991	99.991	19.993	3.249	0.519
1204.000	681.628	79.986	19.992	99.989	19.990	3.484	0.504
1204.500	681.871	79.986	19.992	99.990	19.994	3.161	0.481
1205.000	682.114	79.986	19.992	99.991	19.996	3.023	0.479
1205.500	682.382	79.985	19.992	99.990	19.994	3.143	0.498
1206.000	682.656	79.987	19.991	99.989	19.993	3.207	0.527
1206.500	682.891	79.987	19.991	99.990	19.996	3.017	0.525
1207.000	683.137	79.987	19.991	99.988	19.993	3.263	0.495
1207.501	683.379	79.985	19.992	99.987	19.995	3.099	0.485
1208.001	683.658	79.987	19.991	99.987	19.995	3.037	0.505
1208.501	683.924	79.987	19.991	99.987	19.997	2.926	0.533
1209.001	684.146	79.987	19.991	99.986	19.992	3.285	0.516
1209.501	684.443	79.988	19.991	99.987	19.994	3.167	0.504
1210.001	684.628	79.986	19.990	99.987	19.995	3.041	0.501
1210.501	684.915	79.989	19.992	99.987	19.992	3.343	0.477
1211.001	685.177	79.986	19.990	99.987	19.994	3.196	0.510
1211.500	685.448	79.989	19.991	99.987	19.990	3.478	0.541
1212.000	685.706	79.988	19.992	99.987	19.995	3.079	0.531
1212.500	685.934	79.987	19.991	99.987	19.992	3.327	0.508
1213.000	686.144	79.986	19.991	99.987	19.995	3.079	0.462
1213.500	686.438	79.986	19.991	99.987	19.994	3.165	0.471
1214.000	686.692	79.987	19.992	99.987	19.998	2.850	0.525
1214.500	686.937	79.987	19.992	99.987	19.995	3.074	0.524
1215.000	687.191	79.984	19.991	99.987	19.993	3.274	0.499
1215.500	687.426	79.988	19.991	99.987	19.994	3.172	0.494
1216.000	687.693	79.988	19.991	99.987	19.991	3.418	0.496
1216.500	687.970	79.989	19.992	99.989	19.996	2.988	0.523
1217.000	688.175	79.985	19.991	99.990	19.993	3.276	0.513
1217.500	688.478	79.987	19.991	99.989	19.994	3.132	0.495
1218.000	688.665	79.986	19.991	99.989	19.992	3.327	0.499
1218.500	688.980	79.984	19.992	99.991	19.993	3.274	0.496
1219.000	689.224	79.986	19.992	99.990	19.991	3.438	0.530
1219.500	689.477	79.986	19.991	99.990	19.993	3.254	0.528
1220.000	689.727	79.987	19.992	99.990	19.989	3.529	0.500
1220.500	690.009	79.987	19.992	99.991	19.993	3.272	0.518
1221.000	690.255	79.985	19.991	99.990	19.991	3.436	0.530
1221.500	690.493	79.985	19.992	99.989	19.991	3.425	0.506
1222.000	690.785	79.983	19.993	99.988	19.992	3.342	0.507
1222.500	691.003	79.985	19.991	99.988	19.992	3.289	0.520
1223.001	691.253	79.983	19.993	99.987	19.994	3.143	0.489
1223.501	691.520	79.986	19.992	99.986	19.994	3.160	0.492
1224.000	691.770	79.984	19.992	99.985	19.994	3.172	0.517
1224.500	692.017	79.984	19.993	99.985	19.990	3.455	0.507
1225.000	692.288	79.984	19.991	99.986	19.987	3.713	0.508
1225.500	692.542	79.984	19.993	99.988	19.992	3.342	0.522
1226.000	692.817	79.986	19.993	99.988	19.988	3.611	0.527
1226.500	693.052	79.985	19.992	99.988	19.990	3.480	0.520
1227.001	693.324	79.983	19.991	99.989	19.991	3.409	0.509
1227.501	693.608	79.985	19.992	99.987	19.990	3.504	0.532
1228.001	693.822	79.984	19.991	99.985	19.988	3.655	0.527
1228.500	694.083	79.985	19.992	99.985	19.988	3.626	0.486
1229.000	694.342	79.985	19.991	99.986	19.990	3.482	0.497
1229.500	694.613	79.984	19.992	99.987	19.990	3.522	0.525
1230.000	694.854	79.983	19.992	99.987	19.988	3.642	0.521
1230.500	695.105	79.985	19.993	99.987	19.988	3.646	0.502
1231.000	695.356	79.985	19.992	99.987	19.989	3.606	0.497
1231.500	695.610	79.985	19.992	99.987	19.990	3.473	0.504
1232.001	695.840	79.987	19.993	99.986	19.989	3.551	0.494
1232.501	696.152	79.985	19.992	99.986	19.988	3.651	0.513
1233.000	696.369	79.985	19.992	99.986	19.987	3.737	0.536
1233.500	696.641	79.986	19.992	99.986	19.989	3.582	0.509
1234.000	696.903	79.985	19.992	99.983	19.988	3.671	0.511
1234.500	697.102	79.986	19.992	99.982	19.988	3.651	0.498
1235.000	697.353	79.986	19.992	99.983	19.988	3.649	0.456
1235.500	697.647	79.984	19.992	99.983	19.989	3.578	0.497
1236.000	697.868	79.985	19.992	99.982	19.994	3.163	0.530
1236.501	698.146	79.984	19.992	99.984	19.990	3.496	0.507
1237.001	698.380	79.983	19.992	99.985	19.990	3.449	0.505
1237.501	698.640	79.985	19.992	99.984	19.991	3.387	0.503
1238.001	698.929	79.987	19.993	99.984	19.988	3.644	0.522
1238.501	699.143	79.983	19.991	99.985	19.991	3.400	0.526
1239.000	699.414	79.986	19.992	99.986	19.989	3.558	0.494
1239.500	699.654	79.986	19.992	99.986	19.988	3.642	0.498
1240.001	699.901	79.987	19.992	99.986	19.991	3.431	0.499
1240.501	700.188	79.985	19.992	99.986	19.987	3.753	0.510
1241.001	700.407	79.986	19.991	99.986	19.984	3.963	0.520
1241.501	700.674	79.987	19.992	99.985	19.987	3.766	0.496
1242.000	700.942	79.986	19.992	99.985	19.988	3.631	0.511
1242.500	701.157	79.985	19.992	99.986	19.986	3.797	0.509
1243.000	701.415	79.986	19.991	99.985	19.988	3.691	0.478
1243.500	701.672	79.987	19.991	99.986	19.983	4.088	0.494
1244.000	701.917	79.986	19.992	99.986	19.986	3.830	0.508
1244.500	702.178	79.983	19.991	99.986	19.988	3.680	0.504
1245.001	702.418	79.985	19.993	99.985	19.988	3.669	0.504
1245.501	702.697	79.986	19.992	99.986	19.983	4.090	0.510
1246.000	702.960	79.984	19.993	99.985	19.986	3.817	0.530
1246.500	703.177	79.987	19.992	99.985	19.990	3.476	0.511
1247.000	703.441	79.987	19.993	99.986	19.992	3.334	0.481
1247.500	703.697	79.985	19.992	99.986	19.988	3.678	0.500
1248.000	703.967	79.983	19.992	99.985	19.991	3.394	0.523
1248.500	704.208	79.985	19.993	99.985	19.985	3.884	0.518
1249.000	704.434	79.983	19.992	99.986	19.990	3.453	0.489
1249.500	704.685	79.984	19.992	99.985	19.990	3.460	0.472
1250.000	704.961	79.986	19.993	99.985	19.991	3.409	0.502
1250.500	705.241	79.985	19.993	99.986	19.988	3.680	0.542
1251.001	705.478	79.982	19.993	99.985	19.987	3.713	0.537
1251.501	705.694	79.984	19.992	99.984	19.991	3.436	0.485
1252.000	705.938	79.983	19.992	99.984	19.990	3.480	0.456
1252.500	706.206	79.983	19.993	99.985	19.993	3.260	0.486
1253.000	706.460	79.983	19.992	99.984	19.990	3.471	0.517
1253.500	706.712	79.982	19.992	99.986	19.986	3.850	0.514
1254.000	706.949	79.982	19.993	99.987	19.985	3.893	0.497
1254.500	707.234	79.984	19.992	99.987	19.990	3.527	0.506
1255.001	707.468	79.985	19.992	99.986	19.994	3.121	0.521
1255.501	707.709	79.985	19.992	99.987	19.988	3.633	0.497
1256.000	707.970	79.985	19.993	99.988	19.988	3.673	0.489
1256.500	708.226	79.984	19.993	99.990	19.989	3.556	0.510
1257.000	708.467	79.984	19.993	99.990	19.988	3.616	0.507
1257.500	708.757	79.984	19.994	99.991	19.988	3.633	0.513
1258.000	708.976	79.985	19.992	99.991	19.989	3.582	0.520
1258.500	709.232	79.982	19.992	99.989	19.990	3.520	0.492
1259.000	709.478	79.985	19.993	99.987	19.988	3.644	0.488
1259.500	709.720	79.982	19.993	99.986	19.989	3.573	0.495
1260.001	710.016	79.985	19.992	99.987	19.992	3.283	0.513
1260.501	710.268	79.983	19.993	99.987	19.990	3.491	0.543
1261.000	710.526	79.987	19.992	99.988	19.989	3.598	0.528
1261.500	710.769	79.986	19.992	99.988	19.989	3.582	0.505
1262.000	711.013	79.985	19.992	99.989	19.993	3.249	0.494
1262.501	711.308	79.986	19.993	99.988	19.991	3.416	0.513
1263.001	711.562	79.986	19.993	99.988	19.987	3.698	0.544
1263.500	711.812	79.985	19.993	99.988	19.988	3.642	0.527
1264.000	712.077	79.984	19.992	99.988	19.993	3.274	0.509
1264.500	712.310	79.984	19.992	99.987	19.987	3.726	0.506
1265.000	712.582	79.987	19.992	99.987	19.989	3.560	0.502
1265.500	712.831	79.985	19.992	99.987	19.988	3.620	0.513
1266.001	713.108	79.986	19.991	99.987	19.988	3.662	0.523
1266.501	713.346	79.986	19.991	99.989	19.990	3.454	0.521
1267.000	713.625	79.987	19.992	99.994	19.989	3.533	0.516
1267.500	713.855	79.987	19.992	99.994	19.989	3.553	0.513
1268.000	714.118	79.988	19.992	99.994	19.989	3.567	0.501
1268.500	714.402	79.986	19.992	99.994	19.992	3.338	0.520
1269.001	714.674	79.985	19.993	99.991	19.987	3.742	0.551
1269.501	714.915	79.987	19.992	99.987	19.987	3.700	0.534
1270.001	715.166	79.987	19.992	99.987	19.986	3.782	0.502
1270.500	715.441	79.986	19.992	99.987	19.987	3.764	0.509
1271.001	715.669	79.985	19.993	99.985	19.986	3.800	0.514
1271.501	715.955	79.986	19.992	99.985	19.989	3.602	0.509
1272.000	716.241	79.986	19.992	99.985	19.993	3.263	0.544
1272.500	716.501	79.986	19.992	99.987	19.987	3.702	0.559
1273.000	716.734	79.987	19.992	99.988	19.988	3.686	0.519
1273.500	716.991	79.986	19.992	99.990	19.989	3.584	0.492
1274.000	717.249	79.986	19.992	99.990	19.988	3.689	0.503
1274.500	717.498	79.984	19.993	99.990	19.986	3.815	0.511
1275.000	717.762	79.986	19.993	99.989	19.987	3.729	0.510
1275.500	718.016	79.984	19.993	99.988	19.989	3.560	0.515
1276.000	718.263	79.985	19.992	99.988	19.985	3.888	0.509
1276.500	718.528	79.986	19.993	99.989	19.985	3.857	0.507
1277.000	718.754	79.983	19.993	99.992	19.989	3.575	0.502
1277.500	719.059	79.984	19.993	99.992	19.989	3.591	0.511
1278.000	719.316	79.984	19.993	99.992	19.990	3.513	0.546
1278.500	719.528	79.984	19.993	99.992	19.987	3.766	0.515
1279.000	719.817	79.983	19.993	99.992	19.987	3.746	0.485
1279.500	720.114	79.984	19.993	99.989	19.992	3.351	0.543
1280.000	720.336	79.985	19.993	99.989	19.993	3.207	0.552
1280.500	720.597	79.983	19.993	99.989	19.992	3.294	0.501
1281.001	720.884	79.986	19.993	99.989	19.990	3.500	0.516
1281.501	721.115	79.985	19.992	99.989	19.989	3.529	0.534
1282.000	721.392	79.986	19.993	99.989	19.989	3.595	0.513
1282.500	721.600	79.984	19.993	99.989	19.989	3.544	0.496
1283.001	721.894	79.985	19.994	99.990	19.987	3.711	0.493
1283.501	722.144	79.986	19.992	99.991	19.984	3.948	0.523
1284.001	722.366	79.985	19.992	99.991	19.988	3.631	0.508
1284.500	722.633	79.982	19.994	99.991	19.987	3.731	0.480
1285.000	722.818	79.983	19.993	99.990	19.989	3.562	0.471
1285.500	723.143	79.985	19.993	99.991	19.989	3.591	0.482
1286.000	723.414	79.985	19.991	99.990	19.985	3.895	0.553
1286.501	723.681	79.986	19.993	99.990	19.988	3.671	0.567
1287.001	723.916	79.986	19.992	99.989	19.987	3.711	0.520
1287.500	724.220	79.988	19.993	99.991	19.987	3.716	0.521
1288.000	724.456	79.987	19.992	99.989	19.992	3.334	0.539
1288.500	724.708	79.988	19.993	99.988	19.989	3.578	0.514
1289.000	724.953	79.987	19.992	99.987	19.988	3.666	0.492
1289.500	725.205	79.989	19.992	99.987	19.987	3.693	0.497
1290.000	725.465	79.989	19.992	99.985	19.989	3.595	0.505
1290.500	725.722	79.988	19.992	99.984	19.984	3.972	0.515
1291.000	725.968	79.988	19.993	99.984	19.987	3.728	0.510
1291.500	726.232	79.988	19.992	99.984	19.987	3.728	0.507
1292.000	726.508	79.989	19.991	99.985	19.987	3.760	0.525
1292.500	726.724	79.989	19.990	99.985	19.986	3.839	0.516
1293.000	727.013	79.987	19.992	99.984	19.985	3.933	0.498
1293.500	727.315	79.988	19.992	99.984	19.985	3.919	0.548
1294.000	727.592	79.989	19.992	99.985	19.985	3.906	0.585
1294.501	727.828	79.989	19.992	99.985	19.985	3.902	0.546
1295.001	728.061	79.987	19.992	99.987	19.985	3.893	0.491
1295.500	728.299	79.989	19.992	99.988	19.982	4.141	0.470
1296.000	728.579	79.987	19.992	99.990	19.986	3.844	0.495
1296.500	728.821	79.988	19.991	99.995	19.985	3.886	0.520
1297.000	729.039	79.986	19.992	100.001	19.986	3.799	0.491
1297.500	729.322	79.987	19.991	100.001	19.985	3.917	0.480
1298.000	729.547	79.987	19.992	100.000	19.986	3.791	0.505
1298.500	729.818	79.986	19.992	99.999	19.985	3.917	0.503
1299.000	730.099	79.986	19.991	99.993	19.986	3.811	0.524
1299.500	730.366	79.987	19.992	99.987	19.984	3.970	0.550
1300.000	730.595	79.988	19.993	99.986	19.981	4.188	0.522
1300.501	730.866	79.987	19.992	99.987	19.986	3.846	0.498
1301.001	731.096	79.986	19.992	99.986	19.988	3.671	0.500
1301.501	731.368	79.986	19.992	99.987	19.984	3.977	0.502
1302.001	731.609	79.985	19.991	99.987	19.982	4.123	0.508
1302.500	731.871	79.985	19.992	99.988	19.981	4.199	0.508
1303.000	732.128	79.986	19.992	99.989	19.984	3.950	0.511
1303.500	732.354	79.986	19.991	99.989	19.987	3.739	0.501
1304.000	732.623	79.986	19.992	99.991	19.985	3.884	0.489
1304.500	732.891	79.987	19.991	99.991	19.985	3.864	0.516
1305.000	733.126	79.984	19.993	99.990	19.981	4.223	0.520
1305.500	733.375	79.987	19.992	99.990	19.987	3.746	0.493
1306.001	733.621	79.987	19.993	99.991	19.987	3.764	0.490
1306.501	733.903	79.987	19.992	99.988	19.984	3.939	0.512
1307.000	734.148	79.987	19.992	99.988	19.985	3.935	0.528
1307.501	734.414	79.985	19.993	99.987	19.983	4.023	0.519
1308.001	734.653	79.985	19.991	99.986	19.986	3.837	0.508
1308.501	734.889	79.987	19.991	99.985	19.986	3.824	0.490
1309.001	735.137	79.987	19.992	99.987	19.988	3.689	0.479
1309.501	735.381	79.986	19.993	99.988	19.985	3.926	0.488
1310.001	735.620	79.985	19.992	99.988	19.983	4.081	0.488
1310.500	735.915	79.986	19.992	99.988	19.985	3.904	0.508
1311.001	736.142	79.985	19.991	99.988	19.985	3.899	0.528
1311.501	736.406	79.986	19.993	99.986	19.982	4.157	0.507
1312.000	736.633	79.985	19.992	99.985	19.983	4.097	0.491
1312.500	736.924	79.986	19.992	99.986	19.986	3.786	0.504
1313.000	737.166	79.986	19.992	99.985	19.984	3.986	0.525
1313.500	737.437	79.986	19.991	99.984	19.980	4.285	0.523
1314.000	737.672	79.984	19.992	99.984	19.982	4.179	0.510
1314.500	737.922	79.985	19.992	99.984	19.982	4.117	0.495
1315.001	738.158	79.983	19.991	99.984	19.983	4.028	0.486
1315.501	738.444	79.986	19.991	99.985	19.983	4.061	0.504
1316.000	738.694	79.983	19.992	99.986	19.980	4.349	0.529
1316.500	738.933	79.986	19.992	99.986	19.980	4.279	0.513
1317.000	739.193	79.984	19.992	99.986	19.981	4.267	0.494
1317.500	739.456	79.984	19.992	99.985	19.980	4.327	0.511
1318.000	739.721	79.985	19.993	99.986	19.979	4.401	0.526
1318.500	739.974	79.985	19.992	99.986	19.985	3.930	0.523
1319.000	740.255	79.984	19.992	99.987	19.981	4.201	0.526
1319.500	740.465	79.986	19.991	99.987	19.981	4.236	0.513
1320.001	740.710	79.984	19.991	99.988	19.981	4.188	0.473
1320.501	740.992	79.985	19.992	99.988	19.979	4.387	0.491
1321.000	741.260	79.984	19.992	99.988	19.978	4.476	0.538
1321.500	741.524	79.984	19.992	99.988	19.981	4.254	0.541
1322.000	741.779	79.984	19.992	99.988	19.983	4.054	0.526
1322.500	742.015	79.984	19.991	99.988	19.980	4.336	0.505
1323.000	742.310	79.986	19.992	99.989	19.983	4.037	0.511
1323.500	742.515	79.985	19.992	99.988	19.985	3.897	0.515
1324.000	742.773	79.984	19.990	99.988	19.985	3.877	0.481
1324.500	743.036	79.986	19.993	99.987	19.982	4.141	0.492
1325.001	743.295	79.987	19.992	99.987	19.981	4.199	0.522
1325.501	743.527	79.987	19.991	99.987	19.982	4.130	0.506
