Sample ID:	C:\MCC\MCC Cal\Test\Fiber_Cement_Board\Fiber_Cement_Board_30_1.txt
Sample Weight (mg):	4.21
Heating Rate (C/s):	0.5
Combustor Temp (C):	900
N2 Flow Rate (cc/min):	80
O2 Flow Rate (cc/min):	20
Calibration File:	C:\MCC\MCC Cal\Coeff1 JN10440_30_210304.txt.txt
T Correction Coefficients:	0	1.024463	0
Time Shift (s):	14
*
Time (s)	Temperature (C)	N2 flow rate (cc/min)	O2 flow rate (cc/min)	Flow Rate (cc/min)	Oxygen (%)	HRR (W/g)	Heating rate (C/s)
0.000	111.737	79.985	19.992	99.892	19.971	0.196	-0.027
0.500	111.777	79.985	19.991	99.890	19.970	0.233	0.006
1.000	111.707	79.985	19.993	99.887	19.972	0.096	0.004
1.500	111.709	79.983	19.991	99.886	19.973	-0.018	-0.049
2.000	111.724	79.985	19.992	99.886	19.970	0.213	-0.026
2.500	111.682	79.984	19.992	99.887	19.967	0.463	-0.005
3.000	111.728	79.985	19.992	99.888	19.970	0.221	-0.012
3.500	111.701	79.983	19.992	99.892	19.976	-0.221	0.011
4.000	111.701	79.984	19.991	99.896	19.977	-0.257	-0.004
4.500	111.689	79.985	19.992	99.896	19.974	-0.062	-0.020
5.000	111.681	79.984	19.991	99.893	19.966	0.523	-0.016
5.500	111.682	79.983	19.991	99.893	19.970	0.228	-0.013
6.000	111.670	79.984	19.991	99.889	19.972	0.116	-0.009
6.500	111.687	79.984	19.991	99.889	19.971	0.160	-0.003
7.000	111.645	79.983	19.992	99.894	19.976	-0.226	-0.010
7.500	111.666	79.984	19.991	99.899	19.967	0.439	-0.023
8.000	111.657	79.982	19.990	99.901	19.968	0.379	-0.004
8.500	111.627	79.983	19.991	99.905	19.971	0.180	-0.014
9.000	111.649	79.984	19.992	99.904	19.970	0.244	-0.024
9.500	111.659	79.983	19.991	99.903	19.971	0.162	0.012
10.000	111.642	79.983	19.991	99.905	19.968	0.363	0.012
10.500	111.605	79.984	19.991	99.906	19.965	0.589	-0.031
11.000	111.630	79.983	19.992	99.907	19.968	0.425	-0.033
11.500	111.644	79.982	19.991	99.909	19.969	0.337	0.014
12.000	111.627	79.983	19.992	99.912	19.967	0.477	0.018
12.500	111.604	79.984	19.992	99.912	19.969	0.291	-0.022
13.000	111.605	79.984	19.992	99.912	19.966	0.507	-0.031
13.500	111.646	79.982	19.992	99.914	19.967	0.467	0.010
14.000	111.628	79.983	19.991	99.915	19.964	0.687	0.033
14.500	111.619	79.983	19.992	99.915	19.965	0.607	-0.001
15.000	111.618	79.983	19.991	99.920	19.963	0.757	-0.018
15.500	111.633	79.983	19.992	99.926	19.967	0.459	0.001
16.000	111.647	79.984	19.992	99.933	19.964	0.705	0.021
16.500	111.609	79.982	19.992	99.938	19.964	0.675	0.003
17.000	111.646	79.984	19.991	99.945	19.962	0.844	-0.012
17.500	111.623	79.985	19.993	99.948	19.963	0.769	0.006
18.000	111.679	79.983	19.992	99.950	19.964	0.717	0.024
18.500	111.702	79.985	19.992	99.950	19.960	0.964	0.056
19.000	111.693	79.983	19.992	99.950	19.960	0.988	0.046
19.500	111.655	79.985	19.992	99.950	19.960	0.948	-0.017
20.000	111.656	79.984	19.992	99.950	19.959	1.026	-0.042
20.500	111.631	79.984	19.990	99.950	19.960	0.948	-0.031
21.000	111.631	79.984	19.992	99.949	19.960	0.990	-0.024
21.500	111.663	79.983	19.992	99.949	19.961	0.926	0.004
22.000	111.674	79.983	19.992	99.948	19.959	1.026	0.038
22.500	111.672	79.983	19.992	99.948	19.961	0.899	0.025
23.000	111.685	79.986	19.992	99.953	19.962	0.859	0.010
23.500	111.685	79.984	19.992	99.960	19.961	0.873	0.012
24.000	111.727	79.984	19.992	99.962	19.959	1.045	0.028
24.500	111.703	79.984	19.992	99.965	19.959	1.049	0.030
25.000	111.759	79.984	19.992	99.965	19.959	1.033	0.025
25.500	111.793	79.983	19.990	99.963	19.960	0.971	0.061
26.000	111.802	79.984	19.991	99.959	19.959	1.075	0.067
26.500	111.784	79.984	19.991	99.959	19.959	1.029	0.017
27.000	111.777	79.983	19.991	99.960	19.957	1.175	-0.017
27.500	111.812	79.983	19.993	99.960	19.957	1.215	0.001
28.000	111.823	79.984	19.990	99.959	19.958	1.105	0.037
28.500	111.861	79.983	19.991	99.958	19.958	1.167	0.048
29.000	111.867	79.984	19.991	99.963	19.959	1.057	0.046
29.500	111.897	79.983	19.991	99.970	19.959	1.093	0.040
30.000	111.905	79.984	19.992	99.977	19.961	0.912	0.037
30.500	111.929	79.984	19.991	99.983	19.958	1.149	0.035
31.000	111.924	79.984	19.991	99.985	19.956	1.259	0.025
31.500	111.979	79.983	19.992	99.982	19.955	1.337	0.034
32.000	111.949	79.983	19.991	99.978	19.952	1.593	0.038
32.500	111.972	79.983	19.991	99.977	19.951	1.619	0.009
33.000	112.019	79.983	19.991	99.984	19.953	1.517	0.032
33.500	112.036	79.984	19.991	99.998	19.947	1.917	0.067
34.000	112.080	79.984	19.991	100.017	19.949	1.803	0.063
34.500	112.097	79.983	19.991	100.036	19.947	1.965	0.061
35.000	112.149	79.984	19.991	100.052	19.947	1.959	0.065
35.501	112.182	79.985	19.991	100.061	19.945	2.069	0.077
36.001	112.226	79.983	19.990	100.067	19.946	2.025	0.081
36.501	112.264	79.983	19.992	100.068	19.942	2.307	0.079
37.001	112.298	79.983	19.992	100.067	19.944	2.185	0.077
37.500	112.348	79.984	19.991	100.068	19.941	2.357	0.078
38.000	112.406	79.983	19.991	100.068	19.942	2.297	0.096
38.500	112.417	79.983	19.992	100.072	19.939	2.577	0.089
39.000	112.461	79.984	19.992	100.080	19.939	2.562	0.062
39.500	112.552	79.984	19.992	100.085	19.940	2.476	0.095
40.000	112.600	79.985	19.993	100.090	19.937	2.664	0.137
40.501	112.648	79.985	19.992	100.098	19.940	2.476	0.117
41.001	112.716	79.984	19.992	100.101	19.936	2.802	0.106
41.500	112.735	79.983	19.993	100.101	19.938	2.624	0.101
42.000	112.836	79.984	19.992	100.103	19.935	2.830	0.104
42.500	112.902	79.984	19.992	100.104	19.934	2.942	0.144
43.000	112.944	79.984	19.992	100.104	19.932	3.036	0.138
43.500	113.059	79.986	19.991	100.105	19.932	3.028	0.133
44.001	113.113	79.985	19.991	100.105	19.933	2.970	0.163
44.501	113.190	79.985	19.992	100.107	19.936	2.800	0.150
45.000	113.234	79.984	19.991	100.110	19.927	3.429	0.125
45.500	113.344	79.985	19.992	100.113	19.928	3.342	0.137
46.000	113.367	79.985	19.992	100.112	19.930	3.222	0.144
46.501	113.471	79.985	19.991	100.112	19.929	3.278	0.131
47.001	113.536	79.985	19.992	100.112	19.929	3.278	0.148
47.500	113.682	79.985	19.991	100.112	19.927	3.456	0.190
48.000	113.710	79.985	19.992	100.113	19.926	3.526	0.192
48.500	113.828	79.985	19.992	100.118	19.925	3.596	0.160
49.000	113.913	79.985	19.992	100.125	19.926	3.508	0.174
49.500	114.004	79.985	19.991	100.132	19.925	3.546	0.189
50.001	114.131	79.985	19.992	100.136	19.922	3.786	0.197
50.501	114.220	79.986	19.992	100.138	19.928	3.360	0.217
51.000	114.320	79.986	19.991	100.140	19.922	3.838	0.203
51.501	114.433	79.984	19.991	100.140	19.919	3.990	0.201
52.001	114.522	79.984	19.992	100.140	19.924	3.676	0.207
52.500	114.625	79.984	19.992	100.140	19.925	3.610	0.197
53.000	114.773	79.986	19.993	100.140	19.923	3.756	0.221
53.500	114.838	79.984	19.992	100.136	19.923	3.694	0.232
54.000	114.940	79.984	19.992	100.136	19.922	3.836	0.190
54.500	115.076	79.986	19.992	100.136	19.923	3.704	0.203
55.001	115.161	79.986	19.992	100.135	19.920	3.984	0.229
55.501	115.312	79.985	19.992	100.134	19.926	3.514	0.228
56.000	115.395	79.986	19.993	100.136	19.924	3.658	0.235
56.500	115.536	79.985	19.992	100.137	19.925	3.554	0.229
57.000	115.644	79.985	19.992	100.137	19.922	3.773	0.236
57.501	115.784	79.984	19.993	100.138	19.923	3.701	0.248
58.001	115.897	79.985	19.992	100.141	19.927	3.447	0.251
58.500	116.027	79.984	19.993	100.142	19.927	3.452	0.248
59.000	116.121	79.985	19.992	100.142	19.922	3.780	0.234
59.501	116.262	79.984	19.992	100.142	19.927	3.428	0.229
60.001	116.414	79.986	19.992	100.141	19.924	3.688	0.264
60.500	116.532	79.985	19.992	100.141	19.925	3.550	0.282
61.000	116.639	79.985	19.992	100.140	19.926	3.500	0.247
61.500	116.818	79.986	19.993	100.141	19.926	3.527	0.255
62.000	116.929	79.985	19.992	100.141	19.928	3.363	0.288
62.500	117.074	79.986	19.991	100.141	19.921	3.871	0.273
63.000	117.217	79.985	19.992	100.142	19.922	3.832	0.271
63.500	117.345	79.986	19.992	100.143	19.923	3.714	0.279
64.000	117.497	79.985	19.992	100.144	19.921	3.850	0.276
64.501	117.624	79.985	19.992	100.147	19.921	3.908	0.280
65.001	117.762	79.985	19.992	100.148	19.921	3.900	0.272
65.500	117.925	79.986	19.992	100.147	19.923	3.710	0.283
66.000	118.085	79.984	19.992	100.148	19.923	3.753	0.312
66.500	118.252	79.987	19.991	100.152	19.920	3.939	0.325
67.000	118.393	79.985	19.991	100.155	19.921	3.863	0.318
67.500	118.530	79.985	19.993	100.159	19.921	3.877	0.293
68.001	118.697	79.986	19.991	100.165	19.921	3.855	0.291
68.501	118.861	79.987	19.993	100.167	19.922	3.837	0.317
69.000	119.011	79.986	19.992	100.169	19.921	3.913	0.322
69.500	119.155	79.985	19.992	100.165	19.923	3.725	0.304
70.000	119.347	79.987	19.991	100.163	19.918	4.131	0.315
70.500	119.501	79.986	19.992	100.159	19.918	4.122	0.341
71.000	119.677	79.986	19.992	100.160	19.919	4.058	0.338
71.500	119.854	79.988	19.992	100.161	19.916	4.224	0.341
72.000	120.023	79.987	19.992	100.165	19.917	4.145	0.349
72.500	120.188	79.986	19.992	100.169	19.922	3.813	0.340
73.001	120.375	79.986	19.992	100.170	19.921	3.885	0.343
73.501	120.510	79.986	19.992	100.166	19.918	4.079	0.337
74.001	120.660	79.986	19.992	100.159	19.916	4.229	0.304
74.500	120.886	79.986	19.992	100.154	19.920	3.983	0.330
75.000	121.013	79.987	19.992	100.153	19.918	4.133	0.364
75.500	121.246	79.987	19.992	100.153	19.921	3.879	0.357
76.000	121.394	79.985	19.992	100.158	19.919	3.991	0.371
76.500	121.545	79.985	19.992	100.164	19.922	3.805	0.339
77.000	121.808	79.986	19.992	100.169	19.917	4.155	0.356
77.500	121.939	79.986	19.992	100.168	19.916	4.225	0.404
78.000	122.122	79.986	19.992	100.171	19.919	3.999	0.354
78.501	122.300	79.986	19.993	100.173	19.917	4.159	0.338
79.001	122.519	79.984	19.992	100.173	19.919	4.027	0.379
79.500	122.683	79.985	19.993	100.171	19.917	4.189	0.390
80.000	122.872	79.984	19.992	100.174	19.916	4.285	0.368
80.500	123.050	79.984	19.991	100.167	19.917	4.195	0.360
81.000	123.266	79.983	19.993	100.166	19.919	4.061	0.381
81.500	123.435	79.983	19.994	100.163	19.917	4.173	0.389
82.000	123.629	79.984	19.993	100.161	19.917	4.185	0.374
82.500	123.824	79.983	19.993	100.163	19.920	3.935	0.376
83.000	124.025	79.982	19.993	100.171	19.916	4.269	0.393
83.500	124.235	79.984	19.992	100.173	19.915	4.343	0.404
84.000	124.396	79.983	19.993	100.176	19.920	3.951	0.391
84.500	124.587	79.985	19.992	100.182	19.918	4.127	0.361
85.000	124.799	79.985	19.992	100.182	19.919	4.055	0.378
85.500	125.027	79.985	19.992	100.182	19.918	4.131	0.422
86.000	125.169	79.983	19.992	100.182	19.918	4.097	0.405
86.500	125.419	79.982	19.992	100.179	19.919	4.033	0.381
87.000	125.602	79.984	19.992	100.177	19.916	4.279	0.413
87.500	125.798	79.983	19.992	100.175	19.917	4.195	0.406
88.000	126.017	79.983	19.992	100.174	19.915	4.361	0.397
88.500	126.208	79.984	19.992	100.175	19.917	4.179	0.412
89.001	126.401	79.985	19.991	100.177	19.919	4.061	0.397
89.501	126.630	79.984	19.991	100.180	19.918	4.111	0.403
90.000	126.842	79.984	19.992	100.181	19.914	4.367	0.431
90.500	127.015	79.983	19.991	100.181	19.916	4.225	0.413
91.000	127.248	79.984	19.992	100.181	19.916	4.269	0.396
91.500	127.468	79.984	19.992	100.182	19.913	4.463	0.429
92.001	127.632	79.984	19.991	100.180	19.917	4.175	0.418
92.501	127.879	79.983	19.991	100.181	19.917	4.207	0.398
93.000	128.076	79.983	19.990	100.183	19.918	4.139	0.428
93.500	128.282	79.984	19.991	100.181	19.915	4.319	0.424
94.000	128.502	79.984	19.991	100.178	19.916	4.217	0.415
94.501	128.719	79.983	19.991	100.175	19.917	4.189	0.432
95.001	128.912	79.984	19.991	100.174	19.917	4.187	0.424
95.500	129.125	79.985	19.992	100.174	19.915	4.300	0.408
96.001	129.393	79.985	19.992	100.176	19.917	4.194	0.443
96.501	129.621	79.985	19.992	100.178	19.915	4.338	0.488
97.000	129.798	79.984	19.991	100.182	19.916	4.277	0.450
97.501	130.028	79.985	19.991	100.183	19.917	4.175	0.406
98.001	130.233	79.985	19.991	100.183	19.917	4.169	0.421
98.501	130.452	79.983	19.991	100.183	19.921	3.905	0.430
99.000	130.657	79.984	19.992	100.183	19.920	3.933	0.424
99.500	130.914	79.984	19.991	100.181	19.914	4.369	0.443
100.001	131.119	79.983	19.991	100.179	19.915	4.305	0.462
100.501	131.343	79.986	19.992	100.176	19.916	4.273	0.446
101.000	131.581	79.985	19.992	100.174	19.917	4.173	0.446
101.500	131.839	79.984	19.992	100.173	19.919	4.063	0.479
102.000	132.012	79.986	19.993	100.172	19.918	4.119	0.463
102.500	132.242	79.985	19.992	100.171	19.916	4.257	0.417
103.000	132.466	79.985	19.992	100.171	19.923	3.767	0.428
103.500	132.672	79.985	19.992	100.173	19.919	4.051	0.442
104.000	132.908	79.985	19.992	100.174	19.919	4.063	0.436
104.500	133.130	79.985	19.992	100.175	19.923	3.724	0.450
105.000	133.375	79.985	19.992	100.174	19.922	3.832	0.463
105.500	133.592	79.985	19.990	100.168	19.925	3.564	0.464
106.001	133.829	79.985	19.992	100.164	19.922	3.820	0.458
106.501	134.054	79.985	19.991	100.161	19.921	3.846	0.459
107.000	134.285	79.984	19.992	100.157	19.923	3.716	0.459
107.501	134.516	79.984	19.992	100.159	19.919	4.062	0.459
108.001	134.780	79.984	19.992	100.164	19.917	4.192	0.478
108.501	134.978	79.985	19.991	100.167	19.916	4.240	0.478
109.000	135.192	79.984	19.991	100.169	19.918	4.134	0.437
109.500	135.460	79.983	19.992	100.174	19.921	3.914	0.447
110.001	135.711	79.984	19.991	100.171	19.920	3.938	0.501
110.501	135.921	79.985	19.992	100.172	19.920	3.962	0.490
111.000	136.162	79.984	19.991	100.171	19.919	3.998	0.456
111.500	136.441	79.984	19.992	100.172	19.919	4.016	0.485
112.000	136.663	79.983	19.992	100.171	19.921	3.915	0.510
112.500	136.918	79.983	19.992	100.173	19.919	4.029	0.489
113.000	137.140	79.983	19.991	100.175	19.918	4.117	0.477
113.500	137.356	79.985	19.992	100.175	19.920	3.941	0.458
114.000	137.602	79.983	19.991	100.175	19.916	4.231	0.451
114.500	137.818	79.984	19.991	100.171	19.917	4.167	0.462
115.000	138.064	79.984	19.991	100.166	19.920	3.987	0.461
115.500	138.328	79.984	19.993	100.159	19.916	4.267	0.486
116.000	138.543	79.983	19.992	100.155	19.919	4.060	0.495
116.500	138.826	79.984	19.992	100.154	19.919	4.024	0.488
117.000	139.079	79.984	19.992	100.155	19.915	4.340	0.517
117.500	139.324	79.984	19.992	100.158	19.921	3.886	0.517
118.000	139.567	79.984	19.992	100.159	19.916	4.220	0.493
118.500	139.833	79.983	19.993	100.157	19.920	3.950	0.498
119.000	140.064	79.985	19.992	100.156	19.920	3.968	0.503
119.500	140.285	79.983	19.992	100.155	19.917	4.155	0.475
120.000	140.580	79.984	19.993	100.155	19.921	3.906	0.484
120.500	140.792	79.984	19.993	100.156	19.920	3.952	0.511
121.000	140.998	79.984	19.992	100.161	19.919	4.040	0.462
121.500	141.219	79.984	19.992	100.160	19.919	3.990	0.422
122.000	141.497	79.984	19.992	100.162	19.922	3.814	0.463
122.500	141.729	79.984	19.992	100.161	19.918	4.115	0.505
123.000	141.983	79.985	19.991	100.164	19.920	3.924	0.498
123.500	142.259	79.985	19.991	100.164	19.918	4.129	0.508
124.000	142.466	79.986	19.992	100.165	19.920	3.977	0.506
124.500	142.772	79.985	19.991	100.167	19.920	3.927	0.498
125.001	142.963	79.985	19.992	100.171	19.920	3.926	0.505
125.501	143.184	79.985	19.991	100.172	19.918	4.113	0.455
126.001	143.491	79.986	19.992	100.166	19.921	3.858	0.471
126.501	143.692	79.987	19.991	100.164	19.921	3.848	0.518
127.000	143.962	79.986	19.992	100.162	19.922	3.784	0.489
127.500	144.200	79.986	19.991	100.159	19.921	3.894	0.489
128.000	144.441	79.985	19.992	100.158	19.919	4.006	0.494
128.500	144.744	79.986	19.992	100.159	19.921	3.900	0.512
129.000	144.943	79.985	19.992	100.161	19.918	4.086	0.523
129.500	145.220	79.985	19.991	100.159	19.918	4.126	0.489
130.000	145.437	79.986	19.992	100.157	19.916	4.224	0.485
130.500	145.717	79.985	19.991	100.138	19.918	4.110	0.495
131.000	145.928	79.986	19.992	100.109	19.918	4.124	0.494
131.500	146.225	79.986	19.991	100.093	19.917	4.188	0.500
132.000	146.432	79.985	19.992	100.090	19.919	4.014	0.506
132.500	146.657	79.984	19.992	100.089	19.918	4.094	0.468
133.000	146.931	79.986	19.991	100.108	19.920	3.932	0.466
133.500	147.211	79.985	19.992	100.167	19.919	4.012	0.526
134.000	147.444	79.986	19.991	100.213	19.922	3.840	0.533
134.500	147.690	79.985	19.992	100.223	19.920	3.960	0.496
135.000	147.926	79.984	19.992	100.230	19.918	4.076	0.480
135.500	148.151	79.984	19.992	100.231	19.920	3.956	0.471
136.000	148.407	79.985	19.992	100.202	19.918	4.072	0.471
136.500	148.662	79.985	19.992	100.169	19.921	3.870	0.496
137.000	148.932	79.984	19.992	100.162	19.919	4.050	0.518
137.500	149.212	79.985	19.991	100.154	19.919	4.048	0.538
138.000	149.448	79.985	19.992	100.149	19.921	3.848	0.533
138.500	149.688	79.984	19.991	100.147	19.923	3.712	0.496
139.000	149.946	79.986	19.991	100.150	19.921	3.900	0.487
139.500	150.212	79.985	19.991	100.150	19.925	3.586	0.510
140.000	150.462	79.985	19.993	100.152	19.921	3.892	0.520
140.500	150.697	79.984	19.992	100.152	19.919	4.004	0.501
141.000	150.961	79.984	19.993	100.151	19.919	4.024	0.492
141.500	151.184	79.984	19.991	100.148	19.921	3.896	0.493
142.000	151.454	79.984	19.993	100.146	19.918	4.108	0.490
142.500	151.708	79.985	19.991	100.144	19.919	4.010	0.508
143.000	151.931	79.985	19.993	100.144	19.921	3.842	0.501
143.500	152.150	79.985	19.991	100.145	19.924	3.644	0.459
144.000	152.449	79.985	19.993	100.146	19.921	3.876	0.480
144.500	152.688	79.985	19.992	100.146	19.924	3.666	0.528
145.000	152.950	79.988	19.992	100.146	19.923	3.736	0.520
145.500	153.226	79.986	19.992	100.146	19.922	3.812	0.520
146.000	153.476	79.986	19.991	100.145	19.921	3.896	0.532
146.500	153.711	79.987	19.991	100.144	19.923	3.728	0.505
147.000	153.937	79.985	19.991	100.144	19.925	3.562	0.473
147.500	154.165	79.986	19.992	100.144	19.922	3.782	0.458
148.000	154.452	79.985	19.991	100.146	19.919	4.016	0.484
148.500	154.725	79.986	19.992	100.146	19.922	3.834	0.537
149.000	154.910	79.987	19.991	100.145	19.922	3.840	0.509
149.500	155.194	79.987	19.992	100.145	19.922	3.810	0.463
150.000	155.440	79.988	19.992	100.144	19.922	3.818	0.500
150.500	155.721	79.987	19.992	100.142	19.922	3.786	0.529
151.000	155.983	79.987	19.992	100.141	19.923	3.738	0.535
151.500	156.219	79.987	19.992	100.141	19.921	3.882	0.520
152.001	156.461	79.986	19.991	100.141	19.925	3.598	0.488
152.500	156.742	79.987	19.991	100.143	19.920	3.916	0.500
153.000	156.972	79.987	19.992	100.144	19.920	3.958	0.517
153.500	157.241	79.989	19.991	100.145	19.922	3.816	0.505
154.000	157.476	79.986	19.991	100.145	19.920	3.972	0.502
154.500	157.716	79.989	19.992	100.145	19.923	3.749	0.489
155.000	157.960	79.988	19.991	100.144	19.920	3.981	0.479
155.500	158.240	79.987	19.992	100.144	19.922	3.825	0.504
156.000	158.484	79.988	19.991	100.143	19.920	3.973	0.524
156.500	158.740	79.988	19.993	100.143	19.922	3.799	0.512
157.000	158.994	79.987	19.992	100.142	19.921	3.871	0.505
157.500	159.257	79.986	19.991	100.143	19.922	3.827	0.514
158.000	159.507	79.985	19.993	100.143	19.921	3.905	0.514
158.500	159.775	79.986	19.993	100.143	19.918	4.109	0.515
159.000	160.015	79.986	19.992	100.143	19.921	3.882	0.513
159.500	160.253	79.987	19.993	100.142	19.923	3.706	0.493
160.000	160.538	79.985	19.993	100.142	19.923	3.738	0.501
160.500	160.779	79.987	19.992	100.142	19.924	3.676	0.525
161.000	161.026	79.986	19.993	100.142	19.923	3.761	0.507
161.500	161.285	79.985	19.992	100.142	19.924	3.657	0.497
162.000	161.506	79.985	19.993	100.142	19.925	3.573	0.493
162.500	161.753	79.985	19.993	100.142	19.925	3.615	0.473
163.000	162.003	79.984	19.993	100.141	19.922	3.805	0.482
163.500	162.257	79.983	19.994	100.141	19.921	3.902	0.501
164.000	162.497	79.984	19.993	100.140	19.922	3.822	0.499
164.500	162.791	79.983	19.992	100.140	19.920	3.975	0.514
165.000	163.035	79.984	19.992	100.140	19.921	3.907	0.536
165.500	163.279	79.983	19.993	100.137	19.924	3.641	0.513
166.000	163.498	79.985	19.993	100.132	19.924	3.691	0.475
166.500	163.735	79.984	19.992	100.129	19.921	3.879	0.459
167.000	164.017	79.983	19.992	100.128	19.923	3.741	0.487
167.500	164.284	79.983	19.992	100.128	19.925	3.565	0.534
168.000	164.516	79.984	19.993	100.130	19.919	3.995	0.524
168.500	164.774	79.985	19.993	100.135	19.924	3.641	0.495
169.000	165.033	79.984	19.993	100.138	19.924	3.647	0.504
169.500	165.222	79.984	19.993	100.138	19.928	3.359	0.482
170.000	165.496	79.985	19.993	100.139	19.924	3.685	0.456
170.500	165.782	79.984	19.992	100.138	19.926	3.517	0.512
171.000	166.052	79.984	19.993	100.138	19.925	3.569	0.558
171.500	166.291	79.984	19.992	100.138	19.924	3.647	0.532
172.000	166.531	79.985	19.992	100.134	19.923	3.749	0.494
172.500	166.775	79.985	19.993	100.134	19.924	3.645	0.482
173.000	167.045	79.983	19.993	100.135	19.926	3.490	0.499
173.500	167.299	79.985	19.991	100.135	19.926	3.518	0.519
174.000	167.553	79.984	19.992	100.137	19.927	3.430	0.516
174.500	167.797	79.984	19.992	100.140	19.922	3.772	0.502
175.000	168.082	79.984	19.992	100.140	19.925	3.563	0.513
175.500	168.285	79.985	19.991	100.138	19.925	3.589	0.508
176.000	168.527	79.985	19.992	100.137	19.924	3.623	0.466
176.500	168.799	79.985	19.992	100.134	19.920	3.929	0.480
177.000	169.031	79.984	19.992	100.132	19.924	3.621	0.509
177.500	169.291	79.986	19.991	100.131	19.927	3.429	0.498
178.000	169.509	79.984	19.991	100.131	19.927	3.453	0.485
178.500	169.771	79.984	19.992	100.129	19.924	3.667	0.479
179.000	170.012	79.985	19.992	100.124	19.927	3.405	0.491
179.500	170.273	79.985	19.991	100.119	19.923	3.743	0.502
180.000	170.524	79.983	19.992	100.118	19.924	3.637	0.507
180.500	170.802	79.985	19.992	100.118	19.924	3.687	0.520
181.000	171.039	79.985	19.992	100.121	19.923	3.757	0.522
181.500	171.259	79.984	19.992	100.126	19.926	3.523	0.486
182.000	171.494	79.984	19.991	100.129	19.922	3.799	0.456
182.500	171.776	79.985	19.992	100.124	19.929	3.303	0.486
183.000	172.028	79.985	19.992	100.119	19.925	3.549	0.525
183.500	172.294	79.984	19.992	100.112	19.926	3.509	0.526
184.000	172.545	79.984	19.992	100.107	19.924	3.631	0.518
184.500	172.821	79.986	19.992	100.105	19.924	3.661	0.522
185.000	173.023	79.984	19.993	100.105	19.925	3.603	0.502
185.500	173.268	79.986	19.992	100.109	19.923	3.743	0.463
186.000	173.499	79.985	19.992	100.116	19.926	3.483	0.461
186.500	173.756	79.985	19.991	100.119	19.927	3.443	0.482
187.000	174.029	79.985	19.992	100.119	19.928	3.387	0.509
187.500	174.252	79.986	19.992	100.118	19.929	3.279	0.513
188.000	174.539	79.985	19.992	100.117	19.928	3.325	0.503
188.500	174.739	79.985	19.992	100.118	19.931	3.163	0.499
189.000	175.026	79.984	19.991	100.119	19.930	3.195	0.487
189.500	175.236	79.985	19.992	100.120	19.929	3.279	0.491
190.000	175.491	79.983	19.993	100.124	19.928	3.381	0.481
190.500	175.727	79.985	19.992	100.125	19.928	3.329	0.479
191.000	175.995	79.985	19.992	100.118	19.931	3.153	0.498
191.500	176.259	79.984	19.993	100.116	19.929	3.297	0.518
192.000	176.512	79.985	19.992	100.118	19.929	3.259	0.524
192.500	176.730	79.984	19.992	100.119	19.929	3.289	0.494
193.000	176.974	79.984	19.992	100.116	19.929	3.293	0.467
193.500	177.198	79.984	19.992	100.118	19.929	3.279	0.465
194.000	177.449	79.985	19.992	100.117	19.932	3.081	0.472
194.500	177.727	79.985	19.992	100.118	19.931	3.125	0.502
195.000	177.955	79.984	19.992	100.114	19.929	3.267	0.518
195.500	178.240	79.983	19.992	100.114	19.929	3.275	0.510
196.000	178.469	79.984	19.992	100.113	19.929	3.261	0.513
196.500	178.771	79.984	19.991	100.114	19.933	2.991	0.522
197.000	179.002	79.984	19.992	100.113	19.929	3.267	0.532
197.500	179.235	79.984	19.991	100.118	19.931	3.101	0.499
198.000	179.459	79.984	19.992	100.121	19.934	2.893	0.461
198.500	179.723	79.985	19.991	100.120	19.930	3.197	0.473
199.000	179.955	79.984	19.991	100.119	19.932	3.083	0.492
199.500	180.237	79.983	19.992	100.117	19.932	3.083	0.504
200.000	180.450	79.985	19.991	100.112	19.930	3.223	0.504
200.500	180.718	79.984	19.992	100.110	19.934	2.939	0.488
201.000	180.974	79.984	19.991	100.114	19.932	3.069	0.502
201.500	181.245	79.985	19.992	100.114	19.933	2.973	0.525
202.000	181.484	79.985	19.992	100.116	19.934	2.921	0.519
202.500	181.727	79.985	19.991	100.118	19.932	3.093	0.496
203.000	181.972	79.985	19.991	100.116	19.935	2.865	0.485
203.500	182.230	79.986	19.991	100.112	19.932	3.091	0.495
204.000	182.460	79.986	19.991	100.113	19.929	3.247	0.496
204.500	182.739	79.987	19.992	100.114	19.933	2.977	0.499
205.000	182.982	79.986	19.992	100.113	19.932	3.051	0.515
205.500	183.208	79.986	19.990	100.114	19.933	2.989	0.495
206.000	183.447	79.988	19.992	100.113	19.932	3.063	0.467
206.500	183.694	79.986	19.992	100.111	19.933	3.019	0.475
207.000	183.938	79.986	19.991	100.108	19.929	3.255	0.488
207.500	184.180	79.986	19.992	100.107	19.931	3.129	0.489
208.000	184.493	79.987	19.992	100.106	19.931	3.145	0.521
208.500	184.699	79.987	19.992	100.106	19.929	3.295	0.537
209.000	184.946	79.987	19.992	100.107	19.929	3.309	0.486
209.500	185.200	79.988	19.991	100.107	19.931	3.151	0.477
210.000	185.474	79.986	19.992	100.106	19.931	3.145	0.514
210.500	185.740	79.987	19.992	100.106	19.929	3.273	0.533
211.000	185.997	79.987	19.991	100.107	19.930	3.181	0.531
211.500	186.276	79.986	19.991	100.108	19.931	3.141	0.530
212.000	186.501	79.986	19.991	100.108	19.931	3.149	0.520
212.500	186.748	79.987	19.991	100.108	19.932	3.079	0.488
213.000	186.960	79.984	19.992	100.108	19.932	3.031	0.465
213.500	187.221	79.986	19.991	100.106	19.933	3.005	0.466
214.000	187.465	79.985	19.992	100.106	19.932	3.062	0.489
214.500	187.744	79.986	19.991	100.110	19.933	3.004	0.514
215.000	187.985	79.986	19.992	100.111	19.931	3.114	0.521
215.500	188.210	79.986	19.991	100.110	19.933	2.985	0.493
216.000	188.484	79.985	19.993	100.110	19.930	3.224	0.483
216.500	188.707	79.986	19.992	100.110	19.931	3.106	0.498
217.000	188.983	79.984	19.993	100.105	19.931	3.170	0.498
217.500	189.196	79.984	19.992	100.105	19.933	2.959	0.493
218.000	189.432	79.986	19.992	100.106	19.932	3.041	0.469
218.500	189.714	79.985	19.992	100.106	19.934	2.943	0.483
219.000	189.943	79.985	19.991	100.106	19.932	3.072	0.514
219.500	190.198	79.984	19.992	100.108	19.932	3.068	0.497
220.000	190.415	79.985	19.991	100.109	19.934	2.937	0.478
220.500	190.652	79.986	19.992	100.110	19.933	2.993	0.463
221.000	190.914	79.986	19.992	100.110	19.929	3.248	0.477
221.500	191.148	79.984	19.992	100.110	19.934	2.929	0.498
222.000	191.406	79.985	19.993	100.109	19.932	3.051	0.494
222.500	191.654	79.985	19.992	100.107	19.932	3.076	0.499
223.001	191.863	79.985	19.992	100.106	19.932	3.050	0.481
223.501	192.138	79.985	19.993	100.104	19.932	3.030	0.470
224.001	192.335	79.986	19.992	100.103	19.933	3.020	0.478
224.500	192.573	79.986	19.992	100.102	19.934	2.919	0.454
225.000	192.871	79.985	19.993	100.102	19.933	3.022	0.486
225.500	193.107	79.986	19.993	100.101	19.933	2.983	0.535
226.000	193.382	79.987	19.993	100.103	19.933	3.017	0.522
226.500	193.585	79.986	19.993	100.102	19.935	2.871	0.494
227.000	193.830	79.986	19.993	100.102	19.934	2.935	0.463
227.500	194.085	79.986	19.993	100.102	19.933	3.021	0.474
228.000	194.290	79.986	19.992	100.103	19.932	3.082	0.480
228.500	194.552	79.987	19.992	100.103	19.930	3.208	0.464
229.000	194.806	79.986	19.992	100.102	19.930	3.186	0.492
229.500	195.030	79.987	19.992	100.102	19.933	3.001	0.497
230.000	195.255	79.987	19.992	100.102	19.933	3.019	0.463
230.500	195.543	79.987	19.992	100.101	19.934	2.944	0.481
231.000	195.822	79.988	19.992	100.101	19.934	2.934	0.540
231.500	196.045	79.987	19.992	100.102	19.934	2.932	0.534
232.000	196.263	79.988	19.992	100.102	19.934	2.908	0.471
232.500	196.519	79.987	19.993	100.102	19.928	3.328	0.458
233.000	196.781	79.988	19.992	100.102	19.932	3.034	0.496
233.500	197.014	79.988	19.991	100.102	19.931	3.152	0.507
234.000	197.241	79.986	19.992	100.101	19.931	3.150	0.477
234.500	197.481	79.988	19.992	100.101	19.932	3.034	0.463
235.000	197.739	79.986	19.992	100.101	19.933	2.971	0.483
235.500	198.005	79.986	19.993	100.101	19.933	3.021	0.511
236.000	198.220	79.986	19.992	100.102	19.933	2.977	0.502
236.500	198.474	79.986	19.992	100.102	19.932	3.036	0.475
237.000	198.721	79.987	19.992	100.102	19.933	2.985	0.485
237.500	198.973	79.987	19.992	100.103	19.934	2.926	0.500
238.000	199.188	79.985	19.991	100.102	19.931	3.118	0.483
238.500	199.444	79.987	19.991	100.102	19.933	3.012	0.469
239.000	199.700	79.986	19.992	100.102	19.931	3.170	0.491
239.500	199.977	79.986	19.992	100.102	19.931	3.164	0.522
240.000	200.156	79.985	19.991	100.102	19.932	3.042	0.495
240.500	200.450	79.985	19.992	100.102	19.933	3.016	0.464
241.000	200.681	79.984	19.992	100.102	19.932	3.028	0.499
241.500	200.910	79.984	19.992	100.099	19.930	3.192	0.492
242.000	201.155	79.985	19.993	100.097	19.932	3.066	0.467
242.500	201.400	79.984	19.992	100.096	19.933	2.950	0.482
243.000	201.634	79.984	19.993	100.095	19.936	2.778	0.485
243.500	201.907	79.985	19.992	100.093	19.934	2.896	0.493
244.000	202.159	79.984	19.992	100.096	19.935	2.842	0.516
244.500	202.419	79.984	19.992	100.097	19.935	2.852	0.519
245.000	202.610	79.984	19.993	100.097	19.935	2.868	0.481
245.500	202.888	79.984	19.995	100.099	19.940	2.499	0.459
246.000	203.129	79.985	19.994	100.101	19.940	2.467	0.494
246.500	203.396	79.984	19.993	100.102	19.937	2.677	0.514
247.000	203.607	79.985	19.993	100.102	19.938	2.633	0.493
247.500	203.829	79.985	19.993	100.101	19.936	2.766	0.456
248.000	204.076	79.984	19.994	100.101	19.934	2.902	0.451
248.500	204.359	79.984	19.992	100.100	19.935	2.860	0.499
249.000	204.624	79.984	19.993	100.100	19.937	2.719	0.540
249.500	204.839	79.984	19.993	100.099	19.936	2.753	0.514
250.000	205.113	79.983	19.992	100.099	19.933	2.986	0.484
250.500	205.346	79.984	19.993	100.099	19.937	2.681	0.498
251.000	205.578	79.984	19.993	100.100	19.932	3.032	0.487
251.500	205.845	79.983	19.993	100.098	19.934	2.880	0.482
252.000	206.090	79.985	19.994	100.096	19.939	2.566	0.505
252.500	206.370	79.985	19.994	100.093	19.938	2.620	0.518
253.000	206.620	79.984	19.994	100.091	19.936	2.762	0.528
253.500	206.827	79.982	19.993	100.091	19.940	2.437	0.494
254.000	207.091	79.985	19.993	100.092	19.941	2.421	0.464
254.500	207.342	79.983	19.994	100.093	19.937	2.700	0.493
255.000	207.603	79.983	19.993	100.096	19.937	2.690	0.513
255.500	207.829	79.984	19.993	100.097	19.936	2.796	0.500
256.000	208.088	79.983	19.993	100.095	19.939	2.566	0.486
256.500	208.337	79.984	19.993	100.095	19.936	2.796	0.497
257.000	208.575	79.984	19.993	100.097	19.934	2.922	0.497
257.500	208.829	79.985	19.993	100.095	19.936	2.774	0.489
258.000	209.122	79.983	19.993	100.095	19.937	2.693	0.519
258.500	209.327	79.984	19.993	100.097	19.935	2.827	0.523
259.000	209.605	79.984	19.993	100.096	19.933	2.988	0.491
259.500	209.865	79.984	19.993	100.096	19.935	2.806	0.510
260.000	210.125	79.985	19.992	100.098	19.935	2.838	0.529
260.500	210.341	79.983	19.992	100.098	19.935	2.864	0.498
261.000	210.620	79.984	19.993	100.098	19.935	2.810	0.486
261.500	210.842	79.984	19.991	100.098	19.934	2.880	0.498
262.000	211.087	79.984	19.991	100.095	19.934	2.880	0.484
262.500	211.316	79.985	19.992	100.095	19.936	2.795	0.471
263.000	211.593	79.983	19.992	100.093	19.933	2.978	0.490
263.500	211.838	79.985	19.992	100.093	19.936	2.781	0.514
264.000	212.055	79.983	19.992	100.095	19.936	2.761	0.492
264.500	212.313	79.984	19.992	100.097	19.936	2.785	0.468
265.000	212.572	79.985	19.992	100.093	19.937	2.721	0.495
265.500	212.815	79.982	19.991	100.094	19.936	2.727	0.509
266.000	213.078	79.985	19.991	100.093	19.938	2.591	0.505
266.500	213.325	79.983	19.991	100.090	19.939	2.537	0.508
267.000	213.597	79.984	19.992	100.087	19.937	2.687	0.514
267.500	213.846	79.985	19.992	100.093	19.938	2.589	0.520
268.000	214.086	79.984	19.991	100.094	19.938	2.645	0.505
268.500	214.332	79.984	19.992	100.094	19.941	2.377	0.487
269.000	214.575	79.985	19.992	100.097	19.939	2.575	0.488
269.500	214.829	79.984	19.992	100.101	19.939	2.507	0.494
270.000	215.072	79.983	19.993	100.099	19.938	2.625	0.497
270.500	215.294	79.984	19.991	100.094	19.941	2.403	0.480
271.000	215.554	79.984	19.992	100.092	19.941	2.409	0.473
271.500	215.773	79.984	19.992	100.091	19.941	2.363	0.481
272.000	216.006	79.985	19.992	100.092	19.938	2.644	0.466
272.500	216.271	79.983	19.991	100.094	19.935	2.870	0.475
273.000	216.512	79.985	19.992	100.099	19.936	2.793	0.502
273.500	216.761	79.984	19.991	100.103	19.936	2.767	0.498
274.000	216.993	79.983	19.992	100.101	19.937	2.691	0.485
274.500	217.258	79.985	19.993	100.101	19.938	2.602	0.488
275.000	217.525	79.983	19.992	100.101	19.936	2.756	0.514
275.500	217.775	79.984	19.991	100.102	19.935	2.811	0.525
276.000	218.003	79.983	19.992	100.103	19.938	2.601	0.498
276.500	218.268	79.984	19.992	100.106	19.938	2.584	0.485
277.000	218.536	79.983	19.992	100.103	19.937	2.710	0.513
277.500	218.784	79.984	19.991	100.100	19.939	2.528	0.525
278.000	219.032	79.984	19.992	100.098	19.939	2.512	0.506
278.500	219.260	79.985	19.992	100.094	19.939	2.577	0.486
279.000	219.521	79.985	19.991	100.095	19.937	2.667	0.482
279.500	219.751	79.984	19.991	100.097	19.935	2.854	0.490
280.000	220.004	79.984	19.992	100.099	19.938	2.608	0.488
280.500	220.254	79.984	19.991	100.097	19.936	2.740	0.493
281.000	220.518	79.983	19.991	100.100	19.939	2.534	0.508
281.500	220.808	79.983	19.992	100.096	19.936	2.736	0.534
282.000	221.007	79.984	19.992	100.090	19.938	2.593	0.522
282.500	221.254	79.985	19.991	100.089	19.936	2.729	0.468
283.000	221.508	79.985	19.992	100.092	19.938	2.604	0.473
283.500	221.775	79.984	19.992	100.088	19.936	2.748	0.511
284.000	222.022	79.985	19.991	100.057	19.938	2.598	0.518
284.500	222.253	79.986	19.992	100.033	19.938	2.612	0.496
285.000	222.506	79.986	19.992	100.021	19.936	2.762	0.481
285.500	222.743	79.986	19.992	100.014	19.935	2.816	0.487
286.000	222.973	79.986	19.992	100.014	19.939	2.511	0.479
286.500	223.196	79.985	19.991	100.050	19.941	2.407	0.460
287.000	223.485	79.985	19.992	100.108	19.943	2.276	0.482
287.500	223.706	79.986	19.991	100.147	19.941	2.390	0.511
288.000	223.936	79.985	19.992	100.156	19.942	2.342	0.480
288.500	224.208	79.986	19.992	100.159	19.940	2.486	0.476
289.000	224.455	79.986	19.992	100.155	19.940	2.492	0.511
289.500	224.718	79.986	19.992	100.126	19.942	2.324	0.515
290.000	224.991	79.986	19.991	100.099	19.940	2.490	0.523
290.500	225.225	79.986	19.992	100.093	19.942	2.308	0.522
291.000	225.465	79.987	19.992	100.088	19.940	2.478	0.490
291.500	225.713	79.986	19.992	100.088	19.941	2.380	0.481
292.000	225.988	79.987	19.991	100.089	19.939	2.572	0.506
292.500	226.242	79.985	19.991	100.091	19.937	2.720	0.526
293.000	226.441	79.985	19.991	100.095	19.940	2.470	0.491
293.500	226.729	79.985	19.992	100.097	19.936	2.792	0.470
294.000	226.995	79.984	19.991	100.092	19.938	2.592	0.521
294.500	227.215	79.985	19.991	100.089	19.937	2.672	0.520
295.000	227.477	79.985	19.991	100.086	19.939	2.510	0.484
295.500	227.735	79.985	19.991	100.085	19.937	2.664	0.501
296.000	227.995	79.985	19.991	100.088	19.939	2.524	0.519
296.500	228.213	79.984	19.992	100.094	19.939	2.506	0.498
297.001	228.512	79.985	19.992	100.093	19.937	2.682	0.498
297.500	228.772	79.987	19.992	100.089	19.939	2.572	0.538
298.000	229.013	79.985	19.992	100.082	19.937	2.696	0.530
298.500	229.253	79.986	19.992	100.076	19.938	2.596	0.491
299.000	229.518	79.984	19.991	100.070	19.941	2.356	0.493
299.500	229.784	79.986	19.992	100.067	19.940	2.452	0.518
300.000	230.004	79.985	19.991	100.069	19.939	2.528	0.509
300.500	230.279	79.985	19.992	100.070	19.941	2.426	0.491
301.000	230.538	79.986	19.992	100.073	19.940	2.500	0.514
301.500	230.798	79.986	19.991	100.073	19.939	2.573	0.526
302.000	231.033	79.984	19.992	100.072	19.939	2.549	0.507
302.500	231.266	79.986	19.992	100.071	19.940	2.463	0.482
303.000	231.482	79.986	19.991	100.070	19.939	2.510	0.459
303.500	231.754	79.986	19.992	100.070	19.940	2.469	0.468
304.000	231.997	79.985	19.991	100.074	19.940	2.490	0.501
304.500	232.271	79.987	19.992	100.077	19.939	2.535	0.516
305.000	232.484	79.986	19.991	100.077	19.940	2.448	0.502
305.500	232.742	79.986	19.992	100.077	19.939	2.576	0.479
306.000	232.949	79.986	19.991	100.077	19.939	2.520	0.467
306.500	233.216	79.986	19.991	100.076	19.938	2.641	0.469
307.000	233.468	79.986	19.992	100.075	19.939	2.569	0.497
307.500	233.707	79.988	19.992	100.075	19.936	2.742	0.505
308.000	233.963	79.985	19.992	100.075	19.937	2.672	0.493
308.500	234.243	79.988	19.992	100.072	19.940	2.430	0.515
309.000	234.466	79.987	19.992	100.070	19.941	2.392	0.519
309.500	234.693	79.987	19.993	100.067	19.937	2.692	0.477
310.000	234.976	79.987	19.992	100.073	19.936	2.734	0.480
310.500	235.207	79.986	19.992	100.074	19.937	2.680	0.512
311.000	235.452	79.988	19.992	100.073	19.936	2.794	0.495
311.500	235.707	79.987	19.992	100.082	19.938	2.628	0.488
312.000	235.915	79.987	19.992	100.064	19.938	2.648	0.481
312.500	236.204	79.987	19.993	100.036	19.938	2.638	0.480
313.000	236.444	79.988	19.993	100.021	19.937	2.656	0.513
313.500	236.695	79.988	19.992	100.013	19.938	2.628	0.510
314.000	236.982	79.987	19.992	100.000	19.936	2.734	0.515
314.500	237.215	79.988	19.992	100.018	19.936	2.766	0.529
315.000	237.457	79.986	19.992	100.068	19.934	2.908	0.497
315.500	237.700	79.986	19.993	100.114	19.934	2.878	0.480
316.000	237.937	79.987	19.993	100.138	19.934	2.938	0.483
316.500	238.234	79.986	19.993	100.147	19.936	2.766	0.507
317.000	238.460	79.987	19.992	100.154	19.936	2.784	0.528
317.500	238.737	79.986	19.992	100.130	19.937	2.672	0.513
318.000	238.947	79.985	19.992	100.102	19.940	2.464	0.495
318.500	239.214	79.986	19.992	100.089	19.940	2.494	0.482
319.000	239.427	79.985	19.992	100.086	19.940	2.446	0.479
319.500	239.686	79.985	19.993	100.081	19.942	2.292	0.476
320.000	239.966	79.985	19.992	100.081	19.941	2.402	0.505
320.500	240.147	79.985	19.992	100.081	19.940	2.480	0.500
321.000	240.438	79.985	19.992	100.080	19.941	2.400	0.466
321.500	240.676	79.986	19.992	100.076	19.943	2.211	0.500
322.000	240.923	79.984	19.992	100.075	19.943	2.239	0.507
322.500	241.162	79.983	19.992	100.078	19.940	2.432	0.486
323.000	241.399	79.984	19.992	100.080	19.938	2.578	0.481
323.500	241.663	79.983	19.993	100.080	19.938	2.582	0.489
324.000	241.943	79.984	19.991	100.082	19.940	2.478	0.523
324.500	242.164	79.983	19.992	100.082	19.939	2.510	0.523
325.000	242.437	79.984	19.992	100.077	19.938	2.624	0.497
325.500	242.648	79.985	19.991	100.072	19.942	2.302	0.488
326.000	242.946	79.984	19.992	100.071	19.943	2.232	0.497
326.500	243.189	79.985	19.993	100.072	19.944	2.190	0.525
327.000	243.419	79.984	19.992	100.077	19.943	2.238	0.507
327.500	243.664	79.984	19.992	100.078	19.944	2.192	0.473
328.000	243.925	79.983	19.992	100.078	19.944	2.138	0.490
328.500	244.171	79.985	19.993	100.077	19.943	2.260	0.507
329.000	244.358	79.984	19.992	100.075	19.944	2.168	0.470
329.500	244.666	79.984	19.992	100.073	19.944	2.160	0.464
330.000	244.861	79.984	19.992	100.074	19.943	2.210	0.499
330.500	245.145	79.984	19.992	100.076	19.940	2.446	0.491
331.000	245.405	79.984	19.992	100.083	19.945	2.120	0.512
331.500	245.647	79.983	19.992	100.087	19.944	2.198	0.523
332.000	245.939	79.983	19.993	100.086	19.944	2.166	0.518
332.500	246.199	79.983	19.992	100.085	19.942	2.302	0.543
333.000	246.452	79.982	19.992	100.087	19.944	2.204	0.533
333.500	246.702	79.984	19.993	100.081	19.941	2.400	0.508
334.000	246.965	79.983	19.993	100.079	19.941	2.372	0.508
334.500	247.203	79.985	19.992	100.078	19.942	2.332	0.507
335.000	247.454	79.983	19.993	100.078	19.941	2.400	0.495
335.500	247.720	79.984	19.992	100.076	19.943	2.280	0.502
336.000	247.928	79.983	19.993	100.077	19.943	2.246	0.496
336.500	248.171	79.983	19.993	100.077	19.945	2.066	0.463
337.000	248.454	79.983	19.992	100.075	19.942	2.346	0.488
337.500	248.690	79.983	19.992	100.074	19.940	2.456	0.522
338.000	248.973	79.984	19.992	100.072	19.939	2.504	0.519
338.500	249.219	79.983	19.992	100.073	19.940	2.490	0.524
339.000	249.488	79.984	19.993	100.073	19.937	2.660	0.522
339.500	249.749	79.985	19.993	100.073	19.939	2.538	0.523
340.000	250.020	79.983	19.993	100.073	19.936	2.728	0.531
340.500	250.293	79.982	19.993	100.073	19.942	2.354	0.538
341.000	250.538	79.983	19.992	100.070	19.939	2.532	0.531
341.500	250.786	79.984	19.992	100.075	19.939	2.530	0.505
342.001	251.014	79.984	19.992	100.076	19.940	2.502	0.484
342.500	251.313	79.984	19.992	100.075	19.943	2.244	0.502
343.000	251.526	79.984	19.992	100.075	19.940	2.494	0.520
343.500	251.786	79.984	19.993	100.075	19.942	2.350	0.492
344.000	252.051	79.985	19.993	100.070	19.940	2.469	0.499
344.500	252.294	79.984	19.992	100.070	19.938	2.617	0.516
345.000	252.544	79.982	19.994	100.071	19.939	2.556	0.500
345.500	252.801	79.983	19.994	100.071	19.938	2.578	0.500
346.000	253.052	79.982	19.992	100.071	19.937	2.670	0.508
346.500	253.293	79.984	19.992	100.070	19.940	2.488	0.501
347.000	253.533	79.983	19.992	100.069	19.937	2.653	0.486
347.500	253.794	79.984	19.993	100.071	19.938	2.582	0.490
348.000	254.022	79.983	19.993	100.072	19.941	2.376	0.495
348.500	254.291	79.983	19.992	100.073	19.939	2.518	0.493
349.000	254.554	79.985	19.991	100.073	19.939	2.561	0.515
349.500	254.795	79.984	19.992	100.073	19.938	2.640	0.518
350.000	255.071	79.985	19.993	100.071	19.936	2.796	0.510
350.500	255.315	79.984	19.992	100.070	19.937	2.668	0.519
351.000	255.521	79.984	19.992	100.069	19.939	2.522	0.485
351.500	255.804	79.984	19.992	100.068	19.940	2.446	0.469
352.000	256.045	79.983	19.993	100.068	19.937	2.666	0.507
352.500	256.288	79.983	19.992	100.066	19.935	2.854	0.504
353.000	256.517	79.984	19.992	100.067	19.936	2.772	0.478
353.501	256.788	79.985	19.992	100.067	19.938	2.644	0.486
354.000	257.032	79.984	19.992	100.067	19.936	2.738	0.508
354.500	257.262	79.984	19.992	100.068	19.938	2.610	0.495
355.000	257.515	79.984	19.992	100.045	19.939	2.556	0.479
355.500	257.788	79.984	19.993	100.019	19.938	2.580	0.505
356.000	258.040	79.983	19.992	100.008	19.937	2.658	0.525
356.500	258.296	79.985	19.992	100.007	19.940	2.500	0.516
357.000	258.511	79.986	19.992	100.010	19.941	2.356	0.490
357.500	258.809	79.983	19.992	100.068	19.941	2.362	0.492
358.000	259.040	79.984	19.991	100.117	19.937	2.658	0.521
358.500	259.299	79.984	19.991	100.135	19.940	2.468	0.509
359.000	259.518	79.984	19.991	100.142	19.940	2.454	0.484
359.500	259.779	79.984	19.992	100.139	19.940	2.442	0.479
360.000	260.018	79.985	19.992	100.105	19.940	2.490	0.490
360.500	260.249	79.985	19.991	100.081	19.938	2.632	0.485
361.000	260.506	79.985	19.993	100.074	19.939	2.528	0.479
361.500	260.753	79.986	19.992	100.069	19.940	2.466	0.496
362.000	261.044	79.985	19.991	100.067	19.940	2.446	0.521
362.500	261.270	79.985	19.991	100.067	19.938	2.646	0.527
363.000	261.551	79.986	19.991	100.068	19.935	2.870	0.512
363.500	261.779	79.985	19.992	100.066	19.941	2.396	0.508
364.000	262.039	79.985	19.992	100.066	19.935	2.865	0.498
364.500	262.286	79.985	19.993	100.067	19.938	2.600	0.498
365.000	262.512	79.985	19.992	100.066	19.937	2.686	0.490
365.500	262.762	79.986	19.992	100.066	19.939	2.570	0.474
366.000	263.018	79.986	19.992	100.067	19.938	2.620	0.491
366.500	263.258	79.986	19.992	100.067	19.937	2.662	0.501
367.001	263.519	79.987	19.992	100.066	19.939	2.520	0.498
367.500	263.731	79.984	19.991	100.066	19.939	2.544	0.487
368.000	263.985	79.987	19.992	100.067	19.941	2.382	0.469
368.500	264.299	79.986	19.992	100.066	19.941	2.410	0.517
369.000	264.532	79.987	19.992	100.067	19.938	2.638	0.558
369.500	264.788	79.987	19.992	100.066	19.941	2.376	0.518
370.000	265.054	79.985	19.992	100.066	19.945	2.108	0.505
370.500	265.321	79.985	19.991	100.064	19.935	2.802	0.527
371.000	265.570	79.984	19.992	100.065	19.937	2.716	0.525
371.500	265.810	79.985	19.992	100.065	19.941	2.386	0.503
372.000	266.024	79.984	19.991	100.066	19.937	2.652	0.472
372.500	266.322	79.985	19.992	100.066	19.934	2.933	0.483
373.000	266.536	79.985	19.992	100.066	19.934	2.888	0.512
373.500	266.784	79.984	19.992	100.065	19.937	2.688	0.486
374.000	267.046	79.985	19.991	100.064	19.937	2.678	0.486
374.500	267.275	79.985	19.992	100.063	19.938	2.640	0.501
375.000	267.548	79.985	19.992	100.063	19.940	2.438	0.496
375.500	267.779	79.985	19.991	100.064	19.942	2.332	0.503
376.000	268.031	79.985	19.992	100.063	19.947	1.958	0.494
376.500	268.237	79.984	19.992	100.064	19.947	1.952	0.471
377.000	268.558	79.985	19.992	100.063	19.940	2.470	0.492
377.500	268.772	79.984	19.993	100.063	19.946	1.990	0.530
378.000	269.023	79.985	19.993	100.063	19.939	2.560	0.500
378.500	269.266	79.984	19.992	100.063	19.941	2.368	0.480
379.000	269.524	79.985	19.991	100.064	19.938	2.632	0.498
379.500	269.801	79.986	19.992	100.064	19.939	2.530	0.518
380.000	270.033	79.985	19.991	100.065	19.941	2.410	0.522
380.500	270.275	79.985	19.991	100.065	19.942	2.298	0.492
381.000	270.575	79.984	19.992	100.064	19.941	2.404	0.508
381.500	270.824	79.986	19.992	100.064	19.940	2.464	0.546
382.000	271.129	79.985	19.991	100.065	19.939	2.538	0.552
382.500	271.378	79.985	19.991	100.065	19.940	2.470	0.554
383.000	271.599	79.985	19.991	100.065	19.941	2.388	0.511
383.500	271.866	79.984	19.990	100.066	19.941	2.384	0.479
384.000	272.097	79.985	19.992	100.067	19.938	2.596	0.493
384.500	272.301	79.986	19.991	100.070	19.938	2.648	0.467
385.000	272.573	79.985	19.990	100.071	19.937	2.668	0.456
385.501	272.805	79.983	19.992	100.071	19.940	2.464	0.490
386.001	273.055	79.985	19.992	100.075	19.941	2.364	0.493
386.500	273.311	79.985	19.993	100.077	19.941	2.422	0.493
387.000	273.527	79.986	19.992	100.073	19.936	2.738	0.489
387.500	273.790	79.987	19.990	100.073	19.936	2.800	0.476
388.000	274.144	79.987	19.992	100.073	19.938	2.578	0.548
388.500	274.381	79.988	19.991	100.068	19.941	2.388	0.604
389.000	274.646	79.987	19.991	100.065	19.936	2.746	0.547
389.500	274.950	79.988	19.991	100.065	19.938	2.630	0.536
390.000	275.158	79.987	19.992	100.065	19.937	2.670	0.541
390.500	275.359	79.987	19.990	100.066	19.937	2.684	0.460
391.000	275.625	79.987	19.991	100.068	19.936	2.730	0.438
391.500	275.837	79.987	19.992	100.069	19.941	2.406	0.473
392.000	276.145	79.986	19.992	100.071	19.935	2.848	0.499
392.500	276.461	79.987	19.991	100.071	19.939	2.550	0.572
393.000	276.672	79.988	19.991	100.070	19.939	2.526	0.576
393.500	276.830	79.987	19.991	100.068	19.937	2.680	0.448
394.001	277.123	79.987	19.992	100.067	19.937	2.668	0.410
394.501	277.326	79.987	19.991	100.066	19.935	2.824	0.473
395.000	277.625	79.986	19.991	100.065	19.934	2.878	0.499
395.500	277.822	79.987	19.991	100.065	19.935	2.816	0.499
396.000	278.099	79.986	19.991	100.066	19.938	2.644	0.485
396.500	278.345	79.986	19.991	100.066	19.940	2.498	0.499
397.000	278.597	79.986	19.992	100.066	19.945	2.104	0.510
397.500	278.857	79.985	19.992	100.067	19.944	2.204	0.505
398.000	279.143	79.985	19.992	100.066	19.938	2.634	0.529
398.500	279.359	79.985	19.992	100.064	19.940	2.490	0.524
399.000	279.608	79.984	19.991	100.064	19.937	2.714	0.483
399.500	279.862	79.984	19.993	100.063	19.934	2.909	0.484
400.000	280.130	79.984	19.993	100.063	19.935	2.804	0.512
400.500	280.354	79.985	19.993	100.063	19.937	2.652	0.507
401.000	280.600	79.983	19.992	100.064	19.937	2.666	0.481
401.500	280.863	79.984	19.993	100.063	19.939	2.560	0.489
402.000	281.098	79.984	19.992	100.063	19.933	2.985	0.503
402.500	281.332	79.984	19.992	100.064	19.937	2.656	0.484
403.000	281.598	79.983	19.991	100.064	19.935	2.803	0.485
403.500	281.823	79.984	19.993	100.065	19.937	2.686	0.495
404.000	282.058	79.984	19.993	100.066	19.940	2.466	0.476
404.500	282.332	79.984	19.991	100.066	19.933	2.999	0.485
405.000	282.575	79.984	19.992	100.065	19.934	2.885	0.513
405.500	282.866	79.984	19.992	100.065	19.936	2.732	0.525
406.000	283.063	79.984	19.992	100.066	19.938	2.588	0.511
406.500	283.428	79.983	19.992	100.067	19.938	2.610	0.525
407.000	283.712	79.982	19.992	100.067	19.937	2.717	0.606
407.500	283.848	79.982	19.993	100.067	19.937	2.710	0.535
408.000	284.083	79.983	19.992	100.068	19.936	2.737	0.395
408.500	284.347	79.983	19.992	100.068	19.949	1.818	0.435
409.000	284.608	79.985	19.991	100.068	19.944	2.194	0.512
409.500	284.868	79.983	19.992	100.068	19.938	2.578	0.523
410.000	285.128	79.985	19.991	100.066	19.936	2.748	0.521
410.500	285.337	79.982	19.992	100.064	19.935	2.863	0.494
411.000	285.602	79.984	19.993	100.064	19.934	2.897	0.471
411.500	285.832	79.984	19.991	100.064	19.940	2.470	0.485
412.000	286.032	79.985	19.991	100.064	19.945	2.060	0.463
412.500	286.345	79.984	19.993	100.062	19.942	2.346	0.472
413.000	286.601	79.984	19.992	100.062	19.936	2.752	0.541
413.500	286.867	79.984	19.992	100.062	19.941	2.362	0.546
414.000	287.057	79.983	19.992	100.061	19.936	2.795	0.489
414.500	287.377	79.985	19.992	100.061	19.935	2.849	0.483
415.000	287.575	79.984	19.991	100.063	19.937	2.702	0.514
415.500	287.835	79.984	19.992	100.065	19.937	2.692	0.488
416.000	288.115	79.984	19.992	100.061	19.936	2.741	0.499
416.500	288.405	79.984	19.992	100.061	19.936	2.768	0.556
417.000	288.611	79.983	19.992	100.061	19.938	2.642	0.533
417.500	288.905	79.985	19.992	100.060	19.937	2.670	0.498
418.000	289.172	79.985	19.992	100.058	19.936	2.785	0.530
418.500	289.326	79.983	19.992	100.060	19.935	2.827	0.491
419.000	289.531	79.984	19.992	100.059	19.938	2.622	0.390
419.501	289.796	79.983	19.991	100.059	19.934	2.879	0.414
420.000	290.075	79.983	19.993	100.060	19.933	2.957	0.507
420.500	290.322	79.983	19.992	100.062	19.937	2.656	0.535
421.000	290.609	79.984	19.992	100.063	19.935	2.831	0.530
421.500	290.843	79.984	19.992	100.063	19.934	2.883	0.528
422.000	291.153	79.984	19.992	100.063	19.937	2.670	0.533
422.500	291.332	79.984	19.993	100.062	19.937	2.680	0.516
423.000	291.581	79.983	19.993	100.062	19.932	3.057	0.458
423.500	291.881	79.984	19.993	100.062	19.934	2.883	0.489
424.000	292.060	79.983	19.993	100.061	19.936	2.762	0.514
424.500	292.374	79.984	19.993	100.061	19.931	3.107	0.486
425.000	292.610	79.983	19.993	100.060	19.934	2.937	0.522
425.500	292.890	79.984	19.993	100.061	19.936	2.767	0.533
426.000	293.060	79.983	19.993	100.060	19.935	2.805	0.483
426.500	293.326	79.984	19.994	100.059	19.934	2.941	0.443
427.000	293.598	79.983	19.993	100.060	19.937	2.704	0.487
427.500	293.779	79.983	19.994	100.061	19.937	2.688	0.495
428.000	294.100	79.983	19.992	100.061	19.933	3.021	0.478
428.500	294.341	79.984	19.993	100.062	19.933	2.967	0.532
429.000	294.563	79.984	19.993	100.059	19.934	2.893	0.512
429.500	294.828	79.983	19.994	100.057	19.938	2.608	0.475
430.000	295.089	79.983	19.993	100.058	19.936	2.738	0.507
430.500	295.361	79.983	19.993	100.057	19.933	2.981	0.530
431.000	295.577	79.983	19.993	100.058	19.935	2.857	0.511
431.500	295.825	79.983	19.993	100.061	19.932	3.083	0.476
432.000	296.099	79.983	19.992	100.062	19.934	2.927	0.493
432.500	296.320	79.981	19.993	100.062	19.934	2.891	0.508
433.000	296.592	79.984	19.993	100.062	19.937	2.724	0.494
433.500	296.822	79.982	19.993	100.061	19.935	2.834	0.497
434.000	297.054	79.983	19.993	100.062	19.937	2.668	0.482
434.500	297.311	79.984	19.993	100.062	19.933	3.021	0.475
435.000	297.592	79.984	19.992	100.062	19.933	2.995	0.514
435.500	297.842	79.983	19.992	100.061	19.931	3.127	0.535
436.000	298.057	79.982	19.993	100.062	19.934	2.905	0.498
436.500	298.320	79.983	19.993	100.060	19.938	2.648	0.471
437.000	298.572	79.984	19.993	100.059	19.934	2.931	0.497
437.500	298.820	79.983	19.993	100.060	19.932	3.033	0.508
438.000	299.068	79.983	19.992	100.061	19.933	3.007	0.498
438.500	299.275	79.984	19.992	100.059	19.936	2.752	0.475
439.000	299.503	79.984	19.993	100.059	19.932	3.035	0.445
439.500	299.801	79.985	19.994	100.060	19.933	3.009	0.481
440.000	300.004	79.985	19.993	100.059	19.932	3.039	0.513
440.500	300.274	79.985	19.993	100.059	19.929	3.245	0.487
441.000	300.543	79.985	19.992	100.060	19.931	3.147	0.506
441.500	300.724	79.983	19.992	100.062	19.933	2.981	0.494
442.000	301.003	79.985	19.992	100.063	19.932	3.057	0.455
442.500	301.266	79.984	19.993	100.063	19.933	2.977	0.501
443.000	301.575	79.985	19.991	100.063	19.935	2.832	0.557
443.500	301.773	79.986	19.993	100.064	19.931	3.159	0.540
444.000	302.053	79.985	19.992	100.065	19.932	3.025	0.493
444.500	302.285	79.986	19.992	100.064	19.931	3.145	0.495
445.000	302.559	79.986	19.992	100.064	19.933	2.981	0.509
445.500	302.764	79.985	19.992	100.062	19.932	3.073	0.492
446.000	303.008	79.986	19.992	100.062	19.932	3.027	0.464
446.500	303.253	79.985	19.992	100.061	19.930	3.201	0.469
447.000	303.501	79.986	19.992	100.061	19.934	2.889	0.491
447.500	303.761	79.985	19.993	100.061	19.933	2.987	0.501
448.000	304.006	79.986	19.992	100.063	19.934	2.917	0.507
448.500	304.257	79.983	19.991	100.063	19.934	2.935	0.501
449.000	304.512	79.985	19.992	100.064	19.933	3.021	0.501
449.500	304.768	79.985	19.992	100.065	19.932	3.081	0.509
450.000	305.009	79.986	19.992	100.065	19.929	3.275	0.504
450.500	305.269	79.984	19.992	100.065	19.932	3.087	0.499
451.000	305.529	79.985	19.991	100.061	19.934	2.879	0.510
451.500	305.779	79.986	19.991	100.058	19.930	3.213	0.515
452.000	306.040	79.984	19.991	100.059	19.928	3.325	0.511
452.500	306.275	79.985	19.992	100.060	19.932	3.065	0.504
453.000	306.516	79.984	19.992	100.059	19.934	2.933	0.486
453.500	306.747	79.985	19.992	100.063	19.936	2.786	0.474
454.000	307.003	79.986	19.992	100.065	19.931	3.103	0.479
454.500	307.242	79.986	19.992	100.065	19.932	3.049	0.491
455.000	307.529	79.986	19.991	100.064	19.931	3.127	0.510
455.500	307.758	79.985	19.992	100.060	19.931	3.169	0.521
456.000	308.041	79.984	19.992	100.058	19.930	3.173	0.514
456.500	308.280	79.985	19.991	100.058	19.929	3.285	0.517
457.000	308.542	79.984	19.991	100.058	19.929	3.271	0.512
457.500	308.794	79.984	19.992	100.058	19.934	2.935	0.507
458.000	309.016	79.985	19.992	100.061	19.933	3.015	0.494
458.500	309.311	79.985	19.991	100.062	19.930	3.209	0.496
459.000	309.549	79.985	19.991	100.063	19.930	3.205	0.525
459.500	309.789	79.985	19.993	100.063	19.931	3.157	0.505
460.000	310.034	79.984	19.993	100.065	19.932	3.041	0.481
460.500	310.327	79.984	19.992	100.065	19.929	3.271	0.511
461.000	310.593	79.985	19.992	100.063	19.931	3.109	0.548
461.501	310.785	79.985	19.993	100.063	19.929	3.279	0.509
462.000	311.098	79.985	19.991	100.061	19.931	3.165	0.482
462.500	311.326	79.985	19.992	100.061	19.932	3.083	0.523
463.000	311.592	79.985	19.992	100.061	19.933	2.959	0.517
463.500	311.836	79.987	19.991	100.064	19.929	3.279	0.501
464.000	312.074	79.984	19.992	100.065	19.929	3.311	0.496
464.500	312.367	79.986	19.992	100.066	19.931	3.097	0.507
465.000	312.606	79.985	19.993	100.065	19.930	3.221	0.532
465.500	312.852	79.987	19.992	100.065	19.929	3.263	0.508
466.000	313.101	79.986	19.992	100.065	19.929	3.273	0.490
466.500	313.368	79.986	19.992	100.063	19.929	3.271	0.506
467.000	313.661	79.987	19.991	100.063	19.927	3.435	0.538
467.500	313.879	79.986	19.992	100.064	19.931	3.129	0.536
468.000	314.159	79.988	19.991	100.064	19.933	2.963	0.504
468.500	314.406	79.988	19.991	100.065	19.929	3.303	0.512
469.000	314.661	79.986	19.991	100.066	19.929	3.289	0.515
469.500	314.878	79.987	19.992	100.060	19.929	3.305	0.487
470.000	315.142	79.988	19.991	100.057	19.928	3.333	0.476
470.500	315.392	79.986	19.991	100.056	19.930	3.213	0.498
471.000	315.650	79.986	19.991	100.056	19.929	3.277	0.511
471.500	315.873	79.988	19.992	100.056	19.929	3.289	0.495
472.000	316.161	79.987	19.992	100.061	19.928	3.373	0.496
472.500	316.400	79.985	19.991	100.064	19.927	3.407	0.519
473.000	316.604	79.986	19.991	100.066	19.928	3.321	0.485
473.500	316.854	79.987	19.992	100.066	19.929	3.277	0.449
474.000	317.128	79.987	19.990	100.066	19.930	3.225	0.489
474.500	317.376	79.986	19.990	100.064	19.929	3.283	0.523
475.000	317.600	79.987	19.991	100.062	19.928	3.365	0.497
475.500	317.890	79.987	19.991	100.060	19.927	3.411	0.493
476.000	318.156	79.988	19.991	100.058	19.927	3.423	0.534
476.500	318.401	79.987	19.991	100.057	19.930	3.189	0.534
477.000	318.676	79.987	19.992	100.058	19.932	3.047	0.516
477.500	318.896	79.988	19.992	100.061	19.931	3.145	0.507
478.000	319.119	79.985	19.992	100.060	19.929	3.261	0.469
478.500	319.400	79.985	19.992	100.060	19.930	3.183	0.474
479.000	319.635	79.984	19.991	100.058	19.929	3.259	0.510
479.500	319.866	79.985	19.991	100.059	19.929	3.305	0.491
480.000	320.101	79.984	19.991	100.058	19.927	3.463	0.466
480.500	320.372	79.984	19.991	100.059	19.930	3.239	0.486
481.000	320.628	79.983	19.991	100.057	19.929	3.253	0.516
481.500	320.880	79.986	19.991	100.060	19.928	3.350	0.517
482.000	321.149	79.985	19.991	100.055	19.926	3.506	0.514
482.500	321.379	79.986	19.992	100.055	19.928	3.323	0.510
483.000	321.620	79.985	19.992	100.054	19.926	3.527	0.485
483.500	321.883	79.983	19.991	100.058	19.930	3.233	0.488
484.000	322.105	79.984	19.991	100.057	19.928	3.353	0.494
484.500	322.369	79.983	19.992	100.062	19.929	3.273	0.485
485.000	322.586	79.984	19.992	100.062	19.928	3.339	0.484
485.501	322.869	79.985	19.991	100.060	19.928	3.323	0.490
486.000	323.108	79.985	19.992	100.059	19.930	3.199	0.511
486.500	323.355	79.985	19.992	100.059	19.928	3.371	0.504
487.000	323.613	79.984	19.992	100.059	19.931	3.157	0.495
487.500	323.873	79.984	19.992	100.058	19.927	3.395	0.512
488.000	324.085	79.984	19.993	100.062	19.930	3.243	0.495
488.500	324.339	79.984	19.993	100.063	19.928	3.323	0.469
489.000	324.573	79.985	19.993	100.063	19.927	3.423	0.477
489.500	324.849	79.985	19.993	100.063	19.926	3.483	0.499
490.000	325.141	79.985	19.994	100.060	19.927	3.431	0.539
490.500	325.356	79.985	19.992	100.056	19.929	3.303	0.538
491.000	325.625	79.985	19.992	100.052	19.930	3.189	0.495
491.500	325.863	79.985	19.993	100.047	19.925	3.586	0.495
492.001	326.110	79.985	19.993	100.045	19.928	3.370	0.496
492.500	326.360	79.984	19.992	100.045	19.926	3.514	0.491
493.000	326.630	79.986	19.993	100.047	19.930	3.199	0.508
493.500	326.857	79.985	19.993	100.051	19.925	3.546	0.508
494.000	327.119	79.983	19.993	100.055	19.926	3.471	0.493
494.500	327.395	79.984	19.993	100.057	19.928	3.331	0.514
495.000	327.591	79.986	19.993	100.057	19.926	3.523	0.505
495.500	327.865	79.985	19.992	100.058	19.925	3.573	0.471
496.000	328.092	79.985	19.993	100.059	19.928	3.343	0.486
496.500	328.376	79.985	19.992	100.056	19.924	3.659	0.506
497.000	328.598	79.983	19.992	100.055	19.923	3.756	0.508
497.500	328.825	79.983	19.992	100.057	19.921	3.844	0.477
498.000	329.077	79.983	19.992	100.053	19.923	3.742	0.464
498.500	329.338	79.984	19.992	100.052	19.923	3.750	0.496
499.000	329.578	79.986	19.992	100.053	19.921	3.878	0.507
499.500	329.818	79.984	19.991	100.050	19.926	3.518	0.491
500.000	330.086	79.987	19.993	100.049	19.924	3.660	0.494
500.500	330.322	79.986	19.992	100.053	19.923	3.698	0.506
501.000	330.595	79.985	19.992	100.052	19.923	3.721	0.507
501.500	330.840	79.984	19.992	100.052	19.924	3.663	0.513
502.000	331.083	79.986	19.992	100.053	19.921	3.884	0.502
502.500	331.317	79.986	19.992	100.052	19.921	3.857	0.483
503.000	331.585	79.984	19.992	100.044	19.923	3.757	0.490
503.500	331.836	79.984	19.992	100.043	19.925	3.613	0.511
504.000	332.086	79.984	19.992	100.044	19.925	3.565	0.510
504.500	332.308	79.985	19.993	100.047	19.924	3.683	0.486
505.000	332.592	79.985	19.992	100.051	19.924	3.665	0.489
505.500	332.835	79.985	19.993	100.058	19.921	3.909	0.516
506.000	333.099	79.985	19.992	100.058	19.922	3.825	0.517
506.500	333.351	79.982	19.993	100.059	19.922	3.781	0.511
507.000	333.605	79.985	19.992	100.059	19.922	3.805	0.511
507.500	333.828	79.983	19.993	100.059	19.925	3.595	0.492
508.000	334.069	79.984	19.994	100.055	19.921	3.864	0.470
508.500	334.352	79.984	19.993	100.052	19.919	3.986	0.494
509.000	334.578	79.985	19.993	100.050	19.925	3.577	0.517
509.500	334.859	79.983	19.992	100.047	19.923	3.742	0.508
510.000	335.078	79.983	19.993	100.048	19.923	3.728	0.503
510.500	335.326	79.984	19.993	100.050	19.924	3.647	0.484
511.000	335.554	79.982	19.992	100.055	19.922	3.788	0.472
511.500	335.843	79.985	19.994	100.056	19.923	3.752	0.496
512.000	336.028	79.985	19.994	100.059	19.923	3.696	0.495
512.500	336.307	79.984	19.993	100.058	19.920	3.920	0.469
513.000	336.569	79.980	19.993	100.060	19.924	3.628	0.502
513.500	336.787	79.983	19.994	100.062	19.919	4.024	0.511
514.000	337.045	79.985	19.993	100.063	19.924	3.682	0.478
514.500	337.324	79.982	19.993	100.064	19.919	4.028	0.507
515.000	337.568	79.984	19.994	100.065	19.920	3.964	0.530
515.500	337.821	79.981	19.994	100.065	19.920	3.950	0.510
516.000	338.026	79.985	19.993	100.064	19.919	3.998	0.478
516.500	338.314	79.983	19.993	100.064	19.920	3.924	0.476
517.000	338.535	79.983	19.993	100.065	19.918	4.116	0.501
517.500	338.831	79.984	19.992	100.063	19.916	4.228	0.513
518.000	339.032	79.982	19.993	100.061	19.916	4.240	0.507
518.500	339.323	79.985	19.993	100.057	19.918	4.094	0.495
519.000	339.525	79.983	19.993	100.054	19.917	4.146	0.493
519.500	339.783	79.985	19.994	100.053	19.916	4.228	0.477
520.000	340.067	79.983	19.992	100.055	19.915	4.308	0.500
520.500	340.289	79.983	19.993	100.057	19.916	4.268	0.523
521.000	340.539	79.984	19.993	100.057	19.917	4.180	0.489
521.500	340.794	79.985	19.993	100.057	19.917	4.208	0.489
522.000	341.085	79.984	19.992	100.055	19.914	4.372	0.526
522.500	341.305	79.983	19.994	100.055	19.919	3.992	0.528
523.000	341.559	79.984	19.993	100.055	19.915	4.335	0.492
523.500	341.850	79.984	19.992	100.057	19.915	4.288	0.509
524.000	342.112	79.984	19.993	100.051	19.918	4.116	0.549
524.500	342.336	79.983	19.992	100.050	19.914	4.430	0.519
525.000	342.576	79.985	19.992	100.048	19.916	4.232	0.475
525.500	342.808	79.985	19.992	100.047	19.916	4.216	0.468
526.000	343.097	79.986	19.992	100.048	19.916	4.276	0.496
526.500	343.332	79.985	19.991	100.055	19.914	4.422	0.523
527.000	343.565	79.986	19.993	100.058	19.914	4.416	0.497
527.500	343.834	79.987	19.991	100.058	19.914	4.396	0.485
528.000	344.062	79.984	19.993	100.056	19.914	4.418	0.499
528.500	344.296	79.982	19.992	100.056	19.915	4.348	0.479
529.000	344.564	79.986	19.993	100.053	19.915	4.330	0.482
529.500	344.815	79.986	19.992	100.051	19.912	4.556	0.510
530.000	345.044	79.984	19.991	100.046	19.912	4.538	0.499
530.500	345.312	79.984	19.992	100.047	19.916	4.258	0.488
531.000	345.541	79.985	19.991	100.048	19.914	4.398	0.497
531.500	345.837	79.985	19.991	100.051	19.910	4.690	0.511
532.000	346.031	79.985	19.991	100.055	19.912	4.552	0.507
532.500	346.283	79.986	19.991	100.060	19.911	4.650	0.468
533.000	346.595	79.984	19.991	100.056	19.911	4.594	0.505
533.500	346.792	79.984	19.992	100.051	19.915	4.344	0.536
534.000	347.052	79.983	19.992	100.047	19.912	4.574	0.483
534.500	347.317	79.984	19.991	100.047	19.911	4.634	0.491
535.000	347.526	79.985	19.991	100.049	19.911	4.596	0.500
535.500	347.829	79.984	19.992	100.055	19.910	4.708	0.493
536.000	348.068	79.984	19.991	100.062	19.913	4.442	0.526
536.500	348.316	79.984	19.991	100.067	19.911	4.596	0.514
537.000	348.581	79.985	19.991	100.068	19.912	4.516	0.500
537.500	348.854	79.983	19.992	100.067	19.912	4.554	0.525
538.000	349.126	79.985	19.992	100.068	19.914	4.418	0.541
538.500	349.325	79.984	19.992	100.066	19.910	4.676	0.508
539.000	349.604	79.983	19.992	100.065	19.908	4.836	0.475
539.500	349.847	79.985	19.991	100.065	19.914	4.428	0.500
540.000	350.131	79.985	19.992	100.065	19.908	4.814	0.525
540.500	350.368	79.984	19.992	100.065	19.912	4.558	0.524
541.000	350.583	79.984	19.992	100.066	19.909	4.767	0.486
541.500	350.920	79.984	19.991	100.066	19.910	4.686	0.502
542.000	351.111	79.986	19.993	100.066	19.910	4.706	0.540
542.500	351.383	79.985	19.992	100.065	19.907	4.887	0.495
543.000	351.659	79.985	19.992	100.062	19.906	4.973	0.505
543.500	351.930	79.987	19.991	100.061	19.905	5.095	0.547
544.000	352.201	79.985	19.992	100.061	19.911	4.650	0.545
544.500	352.463	79.986	19.991	100.060	19.908	4.857	0.537
545.000	352.654	79.986	19.991	100.061	19.906	5.007	0.493
545.500	352.934	79.987	19.991	100.062	19.908	4.805	0.462
546.000	353.167	79.987	19.992	100.058	19.907	4.917	0.492
546.500	353.430	79.986	19.991	100.057	19.904	5.129	0.505
547.000	353.704	79.986	19.992	100.057	19.910	4.682	0.517
547.500	353.934	79.986	19.992	100.057	19.906	4.979	0.521
548.000	354.235	79.987	19.992	100.058	19.907	4.917	0.518
548.500	354.468	79.987	19.992	100.061	19.915	4.354	0.533
549.000	354.735	79.987	19.992	100.062	19.905	5.041	0.517
549.500	354.961	79.986	19.992	100.062	19.912	4.532	0.496
550.000	355.284	79.987	19.992	100.060	19.902	5.253	0.521
550.500	355.477	79.988	19.992	100.059	19.912	4.512	0.533
551.000	355.774	79.986	19.991	100.058	19.909	4.768	0.503
551.500	356.048	79.988	19.992	100.056	19.913	4.452	0.530
552.000	356.281	79.987	19.992	100.055	19.912	4.522	0.539
552.500	356.567	79.986	19.992	100.058	19.904	5.108	0.513
553.000	356.760	79.987	19.992	100.058	19.902	5.273	0.499
553.500	357.080	79.988	19.991	100.057	19.909	4.790	0.496
554.000	357.296	79.988	19.992	100.058	19.905	5.093	0.524
554.500	357.520	79.988	19.992	100.058	19.901	5.351	0.487
555.000	357.729	79.990	19.992	100.058	19.905	5.049	0.436
555.500	358.018	79.985	19.992	100.057	19.905	5.029	0.466
556.000	358.308	79.988	19.991	100.058	19.904	5.145	0.539
556.500	358.587	79.988	19.992	100.057	19.906	4.959	0.574
557.000	358.832	79.986	19.991	100.057	19.907	4.919	0.547
557.500	359.061	79.984	19.991	100.055	19.904	5.103	0.499
558.001	359.363	79.986	19.992	100.056	19.907	4.947	0.502
558.500	359.558	79.986	19.992	100.057	19.907	4.877	0.514
559.000	359.901	79.987	19.991	100.058	19.905	5.073	0.517
559.500	360.022	79.986	19.992	100.056	19.907	4.881	0.501
560.000	360.314	79.985	19.992	100.057	19.905	5.045	0.439
560.500	360.698	79.986	19.992	100.058	19.907	4.898	0.545
561.000	360.780	79.986	19.992	100.059	19.904	5.099	0.571
561.500	361.221	79.986	19.992	100.061	19.906	5.010	0.494
562.000	361.336	79.987	19.992	100.064	19.903	5.185	0.539
562.500	361.686	79.985	19.992	100.064	19.902	5.273	0.511
563.000	361.804	79.985	19.992	100.064	19.906	4.959	0.467
563.500	362.134	79.983	19.991	100.064	19.906	5.023	0.457
564.000	362.297	79.985	19.991	100.062	19.903	5.181	0.470
564.500	362.784	79.984	19.992	100.058	19.901	5.363	0.572
565.000	362.844	79.986	19.991	100.055	19.903	5.185	0.599
565.500	363.021	79.984	19.992	100.052	19.901	5.345	0.393
566.000	363.504	79.985	19.993	100.048	19.901	5.379	0.449
566.500	363.728	79.986	19.991	100.050	19.901	5.357	0.683
567.000	363.657	79.984	19.991	100.052	19.902	5.289	0.430
567.500	364.338	79.984	19.991	100.055	19.903	5.213	0.381
568.000	364.378	79.986	19.992	100.058	19.905	5.059	0.665
568.500	364.661	79.986	19.992	100.059	19.900	5.407	0.523
569.000	364.865	79.985	19.993	100.058	19.902	5.257	0.406
569.500	365.202	79.985	19.993	100.058	19.900	5.407	0.514
570.000	365.377	79.985	19.991	100.056	19.899	5.531	0.526
570.500	365.689	79.986	19.991	100.056	19.898	5.585	0.500
571.000	365.910	79.987	19.992	100.059	19.900	5.457	0.510
571.500	366.124	79.986	19.992	100.060	19.900	5.395	0.484
572.000	366.413	79.986	19.992	100.061	19.899	5.521	0.469
572.500	366.771	79.985	19.993	100.063	19.900	5.449	0.575
573.000	366.854	79.985	19.993	100.062	19.904	5.171	0.544
573.500	367.229	79.984	19.992	100.061	19.901	5.341	0.449
574.000	367.429	79.986	19.992	100.058	19.903	5.209	0.516
574.500	367.712	79.984	19.992	100.057	19.903	5.237	0.529
575.000	367.932	79.986	19.993	100.054	19.902	5.247	0.493
575.500	368.229	79.984	19.993	100.055	19.904	5.161	0.510
576.000	368.443	79.985	19.993	100.056	19.904	5.145	0.514
576.500	368.709	79.985	19.992	100.059	19.903	5.189	0.495
577.000	368.971	79.985	19.992	100.061	19.903	5.221	0.503
577.500	369.225	79.985	19.992	100.064	19.903	5.231	0.522
578.000	369.493	79.985	19.992	100.063	19.901	5.337	0.519
578.500	369.699	79.984	19.992	100.061	19.906	5.019	0.498
579.000	370.002	79.985	19.992	100.061	19.903	5.185	0.492
579.500	370.175	79.985	19.993	100.061	19.904	5.167	0.493
580.000	370.440	79.985	19.993	100.061	19.903	5.243	0.457
580.500	370.674	79.984	19.992	100.063	19.903	5.177	0.468
581.000	370.976	79.986	19.992	100.065	19.907	4.945	0.517
581.500	371.222	79.984	19.992	100.065	19.909	4.775	0.542
582.000	371.486	79.984	19.993	100.066	19.905	5.040	0.530
582.500	371.732	79.984	19.993	100.064	19.910	4.659	0.510
583.000	372.006	79.985	19.992	100.064	19.905	5.070	0.515
583.500	372.228	79.985	19.992	100.062	19.904	5.108	0.508
584.000	372.513	79.985	19.993	100.056	19.906	4.957	0.501
584.500	372.742	79.985	19.992	100.052	19.905	5.074	0.510
585.000	372.964	79.985	19.992	100.050	19.905	5.025	0.483
585.500	373.274	79.984	19.992	100.046	19.904	5.099	0.492
586.000	373.532	79.985	19.992	100.049	19.907	4.895	0.550
586.500	373.755	79.984	19.992	100.055	19.905	5.083	0.525
587.000	374.051	79.983	19.992	100.058	19.905	5.073	0.500
587.501	374.334	79.984	19.993	100.061	19.906	4.953	0.549
588.000	374.494	79.984	19.993	100.063	19.905	5.057	0.511
588.500	374.810	79.984	19.993	100.062	19.904	5.109	0.460
589.000	375.086	79.984	19.992	100.060	19.909	4.771	0.534
589.500	375.358	79.984	19.992	100.057	19.909	4.737	0.570
590.000	375.542	79.983	19.992	100.056	19.908	4.850	0.502
590.500	375.859	79.983	19.992	100.057	19.907	4.920	0.479
591.000	376.107	79.985	19.993	100.053	19.909	4.772	0.534
591.500	376.360	79.983	19.992	100.049	19.907	4.904	0.534
592.000	376.584	79.984	19.992	100.050	19.909	4.790	0.489
592.500	376.855	79.985	19.992	100.045	19.907	4.886	0.486
593.000	377.114	79.983	19.992	100.041	19.908	4.842	0.512
593.500	377.361	79.984	19.993	100.042	19.910	4.686	0.518
594.000	377.606	79.983	19.992	100.041	19.908	4.862	0.499
594.500	377.874	79.983	19.992	100.040	19.909	4.746	0.503
595.000	378.141	79.983	19.992	100.041	19.908	4.860	0.524
595.500	378.352	79.984	19.992	100.043	19.909	4.744	0.507
596.000	378.630	79.984	19.992	100.045	19.908	4.816	0.484
596.500	378.862	79.985	19.992	100.047	19.909	4.764	0.499
597.000	379.112	79.983	19.993	100.051	19.912	4.532	0.496
597.500	379.391	79.984	19.992	100.056	19.913	4.463	0.505
598.000	379.637	79.983	19.993	100.057	19.914	4.425	0.527
598.500	379.868	79.983	19.992	100.054	19.914	4.428	0.501
599.000	380.145	79.984	19.992	100.053	19.914	4.358	0.493
599.500	380.391	79.984	19.992	100.049	19.915	4.328	0.515
600.000	380.647	79.984	19.992	100.043	19.915	4.330	0.512
600.500	380.862	79.985	19.992	100.038	19.913	4.496	0.487
601.000	381.099	79.985	19.992	100.036	19.916	4.237	0.462
601.500	381.394	79.984	19.992	100.034	19.914	4.364	0.492
602.000	381.628	79.984	19.993	100.034	19.918	4.067	0.531
602.500	381.849	79.985	19.993	100.033	19.915	4.331	0.492
603.000	382.111	79.984	19.993	100.034	19.918	4.129	0.469
603.500	382.366	79.985	19.993	100.032	19.916	4.217	0.500
604.000	382.637	79.984	19.992	100.033	19.918	4.067	0.521
604.500	382.882	79.985	19.992	100.031	19.919	3.985	0.521
605.000	383.091	79.986	19.993	100.030	19.921	3.845	0.485
605.500	383.361	79.987	19.994	100.028	19.921	3.895	0.467
606.000	383.586	79.984	19.993	100.027	19.922	3.773	0.487
606.500	383.895	79.987	19.993	100.027	19.924	3.665	0.515
607.000	384.125	79.984	19.992	100.028	19.920	3.965	0.536
607.500	384.349	79.987	19.993	100.030	19.924	3.631	0.496
608.000	384.588	79.986	19.993	100.030	19.922	3.767	0.458
608.500	384.854	79.985	19.993	100.030	19.925	3.576	0.484
609.000	385.058	79.984	19.993	100.028	19.927	3.450	0.488
609.500	385.334	79.984	19.993	100.025	19.926	3.526	0.476
610.000	385.568	79.986	19.993	100.022	19.926	3.526	0.495
610.500	385.812	79.985	19.993	100.023	19.929	3.308	0.494
611.001	386.085	79.986	19.993	100.023	19.928	3.388	0.498
611.500	386.325	79.986	19.993	100.024	19.926	3.474	0.515
612.000	386.568	79.986	19.992	100.025	19.928	3.370	0.498
612.500	386.846	79.985	19.992	100.025	19.932	3.094	0.502
613.000	387.067	79.985	19.993	100.025	19.935	2.858	0.510
613.500	387.346	79.985	19.993	100.025	19.934	2.930	0.499
614.000	387.554	79.985	19.992	100.025	19.934	2.880	0.494
614.500	387.842	79.984	19.992	100.025	19.935	2.814	0.492
615.000	388.087	79.986	19.992	100.025	19.936	2.735	0.515
615.500	388.305	79.986	19.992	100.025	19.934	2.914	0.498
616.000	388.604	79.985	19.992	100.025	19.938	2.581	0.490
616.500	388.793	79.986	19.992	100.023	19.940	2.431	0.503
617.001	389.058	79.983	19.992	100.025	19.940	2.451	0.471
617.500	389.335	79.985	19.991	100.026	19.942	2.283	0.498
618.000	389.559	79.986	19.992	100.027	19.941	2.385	0.522
618.500	389.804	79.985	19.992	100.027	19.942	2.295	0.485
619.000	390.065	79.981	19.992	100.027	19.943	2.235	0.487
619.500	390.338	79.985	19.991	100.026	19.946	2.027	0.520
620.000	390.587	79.985	19.992	100.024	19.943	2.219	0.528
620.500	390.813	79.987	19.992	100.024	19.948	1.890	0.499
621.000	391.040	79.986	19.991	100.024	19.945	2.099	0.464
621.500	391.298	79.987	19.992	100.025	19.946	1.999	0.469
622.000	391.590	79.987	19.992	100.025	19.947	1.968	0.517
622.500	391.799	79.985	19.991	100.025	19.948	1.880	0.526
623.000	392.065	79.986	19.991	100.025	19.950	1.732	0.488
623.500	392.279	79.989	19.991	100.025	19.951	1.654	0.477
624.000	392.548	79.987	19.991	100.025	19.949	1.806	0.481
624.500	392.809	79.986	19.992	100.025	19.949	1.784	0.506
625.000	393.090	79.987	19.993	100.025	19.947	1.954	0.536
625.500	393.298	79.986	19.992	100.025	19.953	1.490	0.516
626.000	393.560	79.987	19.992	100.024	19.949	1.768	0.480
626.500	393.810	79.987	19.992	100.024	19.950	1.710	0.491
627.000	394.068	79.986	19.992	100.024	19.952	1.610	0.510
627.500	394.330	79.988	19.993	100.024	19.950	1.730	0.514
628.000	394.580	79.988	19.992	100.024	19.949	1.816	0.516
628.500	394.845	79.986	19.992	100.024	19.952	1.588	0.514
629.000	395.097	79.988	19.992	100.025	19.949	1.822	0.516
629.500	395.345	79.988	19.992	100.028	19.946	2.027	0.508
630.000	395.622	79.988	19.993	100.028	19.949	1.786	0.513
630.500	395.836	79.988	19.991	100.028	19.951	1.632	0.508
631.000	396.077	79.988	19.992	100.029	19.953	1.482	0.473
631.500	396.352	79.987	19.992	100.027	19.952	1.564	0.486
632.000	396.621	79.987	19.991	100.025	19.951	1.626	0.530
632.500	396.836	79.989	19.992	100.025	19.953	1.518	0.514
633.000	397.095	79.987	19.992	100.025	19.952	1.560	0.479
633.500	397.360	79.986	19.992	100.023	19.952	1.566	0.499
634.000	397.593	79.988	19.992	100.025	19.952	1.546	0.511
634.500	397.843	79.987	19.992	100.024	19.954	1.438	0.490
635.000	398.088	79.988	19.993	100.024	19.953	1.522	0.489
635.500	398.341	79.986	19.992	100.024	19.956	1.296	0.497
636.000	398.622	79.987	19.991	100.024	19.954	1.404	0.517
636.500	398.852	79.987	19.991	100.023	19.954	1.446	0.523
637.000	399.124	79.986	19.992	100.024	19.956	1.288	0.506
637.500	399.325	79.987	19.992	100.023	19.951	1.630	0.487
638.000	399.622	79.986	19.992	100.024	19.955	1.348	0.486
638.500	399.844	79.987	19.992	100.024	19.954	1.440	0.509
639.000	400.162	79.986	19.992	100.024	19.954	1.402	0.529
639.500	400.372	79.986	19.992	100.024	19.956	1.282	0.534
640.000	400.643	79.985	19.992	100.024	19.956	1.304	0.504
640.500	400.864	79.985	19.992	100.025	19.958	1.115	0.487
641.000	401.126	79.985	19.992	100.027	19.956	1.306	0.488
641.500	401.355	79.986	19.992	100.028	19.954	1.392	0.487
642.000	401.571	79.985	19.992	100.029	19.956	1.288	0.468
642.500	401.836	79.985	19.992	100.032	19.954	1.392	0.463
643.000	402.097	79.985	19.991	100.032	19.956	1.264	0.504
643.500	402.355	79.985	19.992	100.031	19.955	1.316	0.523
644.000	402.605	79.986	19.992	100.030	19.959	1.061	0.513
644.500	402.838	79.986	19.992	100.030	19.958	1.155	0.495
645.000	403.156	79.985	19.992	100.028	19.956	1.288	0.517
645.500	403.375	79.985	19.992	100.027	19.954	1.436	0.544
646.000	403.612	79.984	19.991	100.027	19.956	1.254	0.496
646.500	403.861	79.983	19.992	100.030	19.958	1.103	0.471
647.000	404.128	79.985	19.992	100.030	19.957	1.228	0.501
647.500	404.367	79.984	19.992	100.031	19.957	1.234	0.512
648.000	404.652	79.986	19.992	100.031	19.955	1.346	0.515
648.500	404.904	79.984	19.992	100.030	19.958	1.099	0.530
649.000	405.156	79.983	19.991	100.028	19.957	1.189	0.520
649.500	405.406	79.985	19.992	100.029	19.957	1.183	0.503
650.000	405.651	79.984	19.992	100.028	19.954	1.400	0.499
650.500	405.895	79.986	19.992	100.028	19.954	1.410	0.492
651.000	406.183	79.985	19.991	100.028	19.957	1.219	0.511
651.500	406.398	79.985	19.991	100.028	19.956	1.260	0.518
652.000	406.667	79.985	19.992	100.028	19.956	1.250	0.493
652.500	406.936	79.984	19.992	100.028	19.954	1.434	0.511
653.000	407.159	79.985	19.992	100.028	19.956	1.312	0.515
653.500	407.435	79.984	19.992	100.028	19.956	1.244	0.496
654.000	407.668	79.984	19.992	100.028	19.954	1.410	0.504
654.500	407.935	79.986	19.992	100.028	19.956	1.258	0.504
655.000	408.187	79.986	19.991	100.028	19.959	1.027	0.509
655.500	408.441	79.985	19.991	100.028	19.956	1.282	0.513
656.000	408.670	79.986	19.992	100.028	19.957	1.175	0.495
656.500	408.948	79.985	19.992	100.028	19.955	1.388	0.495
657.000	409.193	79.985	19.993	100.028	19.956	1.274	0.515
657.500	409.470	79.984	19.992	100.028	19.955	1.322	0.522
658.000	409.711	79.985	19.991	100.028	19.957	1.224	0.520
658.500	409.947	79.985	19.992	100.028	19.958	1.133	0.498
659.000	410.242	79.985	19.991	100.028	19.953	1.498	0.504
659.500	410.449	79.985	19.993	100.031	19.954	1.392	0.517
660.000	410.705	79.985	19.992	100.032	19.956	1.272	0.482
660.500	410.947	79.985	19.992	100.032	19.956	1.278	0.480
661.000	411.241	79.984	19.992	100.032	19.958	1.149	0.517
661.500	411.464	79.985	19.991	100.032	19.957	1.230	0.527
662.000	411.725	79.984	19.992	100.030	19.957	1.236	0.501
662.500	411.956	79.983	19.992	100.029	19.956	1.254	0.488
663.000	412.231	79.984	19.994	100.029	19.955	1.320	0.499
663.500	412.490	79.986	19.992	100.023	19.959	1.041	0.520
664.000	412.744	79.985	19.992	100.021	19.957	1.228	0.523
664.500	412.977	79.984	19.992	100.021	19.956	1.244	0.500
665.000	413.197	79.986	19.992	100.020	19.956	1.280	0.471
665.500	413.462	79.983	19.993	100.018	19.962	0.857	0.469
666.000	413.714	79.983	19.992	100.023	19.957	1.204	0.500
666.500	413.960	79.984	19.993	100.025	19.960	0.965	0.507
667.000	414.173	79.983	19.992	100.025	19.958	1.145	0.479
667.500	414.429	79.985	19.993	100.025	19.956	1.270	0.464
668.000	414.687	79.985	19.992	100.027	19.960	0.979	0.492
668.500	414.933	79.983	19.992	100.026	19.960	1.011	0.509
669.000	415.200	79.982	19.992	100.026	19.961	0.945	0.509
669.500	415.493	79.983	19.992	100.026	19.958	1.149	0.536
670.000	415.707	79.983	19.993	100.025	19.960	0.973	0.534
670.500	415.937	79.982	19.993	100.025	19.959	1.081	0.475
671.000	416.211	79.982	19.993	100.025	19.960	0.987	0.473
671.500	416.472	79.984	19.993	100.025	19.958	1.111	0.520
672.000	416.734	79.984	19.992	100.025	19.958	1.139	0.529
672.500	416.959	79.984	19.993	100.025	19.961	0.945	0.505
673.000	417.205	79.984	19.993	100.026	19.956	1.300	0.479
673.500	417.490	79.983	19.993	100.026	19.959	1.043	0.501
674.000	417.717	79.985	19.992	100.026	19.958	1.107	0.522
674.500	417.957	79.985	19.992	100.026	19.959	1.039	0.490
675.000	418.215	79.983	19.992	100.026	19.958	1.149	0.482
675.500	418.472	79.984	19.992	100.025	19.957	1.238	0.506
676.000	418.742	79.984	19.992	100.025	19.958	1.133	0.521
676.500	418.972	79.985	19.993	100.026	19.959	1.031	0.514
677.000	419.220	79.983	19.992	100.025	19.959	1.021	0.489
677.500	419.478	79.986	19.992	100.026	19.961	0.931	0.492
678.000	419.718	79.985	19.993	100.026	19.956	1.282	0.502
678.500	420.009	79.986	19.992	100.025	19.954	1.464	0.515
679.000	420.239	79.986	19.992	100.026	19.958	1.125	0.526
679.500	420.489	79.985	19.992	100.026	19.958	1.107	0.501
680.000	420.749	79.987	19.992	100.026	19.959	1.029	0.495
680.500	420.972	79.984	19.992	100.026	19.959	1.061	0.497
681.000	421.220	79.987	19.992	100.026	19.960	1.013	0.478
681.500	421.435	79.985	19.992	100.025	19.958	1.105	0.467
682.000	421.724	79.987	19.993	100.025	19.961	0.907	0.483
682.500	421.984	79.986	19.992	100.025	19.964	0.677	0.526
683.000	422.247	79.988	19.992	100.024	19.959	1.079	0.536
683.500	422.488	79.986	19.992	100.024	19.960	1.001	0.513
684.000	422.759	79.986	19.992	100.025	19.961	0.921	0.508
684.501	422.968	79.987	19.992	100.025	19.959	1.047	0.497
685.001	423.236	79.985	19.993	100.024	19.959	1.073	0.479
685.500	423.484	79.986	19.992	100.024	19.959	1.045	0.496
686.000	423.713	79.985	19.993	100.024	19.960	1.009	0.496
686.500	423.992	79.985	19.992	100.023	19.959	1.043	0.492
687.000	424.261	79.987	19.993	100.023	19.957	1.174	0.528
687.500	424.508	79.984	19.992	100.023	19.959	1.029	0.532
688.000	424.720	79.986	19.993	100.024	19.957	1.214	0.487
688.500	424.983	79.986	19.993	100.023	19.960	0.993	0.467
689.000	425.229	79.986	19.993	100.023	19.959	1.087	0.492
689.500	425.517	79.985	19.993	100.023	19.958	1.115	0.521
690.000	425.746	79.985	19.993	100.023	19.959	1.031	0.525
690.500	425.995	79.985	19.993	100.024	19.958	1.129	0.497
691.000	426.280	79.986	19.993	100.023	19.958	1.121	0.506
691.500	426.483	79.986	19.993	100.023	19.958	1.123	0.511
692.000	426.761	79.985	19.993	100.024	19.959	1.081	0.484
692.500	426.990	79.987	19.993	100.023	19.960	0.957	0.494
693.000	427.286	79.987	19.993	100.023	19.959	1.085	0.516
693.500	427.542	79.986	19.994	100.023	19.960	0.973	0.538
694.000	427.756	79.985	19.994	100.023	19.960	1.015	0.511
694.500	428.031	79.985	19.993	100.020	19.957	1.175	0.480
695.000	428.287	79.986	19.993	100.020	19.960	1.011	0.510
695.500	428.518	79.985	19.993	100.020	19.959	1.035	0.509
696.000	428.805	79.985	19.994	100.021	19.956	1.274	0.502
696.500	429.073	79.987	19.993	100.021	19.959	1.073	0.537
697.000	429.282	79.986	19.993	100.022	19.960	0.963	0.516
697.500	429.547	79.987	19.993	100.023	19.960	0.965	0.476
698.000	429.795	79.983	19.994	100.021	19.961	0.891	0.494
698.500	430.065	79.986	19.993	100.022	19.961	0.899	0.515
699.000	430.327	79.986	19.993	100.022	19.958	1.144	0.525
699.500	430.543	79.986	19.993	100.023	19.960	0.949	0.505
700.000	430.792	79.985	19.993	100.022	19.963	0.737	0.472
700.500	431.038	79.984	19.993	100.022	19.959	1.055	0.480
701.000	431.301	79.984	19.993	100.021	19.960	1.007	0.502
701.500	431.568	79.985	19.993	100.021	19.963	0.779	0.520
702.000	431.814	79.985	19.994	100.021	19.961	0.909	0.522
702.500	432.058	79.985	19.992	100.022	19.964	0.661	0.501
703.000	432.323	79.987	19.993	100.024	19.962	0.851	0.499
703.500	432.572	79.988	19.992	100.025	19.964	0.715	0.512
704.000	432.794	79.984	19.992	100.026	19.963	0.765	0.493
704.500	433.073	79.986	19.992	100.027	19.959	1.073	0.486
705.000	433.350	79.987	19.992	100.028	19.961	0.881	0.528
705.500	433.597	79.985	19.991	100.026	19.964	0.701	0.540
706.000	433.863	79.986	19.991	100.026	19.961	0.899	0.519
706.500	434.143	79.987	19.992	100.026	19.962	0.833	0.530
707.000	434.374	79.987	19.992	100.025	19.958	1.131	0.529
707.500	434.658	79.988	19.991	100.025	19.961	0.929	0.513
708.000	434.905	79.986	19.992	100.026	19.961	0.927	0.523
708.500	435.173	79.986	19.991	100.023	19.961	0.891	0.523
709.000	435.402	79.986	19.992	100.020	19.960	1.009	0.506
709.500	435.679	79.986	19.991	100.020	19.961	0.925	0.502
710.000	435.917	79.990	19.991	100.020	19.962	0.871	0.511
710.500	436.146	79.988	19.991	100.020	19.960	0.963	0.491
711.000	436.432	79.987	19.991	100.024	19.959	1.047	0.491
711.500	436.671	79.987	19.991	100.026	19.964	0.711	0.520
712.000	436.951	79.987	19.991	100.027	19.961	0.883	0.522
712.501	437.191	79.987	19.991	100.026	19.961	0.933	0.519
713.000	437.472	79.987	19.991	100.026	19.962	0.837	0.520
713.501	437.707	79.988	19.991	100.026	19.964	0.697	0.519
714.001	437.947	79.987	19.992	100.026	19.960	0.963	0.496
714.500	438.244	79.986	19.991	100.024	19.960	0.953	0.506
715.000	438.463	79.984	19.991	100.020	19.964	0.651	0.526
715.500	438.710	79.985	19.992	100.017	19.962	0.813	0.491
716.000	438.993	79.987	19.991	100.017	19.962	0.819	0.498
716.500	439.216	79.986	19.991	100.016	19.961	0.911	0.518
717.000	439.510	79.985	19.992	100.018	19.963	0.769	0.512
717.500	439.767	79.985	19.992	100.023	19.962	0.859	0.534
718.001	440.012	79.984	19.991	100.026	19.964	0.719	0.527
718.500	440.238	79.985	19.991	100.027	19.963	0.793	0.487
719.000	440.497	79.984	19.991	100.026	19.959	1.093	0.478
719.500	440.753	79.983	19.991	100.023	19.961	0.923	0.500
720.001	440.991	79.985	19.991	100.023	19.962	0.851	0.505
720.500	441.232	79.984	19.991	100.022	19.962	0.847	0.487
721.000	441.510	79.984	19.991	100.021	19.960	0.975	0.498
721.500	441.766	79.985	19.993	100.023	19.959	1.067	0.526
722.000	442.019	79.984	19.992	100.025	19.956	1.282	0.521
722.500	442.247	79.984	19.992	100.026	19.958	1.166	0.495
723.000	442.513	79.984	19.991	100.027	19.958	1.127	0.488
723.500	442.750	79.982	19.992	100.028	19.961	0.933	0.499
724.000	443.026	79.983	19.991	100.029	19.958	1.101	0.508
724.500	443.253	79.984	19.992	100.029	19.958	1.149	0.508
725.000	443.485	79.985	19.992	100.029	19.956	1.268	0.481
725.500	443.780	79.984	19.991	100.029	19.960	1.011	0.493
726.000	443.986	79.983	19.992	100.029	19.959	1.041	0.514
726.500	444.274	79.984	19.992	100.029	19.958	1.107	0.497
727.000	444.513	79.985	19.992	100.030	19.957	1.228	0.511
727.500	444.740	79.984	19.992	100.029	19.960	0.985	0.497
728.000	445.002	79.984	19.992	100.029	19.957	1.240	0.478
728.500	445.269	79.985	19.992	100.029	19.959	1.045	0.509
729.000	445.531	79.985	19.992	100.028	19.958	1.117	0.529
729.500	445.787	79.985	19.992	100.025	19.960	0.959	0.524
730.000	446.031	79.984	19.992	100.024	19.957	1.232	0.509
730.500	446.290	79.983	19.992	100.024	19.959	1.045	0.501
731.000	446.519	79.983	19.991	100.024	19.961	0.913	0.496
731.500	446.767	79.984	19.991	100.024	19.956	1.242	0.483
732.000	447.051	79.984	19.992	100.024	19.957	1.196	0.504
732.500	447.318	79.986	19.992	100.023	19.960	1.007	0.541
733.000	447.561	79.985	19.992	100.023	19.959	1.031	0.530
733.500	447.835	79.985	19.993	100.023	19.960	0.971	0.514
734.000	448.056	79.984	19.992	100.022	19.960	0.985	0.506
734.500	448.295	79.984	19.991	100.025	19.961	0.931	0.477
735.000	448.554	79.985	19.991	100.026	19.962	0.871	0.479
735.500	448.791	79.985	19.991	100.027	19.963	0.753	0.497
736.000	449.060	79.985	19.992	100.027	19.964	0.707	0.501
736.500	449.275	79.986	19.991	100.027	19.962	0.849	0.495
737.000	449.547	79.984	19.992	100.027	19.962	0.839	0.486
737.500	449.795	79.984	19.992	100.027	19.959	1.021	0.504
738.000	450.085	79.984	19.992	100.027	19.962	0.867	0.529
738.500	450.276	79.984	19.992	100.026	19.961	0.929	0.509
739.000	450.543	79.983	19.991	100.025	19.960	0.967	0.469
739.500	450.828	79.985	19.991	100.025	19.960	0.977	0.505
740.000	451.055	79.986	19.991	100.024	19.961	0.945	0.532
740.500	451.304	79.983	19.991	100.024	19.959	1.093	0.494
741.000	451.555	79.986	19.992	100.024	19.962	0.861	0.488
741.500	451.803	79.985	19.991	100.023	19.963	0.725	0.500
742.000	452.112	79.985	19.991	100.024	19.962	0.867	0.528
742.500	452.338	79.985	19.992	100.023	19.962	0.839	0.546
743.000	452.567	79.985	19.992	100.022	19.961	0.877	0.495
743.500	452.816	79.985	19.991	100.022	19.958	1.129	0.467
744.000	453.069	79.985	19.991	100.023	19.958	1.129	0.490
744.500	453.345	79.984	19.991	100.023	19.960	0.985	0.515
745.000	453.629	79.984	19.992	100.024	19.958	1.105	0.544
745.500	453.837	79.983	19.992	100.024	19.960	0.961	0.526
746.000	454.080	79.986	19.992	100.026	19.960	1.001	0.472
746.500	454.371	79.985	19.992	100.026	19.957	1.200	0.493
747.000	454.613	79.984	19.992	100.026	19.963	0.731	0.534
747.500	454.879	79.983	19.991	100.025	19.961	0.935	0.521
748.000	455.143	79.983	19.992	100.024	19.959	1.061	0.519
748.500	455.392	79.983	19.991	100.024	19.962	0.863	0.521
749.000	455.658	79.984	19.991	100.021	19.961	0.885	0.514
749.500	455.930	79.984	19.992	100.021	19.956	1.302	0.526
750.000	456.138	79.984	19.992	100.019	19.960	1.005	0.509
750.500	456.420	79.984	19.992	100.017	19.961	0.913	0.485
751.000	456.672	79.985	19.992	100.014	19.959	1.081	0.512
751.500	456.895	79.983	19.993	100.016	19.956	1.312	0.505
752.000	457.204	79.984	19.993	100.015	19.960	0.957	0.504
752.500	457.439	79.984	19.993	100.017	19.960	0.949	0.538
753.000	457.663	79.983	19.992	100.019	19.960	0.979	0.501
753.500	457.928	79.984	19.993	100.022	19.960	0.989	0.474
754.000	458.195	79.984	19.993	100.022	19.961	0.899	0.510
754.500	458.422	79.985	19.993	100.024	19.960	0.957	0.513
755.000	458.698	79.984	19.993	100.024	19.962	0.811	0.499
755.500	458.972	79.986	19.993	100.025	19.963	0.761	0.527
756.000	459.225	79.983	19.993	100.025	19.961	0.945	0.539
756.500	459.487	79.985	19.993	100.025	19.961	0.935	0.521
757.000	459.749	79.985	19.994	100.025	19.960	1.015	0.519
757.500	459.978	79.985	19.993	100.024	19.960	0.975	0.508
758.000	460.196	79.985	19.992	100.020	19.960	0.957	0.469
758.500	460.486	79.986	19.993	100.019	19.959	1.027	0.477
759.000	460.716	79.985	19.993	100.019	19.962	0.853	0.514
759.500	460.977	79.986	19.992	100.018	19.960	0.979	0.506
760.000	461.268	79.985	19.993	100.017	19.959	1.027	0.521
760.500	461.511	79.986	19.992	100.021	19.959	1.063	0.543
761.000	461.749	79.984	19.993	100.021	19.960	1.007	0.508
761.500	461.982	79.985	19.993	100.021	19.959	1.031	0.476
762.000	462.253	79.986	19.992	100.023	19.961	0.891	0.488
762.500	462.477	79.986	19.992	100.024	19.959	1.073	0.499
763.000	462.781	79.986	19.992	100.025	19.960	0.999	0.511
763.500	463.013	79.987	19.993	100.025	19.961	0.915	0.531
764.000	463.257	79.986	19.992	100.025	19.963	0.741	0.506
764.500	463.489	79.987	19.992	100.024	19.959	1.077	0.476
765.000	463.779	79.988	19.992	100.024	19.963	0.771	0.499
765.500	464.015	79.985	19.992	100.024	19.959	1.055	0.525
766.000	464.287	79.986	19.992	100.024	19.959	1.033	0.517
766.500	464.490	79.988	19.992	100.025	19.958	1.143	0.491
767.000	464.785	79.985	19.992	100.025	19.960	0.983	0.487
767.500	465.021	79.987	19.992	100.025	19.959	1.077	0.515
768.000	465.324	79.987	19.992	100.025	19.963	0.735	0.535
768.501	465.535	79.988	19.992	100.025	19.964	0.713	0.526
769.001	465.822	79.986	19.991	100.025	19.963	0.753	0.506
769.500	466.054	79.985	19.992	100.026	19.963	0.795	0.509
770.000	466.299	79.987	19.992	100.027	19.962	0.839	0.498
770.500	466.571	79.986	19.993	100.027	19.963	0.791	0.497
771.000	466.811	79.986	19.991	100.025	19.963	0.767	0.514
771.500	467.089	79.985	19.992	100.025	19.963	0.739	0.515
772.000	467.296	79.985	19.992	100.025	19.960	0.963	0.502
772.500	467.594	79.985	19.992	100.024	19.965	0.627	0.495
773.000	467.857	79.986	19.993	100.022	19.963	0.745	0.533
773.500	468.098	79.985	19.992	100.023	19.962	0.827	0.533
774.000	468.359	79.984	19.992	100.019	19.962	0.803	0.503
774.500	468.610	79.984	19.992	100.016	19.964	0.671	0.507
775.000	468.865	79.985	19.992	100.015	19.963	0.769	0.509
775.500	469.105	79.985	19.992	100.017	19.964	0.687	0.500
776.000	469.381	79.986	19.992	100.017	19.963	0.743	0.506
776.500	469.640	79.984	19.992	100.021	19.963	0.725	0.526
777.000	469.879	79.984	19.992	100.024	19.962	0.801	0.516
777.500	470.145	79.985	19.993	100.027	19.962	0.807	0.502
778.000	470.390	79.984	19.993	100.027	19.964	0.693	0.508
778.500	470.623	79.986	19.992	100.027	19.962	0.837	0.494
779.000	470.888	79.985	19.992	100.027	19.962	0.801	0.488
779.500	471.149	79.984	19.993	100.027	19.965	0.633	0.512
780.000	471.415	79.986	19.993	100.027	19.964	0.665	0.527
780.500	471.664	79.984	19.993	100.027	19.963	0.735	0.521
781.000	471.971	79.985	19.992	100.027	19.965	0.619	0.536
781.500	472.194	79.984	19.993	100.027	19.962	0.809	0.543
782.000	472.481	79.986	19.993	100.027	19.961	0.879	0.520
782.500	472.710	79.985	19.993	100.027	19.961	0.897	0.513
783.000	472.941	79.986	19.993	100.027	19.964	0.719	0.488
783.500	473.237	79.986	19.993	100.027	19.961	0.921	0.494
784.000	473.501	79.986	19.993	100.026	19.961	0.923	0.543
784.500	473.765	79.986	19.993	100.026	19.960	0.967	0.544
785.000	474.051	79.986	19.993	100.026	19.964	0.719	0.539
785.500	474.283	79.986	19.992	100.025	19.960	0.973	0.534
786.000	474.551	79.986	19.992	100.024	19.960	0.961	0.509
786.500	474.822	79.987	19.992	100.023	19.964	0.709	0.519
787.000	475.064	79.986	19.992	100.023	19.964	0.659	0.526
787.500	475.359	79.986	19.992	100.023	19.963	0.729	0.525
788.000	475.596	79.987	19.991	100.025	19.957	1.175	0.534
788.500	475.838	79.987	19.993	100.026	19.962	0.819	0.506
789.000	476.079	79.985	19.993	100.027	19.963	0.729	0.481
789.500	476.341	79.986	19.992	100.027	19.961	0.927	0.493
790.000	476.601	79.987	19.992	100.028	19.960	0.987	0.512
790.500	476.857	79.987	19.992	100.027	19.962	0.861	0.519
791.000	477.118	79.986	19.992	100.027	19.962	0.823	0.516
791.500	477.400	79.988	19.992	100.027	19.961	0.911	0.530
792.000	477.605	79.987	19.992	100.025	19.963	0.797	0.516
792.500	477.848	79.987	19.991	100.021	19.963	0.729	0.468
793.000	478.133	79.987	19.991	100.021	19.962	0.849	0.488
793.500	478.374	79.987	19.991	100.021	19.962	0.849	0.527
794.000	478.650	79.987	19.991	100.021	19.963	0.747	0.521
794.500	478.907	79.986	19.992	100.021	19.959	1.035	0.525
795.000	479.145	79.986	19.992	100.024	19.962	0.807	0.514
795.500	479.382	79.987	19.991	100.024	19.962	0.811	0.485
796.000	479.635	79.986	19.992	100.024	19.963	0.723	0.482
796.500	479.906	79.987	19.992	100.025	19.963	0.723	0.507
797.000	480.167	79.987	19.992	100.026	19.962	0.835	0.528
797.500	480.396	79.987	19.992	100.025	19.959	1.071	0.511
798.000	480.691	79.985	19.991	100.024	19.960	1.009	0.507
798.500	480.931	79.985	19.993	100.024	19.962	0.799	0.530
799.000	481.186	79.985	19.991	100.024	19.962	0.867	0.515
799.500	481.427	79.985	19.992	100.024	19.960	0.953	0.495
800.000	481.651	79.986	19.992	100.025	19.958	1.095	0.481
800.500	481.936	79.985	19.992	100.024	19.962	0.859	0.487
801.000	482.173	79.985	19.993	100.024	19.961	0.937	0.516
801.500	482.469	79.986	19.992	100.025	19.960	0.955	0.528
802.000	482.703	79.985	19.991	100.024	19.962	0.843	0.531
802.500	482.944	79.985	19.991	100.024	19.962	0.817	0.502
803.000	483.228	79.984	19.992	100.025	19.963	0.781	0.500
803.500	483.479	79.986	19.992	100.025	19.964	0.681	0.530
804.000	483.720	79.985	19.992	100.025	19.960	0.973	0.514
804.500	483.937	79.985	19.992	100.026	19.960	0.959	0.475
805.000	484.227	79.986	19.992	100.026	19.961	0.931	0.482
805.500	484.494	79.987	19.992	100.026	19.963	0.795	0.532
806.000	484.734	79.983	19.992	100.025	19.960	1.009	0.532
806.500	485.036	79.985	19.991	100.025	19.962	0.853	0.525
807.000	485.278	79.984	19.992	100.025	19.960	0.977	0.543
807.500	485.518	79.985	19.991	100.025	19.961	0.899	0.512
808.000	485.749	79.986	19.991	100.023	19.963	0.769	0.476
808.500	486.020	79.985	19.992	100.019	19.965	0.591	0.487
809.000	486.267	79.984	19.992	100.014	19.961	0.891	0.510
809.500	486.545	79.985	19.992	100.014	19.963	0.731	0.522
810.000	486.759	79.985	19.992	100.012	19.966	0.537	0.509
810.500	487.047	79.984	19.993	100.014	19.966	0.531	0.497
811.000	487.279	79.986	19.992	100.018	19.965	0.593	0.511
811.500	487.496	79.986	19.992	100.023	19.966	0.551	0.485
812.000	487.755	79.986	19.992	100.023	19.963	0.777	0.463
812.500	487.990	79.986	19.992	100.023	19.966	0.567	0.485
813.000	488.272	79.981	19.992	100.020	19.962	0.829	0.505
813.500	488.514	79.985	19.993	100.019	19.963	0.737	0.520
814.000	488.790	79.986	19.992	100.013	19.966	0.527	0.521
814.500	489.049	79.985	19.993	100.012	19.962	0.841	0.527
815.000	489.288	79.987	19.991	100.014	19.966	0.501	0.517
815.500	489.556	79.986	19.992	100.016	19.965	0.611	0.503
816.000	489.791	79.986	19.993	100.016	19.964	0.667	0.505
816.500	490.041	79.986	19.991	100.021	19.965	0.589	0.494
817.000	490.305	79.985	19.992	100.022	19.965	0.647	0.499
817.500	490.542	79.985	19.992	100.022	19.962	0.857	0.507
818.000	490.817	79.986	19.992	100.023	19.961	0.887	0.507
818.500	491.081	79.986	19.992	100.024	19.964	0.697	0.526
819.000	491.325	79.985	19.992	100.023	19.966	0.531	0.523
819.500	491.545	79.985	19.992	100.020	19.964	0.677	0.486
820.000	491.822	79.985	19.991	100.017	19.962	0.823	0.481
820.500	492.096	79.986	19.992	100.018	19.962	0.831	0.524
821.000	492.328	79.986	19.992	100.018	19.959	1.065	0.529
821.500	492.632	79.984	19.992	100.019	19.965	0.619	0.521
822.000	492.895	79.985	19.992	100.022	19.963	0.773	0.551
822.500	493.126	79.984	19.992	100.025	19.964	0.657	0.530
823.000	493.401	79.985	19.992	100.024	19.961	0.873	0.500
823.500	493.652	79.986	19.992	100.021	19.963	0.735	0.517
824.000	493.895	79.987	19.992	100.016	19.964	0.719	0.510
824.500	494.179	79.984	19.992	100.012	19.963	0.725	0.510
825.000	494.428	79.985	19.992	100.009	19.962	0.833	0.530
825.500	494.674	79.984	19.992	100.006	19.964	0.705	0.514
826.000	494.933	79.983	19.991	100.005	19.963	0.759	0.500
826.500	495.173	79.984	19.992	100.005	19.967	0.441	0.502
827.000	495.431	79.984	19.991	100.004	19.964	0.715	0.499
827.500	495.691	79.984	19.991	100.003	19.963	0.783	0.508
828.000	495.925	79.985	19.991	100.007	19.963	0.781	0.506
828.500	496.190	79.985	19.991	100.010	19.965	0.603	0.496
829.001	496.498	79.985	19.992	100.015	19.965	0.625	0.536
829.500	496.733	79.984	19.992	100.021	19.963	0.733	0.558
830.000	496.988	79.983	19.992	100.027	19.961	0.893	0.517
830.500	497.255	79.984	19.991	100.027	19.963	0.737	0.506
831.000	497.503	79.983	19.993	100.028	19.967	0.467	0.518
831.500	497.790	79.984	19.991	100.029	19.963	0.755	0.525
832.000	498.014	79.982	19.992	100.026	19.970	0.276	0.523
832.500	498.283	79.984	19.992	100.023	19.967	0.433	0.502
833.000	498.515	79.984	19.991	100.023	19.968	0.419	0.497
833.500	498.744	79.985	19.991	100.023	19.969	0.302	0.481
834.000	498.992	79.984	19.991	100.024	19.966	0.563	0.469
834.500	499.284	79.984	19.992	100.026	19.963	0.753	0.509
835.000	499.517	79.984	19.992	100.026	19.966	0.529	0.533
835.500	499.793	79.984	19.991	100.025	19.970	0.238	0.517
836.000	500.034	79.985	19.992	100.021	19.968	0.380	0.513
836.500	500.299	79.984	19.992	100.020	19.964	0.671	0.512
837.000	500.578	79.984	19.992	100.019	19.967	0.491	0.525
837.500	500.827	79.985	19.992	100.022	19.965	0.615	0.536
838.000	501.085	79.984	19.992	100.022	19.965	0.579	0.518
838.500	501.338	79.986	19.992	100.025	19.969	0.338	0.509
839.000	501.589	79.985	19.992	100.019	19.966	0.555	0.507
839.500	501.852	79.984	19.992	100.019	19.964	0.689	0.509
840.000	502.120	79.986	19.992	100.019	19.967	0.485	0.522
840.500	502.364	79.985	19.992	100.018	19.965	0.581	0.522
841.000	502.601	79.987	19.992	100.019	19.968	0.395	0.497
841.500	502.879	79.984	19.992	100.025	19.968	0.356	0.498
842.000	503.138	79.984	19.993	100.027	19.968	0.409	0.526
842.500	503.386	79.987	19.993	100.024	19.966	0.505	0.523
843.000	503.629	79.985	19.992	100.022	19.969	0.344	0.499
843.500	503.913	79.985	19.992	100.022	19.967	0.493	0.509
844.000	504.177	79.985	19.993	100.022	19.972	0.114	0.538
844.500	504.448	79.986	19.993	100.022	19.969	0.286	0.542
845.000	504.697	79.987	19.993	100.022	19.970	0.266	0.527
845.500	504.947	79.985	19.992	100.024	19.969	0.336	0.509
846.000	505.253	79.986	19.993	100.024	19.973	0.054	0.528
846.500	505.505	79.986	19.993	100.023	19.970	0.278	0.557
847.000	505.773	79.985	19.993	100.023	19.968	0.362	0.538
847.500	505.997	79.985	19.992	100.026	19.968	0.396	0.506
848.000	506.230	79.986	19.992	100.027	19.971	0.136	0.475
848.500	506.503	79.985	19.992	100.027	19.970	0.274	0.481
849.000	506.793	79.986	19.993	100.027	19.968	0.423	0.534
849.500	507.018	79.986	19.993	100.023	19.967	0.489	0.540
850.000	507.282	79.985	19.991	100.022	19.968	0.383	0.502
850.500	507.546	79.986	19.993	100.022	19.970	0.250	0.508
851.000	507.751	79.984	19.991	100.022	19.968	0.379	0.498
851.500	508.051	79.985	19.993	100.022	19.970	0.272	0.487
852.000	508.304	79.986	19.992	100.024	19.968	0.361	0.529
852.500	508.573	79.985	19.992	100.024	19.966	0.519	0.537
853.000	508.835	79.985	19.993	100.024	19.966	0.543	0.526
853.500	509.102	79.986	19.991	100.024	19.967	0.469	0.530
854.000	509.354	79.985	19.992	100.024	19.966	0.521	0.524
854.500	509.588	79.984	19.993	100.021	19.970	0.260	0.502
855.000	509.848	79.985	19.992	100.017	19.968	0.367	0.490
855.500	510.119	79.986	19.992	100.016	19.970	0.250	0.512
856.000	510.349	79.986	19.992	100.016	19.972	0.126	0.516
856.500	510.624	79.984	19.992	100.016	19.967	0.477	0.503
857.000	510.857	79.985	19.992	100.022	19.970	0.256	0.506
857.500	511.126	79.985	19.992	100.026	19.972	0.116	0.505
858.000	511.387	79.986	19.993	100.026	19.968	0.391	0.516
858.500	511.660	79.986	19.993	100.025	19.971	0.170	0.532
859.000	511.899	79.985	19.991	100.024	19.971	0.144	0.524
859.500	512.145	79.985	19.993	100.019	19.969	0.286	0.499
860.000	512.415	79.985	19.992	100.016	19.969	0.350	0.500
860.501	512.672	79.987	19.992	100.016	19.970	0.264	0.521
861.000	512.914	79.986	19.991	100.014	19.968	0.358	0.512
861.500	513.192	79.986	19.992	100.009	19.965	0.575	0.509
862.000	513.431	79.986	19.992	100.011	19.966	0.549	0.519
862.500	513.696	79.986	19.993	100.013	19.967	0.431	0.511
863.000	513.945	79.986	19.993	100.010	19.966	0.571	0.509
863.500	514.196	79.987	19.992	100.004	19.968	0.360	0.507
864.000	514.475	79.985	19.993	100.002	19.969	0.320	0.515
864.500	514.729	79.986	19.992	100.003	19.969	0.312	0.531
865.000	514.988	79.988	19.993	100.003	19.971	0.154	0.523
865.500	515.222	79.986	19.993	100.007	19.967	0.445	0.504
866.000	515.489	79.987	19.992	100.013	19.966	0.505	0.497
866.500	515.759	79.987	19.993	100.020	19.967	0.499	0.519
867.000	516.032	79.987	19.994	100.022	19.968	0.364	0.540
867.500	516.266	79.987	19.992	100.021	19.969	0.334	0.525
868.000	516.487	79.988	19.993	100.020	19.965	0.577	0.481
868.500	516.797	79.987	19.993	100.020	19.969	0.322	0.493
869.000	517.063	79.987	19.993	100.018	19.966	0.555	0.553
869.500	517.291	79.987	19.992	100.017	19.968	0.421	0.535
870.000	517.601	79.988	19.992	100.017	19.967	0.493	0.516
870.500	517.850	79.987	19.993	100.017	19.968	0.383	0.549
871.000	518.099	79.988	19.992	100.018	19.966	0.533	0.528
871.500	518.344	79.988	19.993	100.018	19.968	0.417	0.496
872.000	518.557	79.986	19.993	100.017	19.965	0.581	0.476
872.500	518.851	79.987	19.992	100.015	19.965	0.629	0.483
873.000	519.090	79.986	19.993	100.014	19.964	0.675	0.520
873.500	519.359	79.986	19.993	100.014	19.969	0.348	0.520
874.000	519.629	79.986	19.993	100.015	19.971	0.188	0.524
874.500	519.863	79.986	19.993	100.013	19.970	0.252	0.522
875.000	520.097	79.986	19.992	100.015	19.969	0.340	0.486
875.500	520.363	79.987	19.992	100.017	19.967	0.427	0.483
876.000	520.611	79.986	19.994	100.016	19.969	0.326	0.507
876.500	520.840	79.986	19.993	100.016	19.971	0.174	0.496
877.000	521.110	79.985	19.993	100.019	19.969	0.344	0.488
877.500	521.352	79.985	19.993	100.019	19.969	0.306	0.506
878.000	521.618	79.984	19.993	100.019	19.967	0.451	0.510
878.500	521.910	79.985	19.992	100.021	19.967	0.467	0.533
879.000	522.153	79.984	19.992	100.021	19.968	0.419	0.546
879.500	522.391	79.985	19.992	100.021	19.966	0.507	0.508
880.000	522.668	79.985	19.992	100.021	19.968	0.364	0.497
880.500	522.904	79.984	19.992	100.019	19.970	0.210	0.514
881.000	523.210	79.985	19.992	100.019	19.969	0.336	0.528
881.500	523.467	79.985	19.991	100.019	19.968	0.405	0.552
882.000	523.678	79.986	19.992	100.018	19.970	0.242	0.516
882.500	523.908	79.985	19.992	100.018	19.969	0.352	0.455
883.000	524.187	79.985	19.991	100.020	19.972	0.118	0.475
883.500	524.508	79.984	19.991	100.020	19.971	0.140	0.555
884.000	524.730	79.985	19.992	100.020	19.974	-0.024	0.571
884.500	524.973	79.984	19.992	100.021	19.973	0.020	0.504
885.000	525.245	79.984	19.992	100.023	19.974	-0.070	0.490
885.500	525.475	79.985	19.991	100.023	19.973	-0.004	0.508
886.000	525.739	79.985	19.992	100.023	19.973	-0.010	0.498
886.500	526.003	79.983	19.992	100.022	19.973	0.054	0.511
887.000	526.259	79.984	19.991	100.022	19.973	-0.008	0.524
887.500	526.526	79.985	19.992	100.022	19.971	0.190	0.521
888.000	526.765	79.985	19.991	100.021	19.972	0.076	0.514
888.500	527.037	79.985	19.993	100.020	19.971	0.174	0.509
889.000	527.324	79.984	19.993	100.020	19.972	0.110	0.535
889.500	527.581	79.984	19.991	100.018	19.970	0.248	0.551
890.000	527.813	79.983	19.992	100.018	19.971	0.156	0.517
890.501	528.092	79.985	19.993	100.015	19.971	0.146	0.500
891.001	528.382	79.985	19.992	100.015	19.972	0.104	0.540
891.500	528.620	79.984	19.992	100.016	19.972	0.080	0.549
892.000	528.837	79.985	19.991	100.013	19.972	0.112	0.492
892.500	529.097	79.985	19.992	100.010	19.973	0.036	0.466
893.000	529.358	79.984	19.991	100.013	19.972	0.086	0.499
893.500	529.604	79.986	19.992	100.013	19.975	-0.128	0.514
894.000	529.905	79.984	19.991	100.013	19.974	-0.056	0.527
894.500	530.137	79.985	19.993	100.014	19.975	-0.146	0.540
895.000	530.420	79.984	19.992	100.019	19.972	0.082	0.524
895.500	530.665	79.986	19.992	100.021	19.973	0.004	0.522
896.000	530.950	79.985	19.991	100.019	19.972	0.112	0.529
896.500	531.201	79.985	19.991	100.013	19.973	0.022	0.533
897.000	531.441	79.985	19.992	100.012	19.972	0.102	0.513
897.500	531.722	79.986	19.992	100.007	19.975	-0.136	0.506
898.000	531.986	79.984	19.992	100.006	19.974	-0.044	0.533
898.500	532.259	79.986	19.993	100.010	19.973	0.054	0.541
899.000	532.505	79.984	19.991	100.017	19.971	0.166	0.528
899.500	532.759	79.985	19.991	100.020	19.971	0.140	0.510
900.000	533.006	79.986	19.991	100.020	19.972	0.116	0.501
900.500	533.283	79.983	19.991	100.020	19.971	0.182	0.512
901.000	533.511	79.985	19.992	100.018	19.972	0.090	0.514
901.500	533.773	79.984	19.993	100.015	19.971	0.156	0.497
902.000	534.045	79.985	19.991	100.014	19.971	0.142	0.512
902.500	534.299	79.984	19.992	100.016	19.971	0.162	0.530
903.000	534.545	79.985	19.991	100.013	19.972	0.084	0.513
903.500	534.776	79.984	19.992	100.009	19.970	0.210	0.489
904.000	535.064	79.984	19.992	100.012	19.970	0.220	0.498
904.500	535.345	79.984	19.993	100.012	19.970	0.214	0.544
905.000	535.559	79.985	19.992	100.009	19.972	0.090	0.531
905.500	535.861	79.985	19.991	100.011	19.972	0.100	0.505
906.000	536.093	79.984	19.993	100.015	19.972	0.062	0.525
906.500	536.338	79.984	19.992	100.016	19.973	0.014	0.506
907.000	536.622	79.986	19.992	100.018	19.974	-0.058	0.503
907.500	536.868	79.985	19.993	100.020	19.974	-0.032	0.530
908.000	537.168	79.983	19.992	100.021	19.968	0.355	0.538
908.500	537.357	79.984	19.991	100.022	19.973	0.016	0.518
909.000	537.646	79.984	19.992	100.020	19.973	0.036	0.484
909.500	537.877	79.984	19.992	100.019	19.971	0.150	0.499
910.000	538.144	79.983	19.991	100.019	19.973	-0.004	0.509
910.500	538.390	79.986	19.992	100.017	19.971	0.158	0.505
911.000	538.662	79.983	19.992	100.012	19.974	-0.030	0.516
911.500	538.886	79.984	19.992	100.011	19.971	0.184	0.507
912.000	539.156	79.984	19.991	100.011	19.970	0.258	0.495
912.500	539.409	79.985	19.992	100.015	19.972	0.064	0.508
913.000	539.675	79.984	19.991	100.013	19.973	0.044	0.521
913.500	539.945	79.984	19.992	100.015	19.972	0.068	0.527
914.000	540.167	79.985	19.992	100.017	19.971	0.154	0.514
914.500	540.427	79.985	19.990	100.020	19.973	0.028	0.488
915.000	540.693	79.985	19.991	100.019	19.973	0.038	0.504
915.500	540.925	79.985	19.992	100.020	19.972	0.062	0.512
916.000	541.199	79.986	19.992	100.022	19.973	0.020	0.502
916.500	541.455	79.986	19.991	100.023	19.974	-0.076	0.518
917.000	541.689	79.986	19.991	100.020	19.973	-0.010	0.510
917.500	541.969	79.985	19.993	100.015	19.972	0.076	0.502
918.000	542.205	79.987	19.993	100.011	19.972	0.098	0.515
918.500	542.430	79.985	19.994	100.012	19.975	-0.118	0.489
919.000	542.726	79.987	19.993	100.009	19.975	-0.104	0.491
919.500	542.995	79.986	19.993	100.010	19.973	0.018	0.543
920.000	543.225	79.985	19.991	100.015	19.973	-0.008	0.532
920.500	543.487	79.985	19.992	100.017	19.974	-0.026	0.495
921.000	543.761	79.987	19.992	100.016	19.974	-0.024	0.514
921.500	543.989	79.986	19.992	100.017	19.974	-0.020	0.519
922.000	544.233	79.985	19.992	100.018	19.973	0.030	0.487
922.500	544.508	79.985	19.992	100.017	19.973	0.014	0.495
923.000	544.741	79.987	19.992	100.017	19.976	-0.200	0.513
923.500	544.994	79.987	19.991	100.016	19.974	-0.072	0.497
924.000	545.224	79.987	19.993	100.012	19.975	-0.152	0.485
924.500	545.500	79.986	19.992	100.009	19.976	-0.224	0.494
925.000	545.719	79.988	19.992	100.009	19.974	-0.078	0.500
925.500	545.978	79.986	19.992	100.008	19.974	-0.034	0.487
926.000	546.208	79.986	19.992	100.006	19.974	-0.022	0.484
926.500	546.503	79.986	19.992	100.005	19.976	-0.214	0.507
927.000	546.748	79.987	19.991	100.007	19.975	-0.122	0.532
927.500	547.011	79.984	19.993	100.003	19.971	0.174	0.524
928.000	547.282	79.987	19.992	100.002	19.972	0.110	0.522
928.500	547.509	79.987	19.992	100.004	19.977	-0.264	0.516
929.000	547.795	79.987	19.992	100.005	19.976	-0.192	0.505
929.500	548.052	79.986	19.992	100.004	19.974	-0.032	0.528
930.000	548.281	79.988	19.992	100.003	19.972	0.090	0.515
930.500	548.557	79.985	19.992	100.007	19.973	-0.010	0.496
931.000	548.790	79.986	19.993	100.005	19.972	0.078	0.507
931.500	549.068	79.986	19.993	100.006	19.972	0.074	0.510
932.000	549.300	79.985	19.992	100.002	19.972	0.108	0.510
932.500	549.557	79.985	19.993	100.000	19.975	-0.140	0.499
933.000	549.829	79.986	19.993	100.001	19.972	0.070	0.509
933.500	550.079	79.986	19.992	100.003	19.977	-0.306	0.526
934.001	550.341	79.984	19.992	100.004	19.976	-0.216	0.517
934.500	550.595	79.984	19.992	100.008	19.972	0.092	0.514
935.000	550.822	79.984	19.992	100.013	19.976	-0.204	0.499
935.500	551.106	79.986	19.992	100.008	19.972	0.064	0.496
936.000	551.348	79.986	19.993	100.003	19.975	-0.126	0.518
936.500	551.602	79.984	19.992	100.001	19.976	-0.196	0.511
937.000	551.865	79.986	19.992	99.998	19.972	0.124	0.506
937.500	552.117	79.985	19.992	99.992	19.973	0.016	0.516
938.000	552.349	79.986	19.992	99.997	19.975	-0.118	0.499
938.500	552.593	79.986	19.993	99.999	19.974	-0.088	0.480
939.000	552.845	79.985	19.991	100.003	19.971	0.162	0.486
939.500	553.121	79.985	19.993	100.007	19.973	-0.012	0.512
940.000	553.364	79.986	19.993	100.012	19.972	0.076	0.524
940.501	553.649	79.985	19.993	100.011	19.975	-0.132	0.524
941.000	553.904	79.986	19.993	100.014	19.975	-0.144	0.534
941.500	554.121	79.987	19.992	100.015	19.974	-0.040	0.506
942.000	554.392	79.988	19.993	100.017	19.973	0.024	0.480
942.500	554.642	79.988	19.992	100.017	19.975	-0.136	0.504
943.000	554.917	79.987	19.992	100.013	19.973	0.026	0.523
943.500	555.121	79.987	19.991	100.010	19.970	0.234	0.502
944.000	555.400	79.987	19.992	100.004	19.977	-0.252	0.481
944.500	555.625	79.987	19.992	100.001	19.972	0.100	0.493
945.000	555.973	79.987	19.991	100.003	19.972	0.076	0.539
945.500	556.143	79.987	19.992	100.007	19.974	-0.084	0.546
946.000	556.370	79.987	19.992	100.007	19.971	0.168	0.457
946.500	556.682	79.987	19.992	100.010	19.972	0.104	0.468
947.000	556.919	79.988	19.992	100.006	19.974	-0.038	0.544
947.500	557.174	79.987	19.992	99.999	19.970	0.220	0.521
948.000	557.390	79.987	19.993	99.998	19.971	0.146	0.481
948.500	557.677	79.989	19.993	100.001	19.978	-0.332	0.486
949.000	557.933	79.987	19.993	100.002	19.975	-0.108	0.523
949.500	558.174	79.987	19.992	100.008	19.970	0.254	0.520
950.000	558.443	79.987	19.992	100.014	19.974	-0.042	0.504
950.500	558.654	79.989	19.992	100.015	19.973	-0.006	0.495
951.000	558.927	79.988	19.992	100.012	19.969	0.284	0.482
951.500	559.142	79.987	19.994	100.008	19.971	0.196	0.486
952.000	559.417	79.988	19.992	100.002	19.973	0.032	0.489
952.500	559.694	79.987	19.993	99.997	19.970	0.230	0.521
953.000	559.928	79.987	19.992	99.996	19.974	-0.022	0.532
953.500	560.188	79.986	19.993	99.998	19.978	-0.377	0.502
954.000	560.455	79.986	19.993	100.003	19.973	0.048	0.510
954.501	560.696	79.987	19.993	100.008	19.975	-0.098	0.517
955.001	560.957	79.985	19.993	100.013	19.974	-0.024	0.505
955.500	561.198	79.985	19.993	100.012	19.971	0.180	0.502
956.000	561.475	79.985	19.993	100.009	19.974	-0.040	0.510
956.500	561.681	79.984	19.993	100.006	19.970	0.262	0.501
957.000	561.950	79.984	19.994	100.003	19.969	0.284	0.479
957.500	562.183	79.984	19.993	99.996	19.974	-0.040	0.489
958.000	562.479	79.982	19.994	99.995	19.971	0.140	0.516
958.500	562.703	79.984	19.993	99.996	19.972	0.082	0.525
959.000	562.992	79.984	19.993	99.999	19.972	0.090	0.517
959.500	563.214	79.984	19.993	100.004	19.975	-0.146	0.512
960.000	563.441	79.984	19.993	100.010	19.974	-0.066	0.480
960.500	563.730	79.984	19.993	100.010	19.975	-0.122	0.482
961.000	564.001	79.983	19.993	100.010	19.976	-0.168	0.537
961.500	564.209	79.983	19.993	100.006	19.975	-0.106	0.520
962.000	564.523	79.984	19.993	100.002	19.977	-0.260	0.501
962.500	564.807	79.984	19.993	99.999	19.974	-0.040	0.560
963.000	565.068	79.983	19.994	99.997	19.977	-0.250	0.572
963.500	565.306	79.982	19.993	99.995	19.972	0.078	0.522
964.000	565.600	79.985	19.993	100.001	19.973	-0.008	0.516
964.500	565.818	79.983	19.993	100.006	19.976	-0.220	0.522
965.000	566.011	79.985	19.993	100.010	19.977	-0.256	0.462
965.500	566.235	79.984	19.993	100.011	19.976	-0.182	0.414
966.000	566.513	79.985	19.992	100.013	19.975	-0.118	0.460
966.500	566.739	79.985	19.992	100.007	19.974	-0.022	0.503
967.000	567.061	79.985	19.993	100.003	19.974	-0.090	0.526
967.500	567.296	79.986	19.992	100.005	19.976	-0.202	0.552
968.000	567.620	79.986	19.992	100.008	19.972	0.090	0.558
968.500	567.869	79.983	19.992	100.008	19.972	0.090	0.566
969.000	568.032	79.984	19.991	100.009	19.972	0.068	0.493
969.501	568.300	79.986	19.992	100.010	19.974	-0.066	0.422
970.000	568.630	79.984	19.992	100.005	19.976	-0.170	0.515
970.500	568.854	79.983	19.991	100.004	19.975	-0.108	0.576
971.000	569.099	79.983	19.991	100.003	19.976	-0.230	0.511
971.500	569.347	79.984	19.991	100.005	19.975	-0.158	0.481
972.000	569.627	79.983	19.992	100.008	19.975	-0.108	0.511
972.500	569.884	79.984	19.991	100.008	19.975	-0.140	0.532
973.000	570.144	79.984	19.992	100.009	19.977	-0.304	0.527
973.500	570.408	79.985	19.992	100.016	19.978	-0.344	0.521
974.000	570.659	79.984	19.992	100.019	19.976	-0.168	0.520
974.500	570.907	79.984	19.991	100.021	19.977	-0.294	0.507
975.000	571.193	79.984	19.991	100.024	19.977	-0.284	0.516
975.500	571.442	79.985	19.991	100.024	19.975	-0.138	0.535
976.000	571.688	79.983	19.992	100.021	19.972	0.104	0.515
976.500	571.927	79.983	19.991	100.016	19.977	-0.306	0.490
977.000	572.199	79.984	19.992	100.012	19.975	-0.104	0.498
977.500	572.496	79.984	19.992	100.010	19.971	0.148	0.541
978.000	572.747	79.985	19.992	100.003	19.974	-0.070	0.558
978.500	573.021	79.984	19.992	100.000	19.973	-0.012	0.536
979.000	573.281	79.984	19.991	100.001	19.976	-0.208	0.530
979.500	573.552	79.986	19.991	99.999	19.975	-0.122	0.533
980.000	573.825	79.983	19.991	100.002	19.977	-0.308	0.538
980.500	574.089	79.984	19.991	100.009	19.981	-0.569	0.540
981.000	574.326	79.985	19.992	100.008	19.980	-0.509	0.519
981.500	574.613	79.983	19.992	100.010	19.977	-0.252	0.512
982.001	574.912	79.985	19.992	100.011	19.978	-0.349	0.555
982.501	575.143	79.985	19.990	100.009	19.976	-0.230	0.558
983.000	575.387	79.985	19.992	100.007	19.976	-0.240	0.502
983.500	575.672	79.985	19.992	100.009	19.979	-0.423	0.502
984.000	575.942	79.988	19.991	100.004	19.980	-0.493	0.542
984.500	576.177	79.986	19.993	100.006	19.980	-0.507	0.530
985.000	576.455	79.984	19.992	100.005	19.980	-0.483	0.509
985.500	576.703	79.986	19.992	100.004	19.978	-0.367	0.520
986.000	576.962	79.983	19.991	100.008	19.978	-0.381	0.516
986.500	577.234	79.983	19.992	100.012	19.977	-0.309	0.519
987.000	577.502	79.984	19.992	100.014	19.975	-0.148	0.536
987.500	577.763	79.984	19.993	100.015	19.975	-0.130	0.535
988.001	577.991	79.983	19.992	100.009	19.977	-0.267	0.509
988.500	578.278	79.984	19.993	100.003	19.977	-0.273	0.502
989.000	578.529	79.983	19.993	100.003	19.974	-0.054	0.526
989.501	578.769	79.985	19.993	100.001	19.975	-0.150	0.515
990.001	579.074	79.984	19.992	99.999	19.979	-0.412	0.518
990.500	579.268	79.984	19.992	99.999	19.976	-0.224	0.522
991.000	579.545	79.984	19.993	100.003	19.978	-0.360	0.485
991.501	579.799	79.983	19.993	100.002	19.977	-0.244	0.501
992.000	580.092	79.983	19.992	100.001	19.980	-0.479	0.539
992.500	580.333	79.984	19.993	100.001	19.977	-0.302	0.541
993.000	580.614	79.983	19.992	100.005	19.978	-0.351	0.528
993.500	580.834	79.983	19.992	100.007	19.976	-0.234	0.511
994.000	581.080	79.985	19.992	100.007	19.978	-0.381	0.483
994.500	581.390	79.985	19.992	100.004	19.978	-0.326	0.511
995.000	581.696	79.983	19.992	100.004	19.978	-0.363	0.586
995.500	581.900	79.984	19.991	100.003	19.972	0.064	0.563
996.000	582.175	79.985	19.992	99.997	19.973	-0.004	0.494
996.500	582.440	79.986	19.992	100.007	19.975	-0.160	0.509
997.000	582.646	79.985	19.992	99.977	19.972	0.128	0.505
997.500	582.940	79.984	19.993	99.945	19.974	-0.020	0.486
998.000	583.206	79.985	19.992	99.928	19.976	-0.170	0.531
998.500	583.442	79.986	19.992	99.922	19.975	-0.094	0.531
999.000	583.686	79.985	19.992	99.906	19.973	0.040	0.491
999.500	583.953	79.985	19.993	99.953	19.977	-0.254	0.495
1000.000	584.205	79.985	19.992	100.021	19.978	-0.375	0.514
1000.500	584.482	79.986	19.992	100.056	19.975	-0.122	0.524
1001.000	584.707	79.986	19.992	100.071	19.978	-0.367	0.516
1001.500	584.952	79.986	19.992	100.078	19.976	-0.180	0.486
1002.000	585.226	79.984	19.993	100.064	19.974	-0.088	0.495
1002.500	585.503	79.987	19.992	100.029	19.975	-0.148	0.535
1003.000	585.734	79.984	19.992	100.010	19.976	-0.240	0.529
1003.500	585.991	79.988	19.992	100.008	19.979	-0.461	0.498
1004.000	586.248	79.986	19.992	100.004	19.971	0.154	0.501
1004.500	586.496	79.985	19.991	100.001	19.977	-0.256	0.509
1005.001	586.783	79.985	19.992	99.998	19.976	-0.200	0.520
1005.500	587.001	79.986	19.990	100.001	19.978	-0.361	0.520
1006.000	587.252	79.986	19.993	99.996	19.976	-0.190	0.487
1006.500	587.510	79.987	19.993	99.994	19.977	-0.246	0.489
1007.000	587.778	79.987	19.992	99.997	19.978	-0.365	0.517
1007.500	588.052	79.986	19.992	99.995	19.977	-0.246	0.534
1008.000	588.335	79.986	19.992	99.991	19.974	-0.042	0.550
1008.500	588.594	79.986	19.991	99.990	19.973	-0.018	0.549
1009.000	588.798	79.987	19.992	99.989	19.976	-0.196	0.502
1009.500	589.077	79.987	19.993	99.987	19.978	-0.373	0.473
1010.000	589.341	79.986	19.993	99.989	19.978	-0.322	0.513
1010.500	589.607	79.986	19.992	99.993	19.977	-0.292	0.536
1011.000	589.794	79.985	19.991	99.999	19.974	-0.034	0.492
1011.500	590.093	79.985	19.991	100.006	19.977	-0.266	0.470
1012.000	590.341	79.985	19.992	100.012	19.974	-0.060	0.516
1012.500	590.604	79.986	19.993	100.017	19.974	-0.080	0.529
1013.000	590.883	79.984	19.993	100.017	19.979	-0.401	0.527
1013.500	591.154	79.985	19.994	100.015	19.975	-0.158	0.547
1014.000	591.408	79.986	19.992	100.013	19.977	-0.258	0.538
1014.500	591.649	79.986	19.992	100.007	19.977	-0.310	0.509
1015.000	591.893	79.984	19.992	100.002	19.975	-0.152	0.489
1015.500	592.143	79.987	19.992	99.998	19.979	-0.417	0.489
1016.000	592.427	79.986	19.993	99.998	19.978	-0.320	0.514
1016.500	592.702	79.985	19.992	99.997	19.978	-0.357	0.546
1017.000	592.961	79.984	19.992	100.001	19.976	-0.196	0.547
1017.500	593.243	79.985	19.992	100.001	19.975	-0.108	0.538
1018.000	593.477	79.984	19.991	100.003	19.976	-0.224	0.528
1018.500	593.708	79.984	19.993	100.001	19.977	-0.308	0.491
1019.000	594.002	79.985	19.994	100.002	19.975	-0.128	0.495
1019.500	594.291	79.984	19.993	100.003	19.973	-0.010	0.554
1020.000	594.529	79.984	19.993	100.008	19.977	-0.258	0.555
1020.500	594.824	79.985	19.993	100.011	19.977	-0.278	0.530
1021.000	595.073	79.984	19.993	100.011	19.977	-0.242	0.538
1021.500	595.314	79.985	19.993	100.008	19.979	-0.447	0.517
1022.000	595.596	79.985	19.993	100.000	19.977	-0.304	0.506
1022.500	595.868	79.985	19.993	99.994	19.977	-0.286	0.538
1023.000	596.150	79.986	19.993	99.990	19.976	-0.184	0.554
1023.500	596.369	79.986	19.993	99.994	19.978	-0.359	0.528
1024.000	596.647	79.988	19.993	99.997	19.977	-0.304	0.499
1024.500	596.856	79.987	19.993	99.999	19.974	-0.056	0.492
1025.000	597.114	79.988	19.994	99.999	19.976	-0.204	0.477
1025.500	597.393	79.987	19.992	99.999	19.976	-0.240	0.502
1026.000	597.646	79.986	19.992	99.998	19.975	-0.128	0.534
1026.500	597.898	79.989	19.993	99.997	19.976	-0.194	0.518
1027.001	598.135	79.987	19.992	99.997	19.976	-0.238	0.497
1027.501	598.417	79.986	19.992	99.999	19.978	-0.355	0.504
1028.000	598.687	79.986	19.991	100.001	19.974	-0.064	0.536
1028.500	598.934	79.987	19.992	100.002	19.973	0.002	0.535
1029.000	599.180	79.986	19.992	100.005	19.975	-0.132	0.505
1029.500	599.464	79.989	19.992	100.003	19.973	0.022	0.511
1030.000	599.716	79.988	19.992	100.002	19.974	-0.088	0.533
1030.501	599.980	79.987	19.992	100.002	19.974	-0.048	0.526
1031.001	600.241	79.987	19.991	99.999	19.973	-0.018	0.521
1031.500	600.450	79.987	19.991	99.994	19.974	-0.052	0.497
1032.001	600.742	79.987	19.992	99.995	19.975	-0.094	0.485
1032.501	600.966	79.987	19.992	99.994	19.975	-0.164	0.508
1033.001	601.224	79.987	19.991	99.991	19.975	-0.110	0.499
1033.501	601.483	79.988	19.992	99.991	19.975	-0.124	0.500
1034.001	601.772	79.987	19.992	99.991	19.976	-0.188	0.533
1034.500	601.998	79.986	19.993	99.992	19.975	-0.102	0.532
1035.000	602.259	79.986	19.992	99.995	19.973	-0.010	0.501
1035.500	602.518	79.987	19.993	99.999	19.974	-0.060	0.503
1036.000	602.793	79.984	19.992	99.999	19.973	0.018	0.527
1036.500	603.026	79.984	19.992	100.003	19.972	0.066	0.521
1037.000	603.297	79.985	19.993	100.007	19.974	-0.092	0.506
1037.500	603.546	79.984	19.994	100.004	19.976	-0.206	0.512
1038.001	603.815	79.985	19.992	100.002	19.974	-0.046	0.519
1038.501	604.060	79.986	19.993	100.005	19.976	-0.186	0.516
1039.000	604.338	79.984	19.993	100.005	19.975	-0.130	0.518
1039.500	604.565	79.985	19.992	100.002	19.974	-0.040	0.514
1040.000	604.849	79.985	19.992	100.007	19.975	-0.166	0.508
1040.500	605.116	79.983	19.994	100.011	19.977	-0.270	0.531
1041.000	605.345	79.984	19.993	100.008	19.976	-0.170	0.524
1041.500	605.600	79.984	19.993	100.007	19.976	-0.198	0.490
1042.001	605.866	79.985	19.993	100.006	19.977	-0.290	0.503
1042.501	606.092	79.984	19.992	100.005	19.976	-0.202	0.507
1043.000	606.369	79.983	19.993	100.006	19.977	-0.244	0.497
1043.500	606.654	79.984	19.993	100.005	19.977	-0.308	0.532
1044.000	606.871	79.984	19.994	100.002	19.975	-0.142	0.532
1044.500	607.142	79.983	19.993	100.000	19.978	-0.316	0.495
1045.000	607.390	79.984	19.993	99.995	19.977	-0.302	0.503
1045.501	607.669	79.983	19.992	99.992	19.979	-0.439	0.523
1046.001	607.924	79.983	19.993	99.990	19.974	-0.090	0.531
1046.500	608.164	79.985	19.993	99.991	19.977	-0.306	0.515
1047.000	608.445	79.984	19.993	99.992	19.979	-0.399	0.508
1047.500	608.684	79.983	19.993	99.994	19.977	-0.272	0.520
1048.001	608.946	79.983	19.993	99.997	19.975	-0.098	0.510
1048.501	609.191	79.983	19.993	100.001	19.981	-0.541	0.504
1049.001	609.489	79.984	19.993	100.001	19.976	-0.186	0.525
1049.501	609.729	79.985	19.993	99.999	19.978	-0.353	0.540
1050.000	609.983	79.985	19.994	99.996	19.976	-0.200	0.516
1050.500	610.221	79.983	19.994	99.992	19.978	-0.359	0.493
1051.000	610.509	79.985	19.993	99.989	19.976	-0.230	0.509
1051.500	610.791	79.986	19.993	99.990	19.975	-0.148	0.548
1052.000	611.041	79.984	19.992	99.990	19.975	-0.104	0.551
1052.500	611.274	79.985	19.993	99.992	19.979	-0.391	0.508
1053.001	611.577	79.985	19.993	99.995	19.973	-0.014	0.509
1053.501	611.821	79.984	19.992	99.998	19.975	-0.124	0.541
1054.001	612.103	79.985	19.994	100.000	19.976	-0.220	0.537
1054.501	612.365	79.985	19.993	100.005	19.976	-0.176	0.535
1055.001	612.605	79.986	19.993	100.007	19.978	-0.336	0.523
1055.501	612.889	79.984	19.993	100.009	19.976	-0.240	0.513
1056.000	613.135	79.985	19.993	100.006	19.978	-0.361	0.528
1056.500	613.430	79.985	19.992	100.003	19.976	-0.214	0.535
1057.000	613.682	79.985	19.992	99.998	19.976	-0.214	0.544
1057.500	613.919	79.985	19.992	99.994	19.977	-0.284	0.518
1058.000	614.186	79.984	19.992	99.989	19.976	-0.216	0.497
1058.500	614.435	79.985	19.992	99.991	19.977	-0.296	0.510
1059.000	614.731	79.983	19.993	99.994	19.977	-0.296	0.530
1059.500	614.995	79.984	19.992	100.000	19.980	-0.463	0.553
1060.000	615.233	79.986	19.991	100.004	19.981	-0.567	0.531
1060.500	615.520	79.985	19.993	100.007	19.979	-0.395	0.513
1061.000	615.771	79.985	19.992	100.006	19.981	-0.575	0.531
1061.500	616.066	79.986	19.991	100.007	19.980	-0.467	0.542
1062.000	616.300	79.985	19.992	100.004	19.980	-0.473	0.538
1062.500	616.559	79.985	19.992	100.005	19.978	-0.355	0.511
1063.000	616.810	79.985	19.991	100.008	19.977	-0.310	0.502
1063.500	617.055	79.985	19.990	100.011	19.979	-0.421	0.503
1064.001	617.316	79.985	19.992	100.012	19.978	-0.355	0.501
1064.501	617.547	79.983	19.991	100.012	19.978	-0.333	0.499
1065.000	617.847	79.983	19.992	100.012	19.978	-0.341	0.511
1065.500	618.080	79.986	19.991	100.013	19.979	-0.417	0.532
1066.000	618.387	79.984	19.992	100.012	19.979	-0.425	0.536
1066.500	618.609	79.985	19.993	100.011	19.978	-0.334	0.535
1067.001	618.855	79.985	19.992	100.009	19.980	-0.463	0.499
1067.501	619.114	79.985	19.992	100.004	19.976	-0.204	0.486
1068.001	619.380	79.986	19.992	99.999	19.978	-0.320	0.515
1068.501	619.633	79.985	19.992	99.995	19.975	-0.112	0.522
1069.000	619.900	79.984	19.993	99.997	19.978	-0.316	0.520
1069.500	620.166	79.985	19.992	99.996	19.976	-0.210	0.526
1070.000	620.409	79.985	19.993	99.996	19.978	-0.316	0.521
1070.500	620.680	79.984	19.992	99.995	19.979	-0.399	0.512
1071.000	620.891	79.985	19.992	99.997	19.976	-0.222	0.498
1071.500	621.153	79.983	19.993	99.997	19.974	-0.048	0.477
1072.000	621.440	79.985	19.992	99.997	19.977	-0.244	0.511
1072.500	621.683	79.985	19.992	100.000	19.976	-0.180	0.540
1073.000	621.923	79.984	19.992	100.002	19.977	-0.276	0.506
1073.500	622.164	79.984	19.992	100.001	19.978	-0.346	0.482
1074.000	622.454	79.985	19.992	99.996	19.976	-0.234	0.507
1074.500	622.727	79.985	19.992	99.995	19.978	-0.356	0.547
1075.000	622.988	79.984	19.992	99.993	19.977	-0.294	0.548
1075.500	623.270	79.984	19.992	99.994	19.980	-0.479	0.538
1076.001	623.457	79.984	19.993	99.994	19.979	-0.451	0.506
1076.501	623.730	79.985	19.992	99.995	19.978	-0.342	0.465
1077.000	624.005	79.985	19.992	100.002	19.977	-0.260	0.504
1077.500	624.233	79.986	19.993	100.004	19.977	-0.276	0.525
1078.000	624.475	79.986	19.992	100.000	19.977	-0.274	0.486
1078.500	624.756	79.986	19.993	100.005	19.978	-0.361	0.496
1079.000	624.983	79.985	19.993	100.005	19.979	-0.403	0.516
1079.500	625.247	79.985	19.992	99.998	19.976	-0.196	0.500
1080.000	625.468	79.985	19.992	99.995	19.977	-0.260	0.488
1080.500	625.721	79.986	19.994	99.995	19.973	0.008	0.480
1081.001	626.006	79.985	19.992	99.994	19.978	-0.343	0.506
1081.501	626.221	79.986	19.992	99.998	19.975	-0.164	0.519
1082.000	626.483	79.987	19.993	100.004	19.977	-0.268	0.489
1082.500	626.759	79.985	19.992	100.011	19.975	-0.160	0.508
1083.000	627.001	79.986	19.992	100.016	19.976	-0.236	0.528
1083.500	627.276	79.986	19.992	100.018	19.974	-0.084	0.517
1084.000	627.510	79.986	19.991	100.014	19.974	-0.076	0.513
1084.500	627.786	79.986	19.992	100.016	19.976	-0.192	0.510
1085.000	628.033	79.986	19.991	100.014	19.977	-0.274	0.517
1085.500	628.256	79.987	19.991	100.014	19.978	-0.342	0.497
1086.000	628.527	79.986	19.992	100.015	19.976	-0.178	0.482
1086.500	628.809	79.986	19.991	100.015	19.979	-0.447	0.523
1087.000	629.080	79.987	19.991	100.012	19.979	-0.423	0.553
1087.500	629.254	79.985	19.991	100.014	19.979	-0.405	0.499
1088.000	629.548	79.986	19.991	100.012	19.977	-0.276	0.457
1088.500	629.799	79.987	19.991	100.006	19.978	-0.367	0.506
1089.000	630.086	79.987	19.992	100.005	19.980	-0.521	0.542
1089.501	630.315	79.987	19.992	100.004	19.977	-0.264	0.527
1090.001	630.589	79.987	19.992	99.997	19.981	-0.539	0.509
1090.501	630.838	79.987	19.992	99.993	19.979	-0.419	0.512
1091.001	631.110	79.986	19.992	99.994	19.979	-0.409	0.522
1091.500	631.376	79.986	19.991	99.993	19.980	-0.495	0.530
1092.000	631.596	79.985	19.992	99.992	19.980	-0.489	0.512
1092.500	631.852	79.986	19.991	99.993	19.979	-0.393	0.481
1093.000	632.090	79.983	19.992	99.998	19.980	-0.491	0.485
1093.500	632.353	79.985	19.991	99.999	19.981	-0.537	0.497
1094.000	632.601	79.986	19.992	100.000	19.979	-0.455	0.506
1094.500	632.831	79.986	19.991	100.004	19.977	-0.288	0.495
1095.000	633.121	79.984	19.990	100.007	19.976	-0.200	0.499
1095.500	633.365	79.986	19.991	100.007	19.979	-0.391	0.527
1096.000	633.606	79.989	19.992	100.012	19.977	-0.280	0.510
1096.500	633.868	79.986	19.991	100.016	19.977	-0.290	0.494
1097.000	634.154	79.986	19.992	100.018	19.978	-0.373	0.526
1097.500	634.389	79.985	19.992	100.014	19.980	-0.493	0.534
1098.000	634.658	79.985	19.991	100.010	19.979	-0.403	0.512
1098.500	634.901	79.985	19.991	100.004	19.979	-0.421	0.508
1099.001	635.182	79.986	19.991	100.000	19.978	-0.359	0.518
1099.501	635.443	79.986	19.993	99.993	19.980	-0.503	0.532
1100.000	635.721	79.987	19.992	99.994	19.979	-0.435	0.541
1100.500	635.955	79.986	19.993	99.998	19.981	-0.573	0.526
1101.000	636.209	79.986	19.992	99.998	19.979	-0.455	0.500
1101.500	636.488	79.985	19.993	99.995	19.979	-0.395	0.511
1102.001	636.715	79.985	19.993	99.999	19.979	-0.417	0.519
1102.501	636.972	79.986	19.992	100.002	19.978	-0.351	0.495
1103.001	637.211	79.986	19.992	100.001	19.981	-0.569	0.490
1103.501	637.507	79.986	19.992	100.005	19.979	-0.389	0.515
1104.001	637.719	79.987	19.992	100.006	19.979	-0.459	0.522
1104.500	638.000	79.988	19.992	100.004	19.977	-0.284	0.500
1105.000	638.246	79.986	19.992	100.002	19.976	-0.206	0.510
1105.500	638.546	79.987	19.992	100.001	19.978	-0.331	0.537
1106.000	638.761	79.986	19.992	99.998	19.975	-0.128	0.531
1106.500	639.032	79.988	19.992	99.997	19.978	-0.333	0.501
1107.000	639.286	79.987	19.991	99.998	19.977	-0.310	0.506
1107.500	639.551	79.988	19.993	99.999	19.975	-0.126	0.522
1108.001	639.804	79.987	19.992	100.000	19.980	-0.499	0.518
1108.501	640.059	79.988	19.993	99.999	19.977	-0.276	0.513
1109.000	640.283	79.987	19.992	100.000	19.977	-0.270	0.494
1109.500	640.557	79.987	19.992	100.002	19.973	-0.008	0.489
1110.000	640.823	79.987	19.992	100.000	19.978	-0.357	0.519
1110.501	641.099	79.987	19.992	99.996	19.978	-0.359	0.541
1111.001	641.370	79.988	19.992	99.997	19.976	-0.196	0.544
1111.501	641.579	79.987	19.992	99.996	19.979	-0.417	0.513
1112.000	641.853	79.988	19.993	99.992	19.976	-0.218	0.482
1112.500	642.089	79.987	19.993	99.994	19.976	-0.218	0.497
1113.000	642.372	79.988	19.993	99.995	19.980	-0.481	0.515
1113.500	642.593	79.988	19.992	99.992	19.975	-0.124	0.512
1114.000	642.887	79.986	19.992	99.994	19.974	-0.044	0.510
1114.500	643.154	79.987	19.993	99.996	19.978	-0.353	0.538
1115.000	643.375	79.986	19.992	99.993	19.979	-0.435	0.524
1115.500	643.626	79.986	19.992	99.996	19.979	-0.413	0.480
1116.001	643.916	79.986	19.993	99.998	19.977	-0.264	0.506
1116.501	644.139	79.985	19.992	99.996	19.976	-0.172	0.527
1117.001	644.387	79.984	19.992	99.995	19.981	-0.553	0.492
1117.500	644.620	79.986	19.993	99.993	19.978	-0.365	0.476
1118.001	644.898	79.986	19.992	99.990	19.978	-0.329	0.496
1118.501	645.134	79.984	19.992	99.988	19.977	-0.302	0.513
1119.000	645.382	79.985	19.992	99.989	19.977	-0.282	0.499
1119.501	645.650	79.985	19.992	99.989	19.978	-0.333	0.500
1120.001	645.897	79.985	19.993	99.990	19.979	-0.453	0.515
1120.500	646.149	79.985	19.992	99.991	19.979	-0.393	0.507
1121.001	646.403	79.985	19.992	99.993	19.975	-0.102	0.503
1121.501	646.653	79.985	19.992	99.993	19.976	-0.222	0.506
1122.001	646.935	79.985	19.993	99.991	19.974	-0.084	0.518
1122.501	647.169	79.985	19.992	99.991	19.975	-0.140	0.524
1123.001	647.398	79.984	19.991	99.992	19.974	-0.066	0.489
1123.501	647.645	79.985	19.992	99.992	19.977	-0.292	0.469
1124.001	647.917	79.985	19.993	99.992	19.976	-0.180	0.498
1124.501	648.161	79.985	19.992	99.992	19.975	-0.118	0.517
1125.001	648.440	79.987	19.992	99.991	19.975	-0.158	0.519
1125.501	648.690	79.985	19.992	99.989	19.974	-0.020	0.526
1126.000	648.940	79.984	19.993	99.991	19.977	-0.300	0.515
1126.501	649.219	79.983	19.992	99.995	19.976	-0.180	0.515
1127.001	649.480	79.984	19.992	99.997	19.974	-0.066	0.534
1127.501	649.752	79.987	19.992	99.998	19.975	-0.148	0.536
1128.000	650.001	79.985	19.993	99.998	19.974	-0.058	0.527
1128.500	650.261	79.986	19.992	99.994	19.975	-0.104	0.515
1129.001	650.496	79.984	19.993	99.988	19.972	0.090	0.502
1129.501	650.770	79.985	19.993	99.987	19.977	-0.248	0.502
1130.000	651.006	79.987	19.992	99.990	19.975	-0.122	0.509
1130.500	651.244	79.989	19.993	99.997	19.974	-0.088	0.492
1131.001	651.489	79.984	19.993	100.002	19.977	-0.246	0.479
1131.501	651.762	79.984	19.993	100.007	19.974	-0.072	0.500
1132.000	652.036	79.987	19.993	100.012	19.979	-0.403	0.533
1132.500	652.252	79.984	19.994	100.011	19.980	-0.471	0.519
1133.001	652.477	79.984	19.993	100.009	19.975	-0.116	0.465
1133.501	652.754	79.985	19.993	100.009	19.975	-0.108	0.471
1134.000	652.999	79.984	19.994	100.005	19.979	-0.455	0.512
1134.500	653.228	79.984	19.994	100.000	19.977	-0.296	0.498
1135.001	653.503	79.985	19.993	99.996	19.977	-0.278	0.489
1135.501	653.758	79.984	19.992	99.992	19.978	-0.319	0.517
1136.000	653.976	79.984	19.993	99.986	19.978	-0.349	0.501
1136.500	654.259	79.986	19.993	99.986	19.974	-0.070	0.487
1137.000	654.483	79.986	19.993	99.986	19.980	-0.521	0.504
1137.500	654.778	79.985	19.993	99.987	19.980	-0.479	0.513
1138.000	655.027	79.986	19.993	99.989	19.975	-0.140	0.532
1138.500	655.299	79.984	19.993	99.990	19.978	-0.369	0.532
1139.001	655.518	79.986	19.993	99.994	19.976	-0.226	0.506
1139.501	655.798	79.985	19.992	99.997	19.979	-0.403	0.495
1140.000	656.047	79.985	19.993	99.996	19.975	-0.104	0.514
1140.501	656.291	79.985	19.992	99.993	19.978	-0.319	0.510
1141.001	656.517	79.986	19.993	99.992	19.977	-0.288	0.481
1141.501	656.789	79.985	19.993	99.988	19.979	-0.429	0.484
1142.000	657.060	79.987	19.993	99.985	19.976	-0.198	0.521
1142.500	657.304	79.985	19.992	99.985	19.977	-0.264	0.529
1143.000	657.552	79.985	19.992	99.986	19.976	-0.230	0.503
1143.500	657.798	79.985	19.993	99.990	19.978	-0.320	0.493
1144.000	658.068	79.985	19.992	99.994	19.978	-0.339	0.505
1144.501	658.315	79.984	19.992	99.995	19.975	-0.116	0.517
1145.001	658.568	79.987	19.992	99.995	19.976	-0.200	0.509
1145.501	658.818	79.985	19.992	99.995	19.977	-0.260	0.502
1146.000	659.063	79.986	19.993	99.990	19.978	-0.363	0.499
1146.500	659.322	79.985	19.993	99.988	19.974	-0.088	0.499
1147.000	659.586	79.988	19.991	99.992	19.976	-0.192	0.513
1147.500	659.845	79.985	19.993	99.998	19.978	-0.349	0.523
1148.000	660.078	79.985	19.992	100.000	19.977	-0.272	0.508
1148.500	660.313	79.986	19.991	100.001	19.975	-0.162	0.480
1149.000	660.572	79.984	19.992	100.004	19.976	-0.230	0.481
1149.500	660.864	79.984	19.992	100.002	19.976	-0.238	0.522
1150.000	661.098	79.985	19.992	99.996	19.975	-0.122	0.538
1150.500	661.365	79.985	19.993	99.994	19.973	0.000	0.513
1151.000	661.588	79.985	19.992	99.995	19.973	-0.008	0.496
1151.500	661.836	79.985	19.991	99.993	19.974	-0.028	0.480
1152.000	662.098	79.985	19.992	99.994	19.974	-0.050	0.490
1152.500	662.387	79.984	19.992	99.995	19.973	-0.008	0.530
1153.000	662.562	79.985	19.992	99.996	19.976	-0.214	0.507
1153.500	662.825	79.986	19.992	99.996	19.976	-0.224	0.451
1154.000	663.097	79.985	19.992	99.997	19.973	0.030	0.487
1154.500	663.358	79.984	19.991	99.996	19.975	-0.126	0.535
1155.001	663.606	79.985	19.993	99.998	19.975	-0.144	0.521
1155.501	663.853	79.984	19.992	99.998	19.971	0.194	0.501
1156.000	664.125	79.985	19.991	99.997	19.971	0.174	0.507
1156.500	664.365	79.984	19.992	99.995	19.973	-0.008	0.516
1157.000	664.626	79.984	19.992	99.994	19.974	-0.052	0.507
1157.500	664.899	79.985	19.993	99.992	19.967	0.471	0.517
1158.000	665.114	79.985	19.992	99.996	19.970	0.256	0.511
1158.500	665.365	79.987	19.992	100.000	19.972	0.110	0.477
1159.000	665.642	79.986	19.991	100.002	19.973	0.044	0.497
1159.500	665.919	79.986	19.993	100.003	19.975	-0.160	0.541
1160.000	666.097	79.987	19.992	100.001	19.974	-0.052	0.505
1160.500	666.369	79.987	19.993	99.997	19.976	-0.214	0.453
1161.000	666.614	79.986	19.992	99.994	19.974	-0.066	0.484
1161.500	666.907	79.986	19.992	99.991	19.976	-0.222	0.528
1162.000	667.166	79.985	19.991	99.990	19.974	-0.042	0.545
1162.501	667.417	79.987	19.992	99.989	19.974	-0.044	0.531
1163.001	667.650	79.986	19.992	99.989	19.971	0.186	0.497
1163.501	667.888	79.986	19.992	99.989	19.972	0.110	0.478
1164.001	668.127	79.984	19.992	99.989	19.972	0.116	0.474
1164.501	668.396	79.986	19.991	99.989	19.972	0.090	0.492
1165.000	668.653	79.988	19.992	99.991	19.972	0.068	0.517
1165.500	668.914	79.987	19.992	99.994	19.975	-0.166	0.522
1166.000	669.132	79.985	19.992	99.994	19.976	-0.208	0.499
1166.500	669.415	79.989	19.992	99.994	19.972	0.066	0.490
1167.000	669.676	79.985	19.991	99.993	19.971	0.152	0.522
1167.500	669.938	79.986	19.991	99.992	19.971	0.166	0.533
1168.000	670.199	79.984	19.991	99.990	19.972	0.110	0.522
1168.500	670.453	79.988	19.992	99.990	19.975	-0.102	0.519
1169.000	670.710	79.987	19.993	99.993	19.975	-0.146	0.513
1169.501	670.925	79.988	19.992	99.992	19.972	0.122	0.491
1170.001	671.159	79.988	19.992	99.993	19.973	0.024	0.461
1170.500	671.431	79.984	19.991	99.994	19.974	-0.090	0.478
1171.000	671.657	79.985	19.992	99.994	19.974	-0.056	0.502
1171.500	671.935	79.987	19.992	99.997	19.976	-0.190	0.501
1172.000	672.157	79.984	19.992	99.997	19.974	-0.078	0.502
1172.500	672.422	79.984	19.992	99.995	19.976	-0.196	0.494
1173.000	672.663	79.985	19.992	99.993	19.977	-0.244	0.496
1173.500	672.953	79.986	19.992	99.993	19.975	-0.108	0.518
1174.000	673.272	79.986	19.991	99.987	19.977	-0.278	0.570
1174.500	673.504	79.986	19.992	99.988	19.979	-0.405	0.581
1175.000	673.747	79.987	19.991	99.989	19.978	-0.361	0.513
1175.500	674.010	79.985	19.991	99.990	19.978	-0.351	0.490
1176.000	674.273	79.987	19.992	99.990	19.980	-0.473	0.516
1176.500	674.555	79.986	19.992	99.993	19.976	-0.182	0.536
1177.001	674.792	79.986	19.992	99.995	19.977	-0.274	0.532
1177.501	675.052	79.984	19.993	99.994	19.979	-0.417	0.508
1178.000	675.283	79.984	19.991	99.999	19.980	-0.465	0.494
1178.500	675.532	79.986	19.991	100.005	19.978	-0.375	0.485
1179.000	675.796	79.988	19.991	100.003	19.978	-0.369	0.496
1179.500	676.048	79.988	19.992	100.004	19.978	-0.333	0.515
1180.000	676.310	79.986	19.991	100.009	19.979	-0.391	0.515
1180.500	676.559	79.985	19.992	100.009	19.980	-0.533	0.513
1181.000	676.827	79.988	19.991	100.007	19.978	-0.381	0.514
1181.500	677.029	79.987	19.990	100.010	19.981	-0.593	0.493
1182.000	677.317	79.987	19.991	100.010	19.980	-0.485	0.480
1182.500	677.601	79.989	19.992	100.012	19.977	-0.313	0.531
1183.000	677.879	79.986	19.991	100.012	19.978	-0.375	0.567
1183.501	678.116	79.987	19.991	100.012	19.980	-0.475	0.538
1184.001	678.363	79.988	19.991	100.011	19.980	-0.485	0.500
1184.500	678.644	79.986	19.991	100.007	19.982	-0.637	0.506
1185.000	678.920	79.989	19.992	100.003	19.983	-0.723	0.543
1185.500	679.143	79.987	19.992	99.999	19.982	-0.643	0.528
1186.000	679.427	79.985	19.992	99.996	19.979	-0.441	0.503
1186.501	679.669	79.987	19.991	99.995	19.980	-0.473	0.516
1187.001	679.917	79.987	19.992	99.994	19.979	-0.445	0.508
1187.500	680.149	79.988	19.992	99.999	19.983	-0.691	0.485
1188.000	680.405	79.987	19.992	100.004	19.979	-0.399	0.484
1188.500	680.683	79.986	19.991	100.002	19.978	-0.355	0.511
1189.000	680.955	79.988	19.992	100.002	19.980	-0.527	0.542
1189.500	681.202	79.989	19.991	100.004	19.981	-0.585	0.535
1190.000	681.479	79.987	19.993	99.998	19.979	-0.415	0.521
1190.500	681.693	79.988	19.992	99.990	19.978	-0.333	0.508
1191.000	681.946	79.987	19.992	99.989	19.978	-0.333	0.479
1191.500	682.238	79.986	19.992	99.989	19.979	-0.425	0.506
1192.000	682.464	79.988	19.992	99.984	19.980	-0.499	0.531
1192.500	682.706	79.987	19.992	99.984	19.980	-0.503	0.493
1193.000	682.984	79.987	19.991	99.984	19.977	-0.280	0.494
1193.500	683.229	79.986	19.992	99.984	19.976	-0.232	0.521
1194.000	683.480	79.985	19.993	99.987	19.981	-0.573	0.510
1194.500	683.725	79.986	19.993	99.992	19.977	-0.252	0.496
1195.000	683.994	79.988	19.993	100.000	19.980	-0.485	0.505
1195.500	684.226	79.984	19.993	100.006	19.976	-0.196	0.507
1196.001	684.517	79.984	19.992	100.011	19.979	-0.397	0.512
1196.501	684.779	79.984	19.994	100.010	19.979	-0.457	0.538
1197.001	685.030	79.984	19.993	100.005	19.977	-0.270	0.533
1197.501	685.250	79.985	19.993	99.998	19.977	-0.292	0.493
1198.000	685.519	79.983	19.991	99.996	19.979	-0.413	0.480
1198.500	685.801	79.984	19.993	99.991	19.980	-0.481	0.520
1199.000	686.044	79.984	19.992	99.990	19.977	-0.270	0.538
1199.500	686.279	79.985	19.992	99.990	19.979	-0.447	0.501
1200.000	686.538	79.983	19.993	99.990	19.981	-0.571	0.486
1200.500	686.850	79.983	19.991	99.986	19.979	-0.423	0.533
1201.000	687.112	79.986	19.992	99.985	19.982	-0.677	0.572
1201.500	687.301	79.983	19.993	99.985	19.979	-0.411	0.512
1202.000	687.552	79.985	19.993	99.987	19.982	-0.651	0.446
1202.500	687.806	79.985	19.991	99.987	19.981	-0.567	0.472
1203.000	688.067	79.984	19.991	99.988	19.981	-0.567	0.510
1203.501	688.331	79.985	19.993	99.988	19.979	-0.401	0.520
1204.001	688.527	79.986	19.992	99.992	19.978	-0.375	0.492
1204.500	688.807	79.984	19.992	99.991	19.978	-0.385	0.468
1205.000	689.067	79.985	19.992	99.991	19.979	-0.403	0.508
1205.500	689.324	79.988	19.991	99.990	19.980	-0.519	0.529
1206.000	689.554	79.986	19.992	99.990	19.979	-0.403	0.502
1206.501	689.805	79.986	19.992	99.987	19.981	-0.537	0.483
1207.001	690.097	79.984	19.992	99.986	19.982	-0.619	0.512
1207.500	690.342	79.985	19.993	99.987	19.980	-0.503	0.540
1208.000	690.600	79.987	19.992	99.987	19.981	-0.585	0.520
1208.500	690.866	79.983	19.992	99.987	19.981	-0.551	0.513
1209.000	691.100	79.983	19.992	99.988	19.978	-0.331	0.512
1209.500	691.323	79.984	19.992	99.988	19.979	-0.461	0.479
1210.000	691.608	79.984	19.992	99.989	19.978	-0.351	0.483
1210.500	691.855	79.984	19.991	99.989	19.979	-0.439	0.520
1211.001	692.121	79.985	19.993	99.989	19.977	-0.305	0.522
1211.501	692.360	79.986	19.992	99.990	19.977	-0.280	0.509
1212.000	692.611	79.984	19.992	99.990	19.979	-0.441	0.498
1212.500	692.886	79.984	19.992	99.989	19.979	-0.401	0.508
1213.000	693.135	79.986	19.992	99.989	19.976	-0.222	0.524
1213.500	693.377	79.985	19.992	99.989	19.977	-0.242	0.508
1214.000	693.621	79.984	19.992	99.990	19.977	-0.266	0.489
1214.500	693.892	79.986	19.991	99.991	19.975	-0.164	0.501
1215.001	694.146	79.986	19.991	99.991	19.975	-0.154	0.520
1215.501	694.407	79.985	19.992	99.991	19.977	-0.246	0.519
1216.000	694.660	79.985	19.993	99.991	19.976	-0.228	0.514
1216.500	694.939	79.984	19.992	99.989	19.977	-0.306	0.524
1217.000	695.185	79.984	19.993	99.987	19.978	-0.339	0.529
1217.500	695.439	79.985	19.992	99.987	19.977	-0.290	0.512
1218.000	695.680	79.984	19.993	99.987	19.976	-0.216	0.497
1218.500	695.943	79.985	19.993	99.988	19.978	-0.383	0.499
1219.001	696.204	79.984	19.993	99.989	19.978	-0.361	0.514
1219.501	696.477	79.984	19.993	99.990	19.980	-0.467	0.530
1220.000	696.691	79.984	19.993	99.989	19.978	-0.332	0.511
1220.500	696.929	79.982	19.993	99.989	19.977	-0.298	0.469
1221.000	697.196	79.983	19.993	99.989	19.980	-0.463	0.478
1221.500	697.485	79.984	19.993	99.985	19.977	-0.246	0.530
1222.000	697.725	79.983	19.993	99.985	19.977	-0.312	0.542
1222.500	697.981	79.983	19.993	99.985	19.978	-0.377	0.513
1223.000	698.219	79.984	19.994	99.985	19.977	-0.276	0.495
1223.500	698.459	79.983	19.993	99.984	19.977	-0.304	0.486
1224.001	698.668	79.983	19.993	99.986	19.974	-0.054	0.463
1224.501	698.976	79.983	19.994	99.986	19.976	-0.182	0.482
1225.000	699.206	79.983	19.992	99.986	19.976	-0.218	0.528
1225.500	699.500	79.983	19.993	99.987	19.978	-0.335	0.531
1226.000	699.754	79.983	19.994	99.988	19.977	-0.286	0.536
1226.500	700.012	79.984	19.993	99.990	19.979	-0.391	0.530
1227.000	700.231	79.985	19.993	99.991	19.976	-0.208	0.495
1227.501	700.494	79.983	19.992	99.992	19.981	-0.567	0.480
1228.001	700.743	79.985	19.994	99.994	19.978	-0.317	0.497
1228.500	700.975	79.981	19.992	100.000	19.977	-0.256	0.497
1229.000	701.238	79.985	19.993	100.004	19.979	-0.399	0.488
1229.501	701.519	79.981	19.993	100.004	19.982	-0.651	0.519
1230.001	701.726	79.985	19.992	100.004	19.977	-0.260	0.516
1230.501	701.998	79.984	19.993	100.008	19.976	-0.224	0.484
1231.000	702.277	79.982	19.993	100.008	19.978	-0.333	0.515
1231.500	702.553	79.984	19.992	100.008	19.974	-0.074	0.553
1232.001	702.758	79.985	19.993	100.008	19.977	-0.290	0.518
1232.501	703.028	79.983	19.992	100.008	19.975	-0.124	0.478
1233.000	703.305	79.983	19.992	100.002	19.977	-0.284	0.511
1233.500	703.476	79.984	19.991	99.996	19.975	-0.120	0.497
1234.000	703.744	79.984	19.992	99.990	19.978	-0.321	0.444
1234.500	704.008	79.986	19.992	99.992	19.974	-0.052	0.485
1235.000	704.300	79.984	19.992	99.993	19.976	-0.212	0.544
1235.501	704.519	79.986	19.992	99.993	19.976	-0.186	0.534
1236.001	704.792	79.985	19.992	99.993	19.974	-0.062	0.502
1236.500	705.036	79.987	19.992	99.992	19.978	-0.323	0.505
1237.000	705.295	79.985	19.992	99.989	19.978	-0.375	0.510
1237.500	705.566	79.986	19.992	99.987	19.977	-0.296	0.517
1238.000	705.810	79.986	19.992	99.987	19.976	-0.238	0.523
1238.500	706.035	79.986	19.992	99.987	19.978	-0.335	0.492
1239.000	706.282	79.987	19.992	99.987	19.977	-0.264	0.471
1239.500	706.556	79.987	19.992	99.988	19.979	-0.393	0.496
1240.000	706.824	79.986	19.991	99.988	19.979	-0.389	0.531
1240.501	707.055	79.987	19.992	99.988	19.977	-0.307	0.521
1241.001	707.301	79.988	19.992	99.987	19.979	-0.459	0.488
1241.500	707.590	79.987	19.992	99.986	19.977	-0.288	0.506
1242.000	707.795	79.987	19.992	99.985	19.976	-0.196	0.514
1242.500	708.097	79.987	19.993	99.983	19.976	-0.184	0.500
1243.000	708.363	79.988	19.992	99.983	19.975	-0.160	0.538
1243.500	708.603	79.987	19.992	99.983	19.979	-0.449	0.537
1244.000	708.859	79.985	19.992	99.983	19.980	-0.473	0.500
1244.500	709.102	79.989	19.992	99.983	19.979	-0.415	0.498
1245.001	709.351	79.986	19.992	99.984	19.978	-0.337	0.496
1245.501	709.584	79.988	19.991	99.984	19.978	-0.331	0.487
1246.001	709.848	79.986	19.992	99.984	19.978	-0.325	0.490
1246.501	710.127	79.989	19.993	99.984	19.979	-0.397	0.520
1247.001	710.340	79.989	19.991	99.985	19.981	-0.555	0.517
1247.500	710.625	79.986	19.992	99.985	19.982	-0.661	0.495
1248.000	710.868	79.987	19.992	99.986	19.980	-0.463	0.513
1248.500	711.099	79.986	19.992	99.986	19.977	-0.256	0.502
1249.000	711.374	79.985	19.992	99.985	19.975	-0.102	0.490
1249.500	711.616	79.986	19.992	99.984	19.982	-0.621	0.511
1250.000	711.888	79.985	19.992	99.985	19.974	-0.072	0.515
1250.501	712.137	79.988	19.992	99.984	19.976	-0.216	0.517
1251.001	712.383	79.986	19.992	99.984	19.975	-0.148	0.508
1251.501	712.695	79.986	19.991	99.985	19.976	-0.186	0.527
1252.001	712.933	79.984	19.993	99.988	19.976	-0.184	0.554
1252.501	713.156	79.986	19.993	99.991	19.976	-0.178	0.506
1253.000	713.443	79.986	19.993	99.994	19.978	-0.327	0.486
1253.500	713.682	79.986	19.992	99.995	19.975	-0.158	0.518
1254.000	713.915	79.987	19.992	99.995	19.978	-0.377	0.499
1254.500	714.187	79.984	19.992	99.992	19.978	-0.325	0.489
1255.000	714.435	79.987	19.992	99.989	19.983	-0.691	0.512
1255.501	714.687	79.985	19.992	99.986	19.977	-0.294	0.510
1256.001	714.956	79.985	19.991	99.984	19.981	-0.565	0.510
1256.500	715.250	79.986	19.992	99.984	19.980	-0.463	0.542
1257.000	715.474	79.985	19.992	99.984	19.980	-0.515	0.541
1257.500	715.755	79.985	19.991	99.984	19.979	-0.433	0.511
1258.000	716.018	79.985	19.991	99.984	19.978	-0.325	0.525
1258.500	716.255	79.986	19.992	99.984	19.975	-0.114	0.522
1259.000	716.566	79.987	19.992	99.985	19.979	-0.419	0.524
1259.500	716.748	79.985	19.992	99.985	19.978	-0.383	0.520
1260.000	716.995	79.987	19.992	99.985	19.978	-0.337	0.461
1260.500	717.300	79.987	19.993	99.985	19.978	-0.385	0.490
1261.000	717.526	79.987	19.991	99.986	19.975	-0.134	0.542
1261.500	717.792	79.987	19.991	99.986	19.979	-0.443	0.512
1262.000	718.044	79.990	19.992	99.985	19.978	-0.351	0.505
1262.500	718.247	79.987	19.992	99.985	19.976	-0.198	0.486
1263.000	718.546	79.989	19.991	99.985	19.977	-0.242	0.478
1263.500	718.874	79.991	19.990	99.984	19.977	-0.262	0.564
1264.000	719.056	79.989	19.992	99.983	19.975	-0.164	0.568
1264.500	719.302	79.987	19.992	99.983	19.974	-0.030	0.469
1265.000	719.533	79.989	19.991	99.983	19.977	-0.248	0.453
1265.500	719.761	79.987	19.992	99.982	19.976	-0.188	0.468
1266.001	720.055	79.989	19.992	99.982	19.977	-0.270	0.491
1266.501	720.301	79.989	19.992	99.983	19.977	-0.248	0.531
1267.000	720.536	79.989	19.992	99.983	19.977	-0.260	0.510
1267.500	720.823	79.989	19.992	99.984	19.975	-0.096	0.501
1268.000	721.066	79.987	19.992	99.983	19.979	-0.439	0.526
1268.500	721.367	79.990	19.991	99.985	19.979	-0.389	0.537
1269.000	721.590	79.989	19.991	99.986	19.975	-0.094	0.534
1269.500	721.813	79.985	19.991	99.986	19.973	0.002	0.485
1270.000	722.105	79.989	19.991	99.986	19.976	-0.212	0.480
1270.500	722.374	79.986	19.991	99.987	19.977	-0.304	0.538
1271.000	722.613	79.988	19.992	99.988	19.977	-0.290	0.534
1271.501	722.857	79.988	19.992	99.990	19.976	-0.230	0.495
1272.001	723.127	79.985	19.992	99.990	19.976	-0.202	0.499
1272.501	723.364	79.988	19.991	99.991	19.979	-0.413	0.511
1273.000	723.620	79.985	19.991	99.991	19.977	-0.298	0.500
1273.500	723.862	79.987	19.992	99.989	19.977	-0.254	0.495
1274.000	724.127	79.988	19.991	99.988	19.979	-0.411	0.503
1274.500	724.377	79.985	19.991	99.988	19.977	-0.286	0.511
1275.000	724.596	79.983	19.991	99.987	19.978	-0.369	0.492
1275.500	724.865	79.987	19.991	99.987	19.975	-0.102	0.479
1276.000	725.104	79.986	19.992	99.988	19.978	-0.379	0.498
1276.500	725.347	79.984	19.992	99.988	19.981	-0.557	0.495
1277.000	725.588	79.986	19.991	99.988	19.976	-0.218	0.483
1277.500	725.867	79.985	19.992	99.988	19.978	-0.381	0.502
1278.000	726.106	79.985	19.992	99.989	19.976	-0.228	0.519
1278.500	726.297	79.983	19.992	99.989	19.978	-0.387	0.474
1279.000	726.587	79.986	19.992	99.989	19.977	-0.311	0.455
1279.500	726.868	79.984	19.992	99.990	19.977	-0.288	0.526
1280.000	727.057	79.981	19.993	99.990	19.975	-0.148	0.521
1280.500	727.334	79.984	19.993	99.990	19.980	-0.483	0.468
1281.001	727.572	79.986	19.992	99.989	19.976	-0.212	0.491
1281.501	727.852	79.984	19.993	99.989	19.977	-0.274	0.517
1282.000	728.083	79.986	19.993	99.988	19.976	-0.194	0.515
1282.501	728.309	79.987	19.992	99.987	19.976	-0.198	0.484
1283.001	728.580	79.985	19.992	99.987	19.976	-0.188	0.477
1283.500	728.860	79.984	19.993	99.987	19.978	-0.327	0.524
1284.001	729.089	79.986	19.992	99.988	19.975	-0.154	0.530
1284.501	729.322	79.984	19.992	99.990	19.977	-0.290	0.485
1285.000	729.559	79.985	19.992	99.990	19.975	-0.098	0.466
1285.500	729.851	79.985	19.993	99.991	19.978	-0.337	0.500
1286.000	730.087	79.985	19.992	99.991	19.976	-0.178	0.528
1286.500	730.338	79.985	19.992	99.992	19.975	-0.142	0.507
1287.001	730.565	79.982	19.993	99.990	19.976	-0.184	0.483
1287.501	730.813	79.984	19.992	99.989	19.976	-0.184	0.477
1288.001	731.103	79.985	19.993	99.990	19.978	-0.345	0.506
1288.500	731.330	79.985	19.992	99.989	19.977	-0.260	0.527
1289.000	731.636	79.983	19.991	99.988	19.976	-0.208	0.525
1289.500	731.834	79.983	19.992	99.988	19.976	-0.204	0.519
1290.000	732.078	79.983	19.991	99.988	19.975	-0.142	0.473
1290.501	732.318	79.984	19.992	99.987	19.976	-0.232	0.463
1291.001	732.588	79.986	19.992	99.987	19.977	-0.308	0.497
1291.501	732.843	79.985	19.992	99.988	19.979	-0.441	0.518
1292.000	733.077	79.983	19.992	99.988	19.979	-0.421	0.507
1292.500	733.316	79.985	19.991	99.989	19.976	-0.216	0.481
1293.000	733.585	79.985	19.990	99.989	19.976	-0.210	0.491
1293.500	733.843	79.985	19.991	99.989	19.977	-0.244	0.517
1294.000	734.077	79.988	19.992	99.989	19.977	-0.278	0.509
1294.500	734.331	79.984	19.991	99.990	19.980	-0.491	0.490
1295.000	734.575	79.986	19.992	99.990	19.978	-0.331	0.493
1295.500	734.811	79.984	19.991	99.991	19.979	-0.391	0.489
1296.000	735.034	79.982	19.992	99.992	19.980	-0.477	0.469
1296.500	735.304	79.984	19.992	99.992	19.978	-0.365	0.475
1297.000	735.540	79.986	19.992	99.991	19.976	-0.216	0.499
1297.500	735.793	79.986	19.993	99.990	19.978	-0.331	0.498
1298.000	736.020	79.985	19.992	99.990	19.981	-0.563	0.485
1298.500	736.253	79.986	19.991	99.988	19.977	-0.252	0.470
1299.000	736.508	79.985	19.991	99.985	19.976	-0.224	0.473
1299.500	736.751	79.985	19.992	99.986	19.978	-0.323	0.493
1300.000	737.006	79.984	19.993	99.986	19.976	-0.192	0.498
1300.500	737.247	79.986	19.993	99.987	19.979	-0.425	0.497
1301.000	737.505	79.985	19.991	99.987	19.978	-0.375	0.498
1301.500	737.744	79.984	19.992	99.991	19.978	-0.387	0.498
1302.000	737.988	79.984	19.992	99.992	19.974	-0.050	0.490
1302.500	738.210	79.985	19.993	99.991	19.975	-0.122	0.474
1303.000	738.493	79.985	19.992	99.989	19.976	-0.178	0.486
1303.500	738.776	79.982	19.993	99.988	19.976	-0.220	0.536
1304.001	739.004	79.983	19.993	99.986	19.975	-0.114	0.538
1304.501	739.261	79.984	19.993	99.984	19.977	-0.274	0.498
1305.000	739.494	79.984	19.993	99.984	19.976	-0.194	0.488
1305.500	739.806	79.983	19.993	99.985	19.976	-0.176	0.518
1306.000	740.025	79.985	19.993	99.985	19.974	-0.030	0.538
1306.500	740.322	79.986	19.994	99.986	19.976	-0.200	0.524
1307.000	740.527	79.985	19.993	99.986	19.978	-0.331	0.509
1307.500	740.781	79.986	19.993	99.986	19.975	-0.156	0.480
1308.000	741.013	79.985	19.993	99.985	19.974	-0.080	0.472
1308.500	741.290	79.983	19.993	99.985	19.973	-0.014	0.498
1309.000	741.531	79.986	19.993	99.985	19.975	-0.156	0.514
1309.500	741.798	79.982	19.995	99.985	19.975	-0.094	0.513
1310.000	742.071	79.983	19.992	99.984	19.980	-0.501	0.524
1310.500	742.318	79.984	19.994	99.985	19.975	-0.166	0.530
1311.000	742.546	79.985	19.994	99.985	19.979	-0.405	0.498
1311.500	742.851	79.985	19.993	99.985	19.976	-0.214	0.504
1312.000	743.073	79.983	19.993	99.985	19.980	-0.479	0.529
1312.500	743.333	79.986	19.994	99.985	19.975	-0.166	0.504
1313.000	743.608	79.985	19.993	99.985	19.977	-0.276	0.509
