Sample ID:	C:\MCC\MCC Cal\Test\Feather_PillowB_Feathers_MCC_30K_min_220106_R2.txt
Sample Weight (mg):	4.5
Heating Rate (C/s):	0.5
Combustor Temp (C):	900
N2 Flow Rate (cc/min):	80
O2 Flow Rate (cc/min):	20
Calibration File:	C:\MCC\MCC Cal\Coeff1 JN10440_30_210304.txt.txt
T Correction Coefficients:	0	1.024463	0
Time Shift (s):	14
*
Time (s)	Temperature (C)	N2 flow rate (cc/min)	O2 flow rate (cc/min)	Flow Rate (cc/min)	Oxygen (%)	HRR (W/g)	Heating rate (C/s)
-0.001	111.263	80.010	19.997	104.158	20.098	-0.085	0.006
0.499	111.276	80.010	19.992	104.163	20.098	-0.107	0.007
0.999	111.265	80.011	19.995	104.167	20.098	-0.145	0.005
1.499	111.285	80.011	19.993	104.170	20.098	-0.139	0.006
1.999	111.257	80.011	19.994	104.169	20.098	-0.105	0.000
2.500	111.254	80.009	19.992	104.166	20.097	-0.010	-0.020
3.000	111.286	80.012	19.995	104.162	20.098	-0.107	-0.001
3.500	111.289	80.011	19.994	104.161	20.100	-0.230	0.032
4.000	111.272	80.010	19.993	104.158	20.100	-0.289	0.011
4.500	111.279	80.012	19.992	104.157	20.099	-0.212	-0.012
4.999	111.279	80.010	19.993	104.158	20.098	-0.079	-0.002
5.499	111.260	80.012	19.993	104.162	20.099	-0.170	-0.006
5.999	111.246	80.011	19.992	104.164	20.097	-0.069	-0.026
6.499	111.266	80.012	19.993	104.169	20.096	0.044	-0.014
6.999	111.272	80.011	19.993	104.175	20.097	-0.010	0.016
7.499	111.241	80.011	19.993	104.179	20.098	-0.107	0.001
7.999	111.249	80.011	19.994	104.179	20.094	0.168	-0.024
8.500	111.225	80.011	19.992	104.179	20.097	-0.012	-0.020
9.000	111.250	80.011	19.993	104.181	20.093	0.271	-0.008
9.499	111.252	80.011	19.992	104.181	20.094	0.184	0.014
9.999	111.259	80.011	19.993	104.184	20.096	0.050	0.018
10.499	111.270	80.012	19.995	104.191	20.094	0.170	0.014
10.999	111.260	80.010	19.993	104.197	20.094	0.200	0.010
11.500	111.261	80.011	19.993	104.201	20.095	0.069	-0.004
12.000	111.233	80.010	19.992	104.207	20.089	0.519	-0.018
12.499	111.248	80.010	19.994	104.210	20.092	0.353	-0.020
12.999	111.262	80.011	19.993	104.212	20.091	0.420	0.008
13.500	111.278	80.011	19.992	104.215	20.086	0.726	0.029
14.000	111.300	80.011	19.993	104.223	20.087	0.694	0.034
14.499	111.323	80.011	19.995	104.233	20.087	0.674	0.042
14.999	111.300	80.010	19.993	104.245	20.089	0.557	0.023
15.500	111.308	80.010	19.993	104.253	20.087	0.680	-0.008
16.000	111.331	80.012	19.993	104.259	20.086	0.726	0.008
16.499	111.357	80.011	19.993	104.261	20.085	0.793	0.040
16.999	111.340	80.011	19.993	104.261	20.086	0.720	0.029
17.499	111.386	80.011	19.992	104.265	20.086	0.732	0.019
17.999	111.417	80.010	19.994	104.271	20.082	1.071	0.053
18.499	111.426	80.010	19.994	104.276	20.084	0.877	0.058
18.999	111.451	80.012	19.994	104.283	20.080	1.164	0.037
19.499	111.468	80.011	19.993	104.289	20.080	1.202	0.038
19.999	111.482	80.010	19.993	104.290	20.080	1.180	0.037
20.499	111.527	80.011	19.995	104.291	20.080	1.218	0.045
20.999	111.549	80.010	19.992	104.294	20.077	1.392	0.063
21.499	111.566	80.011	19.994	104.295	20.076	1.483	0.053
22.000	111.624	80.011	19.994	104.301	20.072	1.797	0.057
22.499	111.626	80.012	19.994	104.309	20.074	1.596	0.067
22.999	111.685	80.011	19.995	104.317	20.073	1.692	0.060
23.499	111.703	80.011	19.993	104.324	20.070	1.942	0.069
23.999	111.720	80.011	19.993	104.332	20.070	1.878	0.056
24.499	111.788	80.012	19.993	104.334	20.071	1.856	0.060
24.999	111.791	80.010	19.992	104.334	20.069	1.991	0.078
25.499	111.820	80.012	19.993	104.334	20.069	2.021	0.052
25.999	111.880	80.011	19.992	104.338	20.067	2.100	0.060
26.499	111.931	80.011	19.994	104.345	20.067	2.152	0.100
26.999	112.013	80.012	19.993	104.353	20.064	2.331	0.122
27.499	112.048	80.012	19.994	104.360	20.068	2.091	0.125
27.999	112.105	80.011	19.995	104.367	20.066	2.228	0.105
28.499	112.141	80.011	19.993	104.371	20.065	2.291	0.093
28.999	112.238	80.011	19.993	104.368	20.066	2.210	0.113
29.499	112.285	80.010	19.992	104.362	20.065	2.242	0.138
29.999	112.355	80.011	19.995	104.358	20.064	2.347	0.131
30.499	112.417	80.011	19.995	104.357	20.060	2.605	0.124
30.999	112.473	80.012	19.994	104.355	20.065	2.254	0.125
31.499	112.519	80.011	19.994	104.355	20.064	2.371	0.110
31.999	112.610	80.010	19.994	104.359	20.060	2.639	0.120
32.499	112.665	80.011	19.994	104.363	20.062	2.488	0.141
32.999	112.745	80.010	19.993	104.366	20.064	2.351	0.140
33.499	112.789	80.012	19.995	104.367	20.059	2.679	0.130
33.999	112.881	80.009	19.992	104.370	20.062	2.488	0.130
34.499	112.941	80.010	19.994	104.373	20.061	2.575	0.144
34.999	113.023	80.011	19.996	104.373	20.058	2.766	0.147
35.499	113.083	80.010	19.994	104.373	20.057	2.821	0.142
35.999	113.153	80.011	19.995	104.375	20.059	2.696	0.136
36.499	113.245	80.009	19.993	104.375	20.059	2.681	0.146
36.999	113.349	80.009	19.994	104.376	20.058	2.760	0.179
37.499	113.422	80.007	19.992	104.379	20.059	2.683	0.186
37.999	113.539	80.008	19.994	104.384	20.057	2.891	0.184
38.499	113.593	80.008	19.995	104.388	20.058	2.796	0.181
38.999	113.692	80.010	19.993	104.393	20.058	2.750	0.162
39.499	113.760	80.009	19.993	104.394	20.055	2.968	0.160
39.999	113.858	80.008	19.993	104.399	20.054	3.093	0.167
40.499	113.938	80.010	19.995	104.403	20.054	3.095	0.172
40.999	114.054	80.011	19.994	104.405	20.056	2.949	0.187
41.499	114.200	80.009	19.995	104.408	20.052	3.230	0.229
41.999	114.292	80.008	19.994	104.415	20.052	3.222	0.250
42.499	114.405	80.008	19.993	104.417	20.052	3.206	0.222
42.999	114.481	80.009	19.994	104.418	20.053	3.155	0.197
43.499	114.608	80.008	19.994	104.418	20.053	3.133	0.196
43.999	114.732	80.009	19.993	104.418	20.052	3.240	0.227
44.499	114.837	80.008	19.991	104.418	20.051	3.302	0.240
44.999	114.948	80.008	19.993	104.417	20.052	3.240	0.223
45.499	115.091	80.007	19.993	104.416	20.053	3.143	0.236
45.999	115.177	80.008	19.994	104.416	20.051	3.314	0.241
46.499	115.272	80.007	19.993	104.417	20.053	3.121	0.204
46.999	115.401	80.008	19.993	104.419	20.052	3.218	0.203
47.499	115.537	80.009	19.994	104.419	20.050	3.375	0.245
47.999	115.661	80.008	19.993	104.420	20.050	3.327	0.263
48.499	115.765	80.008	19.994	104.421	20.053	3.165	0.244
48.999	115.900	80.008	19.994	104.420	20.052	3.207	0.234
49.499	116.014	80.008	19.994	104.418	20.051	3.274	0.244
50.000	116.160	80.007	19.994	104.419	20.053	3.151	0.254
50.500	116.318	80.009	19.993	104.418	20.054	3.092	0.282
50.999	116.439	80.007	19.993	104.418	20.047	3.576	0.292
51.499	116.579	80.009	19.994	104.419	20.054	3.072	0.270
51.999	116.712	80.008	19.996	104.420	20.051	3.288	0.267
52.499	116.847	80.008	19.995	104.420	20.049	3.419	0.271
52.999	117.010	80.009	19.994	104.420	20.050	3.344	0.283
53.499	117.146	80.008	19.995	104.421	20.047	3.576	0.298
53.999	117.310	80.007	19.993	104.422	20.049	3.445	0.299
54.499	117.428	80.009	19.994	104.423	20.048	3.493	0.291
54.999	117.584	80.007	19.994	104.423	20.052	3.209	0.277
55.499	117.701	80.008	19.993	104.423	20.049	3.423	0.273
55.999	117.837	80.007	19.994	104.421	20.053	3.175	0.263
56.499	118.035	80.009	19.994	104.420	20.052	3.239	0.294
56.999	118.160	80.008	19.994	104.419	20.050	3.332	0.329
57.499	118.333	80.007	19.995	104.419	20.050	3.390	0.311
57.999	118.505	80.009	19.994	104.418	20.051	3.298	0.321
58.499	118.634	80.008	19.994	104.417	20.049	3.414	0.323
58.999	118.747	80.009	19.994	104.420	20.050	3.392	0.272
59.499	118.935	80.007	19.995	104.421	20.051	3.303	0.272
59.999	119.142	80.009	19.996	104.427	20.050	3.386	0.348
60.499	119.291	80.008	19.994	104.434	20.051	3.309	0.376
60.999	119.465	80.008	19.993	104.438	20.049	3.439	0.340
61.499	119.593	80.009	19.995	104.439	20.047	3.551	0.312
61.999	119.769	80.008	19.993	104.442	20.051	3.318	0.303
62.499	119.930	80.008	19.994	104.436	20.052	3.191	0.321
62.999	120.096	80.008	19.996	104.436	20.048	3.489	0.332
63.499	120.287	80.007	19.996	104.439	20.050	3.356	0.342
63.999	120.438	80.007	19.996	104.438	20.051	3.311	0.350
64.499	120.625	80.007	19.996	104.439	20.051	3.311	0.340
64.999	120.772	80.008	19.995	104.444	20.049	3.410	0.336
65.499	120.950	80.008	19.994	104.444	20.049	3.433	0.329
65.999	121.152	80.008	19.991	104.441	20.050	3.360	0.353
66.499	121.344	80.008	19.993	104.438	20.046	3.644	0.387
66.999	121.454	80.007	19.994	104.435	20.048	3.529	0.348
67.500	121.645	80.009	19.995	104.433	20.049	3.449	0.302
67.999	121.831	80.008	19.995	104.435	20.048	3.507	0.339
68.499	122.035	80.008	19.995	104.438	20.048	3.525	0.383
68.999	122.207	80.008	19.992	104.443	20.048	3.519	0.383
69.499	122.406	80.008	19.993	104.448	20.047	3.612	0.374
69.999	122.578	80.007	19.992	104.451	20.044	3.773	0.371
70.499	122.793	80.008	19.993	104.449	20.046	3.646	0.379
71.000	122.964	80.008	19.994	104.450	20.046	3.618	0.386
71.500	123.160	80.009	19.995	104.449	20.047	3.602	0.376
71.999	123.326	80.009	19.995	104.446	20.046	3.670	0.365
72.499	123.530	80.008	19.993	104.446	20.048	3.527	0.367
72.999	123.711	80.008	19.994	104.447	20.045	3.702	0.378
73.500	123.876	80.009	19.994	104.446	20.046	3.642	0.365
73.999	124.136	80.009	19.993	104.447	20.044	3.779	0.385
74.499	124.278	80.010	19.994	104.450	20.045	3.759	0.413
74.999	124.512	80.008	19.995	104.450	20.047	3.588	0.389
75.499	124.675	80.009	19.994	104.449	20.047	3.578	0.387
75.999	124.861	80.009	19.993	104.446	20.047	3.553	0.373
76.499	125.082	80.009	19.994	104.446	20.047	3.561	0.378
76.999	125.275	80.009	19.994	104.443	20.051	3.293	0.410
77.499	125.471	80.008	19.993	104.441	20.051	3.299	0.401
77.999	125.710	80.008	19.993	104.443	20.048	3.475	0.412
78.499	125.879	80.009	19.994	104.445	20.048	3.531	0.422
78.999	126.114	80.009	19.994	104.446	20.048	3.483	0.406
79.499	126.282	80.009	19.992	104.448	20.048	3.519	0.403
79.999	126.491	80.012	19.995	104.450	20.048	3.511	0.390
80.499	126.714	80.009	19.993	104.450	20.049	3.434	0.405
80.999	126.900	80.009	19.994	104.450	20.046	3.652	0.420
81.499	127.103	80.008	19.992	104.450	20.046	3.646	0.399
81.999	127.329	80.009	19.993	104.450	20.047	3.565	0.409
82.499	127.488	80.010	19.994	104.450	20.047	3.599	0.407
82.999	127.740	80.010	19.993	104.451	20.049	3.416	0.398
83.499	127.917	80.010	19.994	104.450	20.043	3.847	0.420
84.000	128.111	80.008	19.993	104.450	20.047	3.557	0.400
84.500	128.366	80.009	19.993	104.449	20.043	3.841	0.410
85.000	128.548	80.010	19.994	104.449	20.048	3.539	0.443
85.499	128.753	80.009	19.994	104.448	20.046	3.636	0.412
85.999	128.962	80.010	19.994	104.449	20.044	3.799	0.401
86.499	129.219	80.010	19.993	104.449	20.046	3.684	0.440
86.999	129.417	80.010	19.991	104.453	20.045	3.720	0.460
87.499	129.658	80.010	19.994	104.453	20.046	3.624	0.447
87.999	129.842	80.010	19.993	104.453	20.046	3.642	0.432
88.499	130.060	80.010	19.994	104.452	20.043	3.902	0.413
88.999	130.290	80.010	19.993	104.453	20.044	3.767	0.425
89.499	130.542	80.008	19.991	104.450	20.045	3.753	0.465
89.999	130.737	80.008	19.994	104.450	20.046	3.684	0.465
90.499	130.975	80.008	19.995	104.451	20.047	3.608	0.440
90.999	131.220	80.008	19.994	104.452	20.047	3.602	0.458
91.499	131.433	80.008	19.996	104.452	20.045	3.702	0.470
91.999	131.653	80.008	19.993	104.452	20.047	3.545	0.445
92.499	131.866	80.009	19.992	104.453	20.045	3.708	0.433
92.999	132.100	80.009	19.995	104.454	20.047	3.553	0.440
93.499	132.344	80.009	19.994	104.454	20.044	3.828	0.463
93.999	132.577	80.009	19.994	104.454	20.046	3.671	0.478
94.499	132.790	80.009	19.993	104.454	20.047	3.615	0.461
94.999	132.981	80.009	19.993	104.455	20.046	3.640	0.425
95.499	133.180	80.010	19.993	104.455	20.047	3.596	0.397
95.999	133.434	80.009	19.993	104.454	20.041	4.002	0.422
96.499	133.674	80.008	19.993	104.454	20.045	3.712	0.473
96.999	133.916	80.009	19.993	104.454	20.044	3.806	0.488
97.499	134.140	80.009	19.994	104.454	20.045	3.737	0.474
97.999	134.364	80.010	19.993	104.454	20.045	3.713	0.458
98.499	134.586	80.009	19.993	104.454	20.043	3.860	0.447
98.999	134.817	80.008	19.993	104.454	20.044	3.784	0.449
99.499	135.087	80.008	19.995	104.453	20.044	3.829	0.477
99.999	135.315	80.009	19.992	104.453	20.045	3.735	0.499
100.499	135.517	80.011	19.992	104.452	20.045	3.735	0.464
100.999	135.784	80.010	19.993	104.452	20.047	3.589	0.450
101.499	135.995	80.010	19.993	104.452	20.046	3.628	0.474
101.999	136.224	80.009	19.995	104.453	20.044	3.783	0.459
102.499	136.481	80.010	19.992	104.454	20.045	3.702	0.462
102.999	136.706	80.010	19.994	104.453	20.042	3.950	0.484
103.499	136.977	80.010	19.994	104.457	20.041	3.989	0.490
103.999	137.236	80.010	19.993	104.460	20.044	3.791	0.513
104.499	137.428	80.010	19.992	104.442	20.044	3.832	0.490
104.999	137.678	80.010	19.992	104.421	20.042	3.955	0.446
105.499	137.949	80.012	19.992	104.406	20.043	3.864	0.481
105.999	138.201	80.011	19.992	104.393	20.042	3.928	0.522
106.499	138.400	80.012	19.992	104.382	20.044	3.818	0.487
106.999	138.632	80.011	19.992	104.406	20.044	3.824	0.440
107.499	138.899	80.011	19.994	104.456	20.047	3.612	0.465
107.999	139.143	80.011	19.994	104.481	20.049	3.435	0.505
108.499	139.388	80.010	19.991	104.494	20.044	3.804	0.500
108.999	139.634	80.011	19.994	104.503	20.044	3.830	0.490
109.499	139.849	80.010	19.992	104.497	20.044	3.767	0.476
109.999	140.104	80.010	19.993	104.467	20.045	3.743	0.465
110.499	140.381	80.011	19.991	104.458	20.047	3.566	0.501
110.999	140.592	80.010	19.992	104.455	20.047	3.606	0.510
111.499	140.884	80.010	19.991	104.454	20.045	3.709	0.496
111.999	141.102	80.009	19.991	104.454	20.046	3.667	0.507
112.499	141.342	80.011	19.994	104.455	20.046	3.663	0.484
112.999	141.583	80.011	19.992	104.455	20.046	3.673	0.469
113.499	141.811	80.011	19.992	104.453	20.045	3.724	0.475
113.999	142.081	80.009	19.993	104.451	20.046	3.649	0.483
114.499	142.301	80.008	19.992	104.445	20.044	3.792	0.494
114.999	142.561	80.009	19.993	104.445	20.046	3.623	0.485
115.499	142.823	80.009	19.994	104.444	20.044	3.770	0.501
115.999	143.066	80.007	19.993	104.445	20.045	3.730	0.514
116.499	143.346	80.009	19.992	104.441	20.046	3.671	0.514
116.999	143.577	80.009	19.993	104.445	20.046	3.655	0.517
117.499	143.845	80.008	19.994	104.445	20.048	3.516	0.505
117.999	144.084	80.008	19.993	104.445	20.046	3.667	0.503
118.499	144.302	80.008	19.993	104.440	20.047	3.581	0.482
118.999	144.537	80.009	19.994	104.442	20.045	3.712	0.456
119.499	144.847	80.007	19.994	104.440	20.045	3.706	0.499
119.999	145.098	80.008	19.994	104.439	20.047	3.615	0.552
120.499	145.336	80.008	19.994	104.436	20.046	3.676	0.525
120.999	145.608	80.007	19.995	104.437	20.047	3.553	0.500
121.499	145.835	80.008	19.995	104.437	20.047	3.546	0.505
121.999	146.112	80.009	19.996	104.438	20.045	3.714	0.502
122.499	146.357	80.007	19.994	104.433	20.046	3.633	0.513
122.999	146.593	80.007	19.994	104.430	20.046	3.635	0.502
123.499	146.846	80.008	19.994	104.429	20.047	3.601	0.485
124.000	147.098	80.008	19.993	104.428	20.046	3.617	0.497
124.499	147.361	80.008	19.990	104.425	20.048	3.528	0.510
124.999	147.612	80.008	19.993	104.424	20.044	3.774	0.515
125.499	147.864	80.007	19.994	104.424	20.047	3.550	0.509
125.999	148.131	80.008	19.995	104.421	20.043	3.857	0.511
126.499	148.378	80.009	19.993	104.422	20.045	3.702	0.516
126.999	148.628	80.009	19.994	104.422	20.045	3.710	0.505
127.499	148.867	80.008	19.992	104.424	20.044	3.831	0.493
127.999	149.110	80.010	19.995	104.423	20.046	3.619	0.486
128.499	149.386	80.009	19.994	104.424	20.046	3.619	0.501
128.999	149.666	80.009	19.994	104.422	20.049	3.438	0.538
129.499	149.932	80.009	19.994	104.420	20.047	3.581	0.551
129.999	150.153	80.009	19.994	104.418	20.049	3.468	0.516
130.499	150.383	80.009	19.994	104.417	20.045	3.744	0.469
130.999	150.654	80.008	19.995	104.415	20.043	3.863	0.476
131.499	150.948	80.008	19.993	104.414	20.045	3.758	0.533
131.999	151.136	80.006	19.993	104.414	20.045	3.714	0.524
132.499	151.407	80.009	19.997	104.414	20.048	3.504	0.471
132.999	151.651	80.008	19.994	104.419	20.047	3.544	0.487
133.499	151.898	80.009	19.995	104.422	20.048	3.506	0.503
133.999	152.155	80.009	19.995	104.421	20.048	3.498	0.497
134.499	152.442	80.007	19.992	104.422	20.047	3.573	0.524
134.999	152.695	80.008	19.995	104.423	20.048	3.482	0.542
135.499	152.959	80.009	19.993	104.418	20.048	3.522	0.529
135.999	153.166	80.008	19.994	104.415	20.050	3.377	0.494
136.499	153.447	80.008	19.993	104.416	20.050	3.345	0.479
136.999	153.707	80.009	19.993	104.417	20.049	3.422	0.514
137.499	153.961	80.009	19.994	104.420	20.046	3.641	0.527
137.999	154.161	80.009	19.993	104.419	20.050	3.357	0.484
138.499	154.431	80.008	19.992	104.419	20.046	3.623	0.462
138.999	154.707	80.009	19.993	104.419	20.049	3.436	0.509
139.499	154.934	80.007	19.994	104.416	20.050	3.349	0.525
139.999	155.172	80.009	19.995	104.413	20.050	3.331	0.484
140.499	155.409	80.010	19.995	104.415	20.050	3.381	0.470
140.999	155.692	80.009	19.993	104.416	20.047	3.575	0.497
141.499	155.904	80.009	19.994	104.416	20.048	3.533	0.507
141.999	156.182	80.007	19.993	104.416	20.049	3.442	0.493
142.499	156.461	80.008	19.994	104.416	20.052	3.182	0.524
142.999	156.716	80.008	19.993	104.414	20.049	3.470	0.546
143.499	156.946	80.010	19.993	104.413	20.048	3.532	0.509
143.999	157.220	80.009	19.994	104.414	20.050	3.379	0.494
144.499	157.470	80.009	19.993	104.414	20.046	3.639	0.514
144.999	157.728	80.008	19.993	104.413	20.047	3.563	0.516
145.499	157.939	80.008	19.993	104.412	20.047	3.577	0.489
145.999	158.199	80.008	19.995	104.411	20.047	3.577	0.470
146.499	158.472	80.008	19.994	104.411	20.049	3.424	0.502
146.999	158.759	80.006	19.996	104.410	20.050	3.329	0.546
147.499	159.017	80.007	19.994	104.410	20.048	3.522	0.552
147.999	159.215	80.007	19.993	104.411	20.051	3.296	0.500
148.499	159.450	80.008	19.993	104.411	20.051	3.317	0.445
148.999	159.754	80.007	19.993	104.412	20.048	3.500	0.486
149.499	160.017	80.006	19.995	104.414	20.051	3.298	0.553
149.999	160.247	80.008	19.994	104.415	20.049	3.430	0.530
150.499	160.508	80.007	19.995	104.416	20.051	3.278	0.492
150.999	160.764	80.008	19.995	104.414	20.050	3.327	0.504
151.499	161.003	80.007	19.996	104.410	20.050	3.381	0.506
151.999	161.247	80.006	19.996	104.409	20.053	3.157	0.490
152.499	161.532	80.006	19.995	104.409	20.049	3.468	0.506
152.999	161.754	80.007	19.995	104.409	20.052	3.224	0.517
153.499	162.017	80.007	19.997	104.411	20.049	3.464	0.496
153.999	162.257	80.007	19.994	104.414	20.049	3.468	0.494
154.499	162.522	80.007	19.994	104.414	20.049	3.401	0.504
154.999	162.752	80.007	19.995	104.414	20.052	3.246	0.500
155.499	163.012	80.007	19.996	104.413	20.047	3.579	0.493
155.999	163.288	80.008	19.993	104.413	20.052	3.192	0.513
156.499	163.529	80.008	19.995	104.412	20.050	3.381	0.526
156.999	163.782	80.006	19.994	104.413	20.051	3.299	0.506
157.499	163.998	80.007	19.994	104.413	20.047	3.591	0.481
157.999	164.269	80.007	19.995	104.413	20.043	3.849	0.478
158.499	164.544	80.007	19.995	104.413	20.052	3.240	0.516
158.999	164.774	80.008	19.990	104.413	20.051	3.315	0.525
159.499	165.034	80.008	19.993	104.413	20.050	3.383	0.497
159.999	165.298	80.009	19.995	104.413	20.050	3.349	0.507
160.499	165.534	80.010	19.994	104.413	20.048	3.537	0.512
160.999	165.788	80.009	19.992	104.412	20.046	3.680	0.495
161.499	166.026	80.009	19.994	104.411	20.049	3.452	0.491
162.000	166.338	80.008	19.993	104.409	20.050	3.341	0.521
162.499	166.566	80.010	19.993	104.409	20.052	3.202	0.545
162.999	166.813	80.010	19.994	104.409	20.046	3.662	0.507
163.499	167.058	80.010	19.993	104.412	20.050	3.361	0.483
163.999	167.318	80.010	19.993	104.414	20.050	3.341	0.498
164.499	167.537	80.010	19.993	104.416	20.048	3.498	0.492
164.999	167.826	80.011	19.993	104.415	20.051	3.254	0.493
165.499	168.027	80.011	19.992	104.412	20.051	3.256	0.499
165.999	168.288	80.011	19.993	104.411	20.046	3.646	0.477
166.499	168.555	80.009	19.992	104.411	20.052	3.252	0.495
166.999	168.735	80.010	19.993	104.408	20.052	3.228	0.487
167.499	169.037	80.010	19.992	104.405	20.049	3.470	0.465
167.999	169.253	80.009	19.991	104.404	20.049	3.464	0.500
168.499	169.527	80.009	19.993	104.404	20.051	3.311	0.504
168.999	169.775	80.010	19.993	104.403	20.049	3.414	0.506
169.499	170.065	80.010	19.994	104.405	20.049	3.430	0.530
169.999	170.305	80.009	19.995	104.409	20.047	3.592	0.534
170.499	170.531	80.010	19.992	104.410	20.048	3.541	0.498
170.999	170.762	80.009	19.993	104.405	20.048	3.491	0.462
171.499	171.023	80.010	19.995	104.402	20.048	3.541	0.474
171.999	171.263	80.009	19.992	104.401	20.051	3.311	0.496
172.499	171.567	80.010	19.991	104.400	20.051	3.317	0.522
172.999	171.785	80.010	19.993	104.401	20.049	3.406	0.533
173.499	172.008	80.010	19.993	104.406	20.047	3.563	0.482
173.999	172.267	80.009	19.993	104.406	20.050	3.392	0.461
174.500	172.523	80.009	19.993	104.408	20.051	3.311	0.499
174.999	172.757	80.009	19.992	104.408	20.050	3.368	0.502
175.499	173.006	80.009	19.993	104.410	20.047	3.612	0.486
175.999	173.282	80.007	19.993	104.407	20.050	3.348	0.504
176.499	173.542	80.010	19.992	104.411	20.050	3.330	0.531
176.999	173.799	80.009	19.993	104.408	20.049	3.457	0.526
177.499	174.028	80.009	19.994	104.404	20.049	3.465	0.502
177.999	174.268	80.010	19.992	104.403	20.049	3.459	0.478
178.499	174.512	80.008	19.993	104.406	20.050	3.382	0.476
178.999	174.749	80.010	19.994	104.406	20.053	3.150	0.482
179.499	175.020	80.009	19.994	104.405	20.050	3.338	0.495
179.999	175.261	80.010	19.992	104.404	20.051	3.281	0.510
180.499	175.493	80.009	19.993	104.399	20.052	3.213	0.493
180.999	175.769	80.010	19.994	104.393	20.050	3.374	0.490
181.499	175.959	80.010	19.994	104.392	20.049	3.410	0.487
181.999	176.218	80.010	19.993	104.395	20.046	3.644	0.458
182.499	176.500	80.009	19.992	104.398	20.049	3.447	0.495
182.999	176.720	80.010	19.994	104.403	20.047	3.584	0.522
183.499	176.993	80.010	19.994	104.408	20.047	3.547	0.497
183.999	177.226	80.011	19.993	104.406	20.046	3.624	0.499
184.499	177.465	80.009	19.994	104.399	20.046	3.618	0.489
184.999	177.693	80.010	19.992	104.396	20.050	3.362	0.470
185.499	177.953	80.010	19.994	104.393	20.049	3.408	0.478
185.999	178.232	80.009	19.993	104.390	20.051	3.295	0.513
186.499	178.470	80.011	19.993	104.388	20.051	3.285	0.527
186.999	178.712	80.011	19.993	104.392	20.050	3.388	0.499
187.499	178.949	80.012	19.993	104.389	20.051	3.295	0.480
187.999	179.176	80.011	19.992	104.390	20.050	3.392	0.471
188.499	179.429	80.011	19.993	104.387	20.050	3.326	0.472
188.999	179.723	80.012	19.993	104.385	20.048	3.503	0.514
189.499	179.924	80.011	19.991	104.380	20.048	3.477	0.521
190.000	180.212	80.012	19.994	104.380	20.049	3.433	0.492
190.499	180.441	80.010	19.992	104.380	20.047	3.554	0.503
190.999	180.684	80.011	19.994	104.378	20.047	3.572	0.494
191.499	180.911	80.012	19.993	104.381	20.049	3.407	0.471
191.999	181.193	80.010	19.991	104.382	20.049	3.451	0.490
192.499	181.365	80.011	19.994	104.381	20.047	3.578	0.482
192.999	181.687	80.012	19.993	104.382	20.049	3.461	0.474
193.499	181.928	80.011	19.992	104.384	20.052	3.181	0.528
193.999	182.169	80.010	19.992	104.384	20.050	3.354	0.523
194.499	182.390	80.011	19.993	104.385	20.047	3.564	0.473
194.999	182.657	80.011	19.992	104.385	20.050	3.358	0.475
195.499	182.892	80.010	19.992	104.384	20.049	3.437	0.495
195.999	183.123	80.011	19.992	104.386	20.049	3.463	0.484
196.499	183.370	80.010	19.993	104.388	20.051	3.289	0.472
196.999	183.610	80.009	19.993	104.391	20.049	3.425	0.482
197.499	183.833	80.010	19.991	104.392	20.046	3.658	0.475
197.999	184.097	80.011	19.993	104.391	20.048	3.489	0.475
198.499	184.343	80.009	19.993	104.387	20.048	3.519	0.498
198.999	184.598	80.009	19.993	104.384	20.048	3.475	0.505
199.499	184.810	80.009	19.992	104.380	20.048	3.511	0.484
199.999	185.058	80.009	19.994	104.380	20.048	3.493	0.464
200.499	185.326	80.010	19.993	104.379	20.048	3.495	0.488
200.999	185.575	80.008	19.993	104.379	20.047	3.544	0.516
201.499	185.854	80.010	19.993	104.379	20.047	3.560	0.523
201.999	186.090	80.009	19.993	104.377	20.048	3.536	0.522
202.499	186.350	80.008	19.993	104.377	20.044	3.800	0.505
202.999	186.618	80.007	19.993	104.376	20.047	3.584	0.512
203.499	186.825	80.008	19.992	104.378	20.045	3.693	0.502
203.999	187.087	80.009	19.993	104.378	20.046	3.665	0.473
204.499	187.320	80.009	19.992	104.378	20.044	3.792	0.482
204.999	187.568	80.009	19.993	104.378	20.044	3.782	0.488
205.499	187.818	80.009	19.993	104.383	20.043	3.875	0.490
205.999	188.046	80.007	19.993	104.385	20.045	3.747	0.488
206.499	188.299	80.009	19.993	104.385	20.040	4.052	0.479
206.999	188.547	80.009	19.992	104.386	20.043	3.891	0.491
207.499	188.836	80.009	19.993	104.384	20.041	3.987	0.519
207.999	189.048	80.008	19.994	104.379	20.042	3.975	0.519
208.499	189.331	80.008	19.993	104.382	20.037	4.272	0.498
208.999	189.561	80.009	19.992	104.386	20.036	4.353	0.504
209.499	189.802	80.007	19.992	104.387	20.037	4.316	0.492
210.000	190.074	80.009	19.994	104.388	20.039	4.153	0.492
210.500	190.328	80.009	19.994	104.389	20.039	4.159	0.519
211.000	190.537	80.009	19.995	104.383	20.040	4.066	0.495
211.499	190.778	80.009	19.994	104.379	20.038	4.246	0.456
211.999	191.000	80.009	19.993	104.379	20.039	4.165	0.456
212.499	191.268	80.009	19.993	104.378	20.039	4.181	0.476
212.999	191.501	80.008	19.994	104.378	20.040	4.068	0.496
213.499	191.743	80.009	19.992	104.378	20.039	4.145	0.488
214.000	191.972	80.010	19.994	104.377	20.040	4.115	0.473
214.499	192.248	80.008	19.994	104.375	20.037	4.308	0.488
214.999	192.504	80.008	19.994	104.375	20.040	4.064	0.519
215.499	192.674	80.008	19.993	104.375	20.037	4.306	0.479
215.999	192.978	80.008	19.992	104.375	20.038	4.217	0.450
216.499	193.208	80.008	19.994	104.375	20.036	4.344	0.504
216.999	193.462	80.008	19.994	104.375	20.036	4.363	0.509
217.499	193.669	80.008	19.993	104.375	20.038	4.223	0.473
217.999	193.933	80.009	19.993	104.375	20.040	4.094	0.466
218.499	194.203	80.009	19.996	104.376	20.037	4.330	0.502
218.999	194.449	80.009	19.993	104.376	20.037	4.272	0.525
219.499	194.687	80.009	19.993	104.376	20.041	4.032	0.500
219.999	194.932	80.009	19.994	104.375	20.037	4.320	0.484
220.499	195.172	80.010	19.993	104.375	20.036	4.391	0.484
220.999	195.425	80.009	19.992	104.375	20.040	4.078	0.489
221.499	195.682	80.008	19.993	104.375	20.038	4.250	0.502
221.999	195.875	80.008	19.994	104.374	20.037	4.314	0.480
222.499	196.118	80.008	19.991	104.372	20.041	4.014	0.443
222.999	196.322	80.008	19.992	104.372	20.035	4.438	0.442
223.499	196.591	80.007	19.993	104.371	20.034	4.526	0.460
223.999	196.830	80.009	19.992	104.371	20.036	4.409	0.491
224.499	197.083	80.009	19.994	104.372	20.032	4.675	0.500
224.999	197.340	80.010	19.995	104.375	20.035	4.433	0.501
225.499	197.569	80.008	19.993	104.376	20.038	4.248	0.497
225.999	197.825	80.008	19.991	104.377	20.030	4.780	0.485
226.499	198.090	80.007	19.994	104.377	20.034	4.552	0.503
226.999	198.321	80.009	19.991	104.376	20.031	4.708	0.509
227.499	198.553	80.008	19.994	104.376	20.034	4.548	0.479
227.999	198.825	80.008	19.993	104.375	20.031	4.714	0.484
228.499	199.039	80.008	19.993	104.375	20.031	4.758	0.495
228.999	199.308	80.008	19.993	104.375	20.030	4.800	0.484
229.499	199.550	80.008	19.993	104.376	20.030	4.824	0.497
229.999	199.795	80.009	19.996	104.377	20.029	4.891	0.499
230.499	200.042	80.007	19.993	104.377	20.029	4.863	0.489
230.999	200.283	80.007	19.993	104.378	20.028	4.933	0.490
231.499	200.550	80.009	19.993	104.379	20.028	4.924	0.499
231.999	200.765	80.008	19.993	104.377	20.027	5.018	0.496
232.499	201.031	80.007	19.993	104.373	20.025	5.142	0.481
232.999	201.273	80.009	19.993	104.372	20.024	5.218	0.494
233.499	201.494	80.008	19.993	104.371	20.027	5.041	0.486
233.999	201.752	80.008	19.994	104.370	20.027	5.011	0.471
234.499	201.978	80.006	19.993	104.371	20.025	5.172	0.481
234.999	202.272	80.007	19.994	104.374	20.026	5.094	0.502
235.499	202.505	80.007	19.992	104.373	20.025	5.201	0.524
235.999	202.758	80.006	19.993	104.371	20.024	5.261	0.507
236.499	203.019	80.008	19.993	104.370	20.022	5.417	0.500
236.999	203.231	80.007	19.992	104.371	20.021	5.447	0.493
237.499	203.461	80.007	19.993	104.371	20.021	5.429	0.457
237.999	203.712	80.007	19.993	104.373	20.021	5.447	0.462
238.499	203.930	80.009	19.993	104.375	20.021	5.445	0.475
238.999	204.199	80.007	19.995	104.375	20.021	5.445	0.478
239.499	204.446	80.008	19.994	104.375	20.022	5.415	0.502
239.999	204.694	80.006	19.994	104.376	20.019	5.600	0.506
240.499	204.939	80.007	19.993	104.376	20.021	5.463	0.493
240.999	205.183	80.008	19.995	104.376	20.017	5.722	0.491
241.499	205.450	80.007	19.995	104.377	20.017	5.762	0.500
241.999	205.645	80.008	19.995	104.376	20.018	5.672	0.487
242.499	205.946	80.009	19.997	104.371	20.015	5.897	0.479
242.999	206.193	80.008	19.993	104.369	20.017	5.754	0.522
243.499	206.410	80.009	19.994	104.366	20.015	5.903	0.506
243.999	206.641	80.007	19.994	104.363	20.014	5.942	0.456
244.499	206.895	80.009	19.993	104.361	20.014	5.980	0.466
244.999	207.191	80.009	19.994	104.361	20.014	5.964	0.518
245.499	207.414	80.009	19.995	104.358	20.012	6.097	0.535
245.999	207.649	80.009	19.994	104.355	20.006	6.547	0.488
246.499	207.894	80.009	19.995	104.354	20.010	6.273	0.469
246.999	208.146	80.008	19.993	104.352	20.010	6.267	0.489
247.499	208.412	80.010	19.996	104.350	20.008	6.384	0.507
247.999	208.683	80.010	19.995	104.347	20.007	6.457	0.528
248.499	208.892	80.011	19.995	104.346	20.005	6.582	0.508
249.000	209.144	80.009	19.994	104.343	20.005	6.602	0.470
249.499	209.350	80.009	19.993	104.344	20.006	6.527	0.460
249.999	209.606	80.009	19.995	104.350	20.005	6.624	0.460
250.499	209.860	80.009	19.994	104.353	20.004	6.681	0.486
250.999	210.096	80.010	19.994	104.351	20.004	6.665	0.500
251.499	210.347	80.009	19.994	104.350	20.003	6.778	0.488
251.999	210.600	80.010	19.994	104.347	20.002	6.826	0.496
252.499	210.878	80.010	19.993	104.342	19.999	7.038	0.517
252.999	211.125	80.010	19.992	104.339	19.999	7.078	0.528
253.499	211.357	80.008	19.995	104.343	19.998	7.155	0.502
253.999	211.591	80.009	19.994	104.343	20.000	6.994	0.473
254.499	211.804	80.009	19.992	104.344	19.995	7.345	0.457
254.999	212.071	80.010	19.993	104.346	19.997	7.221	0.464
255.499	212.311	80.010	19.993	104.345	19.996	7.292	0.493
255.999	212.585	80.009	19.994	104.341	19.992	7.559	0.511
256.499	212.816	80.009	19.994	104.341	19.994	7.432	0.510
256.999	213.053	80.010	19.994	104.340	19.990	7.710	0.486
257.500	213.311	80.010	19.992	104.338	19.989	7.789	0.482
258.000	213.549	80.011	19.995	104.338	19.988	7.870	0.496
258.499	213.791	80.009	19.992	104.339	19.987	7.936	0.488
258.999	214.048	80.010	19.992	104.338	19.990	7.732	0.489
259.499	214.279	80.009	19.992	104.336	19.986	7.974	0.493
260.000	214.488	80.009	19.994	104.336	19.982	8.263	0.464
260.500	214.738	80.011	19.993	104.336	19.980	8.395	0.449
260.999	215.003	80.009	19.994	104.335	19.984	8.109	0.487
261.499	215.248	80.010	19.992	104.335	19.982	8.287	0.512
261.999	215.485	80.010	19.992	104.336	19.982	8.275	0.496
262.499	215.727	80.009	19.994	104.335	19.981	8.333	0.481
262.999	215.993	80.009	19.994	104.335	19.980	8.450	0.494
263.499	216.256	80.010	19.993	104.335	19.977	8.611	0.518
263.999	216.451	80.011	19.993	104.335	19.975	8.762	0.493
264.499	216.728	80.011	19.992	104.335	19.976	8.739	0.465
264.999	216.956	80.011	19.993	104.335	19.976	8.723	0.489
265.499	217.212	80.012	19.993	104.335	19.974	8.824	0.495
265.999	217.439	80.010	19.990	104.335	19.974	8.853	0.483
266.500	217.733	80.011	19.994	104.334	19.972	8.970	0.502
267.000	217.955	80.011	19.993	104.331	19.973	8.910	0.519
267.500	218.172	80.010	19.992	104.329	19.970	9.162	0.478
268.000	218.426	80.012	19.993	104.329	19.970	9.150	0.455
268.500	218.663	80.012	19.993	104.329	19.970	9.175	0.481
269.000	218.942	80.011	19.993	104.329	19.967	9.383	0.504
269.499	219.167	80.010	19.992	104.332	19.964	9.548	0.510
269.999	219.379	80.011	19.992	104.333	19.966	9.457	0.470
270.499	219.636	80.011	19.992	104.331	19.962	9.713	0.453
270.999	219.899	80.010	19.993	104.326	19.964	9.558	0.495
271.499	220.126	80.011	19.993	104.323	19.964	9.552	0.505
271.999	220.345	80.011	19.993	104.318	19.964	9.574	0.468
272.499	220.606	80.011	19.994	104.312	19.960	9.849	0.463
272.999	220.852	80.011	19.992	104.307	19.963	9.667	0.494
273.499	221.076	80.011	19.993	104.310	19.961	9.825	0.489
274.000	221.301	80.010	19.994	104.314	19.961	9.796	0.459
274.500	221.553	80.011	19.994	104.318	19.958	9.978	0.463
275.000	221.821	80.011	19.992	104.323	19.956	10.174	0.498
275.499	222.068	80.012	19.993	104.329	19.960	9.845	0.518
275.999	222.332	80.011	19.992	104.326	19.954	10.303	0.513
276.499	222.548	80.011	19.992	104.326	19.952	10.416	0.495
277.000	222.807	80.012	19.995	104.324	19.952	10.414	0.478
277.500	223.045	80.010	19.993	104.321	19.952	10.475	0.486
277.999	223.278	80.009	19.991	104.317	19.950	10.616	0.484
278.499	223.525	80.010	19.995	104.318	19.950	10.588	0.476
278.999	223.726	80.010	19.995	104.314	19.948	10.752	0.464
279.500	224.004	80.009	19.993	104.312	19.947	10.839	0.463
280.000	224.246	80.008	19.994	104.311	19.945	10.919	0.500
280.500	224.512	80.009	19.995	104.310	19.943	11.069	0.514
280.999	224.772	80.008	19.993	104.310	19.943	11.090	0.517
281.499	225.000	80.008	19.993	104.313	19.946	10.898	0.507
281.999	225.242	80.009	19.993	104.316	19.942	11.145	0.479
282.499	225.505	80.008	19.993	104.317	19.941	11.260	0.488
283.000	225.724	80.009	19.994	104.316	19.940	11.343	0.493
283.500	226.004	80.008	19.994	104.314	19.943	11.113	0.490
283.999	226.221	80.008	19.991	104.311	19.940	11.329	0.498
284.499	226.476	80.008	19.994	104.308	19.942	11.184	0.484
284.999	226.738	80.008	19.992	104.311	19.942	11.154	0.495
285.499	226.988	80.008	19.993	104.311	19.942	11.197	0.515
285.999	227.208	80.009	19.992	104.311	19.941	11.276	0.491
286.499	227.452	80.007	19.993	104.313	19.940	11.312	0.467
286.999	227.726	80.008	19.992	104.314	19.942	11.156	0.491
287.499	227.946	80.009	19.993	104.310	19.939	11.384	0.506
287.999	228.212	80.009	19.993	104.310	19.937	11.542	0.490
288.499	228.467	80.007	19.994	104.309	19.937	11.501	0.504
288.999	228.711	80.008	19.992	104.305	19.935	11.675	0.510
289.499	228.994	80.008	19.994	104.302	19.938	11.441	0.513
289.999	229.222	80.008	19.991	104.301	19.936	11.614	0.519
290.499	229.459	80.009	19.994	104.303	19.936	11.636	0.488
290.999	229.711	80.008	19.992	104.303	19.938	11.495	0.477
291.499	229.945	80.007	19.992	104.302	19.935	11.708	0.488
291.999	230.186	80.008	19.994	104.308	19.935	11.705	0.481
292.499	230.455	80.008	19.995	104.316	19.937	11.564	0.492
292.999	230.704	80.008	19.992	104.321	19.934	11.743	0.514
293.500	230.964	80.008	19.992	104.323	19.936	11.584	0.514
294.000	231.196	80.008	19.992	104.323	19.935	11.693	0.500
294.500	231.446	80.010	19.993	104.322	19.933	11.814	0.487
295.000	231.700	80.008	19.994	104.320	19.933	11.796	0.493
295.500	231.952	80.009	19.993	104.319	19.932	11.894	0.505
295.999	232.196	80.009	19.992	104.321	19.938	11.448	0.501
296.499	232.447	80.008	19.993	104.328	19.940	11.289	0.495
296.999	232.675	80.010	19.993	104.329	19.936	11.579	0.487
297.500	232.914	80.008	19.993	104.330	19.941	11.270	0.473
298.000	233.155	80.009	19.992	104.332	19.931	11.970	0.474
298.499	233.455	80.008	19.990	104.331	19.932	11.873	0.511
298.999	233.701	80.009	19.993	104.331	19.936	11.595	0.543
299.499	233.927	80.009	19.995	104.332	19.934	11.734	0.509
299.999	234.210	80.009	19.995	104.333	19.932	11.869	0.491
300.499	234.454	80.008	19.992	104.334	19.935	11.710	0.518
300.999	234.691	80.009	19.994	104.337	19.935	11.673	0.504
301.499	234.950	80.009	19.995	104.338	19.933	11.792	0.488
301.999	235.190	80.009	19.993	104.340	19.937	11.510	0.497
302.499	235.437	80.009	19.994	104.339	19.931	11.961	0.493
302.999	235.694	80.008	19.993	104.337	19.933	11.849	0.495
303.499	235.936	80.007	19.993	104.335	19.936	11.572	0.501
304.000	236.197	80.008	19.993	104.333	19.933	11.802	0.501
304.500	236.409	80.008	19.994	104.332	19.932	11.888	0.488
305.000	236.647	80.008	19.994	104.333	19.935	11.666	0.462
305.500	236.923	80.008	19.994	104.335	19.934	11.783	0.482
305.999	237.155	80.008	19.994	104.337	19.932	11.900	0.511
306.499	237.420	80.007	19.994	104.337	19.932	11.915	0.502
306.999	237.665	80.008	19.995	104.338	19.935	11.677	0.504
307.499	237.924	80.007	19.995	104.339	19.932	11.881	0.507
307.999	238.136	80.008	19.995	104.340	19.933	11.824	0.487
308.500	238.429	80.006	19.995	104.341	19.933	11.830	0.488
309.000	238.641	80.008	19.994	104.344	19.931	11.973	0.505
309.499	238.910	80.008	19.994	104.345	19.933	11.857	0.493
309.999	239.147	80.007	19.994	104.344	19.932	11.893	0.493
310.499	239.486	80.009	19.995	104.343	19.932	11.918	0.541
310.999	239.708	80.009	19.994	104.343	19.934	11.747	0.569
311.500	239.930	80.009	19.995	104.346	19.931	11.969	0.502
312.000	240.191	80.007	19.993	104.350	19.932	11.865	0.463
312.500	240.397	80.008	19.993	104.349	19.930	12.052	0.475
313.000	240.636	80.008	19.995	104.349	19.931	11.975	0.456
313.499	240.921	80.008	19.992	104.351	19.930	12.038	0.484
313.999	241.173	80.008	19.994	104.349	19.930	12.031	0.530
314.499	241.364	80.008	19.993	104.348	19.931	11.935	0.490
314.999	241.630	80.008	19.994	104.352	19.930	12.063	0.450
315.499	241.900	80.008	19.994	104.356	19.930	12.069	0.496
315.999	242.161	80.008	19.995	104.357	19.929	12.145	0.533
316.499	242.401	80.008	19.994	104.357	19.929	12.129	0.517
316.999	242.665	80.009	19.993	104.354	19.931	11.952	0.502
317.499	242.982	80.008	19.993	104.351	19.927	12.289	0.542
317.999	243.201	80.007	19.993	104.349	19.926	12.361	0.558
318.499	243.425	80.010	19.994	104.349	19.926	12.358	0.490
318.999	243.664	80.008	19.994	104.349	19.928	12.223	0.453
319.500	243.885	80.009	19.994	104.350	19.925	12.424	0.461
320.000	244.165	80.009	19.993	104.351	19.926	12.355	0.480
320.499	244.415	80.009	19.994	104.350	19.923	12.531	0.515
321.000	244.688	80.009	19.993	104.347	19.926	12.335	0.527
321.500	244.941	80.009	19.994	104.344	19.922	12.629	0.525
321.999	245.236	80.010	19.993	104.341	19.926	12.333	0.537
322.499	245.451	80.010	19.993	104.341	19.922	12.628	0.529
322.999	245.734	80.011	19.996	104.345	19.921	12.660	0.504
323.499	245.944	80.010	19.994	104.348	19.922	12.638	0.496
323.999	246.170	80.009	19.994	104.351	19.921	12.712	0.465
324.499	246.467	80.009	19.994	104.354	19.920	12.786	0.479
324.999	246.709	80.010	19.996	104.355	19.920	12.748	0.531
325.499	246.956	80.010	19.993	104.356	19.919	12.815	0.514
325.999	247.199	80.010	19.993	104.357	19.918	12.930	0.490
326.500	247.469	80.009	19.995	104.360	19.918	12.934	0.501
327.000	247.698	80.010	19.994	104.364	19.918	12.942	0.506
327.499	247.947	80.010	19.994	104.368	19.915	13.093	0.489
327.999	248.213	80.008	19.992	104.366	19.916	13.089	0.496
328.499	248.438	80.010	19.994	104.363	19.914	13.230	0.503
328.999	248.706	80.009	19.993	104.362	19.916	13.079	0.492
329.499	248.967	80.009	19.994	104.359	19.914	13.204	0.511
329.999	249.219	80.010	19.995	104.357	19.915	13.126	0.521
330.499	249.508	80.010	19.995	104.361	19.915	13.148	0.527
331.000	249.758	80.009	19.994	104.365	19.911	13.388	0.540
331.500	250.020	80.008	19.994	104.365	19.910	13.483	0.526
331.999	250.286	80.009	19.994	104.368	19.912	13.363	0.520
332.499	250.504	80.009	19.994	104.369	19.912	13.345	0.506
333.000	250.760	80.008	19.995	104.365	19.911	13.420	0.479
333.500	251.039	80.009	19.995	104.360	19.909	13.541	0.504
334.000	251.303	80.010	19.995	104.361	19.909	13.537	0.539
334.500	251.552	80.009	19.994	104.362	19.906	13.755	0.528
334.999	251.785	80.007	19.994	104.363	19.907	13.741	0.497
335.499	252.053	80.008	19.995	104.367	19.911	13.415	0.492
335.999	252.311	80.009	19.994	104.369	19.905	13.853	0.514
336.499	252.536	80.007	19.992	104.368	19.907	13.724	0.505
336.999	252.759	80.009	19.996	104.367	19.905	13.862	0.466
337.499	253.055	80.008	19.994	104.365	19.901	14.137	0.483
337.999	253.275	80.008	19.994	104.364	19.899	14.264	0.517
338.499	253.527	80.009	19.994	104.367	19.903	14.008	0.494
338.999	253.788	80.009	19.994	104.368	19.906	13.800	0.492
339.499	254.067	80.009	19.995	104.370	19.901	14.153	0.527
339.999	254.265	80.007	19.994	104.370	19.901	14.137	0.508
340.499	254.574	80.009	19.995	104.367	19.901	14.126	0.492
340.999	254.820	80.008	19.996	104.364	19.901	14.150	0.531
341.499	255.044	80.009	19.995	104.364	19.907	13.714	0.513
342.000	255.276	80.009	19.996	104.363	19.902	14.096	0.463
342.500	255.542	80.011	19.995	104.363	19.899	14.301	0.477
343.000	255.805	80.009	19.994	104.367	19.895	14.545	0.513
343.500	256.065	80.010	19.995	104.368	19.893	14.737	0.526
344.000	256.329	80.009	19.995	104.366	19.897	14.435	0.524
344.499	256.544	80.009	19.994	104.366	19.892	14.762	0.501
344.999	256.817	80.009	19.994	104.366	19.892	14.815	0.483
345.500	257.062	80.009	19.993	104.365	19.894	14.627	0.503
346.000	257.332	80.011	19.994	104.367	19.890	14.912	0.517
346.499	257.546	80.010	19.993	104.369	19.897	14.459	0.499
346.999	257.821	80.010	19.993	104.367	19.895	14.601	0.486
347.499	258.082	80.010	19.993	104.366	19.890	14.970	0.512
347.999	258.321	80.011	19.994	104.365	19.890	14.958	0.518
348.499	258.551	80.011	19.993	104.361	19.893	14.746	0.485
348.999	258.828	80.010	19.993	104.361	19.882	15.480	0.489
349.499	259.112	80.011	19.992	104.362	19.881	15.553	0.534
349.999	259.351	80.010	19.994	104.361	19.884	15.355	0.542
350.499	259.605	80.011	19.993	104.363	19.879	15.752	0.508
350.999	259.823	80.012	19.993	104.362	19.880	15.686	0.483
351.499	260.074	80.012	19.992	104.363	19.883	15.419	0.471
351.999	260.333	80.012	19.993	104.364	19.881	15.588	0.489
352.499	260.632	80.010	19.992	104.367	19.879	15.719	0.534
352.999	260.831	80.011	19.993	104.367	19.877	15.901	0.527
353.499	261.042	80.010	19.992	104.372	19.879	15.766	0.454
353.999	261.331	80.010	19.992	104.367	19.874	16.085	0.455
354.499	261.630	80.010	19.993	104.367	19.873	16.133	0.544
354.999	261.880	80.010	19.992	104.366	19.874	16.109	0.568
355.499	262.137	80.010	19.992	104.363	19.875	16.053	0.528
356.000	262.397	80.011	19.993	104.359	19.872	16.230	0.512
356.500	262.706	80.010	19.991	104.360	19.874	16.059	0.543
356.999	262.901	80.010	19.993	104.358	19.872	16.214	0.537
357.499	263.143	80.010	19.992	104.353	19.868	16.554	0.471
357.999	263.397	80.009	19.994	104.357	19.866	16.707	0.466
358.500	263.605	80.009	19.992	104.360	19.868	16.566	0.479
359.000	263.852	80.009	19.993	104.361	19.860	17.094	0.458
359.500	264.097	80.009	19.993	104.362	19.867	16.604	0.473
359.999	264.347	80.008	19.993	104.364	19.861	17.064	0.494
360.499	264.617	80.007	19.994	104.362	19.861	17.046	0.508
361.000	264.870	80.008	19.994	104.362	19.863	16.868	0.522
361.500	265.205	80.008	19.992	104.363	19.859	17.196	0.555
362.000	265.443	80.007	19.994	104.364	19.856	17.416	0.580
362.500	265.580	80.009	19.992	104.369	19.856	17.387	0.474
362.999	265.849	80.008	19.992	104.370	19.855	17.470	0.391
363.499	266.099	80.008	19.993	104.367	19.855	17.439	0.462
363.999	266.416	80.009	19.993	104.367	19.851	17.786	0.543
364.499	266.610	80.008	19.994	104.367	19.849	17.927	0.539
364.999	266.906	80.009	19.992	104.362	19.854	17.537	0.500
365.499	267.164	80.007	19.995	104.363	19.850	17.804	0.522
365.999	267.425	80.008	19.995	104.362	19.849	17.933	0.537
366.500	267.647	80.008	19.993	104.362	19.844	18.277	0.501
367.000	267.875	80.008	19.994	104.362	19.848	17.986	0.467
367.500	268.131	80.008	19.992	104.365	19.840	18.557	0.467
367.999	268.370	80.008	19.993	104.365	19.841	18.454	0.489
368.499	268.640	80.007	19.992	104.370	19.839	18.607	0.502
368.999	268.863	80.008	19.992	104.369	19.836	18.861	0.501
369.499	269.123	80.009	19.993	104.368	19.834	19.024	0.488
369.999	269.398	80.009	19.993	104.364	19.836	18.823	0.509
370.499	269.636	80.007	19.992	104.361	19.830	19.260	0.524
370.999	269.879	80.008	19.994	104.361	19.831	19.244	0.497
371.499	270.113	80.007	19.994	104.360	19.827	19.494	0.478
371.999	270.405	80.007	19.992	104.364	19.827	19.498	0.502
372.500	270.669	80.009	19.995	104.368	19.823	19.777	0.541
373.000	270.871	80.008	19.995	104.368	19.819	20.110	0.511
373.499	271.204	80.008	19.993	104.367	19.821	19.958	0.500
373.999	271.452	80.008	19.994	104.370	19.821	19.950	0.558
374.499	271.614	80.007	19.994	104.370	19.812	20.560	0.495
374.999	271.932	80.009	19.995	104.372	19.820	19.992	0.445
375.499	272.119	80.009	19.994	104.374	19.811	20.653	0.493
375.999	272.349	80.009	19.993	104.375	19.813	20.518	0.461
376.499	272.650	80.009	19.993	104.374	19.807	20.966	0.474
377.000	272.870	80.009	19.994	104.371	19.806	21.004	0.526
377.500	273.120	80.009	19.993	104.367	19.806	21.051	0.496
377.999	273.365	80.007	19.994	104.368	19.805	21.083	0.483
378.499	273.594	80.009	19.995	104.367	19.803	21.242	0.485
378.999	273.893	80.009	19.994	104.368	19.797	21.666	0.501
379.499	274.099	80.008	19.995	104.370	19.796	21.710	0.516
379.999	274.347	80.007	19.992	104.373	19.799	21.495	0.479
380.499	274.561	80.009	19.994	104.373	19.797	21.704	0.458
380.999	274.846	80.009	19.993	104.373	19.793	21.990	0.481
381.500	275.100	80.009	19.994	104.374	19.791	22.107	0.520
382.000	275.362	80.010	19.995	104.374	19.795	21.799	0.528
382.499	275.541	80.009	19.993	104.376	19.791	22.107	0.478
383.000	275.840	80.010	19.992	104.375	19.789	22.250	0.459
383.500	276.056	80.007	19.993	104.374	19.782	22.747	0.497
384.000	276.261	80.009	19.992	104.371	19.783	22.718	0.468
384.499	276.551	80.008	19.992	104.371	19.777	23.136	0.458
384.999	276.771	80.009	19.992	104.371	19.773	23.418	0.503
385.499	277.024	80.009	19.991	104.372	19.771	23.565	0.491
385.999	277.246	80.008	19.994	104.374	19.779	22.978	0.474
386.500	277.488	80.008	19.994	104.377	19.769	23.711	0.469
387.000	277.715	80.009	19.994	104.377	19.772	23.473	0.467
387.500	278.004	80.008	19.992	104.377	19.773	23.432	0.493
387.999	278.269	80.008	19.992	104.377	19.763	24.167	0.535
388.499	278.441	80.008	19.992	104.376	19.757	24.585	0.495
388.999	278.713	80.008	19.993	104.376	19.758	24.522	0.440
389.499	278.992	80.007	19.993	104.375	19.759	24.437	0.498
389.999	279.220	80.007	19.993	104.375	19.751	24.983	0.529
390.499	279.442	80.009	19.995	104.375	19.749	25.179	0.478
390.999	279.691	80.008	19.994	104.376	19.750	25.058	0.461
391.499	279.933	80.007	19.993	104.376	19.747	25.309	0.481
391.999	280.231	80.007	19.993	104.377	19.741	25.693	0.515
392.499	280.426	80.008	19.994	104.377	19.743	25.571	0.516
393.000	280.677	80.009	19.996	104.377	19.741	25.735	0.469
393.500	280.909	80.008	19.992	104.377	19.739	25.841	0.464
393.999	281.173	80.008	19.994	104.378	19.735	26.133	0.490
394.499	281.406	80.007	19.993	104.378	19.730	26.490	0.497
394.999	281.606	80.008	19.993	104.378	19.732	26.367	0.465
395.499	281.899	80.008	19.996	104.379	19.727	26.729	0.463
395.999	282.118	80.006	19.994	104.379	19.726	26.802	0.503
396.499	282.311	80.008	19.995	104.379	19.722	27.103	0.462
397.000	282.557	80.006	19.994	104.379	19.717	27.454	0.425
397.500	282.772	80.006	19.994	104.384	19.718	27.411	0.450
397.999	283.032	80.009	19.996	104.385	19.714	27.715	0.468
398.500	283.303	80.009	19.993	104.387	19.714	27.683	0.503
399.000	283.541	80.008	19.994	104.392	19.710	27.957	0.520
399.499	283.797	80.008	19.994	104.397	19.710	27.982	0.501
400.000	283.990	80.008	19.994	104.399	19.707	28.161	0.472
400.500	284.287	80.009	19.995	104.400	19.706	28.268	0.470
401.000	284.537	80.008	19.994	104.404	19.697	28.903	0.518
401.500	284.737	80.009	19.995	104.402	19.698	28.824	0.499
402.000	285.020	80.008	19.994	104.401	19.695	29.072	0.467
402.499	285.219	80.009	19.993	104.398	19.691	29.386	0.483
402.999	285.500	80.009	19.995	104.394	19.690	29.406	0.481
403.499	285.706	80.008	19.994	104.390	19.688	29.586	0.483
403.999	285.930	80.010	19.994	104.389	19.689	29.470	0.458
404.499	286.156	80.009	19.995	104.385	19.686	29.735	0.440
404.999	286.427	80.008	19.995	104.387	19.680	30.155	0.474
405.499	286.693	80.008	19.993	104.391	19.679	30.235	0.517
406.000	286.941	80.010	19.993	104.395	19.675	30.509	0.525
406.500	287.182	80.010	19.993	104.398	19.677	30.371	0.502
406.999	287.427	80.011	19.993	104.404	19.673	30.638	0.487
407.499	287.666	80.009	19.993	104.407	19.672	30.712	0.484
407.999	287.921	80.009	19.994	104.410	19.668	31.037	0.489
408.500	288.153	80.010	19.994	104.412	19.663	31.357	0.490
409.000	288.384	80.010	19.993	104.413	19.665	31.218	0.475
409.499	288.659	80.011	19.993	104.411	19.661	31.495	0.485
409.999	288.877	80.009	19.992	104.410	19.661	31.525	0.500
410.499	289.134	80.010	19.994	104.410	19.656	31.896	0.484
410.999	289.367	80.010	19.994	104.411	19.653	32.069	0.483
411.499	289.616	80.008	19.995	104.410	19.650	32.313	0.486
411.999	289.857	80.010	19.993	104.411	19.650	32.319	0.486
412.499	290.128	80.009	19.993	104.412	19.648	32.485	0.501
412.999	290.368	80.009	19.993	104.412	19.645	32.710	0.511
413.500	290.638	80.010	19.992	104.412	19.642	32.898	0.510
414.000	290.842	80.009	19.993	104.414	19.638	33.180	0.492
414.499	291.107	80.010	19.995	104.413	19.638	33.220	0.472
414.999	291.320	80.010	19.994	104.409	19.638	33.205	0.474
415.499	291.589	80.009	19.994	104.408	19.635	33.416	0.480
415.999	291.848	80.009	19.993	104.406	19.634	33.470	0.505
416.499	292.104	80.009	19.993	104.405	19.632	33.600	0.521
416.999	292.337	80.010	19.993	104.407	19.630	33.795	0.502
417.499	292.612	80.010	19.993	104.411	19.631	33.712	0.499
417.999	292.837	80.011	19.993	104.413	19.630	33.796	0.504
418.499	293.134	80.009	19.992	104.414	19.628	33.935	0.511
418.999	293.347	80.009	19.994	104.416	19.628	33.935	0.516
419.500	293.604	80.007	19.993	104.415	19.623	34.255	0.490
420.000	293.840	80.007	19.993	104.415	19.624	34.190	0.482
420.499	294.044	80.008	19.993	104.415	19.624	34.229	0.467
420.999	294.404	80.009	19.995	104.415	19.620	34.473	0.501
421.499	294.590	80.008	19.993	104.414	19.620	34.489	0.555
421.999	294.845	80.008	19.994	104.415	19.623	34.277	0.494
422.499	295.100	80.009	19.992	104.414	19.619	34.542	0.475
422.999	295.342	80.007	19.993	104.414	19.621	34.410	0.503
423.499	295.619	80.008	19.993	104.414	19.620	34.487	0.508
423.999	295.873	80.008	19.995	104.414	19.617	34.688	0.525
424.499	296.065	80.008	19.994	104.415	19.618	34.645	0.488
424.999	296.358	80.009	19.995	104.415	19.621	34.426	0.466
425.499	296.548	80.008	19.995	104.415	19.622	34.349	0.484
425.999	296.811	80.009	19.995	104.413	19.622	34.384	0.468
426.499	297.059	80.009	19.993	104.410	19.620	34.511	0.482
426.999	297.300	80.008	19.995	104.409	19.623	34.282	0.500
427.499	297.546	80.008	19.994	104.409	19.622	34.400	0.488
428.000	297.798	80.008	19.994	104.408	19.620	34.493	0.492
428.500	298.049	80.009	19.994	104.411	19.625	34.161	0.501
428.999	298.322	80.009	19.994	104.413	19.624	34.202	0.514
429.499	298.586	80.010	19.994	104.414	19.624	34.249	0.530
430.000	298.811	80.009	19.995	104.414	19.626	34.070	0.513
430.500	299.108	80.010	19.994	104.415	19.631	33.730	0.505
430.999	299.331	80.010	19.995	104.414	19.630	33.790	0.521
431.499	299.574	80.009	19.993	104.415	19.629	33.891	0.493
432.000	299.851	80.009	19.994	104.414	19.630	33.798	0.493
432.500	300.079	80.009	19.993	104.414	19.635	33.451	0.512
432.999	300.287	80.008	19.994	104.414	19.636	33.387	0.471
433.499	300.540	80.009	19.992	104.418	19.635	33.436	0.449
434.000	300.807	80.010	19.995	104.421	19.633	33.600	0.491
434.500	301.089	80.010	19.993	104.424	19.632	33.650	0.534
435.000	301.317	80.010	19.993	104.428	19.631	33.736	0.529
435.500	301.578	80.010	19.996	104.435	19.627	34.048	0.499
435.999	301.852	80.010	19.993	104.440	19.632	33.648	0.512
436.499	302.098	80.008	19.993	104.446	19.630	33.793	0.528
436.999	302.350	80.009	19.993	104.455	19.623	34.345	0.510
437.499	302.564	80.010	19.995	104.463	19.621	34.433	0.483
437.999	302.822	80.009	19.995	104.466	19.617	34.765	0.469
438.499	303.067	80.011	19.994	104.470	19.612	35.129	0.488
438.999	303.329	80.010	19.994	104.475	19.610	35.278	0.505
439.499	303.589	80.009	19.993	104.478	19.604	35.699	0.514
439.999	303.818	80.010	19.993	104.482	19.596	36.300	0.505
440.499	304.088	80.008	19.993	104.487	19.590	36.702	0.495
440.999	304.314	80.009	19.994	104.492	19.584	37.118	0.498
441.499	304.559	80.009	19.992	104.496	19.576	37.696	0.483
441.999	304.833	80.009	19.993	104.497	19.564	38.617	0.495
442.499	305.055	80.007	19.992	104.498	19.558	39.003	0.507
442.999	305.277	80.008	19.993	104.505	19.547	39.809	0.470
443.500	305.532	80.008	19.994	104.512	19.537	40.522	0.461
444.000	305.821	80.008	19.993	104.516	19.528	41.160	0.511
444.500	306.078	80.008	19.994	104.516	19.520	41.791	0.545
445.000	306.291	80.009	19.993	104.524	19.508	42.601	0.508
445.500	306.592	80.008	19.995	104.527	19.500	43.171	0.492
446.000	306.863	80.008	19.994	104.527	19.487	44.109	0.543
446.499	307.080	80.007	19.994	104.523	19.476	44.935	0.529
447.000	307.316	80.007	19.993	104.527	19.469	45.428	0.470
447.500	307.584	80.008	19.993	104.526	19.457	46.325	0.479
447.999	307.881	80.007	19.994	104.526	19.443	47.364	0.535
448.500	308.025	80.007	19.992	104.532	19.431	48.177	0.503
449.000	308.349	80.008	19.993	104.535	19.421	48.919	0.455
449.500	308.589	80.007	19.992	104.534	19.411	49.669	0.516
450.000	308.866	80.007	19.993	104.529	19.397	50.708	0.540
450.500	309.110	80.008	19.993	104.524	19.384	51.644	0.519
451.000	309.372	80.006	19.994	104.526	19.374	52.406	0.513
451.500	309.604	80.008	19.992	104.534	19.360	53.403	0.500
452.000	309.890	80.009	19.992	104.532	19.353	53.936	0.507
452.500	310.092	80.008	19.993	104.531	19.342	54.690	0.503
453.000	310.430	80.009	19.994	104.525	19.338	54.994	0.514
453.499	310.610	80.009	19.994	104.526	19.332	55.434	0.528
453.999	310.891	80.008	19.995	104.536	19.332	55.435	0.490
454.499	311.127	80.010	19.993	104.535	19.326	55.913	0.489
454.999	311.377	80.007	19.993	104.525	19.325	56.016	0.501
455.499	311.668	80.009	19.994	104.519	19.327	55.859	0.513
455.999	311.938	80.008	19.993	104.503	19.324	56.040	0.551
456.499	312.184	80.009	19.993	104.479	19.313	56.839	0.538
456.999	312.470	80.009	19.994	104.472	19.316	56.534	0.524
457.499	312.684	80.009	19.994	104.473	19.314	56.652	0.516
457.999	312.986	80.009	19.995	104.471	19.301	57.535	0.508
458.499	313.241	80.008	19.993	104.469	19.299	57.580	0.536
458.999	313.471	80.009	19.994	104.476	19.296	57.806	0.521
459.499	313.760	80.010	19.994	104.495	19.288	58.327	0.502
459.999	314.019	80.010	19.994	104.516	19.281	58.820	0.534
460.499	314.245	80.008	19.992	104.534	19.273	59.380	0.516
461.000	314.506	80.008	19.992	104.552	19.265	60.006	0.486
461.500	314.774	80.009	19.992	104.568	19.252	60.933	0.508
462.000	315.009	80.010	19.992	104.578	19.233	62.394	0.516
462.500	315.244	80.009	19.992	104.589	19.200	64.813	0.487
463.000	315.493	80.009	19.993	104.602	19.162	67.601	0.477
463.500	315.764	80.008	19.992	104.609	19.121	70.652	0.502
463.999	315.996	80.008	19.992	104.605	19.085	73.367	0.511
464.499	316.277	80.009	19.993	104.589	19.056	75.523	0.507
464.999	316.541	80.009	19.993	104.604	19.037	76.991	0.529
465.499	316.793	80.009	19.993	104.677	19.030	77.495	0.531
465.999	317.075	80.008	19.992	104.721	19.025	77.815	0.525
466.499	317.340	80.008	19.993	104.722	19.032	77.272	0.540
466.999	317.604	80.009	19.996	104.706	19.043	76.401	0.538
467.500	317.865	80.008	19.992	104.647	19.061	75.034	0.527
468.000	318.116	80.009	19.994	104.517	19.080	73.598	0.518
468.499	318.390	80.007	19.994	104.389	19.098	72.291	0.519
468.999	318.669	80.007	19.993	104.284	19.119	70.698	0.539
469.499	318.923	80.008	19.994	104.192	19.139	69.273	0.543
469.999	319.162	80.006	19.991	104.110	19.159	67.843	0.513
470.499	319.426	80.008	19.993	104.055	19.174	66.705	0.498
470.999	319.745	80.008	19.993	104.038	19.187	65.824	0.543
471.499	319.988	80.007	19.992	104.054	19.194	65.288	0.573
471.999	320.199	80.008	19.995	104.083	19.196	65.198	0.508
472.500	320.526	80.008	19.989	104.123	19.199	65.030	0.496
473.000	320.786	80.008	19.995	104.173	19.194	65.410	0.563
473.499	321.049	80.009	19.993	104.243	19.193	65.506	0.555
474.000	321.302	80.007	19.993	104.349	19.189	65.883	0.519
474.500	321.578	80.008	19.992	104.486	19.191	65.752	0.523
475.000	321.882	80.008	19.991	104.618	19.189	65.854	0.555
475.499	322.160	80.009	19.991	104.735	19.194	65.464	0.581
475.999	322.381	80.007	19.994	104.812	19.201	64.919	0.540
476.499	322.660	80.007	19.993	104.826	19.205	64.624	0.500
476.999	322.936	80.008	19.993	104.788	19.214	63.892	0.528
477.499	323.161	80.008	19.994	104.729	19.224	63.170	0.528
477.999	323.440	80.007	19.992	104.645	19.235	62.353	0.502
478.499	323.716	80.009	19.995	104.553	19.243	61.758	0.530
479.000	323.946	80.009	19.993	104.471	19.257	60.711	0.530
479.500	324.229	80.008	19.994	104.408	19.265	60.186	0.509
479.999	324.506	80.010	19.993	104.367	19.268	59.956	0.536
480.499	324.764	80.008	19.992	104.341	19.269	59.890	0.547
480.999	325.014	80.010	19.995	104.328	19.262	60.384	0.522
481.499	325.322	80.008	19.993	104.331	19.254	60.979	0.533
481.999	325.558	80.008	19.993	104.345	19.243	61.796	0.551
482.499	325.835	80.010	19.992	104.360	19.231	62.706	0.529
482.999	326.089	80.009	19.991	104.388	19.222	63.373	0.522
483.499	326.320	80.009	19.993	104.460	19.215	63.848	0.508
483.999	326.619	80.010	19.994	104.549	19.212	64.089	0.508
484.500	326.893	80.009	19.992	104.614	19.208	64.362	0.552
485.000	327.146	80.009	19.993	104.662	19.206	64.472	0.549
485.499	327.377	80.008	19.992	104.698	19.203	64.752	0.506
485.999	327.653	80.010	19.993	104.686	19.204	64.637	0.496
486.499	327.907	80.009	19.993	104.639	19.207	64.456	0.518
486.999	328.195	80.009	19.993	104.590	19.209	64.307	0.536
487.499	328.436	80.010	19.994	104.541	19.209	64.295	0.536
487.999	328.694	80.010	19.995	104.487	19.210	64.239	0.514
488.500	328.986	80.009	19.993	104.433	19.206	64.526	0.524
489.000	329.216	80.010	19.992	104.390	19.200	64.984	0.536
489.500	329.522	80.009	19.993	104.364	19.200	65.014	0.529
489.999	329.789	80.010	19.994	104.350	19.200	64.986	0.554
490.499	329.985	80.008	19.991	104.345	19.198	65.071	0.518
490.999	330.247	80.009	19.994	104.357	19.201	64.862	0.460
491.499	330.512	80.009	19.996	104.381	19.203	64.706	0.492
491.999	330.760	80.009	19.993	104.412	19.204	64.608	0.520
492.499	331.047	80.008	19.992	104.445	19.206	64.466	0.525
492.999	331.286	80.008	19.991	104.482	19.205	64.520	0.531
493.499	331.589	80.008	19.995	104.506	19.211	64.091	0.534
493.999	331.788	80.009	19.995	104.516	19.209	64.218	0.522
494.499	332.075	80.009	19.994	104.516	19.205	64.519	0.494
494.999	332.355	80.007	19.993	104.507	19.203	64.642	0.527
495.499	332.598	80.009	19.993	104.493	19.194	65.328	0.545
495.999	332.852	80.007	19.993	104.485	19.187	65.902	0.510
496.499	333.118	80.010	19.992	104.482	19.174	66.823	0.509
496.999	333.358	80.009	19.993	104.478	19.168	67.293	0.513
497.499	333.656	80.008	19.995	104.478	19.167	67.392	0.522
498.000	333.886	80.007	19.991	104.497	19.162	67.801	0.533
498.500	334.129	80.007	19.993	104.519	19.158	68.033	0.500
498.999	334.406	80.008	19.994	104.535	19.159	67.964	0.497
499.499	334.678	80.007	19.994	104.547	19.161	67.833	0.535
499.999	334.912	80.008	19.993	104.558	19.163	67.610	0.527
500.499	335.174	80.007	19.995	104.548	19.164	67.580	0.501
500.999	335.380	80.008	19.994	104.523	19.167	67.337	0.481
501.500	335.679	80.007	19.993	104.496	19.169	67.154	0.487
502.000	335.907	80.008	19.994	104.473	19.176	66.649	0.516
502.499	336.137	80.008	19.992	104.448	19.177	66.556	0.492
502.999	336.421	80.008	19.992	104.422	19.185	65.985	0.486
503.499	336.681	80.009	19.993	104.400	19.187	65.787	0.530
503.999	336.974	80.008	19.993	104.391	19.188	65.773	0.548
504.499	337.195	80.009	19.992	104.388	19.185	65.950	0.533
504.999	337.457	80.007	19.993	104.385	19.180	66.326	0.499
505.500	337.716	80.009	19.993	104.390	19.166	67.331	0.502
506.000	337.967	80.009	19.992	104.403	19.164	67.497	0.516
506.499	338.245	80.010	19.994	104.422	19.160	67.800	0.519
506.999	338.503	80.009	19.993	104.469	19.152	68.396	0.532
507.500	338.739	80.009	19.994	104.525	19.153	68.389	0.515
508.000	338.964	80.010	19.994	104.563	19.150	68.582	0.478
508.499	339.233	80.009	19.994	104.592	19.148	68.757	0.477
508.999	339.509	80.010	19.995	104.605	19.153	68.409	0.519
509.499	339.752	80.009	19.992	104.587	19.157	68.169	0.532
509.999	339.989	80.009	19.992	104.560	19.163	67.756	0.500
510.500	340.257	80.010	19.994	104.535	19.168	67.411	0.492
511.000	340.496	80.010	19.993	104.508	19.174	66.937	0.506
511.499	340.759	80.009	19.990	104.479	19.181	66.368	0.505
511.999	341.006	80.010	19.995	104.450	19.189	65.746	0.506
512.499	341.239	80.010	19.992	104.428	19.195	65.300	0.495
513.000	341.528	80.009	19.995	104.411	19.206	64.453	0.501
513.500	341.755	80.009	19.993	104.396	19.216	63.710	0.519
513.999	342.012	80.008	19.994	104.384	19.221	63.319	0.500
514.499	342.242	80.010	19.994	104.381	19.233	62.421	0.485
514.999	342.486	80.009	19.992	104.379	19.243	61.688	0.480
515.499	342.761	80.009	19.991	104.388	19.245	61.490	0.496
515.999	343.019	80.010	19.995	104.406	19.248	61.327	0.526
516.500	343.222	80.007	19.993	104.430	19.244	61.577	0.497
517.000	343.495	80.009	19.994	104.452	19.231	62.565	0.469
517.500	343.731	80.008	19.992	104.475	19.212	63.929	0.493
518.000	344.007	80.009	19.994	104.501	19.189	65.669	0.510
518.499	344.236	80.008	19.994	104.517	19.163	67.581	0.508
518.999	344.504	80.008	19.994	104.530	19.139	69.338	0.501
519.499	344.754	80.008	19.991	104.564	19.119	70.805	0.507
519.999	344.974	80.008	19.994	104.633	19.108	71.615	0.494
520.499	345.248	80.008	19.994	104.680	19.104	71.956	0.482
520.999	345.521	80.006	19.993	104.708	19.098	72.385	0.520
521.499	345.750	80.007	19.995	104.720	19.100	72.246	0.524
521.999	345.959	80.007	19.994	104.697	19.103	71.956	0.470
522.500	346.254	80.006	19.994	104.619	19.109	71.521	0.471
523.000	346.495	80.006	19.996	104.540	19.113	71.251	0.520
523.500	346.793	80.007	19.994	104.462	19.122	70.561	0.537
523.999	347.049	80.007	19.995	104.386	19.129	70.040	0.546
524.499	347.301	80.007	19.993	104.313	19.139	69.297	0.531
524.999	347.544	80.008	19.994	104.262	19.151	68.457	0.501
525.499	347.761	80.006	19.994	104.231	19.163	67.609	0.478
525.999	348.034	80.007	19.995	104.218	19.174	66.831	0.476
526.499	348.259	80.005	19.994	104.212	19.184	66.094	0.494
526.999	348.541	80.006	19.994	104.217	19.197	65.120	0.502
527.499	348.751	80.008	19.994	104.228	19.204	64.683	0.499
528.000	348.986	80.007	19.993	104.251	19.213	63.994	0.469
528.500	349.226	80.007	19.993	104.297	19.226	63.070	0.460
528.999	349.488	80.007	19.994	104.363	19.232	62.615	0.488
529.499	349.751	80.007	19.994	104.429	19.247	61.561	0.513
529.999	350.044	80.007	19.994	104.487	19.256	60.912	0.540
530.499	350.227	80.008	19.995	104.527	19.266	60.175	0.517
530.999	350.522	80.008	19.994	104.550	19.278	59.329	0.477
531.499	350.770	80.008	19.994	104.555	19.290	58.400	0.510
531.999	350.997	80.008	19.993	104.548	19.302	57.578	0.509
532.499	351.259	80.007	19.996	104.531	19.315	56.597	0.482
532.999	351.508	80.008	19.993	104.512	19.325	55.864	0.500
533.499	351.757	80.007	19.994	104.488	19.338	54.904	0.504
534.000	351.997	80.008	19.993	104.471	19.347	54.260	0.493
534.500	352.275	80.007	19.993	104.461	19.359	53.408	0.503
535.000	352.518	80.008	19.993	104.453	19.372	52.499	0.519
535.500	352.762	80.008	19.992	104.446	19.379	51.999	0.504
535.999	353.029	80.006	19.993	104.446	19.386	51.477	0.499
536.500	353.277	80.009	19.992	104.447	19.390	51.163	0.514
537.000	353.515	80.008	19.993	104.454	19.399	50.566	0.500
537.500	353.751	80.008	19.994	104.465	19.402	50.320	0.480
538.000	353.993	80.008	19.993	104.477	19.403	50.200	0.476
538.500	354.264	80.007	19.992	104.485	19.408	49.809	0.495
539.000	354.465	80.008	19.993	104.492	19.407	49.864	0.492
539.500	354.709	80.008	19.993	104.493	19.410	49.611	0.459
540.000	354.974	80.007	19.993	104.494	19.409	49.681	0.477
540.500	355.229	80.007	19.992	104.493	19.410	49.623	0.514
541.000	355.502	80.008	19.994	104.494	19.410	49.606	0.524
541.499	355.692	80.007	19.992	104.493	19.410	49.552	0.496
541.999	355.969	80.007	19.992	104.493	19.406	49.884	0.465
542.500	356.204	80.007	19.992	104.493	19.401	50.203	0.489
543.000	356.442	80.007	19.993	104.490	19.388	51.157	0.493
543.499	356.700	80.007	19.994	104.483	19.376	52.087	0.485
543.999	356.929	80.008	19.992	104.474	19.355	53.602	0.491
544.500	357.190	80.007	19.992	104.460	19.334	55.107	0.489
545.000	357.431	80.008	19.993	104.445	19.311	56.867	0.496
545.500	357.686	80.008	19.993	104.436	19.289	58.466	0.499
546.000	357.929	80.008	19.992	104.455	19.272	59.694	0.497
546.500	358.149	80.006	19.992	104.483	19.260	60.612	0.481
547.000	358.366	80.007	19.992	104.508	19.252	61.172	0.450
547.500	358.610	80.007	19.993	104.524	19.247	61.547	0.449
547.999	358.877	80.006	19.992	104.530	19.246	61.610	0.486
548.499	359.133	80.007	19.993	104.504	19.245	61.659	0.517
548.999	359.379	80.009	19.993	104.461	19.248	61.412	0.512
549.499	359.654	80.008	19.993	104.412	19.255	60.888	0.512
550.000	359.846	80.009	19.993	104.361	19.260	60.560	0.494
550.500	360.132	80.006	19.992	104.312	19.270	59.792	0.472
551.000	360.403	80.007	19.993	104.265	19.278	59.246	0.518
551.500	360.621	80.007	19.993	104.229	19.292	58.190	0.523
551.999	360.908	80.006	19.994	104.206	19.298	57.767	0.497
552.499	361.122	80.007	19.993	104.193	19.303	57.429	0.503
552.999	361.384	80.007	19.992	104.184	19.306	57.191	0.489
553.499	361.584	80.008	19.994	104.184	19.315	56.515	0.469
554.000	361.862	80.007	19.994	104.192	19.319	56.236	0.470
554.500	362.134	80.006	19.993	104.215	19.325	55.825	0.514
555.000	362.382	80.006	19.993	104.257	19.331	55.391	0.535
555.500	362.612	80.007	19.993	104.316	19.336	55.056	0.499
555.999	362.890	80.007	19.992	104.376	19.341	54.680	0.493
556.499	363.121	80.008	19.993	104.431	19.351	53.968	0.509
556.999	363.386	80.007	19.993	104.475	19.357	53.546	0.502
557.499	363.600	80.007	19.994	104.501	19.367	52.805	0.488
558.000	363.849	80.007	19.993	104.508	19.374	52.271	0.471
558.500	364.095	80.007	19.993	104.503	19.385	51.471	0.479
559.000	364.411	80.006	19.994	104.489	19.393	50.921	0.528
559.499	364.590	80.006	19.994	104.468	19.400	50.424	0.528
560.000	364.884	80.007	19.992	104.443	19.407	49.904	0.485
560.500	365.123	80.007	19.994	104.420	19.416	49.275	0.504
560.999	365.378	80.007	19.993	104.400	19.426	48.505	0.513
561.499	365.611	80.007	19.993	104.386	19.434	47.918	0.490
561.999	365.881	80.007	19.992	104.375	19.442	47.374	0.496
562.500	366.124	80.008	19.992	104.370	19.449	46.866	0.508
563.000	366.387	80.009	19.993	104.365	19.458	46.224	0.509
563.499	366.656	80.009	19.993	104.364	19.462	45.902	0.519
563.999	366.909	80.008	19.993	104.366	19.469	45.426	0.528
564.499	367.158	80.009	19.994	104.372	19.477	44.810	0.512
564.999	367.380	80.009	19.993	104.380	19.484	44.349	0.486
565.499	367.657	80.008	19.994	104.391	19.489	43.945	0.485
565.999	367.911	80.009	19.993	104.399	19.491	43.792	0.516
566.499	368.124	80.008	19.994	104.407	19.497	43.354	0.499
566.999	368.400	80.010	19.991	104.412	19.508	42.599	0.478
567.499	368.621	80.010	19.994	104.408	19.511	42.363	0.493
567.999	368.912	80.009	19.992	104.403	19.518	41.850	0.504
568.499	369.174	80.011	19.994	104.397	19.520	41.691	0.532
569.000	369.381	80.011	19.994	104.392	19.525	41.384	0.511
569.500	369.597	80.008	19.993	104.386	19.529	41.092	0.446
570.000	369.859	80.009	19.993	104.385	19.532	40.858	0.451
570.500	370.143	80.010	19.992	104.387	19.538	40.405	0.512
571.000	370.376	80.009	19.992	104.386	19.536	40.534	0.531
571.500	370.598	80.010	19.992	104.382	19.545	39.931	0.486
572.000	370.843	80.010	19.990	104.381	19.547	39.762	0.461
572.500	371.093	80.011	19.993	104.378	19.547	39.738	0.481
572.999	371.331	80.009	19.994	104.375	19.552	39.405	0.492
573.499	371.581	80.009	19.993	104.375	19.553	39.306	0.488
573.999	371.783	80.010	19.994	104.376	19.555	39.163	0.469
574.499	372.067	80.009	19.992	104.375	19.561	38.749	0.469
574.999	372.310	80.010	19.993	104.370	19.561	38.712	0.506
575.499	372.577	80.010	19.993	104.366	19.564	38.534	0.519
575.999	372.828	80.009	19.992	104.366	19.569	38.163	0.514
576.499	373.043	80.009	19.992	104.365	19.571	38.039	0.492
576.999	373.275	80.009	19.995	104.366	19.575	37.707	0.457
577.499	373.523	80.010	19.994	104.370	19.576	37.657	0.464
578.000	373.763	80.009	19.991	104.374	19.579	37.430	0.484
578.500	374.007	80.009	19.993	104.374	19.578	37.491	0.486
578.999	374.281	80.010	19.991	104.374	19.582	37.196	0.501
579.499	374.496	80.010	19.994	104.375	19.584	37.113	0.503
579.999	374.731	80.007	19.993	104.374	19.586	36.907	0.469
580.499	375.000	80.010	19.993	104.374	19.587	36.890	0.477
581.000	375.282	80.008	19.992	104.372	19.588	36.822	0.527
581.500	375.506	80.008	19.992	104.372	19.593	36.429	0.528
582.000	375.763	80.009	19.994	104.371	19.594	36.374	0.493
582.499	376.007	80.009	19.993	104.372	19.594	36.359	0.491
582.999	376.234	80.008	19.993	104.370	19.596	36.226	0.486
583.499	376.476	80.009	19.993	104.369	19.596	36.241	0.470
583.999	376.721	80.009	19.994	104.370	19.598	36.072	0.478
584.499	376.991	80.009	19.993	104.365	19.602	35.750	0.501
584.999	377.231	80.007	19.994	104.360	19.604	35.622	0.513
585.499	377.500	80.009	19.993	104.361	19.606	35.516	0.509
585.999	377.736	80.010	19.994	104.362	19.608	35.336	0.507
586.499	377.982	80.010	19.994	104.360	19.614	34.932	0.493
586.999	378.225	80.009	19.994	104.358	19.614	34.870	0.485
587.499	378.448	80.008	19.993	104.360	19.616	34.764	0.477
587.999	378.723	80.009	19.994	104.359	19.620	34.451	0.482
588.499	378.982	80.008	19.994	104.357	19.623	34.219	0.517
588.999	379.230	80.009	19.993	104.354	19.626	34.043	0.521
589.499	379.462	80.011	19.993	104.358	19.629	33.845	0.494
589.999	379.744	80.010	19.994	104.361	19.630	33.735	0.497
590.499	379.998	80.010	19.994	104.360	19.629	33.854	0.525
590.999	380.214	80.009	19.993	104.357	19.631	33.689	0.503
591.499	380.437	80.011	19.993	104.359	19.636	33.297	0.454
591.999	380.718	80.011	19.994	104.361	19.639	33.120	0.472
592.499	380.935	80.011	19.995	104.362	19.641	32.975	0.501
592.999	381.200	80.011	19.994	104.363	19.644	32.728	0.490
593.499	381.470	80.011	19.993	104.367	19.645	32.656	0.508
594.000	381.728	80.009	19.994	104.364	19.647	32.530	0.531
594.500	381.965	80.011	19.993	104.362	19.652	32.149	0.512
595.000	382.189	80.010	19.992	104.361	19.653	32.099	0.478
595.500	382.434	80.010	19.992	104.359	19.655	31.939	0.465
596.000	382.678	80.010	19.995	104.355	19.658	31.725	0.479
596.499	382.923	80.010	19.994	104.352	19.662	31.436	0.489
597.000	383.191	80.010	19.995	104.349	19.665	31.228	0.501
597.500	383.445	80.010	19.994	104.344	19.670	30.862	0.517
598.000	383.653	80.011	19.994	104.344	19.668	30.966	0.492
598.499	383.951	80.009	19.990	104.345	19.674	30.584	0.484
598.999	384.195	80.009	19.993	104.345	19.680	30.133	0.524
599.499	384.401	80.010	19.994	104.345	19.680	30.151	0.496
599.999	384.648	80.010	19.993	104.348	19.682	30.007	0.451
600.499	384.908	80.010	19.993	104.349	19.679	30.195	0.480
600.999	385.166	80.008	19.992	104.354	19.686	29.704	0.513
601.499	385.461	80.007	19.994	104.358	19.687	29.638	0.535
602.000	385.662	80.007	19.992	104.358	19.687	29.594	0.524
602.500	385.928	80.008	19.993	104.354	19.691	29.322	0.482
602.999	386.173	80.008	19.992	104.352	19.695	29.059	0.489
603.499	386.409	80.009	19.993	104.345	19.697	28.902	0.496
603.999	386.658	80.007	19.994	104.341	19.700	28.666	0.483
604.500	386.899	80.008	19.993	104.339	19.700	28.678	0.488
605.000	387.119	80.007	19.993	104.342	19.702	28.551	0.475
605.499	387.366	80.007	19.994	104.348	19.707	28.161	0.464
606.000	387.642	80.007	19.994	104.352	19.707	28.173	0.495
606.500	387.880	80.008	19.991	104.355	19.710	27.965	0.518
607.000	388.128	80.007	19.992	104.360	19.711	27.864	0.500
607.500	388.382	80.007	19.994	104.362	19.713	27.772	0.494
607.999	388.657	80.006	19.994	104.356	19.713	27.711	0.515
608.499	388.890	80.008	19.993	104.352	19.716	27.514	0.519
608.999	389.124	80.008	19.993	104.350	19.717	27.458	0.487
609.499	389.366	80.007	19.993	104.346	19.718	27.353	0.471
609.999	389.627	80.007	19.993	104.341	19.717	27.461	0.490
610.499	389.874	80.007	19.994	104.342	19.720	27.211	0.506
610.999	390.122	80.007	19.995	104.344	19.722	27.122	0.501
611.499	390.387	80.007	19.992	104.345	19.725	26.853	0.504
611.999	390.638	80.007	19.995	104.345	19.723	27.039	0.515
612.499	390.903	80.006	19.995	104.346	19.726	26.767	0.517
612.999	391.127	80.008	19.995	104.344	19.730	26.482	0.502
613.499	391.353	80.009	19.997	104.343	19.731	26.451	0.469
613.999	391.615	80.007	19.995	104.344	19.731	26.459	0.469
614.499	391.841	80.007	19.993	104.343	19.730	26.487	0.488
614.999	392.108	80.006	19.994	104.344	19.733	26.303	0.491
615.500	392.352	80.007	19.995	104.343	19.733	26.293	0.502
616.000	392.600	80.007	19.992	104.341	19.739	25.887	0.502
616.499	392.833	80.006	19.995	104.338	19.740	25.819	0.487
617.000	393.088	80.007	19.996	104.338	19.741	25.738	0.485
617.500	393.325	80.008	19.996	104.337	19.739	25.894	0.490
617.999	393.598	80.007	19.994	104.337	19.743	25.535	0.501
618.499	393.836	80.007	19.994	104.337	19.742	25.623	0.510
619.000	394.118	80.008	19.995	104.337	19.748	25.214	0.516
619.500	394.364	80.008	19.993	104.334	19.747	25.300	0.524
619.999	394.614	80.007	19.993	104.334	19.750	25.065	0.512
620.499	394.879	80.007	19.995	104.334	19.751	24.958	0.506
620.999	395.108	80.007	19.992	104.335	19.753	24.878	0.504
621.499	395.361	80.006	19.992	104.336	19.752	24.928	0.488
622.000	395.593	80.007	19.994	104.338	19.755	24.671	0.484
622.500	395.865	80.008	19.994	104.339	19.756	24.599	0.494
623.000	396.107	80.007	19.993	104.339	19.760	24.367	0.509
623.500	396.352	80.007	19.995	104.338	19.758	24.459	0.501
623.999	396.581	80.008	19.993	104.339	19.762	24.175	0.480
624.499	396.817	80.006	19.992	104.339	19.764	24.083	0.470
624.999	397.091	80.008	19.993	104.341	19.767	23.839	0.488
625.499	397.332	80.007	19.992	104.342	19.768	23.793	0.512
625.999	397.592	80.007	19.992	104.344	19.770	23.635	0.507
626.499	397.863	80.008	19.993	104.343	19.771	23.560	0.516
626.999	398.120	80.008	19.991	104.346	19.769	23.659	0.530
627.499	398.374	80.008	19.992	104.344	19.771	23.568	0.520
627.999	398.600	80.009	19.993	104.343	19.771	23.544	0.495
628.499	398.875	80.008	19.992	104.341	19.772	23.457	0.491
628.999	399.140	80.008	19.993	104.340	19.773	23.423	0.521
629.500	399.396	80.008	19.993	104.338	19.775	23.260	0.530
630.000	399.617	80.008	19.996	104.340	19.775	23.254	0.499
630.500	399.871	80.009	19.994	104.346	19.779	22.994	0.476
631.000	400.177	80.008	19.995	104.348	19.781	22.835	0.518
631.500	400.410	80.008	19.995	104.348	19.778	23.045	0.549
632.000	400.659	80.008	19.993	104.348	19.780	22.871	0.510
632.500	400.932	80.008	19.994	104.347	19.782	22.726	0.502
632.999	401.193	80.008	19.993	104.343	19.783	22.663	0.528
633.499	401.463	80.007	19.994	104.342	19.783	22.647	0.533
633.999	401.702	80.006	19.992	104.342	19.785	22.524	0.521
634.499	401.968	80.007	19.993	104.342	19.788	22.292	0.507
634.999	402.228	80.007	19.992	104.341	19.789	22.272	0.515
635.499	402.472	80.008	19.993	104.339	19.789	22.211	0.515
635.999	402.731	80.007	19.993	104.337	19.788	22.288	0.503
636.499	403.031	80.008	19.993	104.337	19.791	22.107	0.531
637.000	403.263	80.008	19.994	104.337	19.791	22.061	0.546
637.500	403.528	80.007	19.994	104.339	19.793	21.983	0.515
637.999	403.768	80.008	19.993	104.340	19.791	22.059	0.501
638.499	404.040	80.008	19.992	104.342	19.793	21.953	0.509
638.999	404.311	80.009	19.993	104.341	19.793	21.926	0.528
639.499	404.582	80.009	19.992	104.340	19.795	21.788	0.542
639.999	404.785	80.008	19.994	104.338	19.794	21.898	0.508
640.499	405.101	80.007	19.994	104.338	19.799	21.541	0.497
641.000	405.325	80.008	19.993	104.336	19.799	21.531	0.529
641.500	405.602	80.009	19.993	104.336	19.800	21.477	0.520
642.000	405.845	80.010	19.992	104.335	19.799	21.541	0.511
642.500	406.084	80.009	19.992	104.335	19.800	21.457	0.501
642.999	406.382	80.009	19.994	104.334	19.804	21.130	0.509
643.499	406.614	80.009	19.993	104.334	19.806	21.037	0.533
643.999	406.877	80.009	19.993	104.335	19.805	21.062	0.513
644.499	407.170	80.010	19.993	104.335	19.809	20.765	0.526
644.999	407.410	80.008	19.992	104.335	19.805	21.070	0.544
645.499	407.672	80.008	19.993	104.336	19.806	20.975	0.517
645.999	407.926	80.009	19.993	104.336	19.805	21.064	0.509
646.499	408.209	80.009	19.994	104.335	19.809	20.813	0.527
646.999	408.468	80.009	19.992	104.336	19.812	20.610	0.540
647.499	408.728	80.010	19.993	104.334	19.812	20.598	0.531
647.999	408.991	80.009	19.994	104.331	19.814	20.460	0.521
648.499	409.255	80.010	19.995	104.329	19.812	20.551	0.525
648.999	409.508	80.010	19.992	104.328	19.816	20.315	0.522
649.499	409.783	80.010	19.992	104.328	19.817	20.240	0.522
649.999	410.024	80.010	19.994	104.330	19.816	20.306	0.522
650.499	410.281	80.010	19.996	104.331	19.818	20.116	0.507
651.000	410.564	80.009	19.993	104.336	19.821	19.935	0.519
651.500	410.811	80.009	19.993	104.336	19.817	20.220	0.535
652.000	411.087	80.011	19.993	104.336	19.819	20.076	0.527
652.499	411.315	80.010	19.994	104.335	19.820	20.002	0.513
653.000	411.599	80.010	19.994	104.335	19.818	20.114	0.508
653.500	411.843	80.009	19.994	104.334	19.823	19.753	0.520
653.999	412.145	80.009	19.994	104.334	19.820	19.988	0.537
654.500	412.347	80.010	19.994	104.334	19.823	19.758	0.525
655.000	412.647	80.010	19.993	104.333	19.824	19.680	0.503
655.499	412.917	80.011	19.994	104.333	19.827	19.476	0.536
655.999	413.145	80.010	19.993	104.333	19.825	19.597	0.534
656.499	413.415	80.009	19.993	104.331	19.825	19.661	0.498
656.999	413.699	80.010	19.997	104.331	19.825	19.597	0.526
657.499	413.920	80.010	19.993	104.333	19.826	19.560	0.529
657.999	414.210	80.009	19.994	104.333	19.828	19.396	0.508
658.500	414.458	80.009	19.991	104.332	19.827	19.455	0.525
659.000	414.683	80.009	19.993	104.333	19.829	19.344	0.505
659.499	414.971	80.008	19.994	104.333	19.833	19.059	0.493
659.999	415.232	80.008	19.993	104.333	19.830	19.283	0.531
660.499	415.485	80.009	19.994	104.332	19.832	19.133	0.532
660.999	415.739	80.009	19.994	104.330	19.833	19.081	0.511
661.499	416.016	80.010	19.991	104.330	19.835	18.880	0.519
661.999	416.268	80.010	19.994	104.328	19.836	18.824	0.531
662.499	416.530	80.008	19.994	104.323	19.835	18.896	0.522
662.999	416.782	80.009	19.993	104.316	19.838	18.705	0.514
663.499	417.040	80.008	19.992	104.316	19.838	18.698	0.512
663.999	417.359	80.010	19.994	104.311	19.836	18.820	0.543
664.500	417.559	80.009	19.992	104.309	19.840	18.538	0.547
665.000	417.853	80.009	19.993	104.311	19.843	18.327	0.506
665.499	418.099	80.009	19.993	104.311	19.844	18.252	0.517
665.999	418.358	80.009	19.993	104.309	19.846	18.138	0.522
666.500	418.605	80.010	19.993	104.309	19.844	18.274	0.505
667.000	418.852	80.009	19.993	104.312	19.847	18.006	0.500
667.500	419.142	80.009	19.993	104.316	19.847	18.023	0.516
668.000	419.358	80.009	19.992	104.322	19.846	18.083	0.522
668.500	419.665	80.008	19.994	104.326	19.847	18.059	0.515
669.000	419.916	80.010	19.993	104.329	19.848	17.986	0.540
669.499	420.181	80.009	19.993	104.326	19.849	17.871	0.537
669.999	420.399	80.009	19.992	104.325	19.849	17.908	0.499
670.500	420.630	80.010	19.992	104.319	19.852	17.712	0.466
671.000	420.943	80.010	19.991	104.314	19.853	17.599	0.496
671.499	421.187	80.010	19.994	104.308	19.855	17.425	0.551
671.999	421.431	80.009	19.994	104.305	19.855	17.482	0.523
672.500	421.714	80.011	19.994	104.300	19.854	17.524	0.508
673.000	421.926	80.010	19.992	104.301	19.857	17.320	0.511
673.499	422.227	80.011	19.993	104.303	19.856	17.401	0.504
674.000	422.414	80.011	19.993	104.309	19.854	17.550	0.501
674.500	422.718	80.009	19.993	104.317	19.856	17.403	0.490
675.000	422.956	80.010	19.992	104.318	19.858	17.235	0.517
675.499	423.209	80.011	19.993	104.320	19.858	17.239	0.517
675.999	423.490	80.011	19.994	104.323	19.862	16.975	0.512
676.499	423.739	80.009	19.994	104.324	19.861	17.040	0.532
677.000	423.985	80.010	19.993	104.319	19.862	16.967	0.513
677.500	424.263	80.011	19.994	104.317	19.860	17.070	0.509
678.000	424.502	80.010	19.992	104.311	19.865	16.715	0.521
678.500	424.784	80.009	19.993	104.309	19.866	16.688	0.519
678.999	425.022	80.009	19.994	104.302	19.864	16.826	0.520
679.500	425.305	80.009	19.990	104.299	19.870	16.384	0.521
680.000	425.556	80.010	19.992	104.299	19.870	16.357	0.528
680.500	425.796	80.009	19.993	104.299	19.870	16.365	0.513
680.999	426.083	80.008	19.994	104.297	19.873	16.144	0.509
681.499	426.306	80.008	19.994	104.298	19.870	16.341	0.518
681.999	426.592	80.007	19.993	104.298	19.872	16.198	0.509
682.500	426.799	80.008	19.994	104.300	19.875	16.018	0.500
683.000	427.076	80.009	19.995	104.301	19.875	16.024	0.488
683.499	427.299	80.009	19.996	104.300	19.876	15.920	0.492
684.000	427.545	80.009	19.994	104.300	19.881	15.562	0.485
684.500	427.806	80.008	19.993	104.302	19.879	15.706	0.488
685.000	428.056	80.009	19.994	104.301	19.881	15.611	0.509
685.500	428.321	80.008	19.995	104.302	19.881	15.605	0.513
686.000	428.577	80.007	19.992	104.302	19.882	15.540	0.519
686.499	428.843	80.008	19.993	104.302	19.882	15.476	0.521
686.999	429.075	80.007	19.995	104.300	19.882	15.486	0.510
687.499	429.304	80.006	19.993	104.300	19.883	15.438	0.480
687.999	429.573	80.007	19.994	104.299	19.882	15.478	0.480
688.499	429.787	80.007	19.994	104.299	19.884	15.387	0.490
688.999	430.039	80.007	19.995	104.299	19.887	15.177	0.474
689.500	430.318	80.007	19.993	104.300	19.887	15.129	0.498
690.000	430.519	80.007	19.994	104.299	19.887	15.171	0.505
690.499	430.809	80.007	19.995	104.299	19.886	15.236	0.485
690.999	431.045	80.007	19.993	104.300	19.888	15.103	0.508
691.499	431.255	80.006	19.995	104.300	19.888	15.068	0.486
691.999	431.550	80.007	19.993	104.299	19.888	15.087	0.476
692.499	431.752	80.007	19.992	104.300	19.888	15.093	0.501
692.999	432.054	80.008	19.993	104.300	19.891	14.821	0.500
693.499	432.256	80.008	19.993	104.300	19.891	14.873	0.504
693.999	432.532	80.008	19.993	104.300	19.894	14.670	0.491
694.500	432.752	80.008	19.995	104.299	19.894	14.667	0.487
695.000	433.002	80.007	19.993	104.298	19.894	14.643	0.483
695.500	433.207	80.008	19.994	104.298	19.895	14.591	0.462
696.000	433.512	80.008	19.994	104.297	19.898	14.379	0.483
696.499	433.759	80.009	19.996	104.296	19.899	14.282	0.532
696.999	433.995	80.007	19.993	104.296	19.896	14.502	0.518
697.500	434.249	80.008	19.995	104.297	19.899	14.308	0.486
698.000	434.509	80.007	19.994	104.295	19.898	14.347	0.502
698.499	434.747	80.007	19.992	104.294	19.900	14.191	0.506
698.999	434.986	80.008	19.991	104.294	19.901	14.103	0.487
699.499	435.187	80.007	19.994	104.294	19.901	14.111	0.459
699.999	435.433	80.007	19.995	104.294	19.905	13.838	0.444
700.500	435.700	80.008	19.995	104.295	19.906	13.797	0.480
701.000	435.943	80.008	19.992	104.296	19.906	13.767	0.511
701.499	436.173	80.007	19.995	104.295	19.902	14.024	0.491
701.999	436.385	80.007	19.995	104.295	19.905	13.836	0.457
702.499	436.651	80.007	19.994	104.294	19.909	13.588	0.460
702.999	436.882	80.008	19.994	104.293	19.903	13.974	0.487
703.499	437.116	80.008	19.995	104.292	19.906	13.769	0.481
703.999	437.320	80.008	19.995	104.291	19.907	13.686	0.452
704.500	437.590	80.008	19.996	104.290	19.911	13.379	0.456
705.000	437.774	80.008	19.993	104.289	19.909	13.544	0.464
705.499	438.060	80.007	19.994	104.289	19.912	13.345	0.462
705.999	438.276	80.007	19.994	104.290	19.911	13.409	0.486
706.499	438.493	80.007	19.994	104.289	19.914	13.169	0.468
706.999	438.757	80.007	19.994	104.290	19.912	13.357	0.457
707.499	438.975	80.008	19.995	104.290	19.910	13.456	0.482
707.999	439.224	80.007	19.994	104.291	19.912	13.310	0.475
708.499	439.514	80.007	19.996	104.291	19.912	13.332	0.503
708.999	439.728	80.007	19.994	104.289	19.914	13.193	0.521
709.500	439.957	80.007	19.994	104.286	19.916	13.036	0.474
710.000	440.185	80.007	19.995	104.286	19.915	13.110	0.450
710.499	440.442	80.006	19.995	104.287	19.915	13.126	0.470
711.000	440.687	80.008	19.995	104.287	19.915	13.088	0.493
711.500	440.902	80.007	19.994	104.290	19.918	12.888	0.481
711.999	441.117	80.004	19.993	104.289	19.923	12.555	0.445
712.499	441.376	80.006	19.995	104.285	19.920	12.789	0.452
712.999	441.616	80.008	19.996	104.285	19.922	12.581	0.487
713.499	441.852	80.006	19.995	104.283	19.921	12.656	0.487
713.999	442.117	80.007	19.994	104.284	19.923	12.541	0.489
714.499	442.329	80.006	19.995	104.288	19.924	12.497	0.489
714.999	442.574	80.007	19.994	104.293	19.925	12.376	0.467
715.500	442.791	80.007	19.994	104.293	19.924	12.459	0.459
716.000	443.036	80.006	19.992	104.295	19.921	12.701	0.462
716.500	443.281	80.008	19.995	104.295	19.925	12.423	0.476
716.999	443.527	80.006	19.995	104.295	19.926	12.314	0.490
717.499	443.719	80.006	19.994	104.295	19.927	12.235	0.465
717.999	444.002	80.007	19.993	104.295	19.925	12.362	0.457
718.499	444.242	80.008	19.993	104.295	19.926	12.346	0.499
718.999	444.457	80.007	19.993	104.295	19.932	11.922	0.489
719.499	444.700	80.008	19.994	104.295	19.931	11.962	0.456
719.999	444.925	80.007	19.993	104.295	19.927	12.261	0.463
720.499	445.167	80.008	19.995	104.296	19.934	11.778	0.467
721.000	445.409	80.007	19.994	104.296	19.931	11.966	0.475
721.500	445.668	80.010	19.994	104.296	19.929	12.141	0.493
721.999	445.893	80.009	19.994	104.297	19.927	12.234	0.492
722.499	446.122	80.008	19.992	104.297	19.929	12.127	0.469
722.999	446.370	80.009	19.994	104.296	19.928	12.145	0.465
723.499	446.600	80.007	19.994	104.296	19.932	11.883	0.478
723.999	446.844	80.009	19.996	104.296	19.932	11.919	0.477
724.500	447.039	80.009	19.993	104.296	19.929	12.077	0.457
725.000	447.302	80.009	19.994	104.296	19.933	11.792	0.448
725.499	447.587	80.010	19.993	104.294	19.933	11.792	0.503
725.999	447.838	80.009	19.994	104.292	19.930	12.029	0.542
726.499	448.045	80.009	19.993	104.289	19.931	11.969	0.497
726.999	448.322	80.010	19.992	104.288	19.932	11.866	0.471
727.499	448.560	80.010	19.995	104.288	19.935	11.646	0.500
727.999	448.775	80.009	19.993	104.290	19.937	11.561	0.485
728.500	449.024	80.009	19.993	104.292	19.933	11.829	0.458
729.000	449.234	80.009	19.994	104.291	19.934	11.766	0.461
729.500	449.506	80.010	19.994	104.292	19.931	11.984	0.471
730.000	449.814	80.010	19.992	104.292	19.937	11.513	0.531
730.499	449.985	80.011	19.992	104.291	19.934	11.733	0.530
730.999	450.238	80.009	19.994	104.290	19.934	11.737	0.452
731.499	450.449	80.010	19.994	104.294	19.934	11.766	0.444
731.999	450.726	80.011	19.992	104.295	19.936	11.608	0.476
732.499	450.924	80.009	19.994	104.295	19.940	11.291	0.481
732.999	451.210	80.010	19.993	104.296	19.939	11.372	0.479
733.499	451.487	80.010	19.992	104.295	19.935	11.679	0.524
733.999	451.705	80.009	19.992	104.296	19.937	11.513	0.529
734.499	451.961	80.009	19.993	104.295	19.939	11.400	0.484
734.999	452.238	80.009	19.993	104.295	19.937	11.542	0.503
735.499	452.432	80.009	19.993	104.296	19.944	11.056	0.502
735.999	452.682	80.009	19.993	104.297	19.941	11.207	0.458
736.499	452.937	80.008	19.994	104.296	19.948	10.733	0.475
736.999	453.157	80.009	19.992	104.294	19.940	11.333	0.490
737.499	453.416	80.010	19.993	104.288	19.933	11.831	0.477
737.999	453.721	80.009	19.995	104.287	19.946	10.886	0.521
738.500	453.877	80.010	19.993	104.288	19.937	11.550	0.513
739.000	454.220	80.009	19.994	104.289	19.947	10.841	0.480
739.499	454.364	80.008	19.992	104.291	19.938	11.426	0.493
739.999	454.727	80.009	19.994	104.297	19.948	10.742	0.497
740.499	454.919	80.009	19.993	104.298	19.934	11.719	0.531
740.999	455.191	80.008	19.992	104.297	19.947	10.789	0.509
741.499	455.398	80.009	19.993	104.297	19.939	11.403	0.472
741.999	455.756	80.010	19.994	104.298	19.942	11.147	0.522
742.499	455.914	80.009	19.993	104.297	19.941	11.208	0.540
742.999	456.194	80.010	19.992	104.298	19.940	11.343	0.477
743.499	456.352	80.009	19.994	104.299	19.945	10.981	0.438
743.999	456.787	80.009	19.994	104.299	19.942	11.137	0.516
744.499	456.982	80.010	19.992	104.299	19.946	10.902	0.611
744.999	457.212	80.009	19.993	104.298	19.946	10.855	0.528
745.499	457.491	80.010	19.993	104.298	19.945	10.970	0.467
745.999	457.531	80.009	19.993	104.298	19.946	10.898	0.414
746.499	458.074	80.009	19.993	104.295	19.948	10.736	0.451
746.999	458.222	80.010	19.993	104.293	19.947	10.785	0.637
747.499	458.528	80.009	19.992	104.291	19.947	10.791	0.573
748.000	458.971	80.010	19.994	104.289	19.946	10.876	0.601
748.500	458.857	80.009	19.992	104.289	19.949	10.629	0.539
748.999	459.533	80.009	19.992	104.293	19.946	10.880	0.445
749.500	459.582	80.007	19.990	104.294	19.949	10.638	0.644
750.000	459.520	80.007	19.994	104.296	19.948	10.732	0.356
750.499	460.288	80.010	19.993	104.299	19.950	10.625	0.346
750.999	460.685	80.009	19.994	104.299	19.951	10.549	0.935
751.500	460.322	80.009	19.995	104.298	19.950	10.577	0.600
752.000	461.210	80.010	19.995	104.297	19.950	10.601	0.280
752.499	460.871	80.010	19.992	104.294	19.948	10.719	0.537
752.999	461.622	80.010	19.990	104.291	19.949	10.676	0.480
753.500	461.429	80.010	19.993	104.288	19.951	10.549	0.485
754.000	462.332	80.011	19.993	104.288	19.948	10.725	0.634
754.499	462.190	80.010	19.990	104.290	19.951	10.507	0.736
754.999	462.597	80.010	19.993	104.292	19.951	10.532	0.513
755.499	462.624	80.009	19.991	104.295	19.950	10.558	0.350
756.000	462.939	80.010	19.992	104.298	19.950	10.570	0.388
756.500	463.250	80.009	19.992	104.297	19.955	10.255	0.484
756.999	463.320	80.009	19.992	104.296	19.951	10.551	0.504
757.499	463.819	80.009	19.993	104.296	19.956	10.164	0.475
757.999	463.967	80.009	19.992	104.296	19.951	10.495	0.607
758.499	464.276	80.009	19.991	104.296	19.950	10.586	0.552
758.999	464.524	80.011	19.990	104.296	19.952	10.422	0.507
759.499	464.748	80.010	19.992	104.297	19.949	10.693	0.514
759.999	465.045	80.009	19.993	104.296	19.955	10.220	0.496
760.499	465.392	80.011	19.993	104.296	19.953	10.350	0.583
760.999	465.525	80.008	19.991	104.295	19.953	10.360	0.562
761.499	465.866	80.009	19.993	104.295	19.949	10.629	0.477
761.999	466.144	80.007	19.992	104.295	19.952	10.421	0.546
762.500	466.442	80.009	19.994	104.294	19.953	10.393	0.597
763.000	466.650	80.008	19.992	104.294	19.951	10.528	0.541
763.499	466.940	80.008	19.994	104.294	19.951	10.500	0.502
763.999	467.166	80.008	19.993	104.294	19.952	10.433	0.507
764.499	467.533	80.007	19.994	104.293	19.953	10.341	0.555
764.999	467.714	80.008	19.994	104.290	19.951	10.518	0.570
765.499	468.015	80.008	19.994	104.285	19.954	10.302	0.515
765.999	468.307	80.009	19.995	104.284	19.955	10.225	0.537
766.500	468.508	80.009	19.993	104.282	19.957	10.094	0.543
767.000	468.814	80.008	19.993	104.283	19.955	10.253	0.500
767.499	469.079	80.006	19.994	104.287	19.957	10.086	0.539
767.999	469.344	80.008	19.995	104.289	19.957	10.053	0.551
768.499	469.585	80.008	19.994	104.290	19.956	10.160	0.518
768.999	469.889	80.009	19.993	104.290	19.954	10.290	0.525
769.500	470.155	80.007	19.994	104.287	19.958	10.022	0.557
770.000	470.430	80.007	19.994	104.287	19.957	10.093	0.556
770.499	470.741	80.008	19.994	104.289	19.961	9.812	0.564
770.999	470.969	80.007	19.995	104.289	19.958	10.038	0.562
771.499	471.215	80.007	19.994	104.287	19.958	10.004	0.507
771.999	471.553	80.008	19.993	104.286	19.961	9.787	0.529
772.500	471.792	80.007	19.994	104.282	19.958	10.013	0.581
773.000	472.009	80.008	19.994	104.281	19.960	9.890	0.517
773.500	472.297	80.008	19.996	104.278	19.959	9.923	0.480
773.999	472.596	80.007	19.995	104.277	19.960	9.857	0.546
774.499	472.858	80.008	19.994	104.279	19.959	9.924	0.574
775.000	473.176	80.008	19.993	104.279	19.963	9.649	0.571
775.500	473.401	80.007	19.993	104.279	19.960	9.829	0.562
775.999	473.624	80.009	19.996	104.279	19.964	9.580	0.495
776.499	473.929	80.008	19.996	104.281	19.960	9.874	0.487
776.999	474.225	80.008	19.993	104.281	19.963	9.667	0.564
777.500	474.482	80.007	19.993	104.283	19.964	9.586	0.578
778.000	474.707	80.008	19.995	104.282	19.962	9.740	0.518
778.499	475.039	80.007	19.993	104.285	19.965	9.510	0.519
778.999	475.311	80.008	19.995	104.285	19.966	9.428	0.580
779.499	475.543	80.007	19.994	104.282	19.961	9.767	0.555
779.999	475.849	80.009	19.993	104.281	19.966	9.422	0.521
780.499	476.096	80.009	19.994	104.278	19.963	9.625	0.545
780.999	476.365	80.009	19.993	104.274	19.966	9.460	0.534
781.500	476.613	80.009	19.994	104.272	19.968	9.264	0.516
782.000	476.851	80.008	19.993	104.275	19.967	9.324	0.502
782.499	477.133	80.008	19.990	104.277	19.966	9.431	0.503
782.999	477.420	80.008	19.994	104.279	19.969	9.209	0.544
783.499	477.701	80.007	19.992	104.281	19.964	9.595	0.568
783.999	477.944	80.008	19.993	104.280	19.967	9.352	0.546
784.500	478.221	80.008	19.994	104.275	19.971	9.102	0.522
785.000	478.533	80.007	19.993	104.269	19.969	9.248	0.555
785.499	478.728	80.008	19.993	104.267	19.968	9.302	0.548
785.999	479.028	80.010	19.993	104.266	19.967	9.331	0.501
786.499	479.261	80.008	19.994	104.268	19.970	9.110	0.514
786.999	479.585	80.008	19.994	104.272	19.971	9.055	0.545
787.500	479.781	80.008	19.992	104.277	19.971	9.053	0.538
788.000	480.057	80.009	19.994	104.276	19.972	9.021	0.496
788.500	480.305	80.009	19.994	104.274	19.971	9.087	0.498
789.000	480.612	80.008	19.994	104.272	19.973	8.956	0.539
789.499	480.872	80.008	19.993	104.266	19.971	9.051	0.561
789.999	481.128	80.007	19.991	104.260	19.975	8.798	0.542
790.500	481.391	80.007	19.993	104.260	19.972	8.996	0.518
791.000	481.648	80.008	19.993	104.261	19.972	8.968	0.520
791.499	481.879	80.007	19.994	104.261	19.972	9.001	0.504
791.999	482.164	80.007	19.993	104.263	19.971	9.040	0.502
792.499	482.396	80.007	19.994	104.264	19.970	9.114	0.517
792.999	482.665	80.006	19.992	104.263	19.974	8.844	0.509
793.499	482.932	80.006	19.994	104.264	19.972	8.987	0.518
793.999	483.205	80.006	19.994	104.266	19.976	8.696	0.538
794.499	483.475	80.007	19.995	104.268	19.978	8.597	0.541
795.000	483.694	80.007	19.994	104.269	19.975	8.795	0.516
795.500	483.974	80.006	19.993	104.269	19.978	8.557	0.494
795.999	484.222	80.006	19.994	104.266	19.975	8.765	0.514
796.499	484.498	80.007	19.992	104.262	19.973	8.916	0.525
796.999	484.762	80.006	19.995	104.263	19.976	8.730	0.532
797.499	484.982	80.006	19.994	104.268	19.977	8.668	0.512
797.999	485.249	80.005	19.995	104.269	19.975	8.745	0.486
798.499	485.518	80.006	19.995	104.271	19.977	8.656	0.512
798.999	485.735	80.006	19.995	104.275	19.980	8.401	0.511
799.499	486.025	80.006	19.994	104.276	19.980	8.425	0.496
799.999	486.323	80.006	19.994	104.276	19.980	8.413	0.548
800.499	486.587	80.006	19.995	104.278	19.978	8.552	0.575
800.999	486.835	80.007	19.995	104.279	19.981	8.352	0.537
801.499	487.064	80.006	19.993	104.279	19.979	8.496	0.494
801.999	487.342	80.006	19.994	104.275	19.980	8.395	0.492
802.499	487.569	80.005	19.993	104.269	19.980	8.434	0.506
802.999	487.837	80.007	19.994	104.266	19.981	8.355	0.500
803.500	488.113	80.006	19.994	104.264	19.980	8.425	0.519
804.000	488.329	80.008	19.995	104.261	19.981	8.350	0.518
804.500	488.596	80.007	19.993	104.261	19.981	8.382	0.487
805.000	488.858	80.007	19.995	104.265	19.984	8.107	0.506
805.499	489.075	80.008	19.994	104.266	19.983	8.215	0.504
805.999	489.382	80.007	19.993	104.267	19.983	8.225	0.501
806.499	489.638	80.009	19.993	104.267	19.983	8.209	0.544
807.000	489.861	80.008	19.994	104.267	19.984	8.100	0.521
807.500	490.149	80.008	19.994	104.266	19.985	8.076	0.495
807.999	490.428	80.009	19.993	104.267	19.985	8.038	0.539
808.499	490.668	80.009	19.994	104.267	19.986	7.994	0.543
808.999	490.931	80.008	19.991	104.267	19.984	8.098	0.511
809.500	491.181	80.008	19.992	104.267	19.983	8.220	0.508
810.000	491.455	80.009	19.994	104.270	19.985	8.042	0.519
810.500	491.681	80.010	19.994	104.274	19.983	8.192	0.512
811.000	491.973	80.009	19.994	104.279	19.983	8.184	0.509
811.499	492.250	80.010	19.993	104.279	19.989	7.739	0.544
811.999	492.467	80.009	19.992	104.279	19.988	7.814	0.532
812.499	492.720	80.009	19.993	104.276	19.989	7.739	0.482
812.999	493.004	80.008	19.993	104.268	19.987	7.909	0.503
813.499	493.266	80.009	19.993	104.266	19.987	7.913	0.541
813.999	493.558	80.008	19.992	104.271	19.992	7.552	0.550
814.499	493.810	80.009	19.995	104.272	19.990	7.727	0.549
814.999	494.069	80.008	19.992	104.273	19.991	7.632	0.528
815.499	494.360	80.008	19.992	104.280	19.989	7.796	0.531
815.999	494.576	80.009	19.995	104.283	19.989	7.755	0.528
816.499	494.898	80.008	19.993	104.280	19.990	7.715	0.522
816.999	495.104	80.009	19.993	104.278	19.990	7.667	0.533
817.499	495.372	80.007	19.991	104.275	19.994	7.433	0.501
817.999	495.626	80.007	19.991	104.271	19.992	7.532	0.498
818.499	495.899	80.008	19.993	104.266	19.990	7.700	0.524
818.999	496.154	80.008	19.992	104.264	19.995	7.364	0.527
819.499	496.429	80.009	19.993	104.267	19.992	7.514	0.529
819.999	496.670	80.009	19.993	104.268	19.991	7.657	0.523
820.499	496.946	80.010	19.993	104.265	19.992	7.514	0.516
820.999	497.212	80.008	19.992	104.264	19.994	7.399	0.530
821.499	497.455	80.007	19.992	104.264	19.992	7.546	0.526
822.000	497.691	80.008	19.993	104.261	19.994	7.406	0.494
822.500	497.973	80.008	19.993	104.262	19.993	7.473	0.498
822.999	498.227	80.008	19.993	104.265	19.993	7.512	0.527
823.499	498.461	80.009	19.994	104.266	19.994	7.406	0.512
823.999	498.699	80.010	19.994	104.267	19.994	7.398	0.480
824.499	498.975	80.008	19.993	104.267	19.997	7.196	0.493
824.999	499.251	80.008	19.992	104.265	19.996	7.281	0.533
825.499	499.523	80.008	19.994	104.267	19.995	7.368	0.550
825.999	499.792	80.008	19.992	104.268	19.996	7.236	0.544
826.499	500.015	80.008	19.994	104.266	19.993	7.469	0.516
826.999	500.331	80.008	19.992	104.265	19.994	7.378	0.516
827.499	500.535	80.006	19.992	104.264	19.994	7.439	0.529
827.999	500.818	80.009	19.992	104.259	19.995	7.300	0.503
828.499	501.039	80.009	19.994	104.256	19.998	7.122	0.496
828.999	501.323	80.008	19.991	104.257	19.997	7.221	0.505
829.499	501.548	80.008	19.992	104.256	19.998	7.096	0.507
829.999	501.821	80.008	19.993	104.256	20.000	6.985	0.503
830.499	502.062	80.010	19.993	104.256	19.997	7.201	0.506
831.000	502.338	80.009	19.993	104.255	19.997	7.166	0.516
831.500	502.572	80.009	19.994	104.257	20.002	6.827	0.514
831.999	502.819	80.009	19.993	104.258	19.998	7.118	0.495
832.499	503.056	80.009	19.992	104.258	20.000	6.969	0.482
832.999	503.347	80.009	19.993	104.260	20.000	6.977	0.506
833.499	503.598	80.010	19.993	104.261	19.999	7.021	0.535
833.999	503.851	80.010	19.993	104.260	20.002	6.815	0.523
834.499	504.079	80.009	19.992	104.261	20.002	6.792	0.493
835.000	504.348	80.011	19.994	104.267	20.006	6.538	0.489
835.500	504.571	80.010	19.993	104.267	20.001	6.887	0.494
835.999	504.840	80.010	19.993	104.268	20.002	6.796	0.492
836.499	505.082	80.010	19.993	104.268	20.005	6.618	0.502
836.999	505.343	80.012	19.994	104.267	20.004	6.659	0.508
837.499	505.595	80.010	19.993	104.261	20.004	6.712	0.508
838.000	505.862	80.009	19.994	104.258	20.008	6.423	0.516
838.500	506.108	80.010	19.992	104.256	20.008	6.415	0.516
838.999	506.331	80.010	19.993	104.256	20.008	6.397	0.491
839.499	506.595	80.009	19.992	104.256	20.003	6.763	0.478
839.999	506.843	80.009	19.991	104.258	20.008	6.373	0.500
840.499	507.071	80.009	19.992	104.258	20.007	6.482	0.495
840.999	507.320	80.008	19.993	104.258	20.006	6.508	0.477
841.499	507.587	80.009	19.993	104.258	20.006	6.522	0.496
841.999	507.839	80.009	19.993	104.256	20.007	6.464	0.517
842.499	508.069	80.010	19.993	104.255	20.006	6.565	0.501
842.999	508.326	80.008	19.993	104.255	20.011	6.157	0.485
843.500	508.574	80.008	19.993	104.255	20.008	6.397	0.496
844.000	508.805	80.005	19.993	104.255	20.011	6.195	0.492
844.500	509.082	80.008	19.994	104.255	20.011	6.154	0.494
844.999	509.288	80.008	19.994	104.258	20.013	6.060	0.496
845.499	509.564	80.007	19.995	104.262	20.007	6.435	0.483
845.999	509.786	80.009	19.995	104.267	20.010	6.260	0.490
846.499	510.033	80.008	19.996	104.269	20.012	6.108	0.483
846.999	510.306	80.008	19.995	104.272	20.011	6.183	0.495
847.499	510.561	80.008	19.995	104.271	20.012	6.094	0.524
847.999	510.785	80.007	19.995	104.268	20.012	6.076	0.503
848.499	511.009	80.007	19.993	104.264	20.010	6.215	0.463
849.000	511.291	80.007	19.994	104.262	20.012	6.134	0.477
849.500	511.544	80.006	19.993	104.260	20.011	6.183	0.521
849.999	511.759	80.008	19.993	104.258	20.013	6.058	0.501
850.499	511.982	80.008	19.993	104.257	20.009	6.300	0.453
850.999	512.224	80.008	19.993	104.257	20.009	6.290	0.451
851.499	512.480	80.008	19.992	104.256	20.013	6.025	0.482
851.999	512.723	80.008	19.993	104.256	20.013	6.013	0.499
852.499	512.936	80.009	19.993	104.256	20.012	6.130	0.478
852.999	513.202	80.007	19.994	104.256	20.012	6.090	0.468
853.499	513.407	80.008	19.995	104.257	20.013	6.039	0.475
854.000	513.704	80.007	19.993	104.259	20.012	6.110	0.486
854.500	513.897	80.007	19.993	104.261	20.013	6.039	0.496
855.000	514.168	80.008	19.993	104.261	20.011	6.163	0.477
855.499	514.410	80.007	19.993	104.261	20.014	5.957	0.488
855.999	514.667	80.007	19.994	104.262	20.013	6.023	0.506
856.499	514.919	80.007	19.994	104.261	20.013	6.038	0.504
856.999	515.111	80.008	19.993	104.258	20.013	6.034	0.476
857.499	515.374	80.007	19.993	104.258	20.014	5.975	0.449
857.999	515.621	80.007	19.993	104.258	20.013	6.013	0.483
858.499	515.854	80.007	19.994	104.258	20.014	5.941	0.495
858.999	516.076	80.008	19.995	104.258	20.015	5.856	0.468
859.499	516.334	80.006	19.993	104.259	20.016	5.817	0.468
859.999	516.567	80.007	19.994	104.259	20.018	5.702	0.485
860.499	516.811	80.007	19.992	104.259	20.014	5.948	0.484
860.999	517.038	80.007	19.993	104.259	20.014	5.932	0.475
861.499	517.280	80.007	19.995	104.259	20.013	6.015	0.470
861.999	517.552	80.005	19.994	104.258	20.018	5.664	0.491
862.499	517.773	80.006	19.996	104.259	20.017	5.724	0.503
862.999	518.000	80.008	19.995	104.259	20.018	5.670	0.471
863.499	518.219	80.006	19.994	104.260	20.013	6.049	0.447
863.999	518.517	80.007	19.994	104.262	20.012	6.094	0.481
864.499	518.715	80.008	19.994	104.263	20.014	5.930	0.507
864.999	518.967	80.008	19.991	104.263	20.018	5.702	0.473
865.499	519.191	80.008	19.993	104.262	20.016	5.781	0.463
865.999	519.436	80.008	19.994	104.261	20.019	5.623	0.472
866.499	519.620	80.008	19.994	104.259	20.020	5.545	0.449
867.000	519.911	80.007	19.995	104.257	20.015	5.856	0.453
867.500	520.166	80.009	19.995	104.257	20.017	5.746	0.511
868.000	520.417	80.005	19.993	104.257	20.018	5.656	0.526
868.500	520.659	80.006	19.994	104.257	20.020	5.553	0.499
868.999	520.933	80.006	19.992	104.257	20.018	5.682	0.504
869.499	521.175	80.006	19.994	104.258	20.021	5.488	0.516
869.999	521.381	80.007	19.995	104.262	20.020	5.512	0.482
870.499	521.636	80.007	19.993	104.267	20.017	5.720	0.454
870.999	521.906	80.007	19.994	104.267	20.019	5.633	0.493
871.499	522.135	80.006	19.993	104.268	20.018	5.679	0.512
872.000	522.365	80.007	19.993	104.270	20.022	5.368	0.479
872.500	522.663	80.008	19.993	104.267	20.020	5.562	0.493
872.999	522.889	80.007	19.993	104.262	20.019	5.570	0.526
873.499	523.132	80.007	19.993	104.261	20.019	5.565	0.497
873.999	523.426	80.008	19.995	104.261	20.024	5.244	0.503
874.499	523.625	80.007	19.994	104.262	20.022	5.399	0.515
875.000	523.872	80.006	19.994	104.265	20.022	5.411	0.469
875.500	524.147	80.007	19.991	104.266	20.024	5.211	0.484
875.999	524.374	80.006	19.993	104.266	20.022	5.349	0.512
876.499	524.647	80.006	19.994	104.266	20.022	5.385	0.501
876.999	524.874	80.007	19.994	104.265	20.023	5.317	0.500
877.499	525.140	80.005	19.994	104.263	20.020	5.511	0.496
877.999	525.359	80.006	19.993	104.262	20.025	5.167	0.488
878.499	525.635	80.007	19.994	104.264	20.022	5.357	0.490
879.000	525.887	80.007	19.994	104.264	20.026	5.068	0.512
879.500	526.158	80.006	19.994	104.262	20.026	5.123	0.525
879.999	526.399	80.007	19.993	104.262	20.025	5.195	0.517
880.499	526.661	80.005	19.994	104.265	20.024	5.232	0.508
880.999	526.865	80.006	19.993	104.266	20.025	5.167	0.485
881.500	527.126	80.007	19.993	104.270	20.026	5.093	0.465
882.000	527.391	80.007	19.993	104.275	20.027	5.046	0.495
882.500	527.643	80.006	19.993	104.276	20.029	4.842	0.522
883.000	527.908	80.008	19.994	104.276	20.026	5.087	0.518
883.500	528.163	80.005	19.994	104.275	20.025	5.153	0.519
883.999	528.445	80.007	19.993	104.271	20.026	5.081	0.528
884.499	528.655	80.008	19.994	104.267	20.026	5.097	0.514
884.999	528.930	80.005	19.993	104.267	20.027	5.028	0.488
885.499	529.165	80.008	19.994	104.264	20.032	4.679	0.498
885.999	529.433	80.007	19.995	104.264	20.030	4.769	0.506
886.499	529.648	80.008	19.994	104.263	20.030	4.769	0.493
887.000	529.916	80.007	19.995	104.262	20.026	5.080	0.483
887.500	530.178	80.007	19.992	104.261	20.026	5.062	0.506
888.000	530.418	80.009	19.994	104.260	20.029	4.858	0.516
888.499	530.656	80.008	19.994	104.259	20.031	4.749	0.490
888.999	530.936	80.008	19.992	104.258	20.030	4.829	0.498
889.499	531.193	80.008	19.994	104.259	20.031	4.724	0.527
889.999	531.464	80.008	19.995	104.259	20.029	4.909	0.533
890.499	531.683	80.010	19.994	104.260	20.027	5.004	0.509
891.000	531.920	80.008	19.994	104.260	20.030	4.782	0.473
891.500	532.177	80.007	19.993	104.261	20.030	4.808	0.475
892.000	532.463	80.008	19.994	104.259	20.029	4.857	0.518
892.499	532.693	80.009	19.994	104.258	20.029	4.877	0.529
893.000	532.910	80.009	19.994	104.256	20.031	4.754	0.482
893.500	533.161	80.009	19.994	104.256	20.032	4.677	0.458
894.000	533.452	80.009	19.994	104.255	20.031	4.708	0.505
894.500	533.702	80.009	19.994	104.256	20.028	4.926	0.541
894.999	533.932	80.008	19.994	104.257	20.027	4.986	0.511
895.499	534.208	80.008	19.993	104.257	20.027	4.992	0.493
895.999	534.439	80.007	19.993	104.259	20.031	4.758	0.506
896.500	534.728	80.008	19.993	104.261	20.030	4.813	0.514
897.000	534.971	80.008	19.994	104.260	20.024	5.250	0.526
897.500	535.250	80.007	19.993	104.260	20.025	5.164	0.526
898.000	535.514	80.007	19.994	104.261	20.027	5.043	0.532
898.500	535.712	80.009	19.993	104.262	20.030	4.835	0.502
899.000	536.001	80.009	19.993	104.265	20.026	5.085	0.474
899.500	536.257	80.008	19.994	104.270	20.029	4.873	0.516
900.000	536.554	80.011	19.994	104.278	20.029	4.911	0.549
900.499	536.802	80.007	19.994	104.284	20.029	4.889	0.550
900.999	537.041	80.008	19.994	104.288	20.025	5.175	0.516
901.499	537.279	80.007	19.993	104.289	20.023	5.343	0.482
902.000	537.566	80.008	19.993	104.290	20.026	5.087	0.501
902.500	537.851	80.009	19.994	104.290	20.026	5.093	0.548
902.999	538.135	80.008	19.994	104.288	20.028	4.933	0.570
903.499	538.387	80.009	19.993	104.285	20.028	4.960	0.553
904.000	538.680	80.009	19.995	104.286	20.028	4.982	0.541
904.500	538.965	80.009	19.994	104.288	20.027	4.998	0.562
904.999	539.210	80.008	19.993	104.288	20.025	5.156	0.554
905.499	539.513	80.009	19.992	104.288	20.027	5.029	0.538
905.999	539.778	80.009	19.993	104.288	20.025	5.178	0.558
906.499	540.052	80.009	19.992	104.287	20.024	5.201	0.553
906.999	540.352	80.009	19.993	104.288	20.024	5.205	0.557
907.499	540.654	80.010	19.995	104.288	20.025	5.156	0.588
907.999	540.896	80.009	19.995	104.289	20.024	5.204	0.573
908.499	541.193	80.010	19.993	104.287	20.027	5.030	0.541
908.999	541.450	80.010	19.993	104.284	20.023	5.277	0.546
909.499	541.758	80.009	19.994	104.284	20.025	5.198	0.560
909.999	542.066	80.010	19.993	104.284	20.028	4.936	0.591
910.499	542.342	80.008	19.994	104.285	20.026	5.089	0.600
910.999	542.622	80.010	19.993	104.292	20.027	5.029	0.570
911.499	542.883	80.010	19.992	104.295	20.025	5.134	0.548
911.999	543.192	80.011	19.992	104.295	20.028	4.976	0.556
912.499	543.518	80.012	19.993	104.295	20.030	4.821	0.603
913.000	543.787	80.012	19.994	104.295	20.031	4.716	0.615
913.500	544.102	80.011	19.993	104.294	20.029	4.889	0.590
913.999	544.403	80.009	19.993	104.294	20.028	4.915	0.600
914.500	544.692	80.010	19.993	104.294	20.030	4.807	0.603
915.000	544.955	80.011	19.996	104.293	20.029	4.883	0.571
915.499	545.298	80.011	19.994	104.289	20.030	4.772	0.579
915.999	545.536	80.012	19.992	104.282	20.029	4.906	0.593
916.499	545.866	80.009	19.992	104.277	20.027	5.051	0.575
916.999	546.152	80.012	19.993	104.277	20.027	5.041	0.592
917.499	546.473	80.012	19.993	104.278	20.029	4.847	0.611
917.999	546.786	80.010	19.992	104.280	20.031	4.754	0.620
918.499	547.052	80.011	19.993	104.287	20.029	4.906	0.606
918.999	547.383	80.011	19.993	104.291	20.030	4.783	0.588
919.499	547.669	80.010	19.992	104.291	20.029	4.859	0.607
919.999	547.988	80.010	19.993	104.291	20.026	5.085	0.611
920.499	548.274	80.009	19.992	104.287	20.032	4.635	0.605
920.999	548.575	80.009	19.993	104.283	20.030	4.819	0.596
921.499	548.878	80.009	19.992	104.281	20.028	4.926	0.595
921.999	549.213	80.008	19.992	104.278	20.029	4.896	0.620
922.499	549.476	80.010	19.994	104.277	20.031	4.716	0.618
922.999	549.773	80.008	19.993	104.282	20.032	4.675	0.579
923.500	550.102	80.009	19.993	104.285	20.029	4.851	0.593
924.000	550.379	80.008	19.995	104.287	20.028	4.966	0.616
924.499	550.696	80.008	19.993	104.290	20.031	4.756	0.600
924.999	550.982	80.008	19.993	104.290	20.031	4.744	0.599
925.500	551.311	80.008	19.992	104.287	20.030	4.794	0.609
926.000	551.613	80.007	19.993	104.284	20.029	4.867	0.623
926.500	551.924	80.009	19.993	104.281	20.031	4.752	0.622
927.000	552.243	80.008	19.992	104.278	20.029	4.886	0.622
927.499	552.513	80.007	19.993	104.278	20.028	4.937	0.610
927.999	552.843	80.008	19.993	104.280	20.028	4.981	0.594
928.500	553.144	80.008	19.994	104.282	20.026	5.086	0.615
929.000	553.454	80.008	19.992	104.282	20.030	4.816	0.621
929.500	553.741	80.007	19.992	104.281	20.026	5.062	0.604
930.000	554.038	80.007	19.994	104.278	20.030	4.785	0.591
930.499	554.373	80.009	19.993	104.279	20.028	4.938	0.608
930.999	554.690	80.007	19.994	104.279	20.028	4.936	0.642
931.499	555.013	80.009	19.995	104.278	20.028	4.976	0.646
931.999	555.276	80.007	19.993	104.279	20.027	4.998	0.613
932.499	555.599	80.008	19.994	104.280	20.028	4.941	0.586
932.999	555.921	80.009	19.993	104.279	20.027	5.021	0.616
933.499	556.214	80.007	19.993	104.280	20.030	4.769	0.630
933.999	556.494	80.008	19.993	104.285	20.028	4.932	0.594
934.499	556.787	80.007	19.994	104.289	20.030	4.793	0.573
934.999	557.101	80.009	19.992	104.293	20.028	4.936	0.590
935.499	557.414	80.008	19.994	104.295	20.031	4.751	0.617
935.999	557.706	80.006	19.992	104.295	20.030	4.777	0.616
936.499	557.994	80.009	19.992	104.291	20.027	5.033	0.592
936.999	558.284	80.008	19.993	104.285	20.034	4.517	0.579
937.500	558.606	80.008	19.993	104.280	20.031	4.757	0.595
938.000	558.861	80.008	19.994	104.273	20.027	5.000	0.595
938.499	559.201	80.007	19.993	104.267	20.030	4.810	0.586
938.999	559.500	80.008	19.993	104.265	20.031	4.741	0.617
939.499	559.782	80.008	19.993	104.266	20.026	5.084	0.610
939.999	560.075	80.008	19.992	104.267	20.027	4.996	0.578
940.499	560.407	80.009	19.992	104.268	20.030	4.790	0.600
940.999	560.676	80.007	19.991	104.271	20.029	4.864	0.613
941.499	560.977	80.007	19.992	104.277	20.029	4.868	0.586
941.999	561.268	80.008	19.992	104.283	20.031	4.709	0.581
942.499	561.571	80.006	19.992	104.286	20.030	4.796	0.593
943.000	561.874	80.008	19.992	104.289	20.032	4.652	0.600
943.500	562.192	80.006	19.993	104.292	20.027	5.000	0.614
943.999	562.472	80.008	19.993	104.286	20.029	4.858	0.610
944.500	562.783	80.008	19.993	104.279	20.029	4.895	0.594
945.000	563.068	80.008	19.993	104.273	20.029	4.852	0.593
945.500	563.357	80.008	19.993	104.275	20.032	4.691	0.585
946.000	563.637	80.008	19.993	104.271	20.031	4.701	0.572
946.500	563.931	80.008	19.993	104.270	20.029	4.868	0.571
947.000	564.207	80.008	19.993	104.269	20.031	4.731	0.572
947.499	564.508	80.007	19.993	104.269	20.030	4.802	0.574
947.999	564.732	80.008	19.996	104.262	20.032	4.650	0.551
948.499	565.045	80.008	19.995	104.261	20.033	4.578	0.531
948.999	565.346	80.007	19.992	104.261	20.035	4.457	0.575
949.499	565.638	80.009	19.993	104.261	20.033	4.555	0.603
950.000	565.906	80.008	19.993	104.261	20.031	4.695	0.577
950.500	566.179	80.008	19.994	104.260	20.031	4.713	0.551
950.999	566.466	80.008	19.993	104.260	20.031	4.749	0.551
951.499	566.750	80.007	19.994	104.259	20.030	4.810	0.566
951.999	567.035	80.008	19.994	104.259	20.030	4.774	0.570
952.500	567.262	80.006	19.993	104.259	20.031	4.713	0.540
953.000	567.549	80.007	19.993	104.257	20.033	4.566	0.513
953.499	567.796	80.008	19.993	104.257	20.033	4.604	0.524
953.999	568.031	80.007	19.994	104.257	20.034	4.541	0.508
954.499	568.305	80.008	19.995	104.257	20.033	4.610	0.495
954.999	568.591	80.007	19.993	104.257	20.032	4.687	0.535
955.499	568.817	80.008	19.995	104.258	20.032	4.640	0.536
955.999	569.100	80.007	19.995	104.257	20.033	4.616	0.511
956.499	569.348	80.007	19.992	104.258	20.030	4.822	0.520
956.999	569.675	80.006	19.995	104.257	20.030	4.778	0.552
957.499	569.907	80.006	19.994	104.257	20.030	4.788	0.567
957.999	570.145	80.007	19.995	104.257	20.035	4.444	0.514
958.500	570.446	80.008	19.995	104.258	20.035	4.406	0.504
959.000	570.648	80.007	19.994	104.258	20.035	4.426	0.521
959.499	570.923	80.007	19.994	104.258	20.034	4.497	0.491
959.999	571.167	80.008	19.993	104.258	20.031	4.709	0.498
960.499	571.439	80.008	19.994	104.258	20.034	4.499	0.517
960.999	571.685	80.008	19.995	104.258	20.031	4.747	0.516
961.499	571.919	80.007	19.994	104.257	20.036	4.345	0.499
961.999	572.214	80.007	19.994	104.257	20.033	4.580	0.505
962.499	572.452	80.008	19.995	104.256	20.033	4.570	0.531
963.000	572.714	80.008	19.995	104.257	20.033	4.600	0.516
963.500	572.949	80.008	19.993	104.257	20.032	4.652	0.498
963.999	573.204	80.007	19.994	104.258	20.030	4.832	0.493
964.499	573.432	80.008	19.994	104.258	20.032	4.642	0.487
965.000	573.680	80.009	19.993	104.258	20.031	4.697	0.480
965.500	573.969	80.008	19.994	104.258	20.030	4.798	0.506
965.999	574.247	80.009	19.994	104.257	20.033	4.582	0.551
966.500	574.460	80.009	19.993	104.257	20.036	4.392	0.529
967.000	574.733	80.010	19.993	104.257	20.031	4.699	0.489
967.499	574.979	80.009	19.995	104.257	20.031	4.697	0.503
967.999	575.197	80.010	19.994	104.257	20.035	4.465	0.491
968.499	575.454	80.011	19.993	104.257	20.034	4.507	0.469
968.999	575.691	80.010	19.993	104.258	20.034	4.485	0.484
969.499	575.952	80.009	19.994	104.258	20.035	4.467	0.496
969.999	576.198	80.009	19.993	104.259	20.037	4.291	0.502
970.499	576.432	80.009	19.992	104.258	20.037	4.303	0.493
971.000	576.655	80.010	19.994	104.259	20.032	4.664	0.469
971.500	576.913	80.011	19.993	104.258	20.037	4.305	0.469
972.000	577.123	80.010	19.994	104.258	20.032	4.640	0.475
972.499	577.393	80.011	19.994	104.258	20.033	4.570	0.474
972.999	577.656	80.010	19.993	104.258	20.035	4.466	0.506
973.499	577.892	80.009	19.993	104.258	20.034	4.543	0.516
973.999	578.091	80.010	19.993	104.257	20.034	4.489	0.467
974.499	578.324	80.012	19.994	104.256	20.033	4.571	0.434
974.999	578.556	80.010	19.994	104.256	20.034	4.481	0.448
975.499	578.805	80.009	19.994	104.256	20.034	4.545	0.473
975.999	579.046	80.010	19.993	104.256	20.031	4.737	0.486
976.499	579.304	80.009	19.994	104.257	20.033	4.592	0.495
976.999	579.501	80.009	19.993	104.258	20.033	4.578	0.477
977.499	579.735	80.010	19.993	104.258	20.032	4.682	0.443
977.999	579.971	80.009	19.994	104.259	20.031	4.711	0.451
978.500	580.245	80.009	19.994	104.258	20.034	4.480	0.490
979.000	580.456	80.010	19.994	104.258	20.033	4.602	0.498
979.499	580.717	80.008	19.994	104.256	20.032	4.694	0.479
979.999	580.968	80.010	19.994	104.256	20.035	4.470	0.492
980.499	581.234	80.010	19.994	104.257	20.036	4.341	0.514
981.000	581.426	80.008	19.994	104.257	20.035	4.406	0.488
981.500	581.692	80.009	19.993	104.258	20.032	4.692	0.458
982.000	581.941	80.009	19.994	104.258	20.031	4.696	0.486
982.500	582.195	80.010	19.994	104.258	20.031	4.729	0.509
982.999	582.425	80.010	19.994	104.257	20.031	4.696	0.494
983.499	582.660	80.010	19.994	104.258	20.030	4.817	0.475
983.999	582.917	80.009	19.995	104.260	20.030	4.799	0.479
984.499	583.125	80.008	19.994	104.262	20.031	4.745	0.478
984.999	583.365	80.007	19.994	104.262	20.034	4.529	0.456
985.500	583.598	80.010	19.995	104.262	20.036	4.390	0.460
986.000	583.831	80.009	19.995	104.262	20.033	4.565	0.469
986.499	584.075	80.008	19.995	104.259	20.030	4.773	0.471
986.999	584.354	80.008	19.994	104.259	20.032	4.679	0.500
987.499	584.565	80.009	19.995	104.259	20.035	4.422	0.507
987.999	584.822	80.009	19.994	104.260	20.034	4.513	0.480
988.499	585.032	80.009	19.995	104.262	20.030	4.808	0.468
988.999	585.310	80.008	19.994	104.264	20.032	4.675	0.477
989.499	585.551	80.008	19.994	104.264	20.032	4.644	0.504
989.999	585.798	80.009	19.995	104.263	20.034	4.499	0.503
990.500	586.050	80.010	19.995	104.264	20.029	4.854	0.493
991.000	586.287	80.010	19.994	104.263	20.030	4.818	0.494
991.499	586.538	80.009	19.995	104.263	20.036	4.362	0.489
991.999	586.807	80.009	19.995	104.263	20.031	4.731	0.504
992.499	587.062	80.010	19.994	104.265	20.035	4.418	0.522
992.999	587.256	80.010	19.994	104.264	20.031	4.761	0.486
993.499	587.534	80.010	19.995	104.266	20.032	4.675	0.461
993.999	587.791	80.009	19.993	104.266	20.031	4.711	0.504
994.499	588.035	80.010	19.994	104.268	20.034	4.523	0.518
994.999	588.321	80.010	19.994	104.266	20.033	4.579	0.515
995.500	588.542	80.010	19.993	104.266	20.035	4.440	0.518
996.000	588.795	80.010	19.993	104.263	20.031	4.717	0.491
996.499	589.065	80.010	19.993	104.261	20.032	4.676	0.499
996.999	589.273	80.013	19.994	104.260	20.033	4.606	0.500
997.499	589.521	80.010	19.993	104.258	20.034	4.505	0.466
997.999	589.785	80.010	19.993	104.258	20.033	4.569	0.484
998.499	590.053	80.010	19.992	104.258	20.030	4.775	0.523
998.999	590.311	80.012	19.994	104.258	20.030	4.836	0.529
999.500	590.558	80.010	19.993	104.257	20.031	4.725	0.515
1000.000	590.800	80.010	19.993	104.258	20.032	4.650	0.497
1000.499	591.081	80.011	19.992	104.258	20.032	4.694	0.506
1000.999	591.325	80.009	19.992	104.258	20.034	4.549	0.524
1001.499	591.569	80.009	19.993	104.259	20.032	4.666	0.506
1001.999	591.813	80.009	19.993	104.259	20.031	4.727	0.488
1002.499	592.076	80.009	19.992	104.259	20.028	4.937	0.498
1002.999	592.316	80.010	19.993	104.259	20.033	4.588	0.505
1003.500	592.562	80.009	19.993	104.260	20.033	4.594	0.495
1004.000	592.818	80.007	19.993	104.260	20.033	4.569	0.494
1004.500	593.070	80.009	19.994	104.259	20.033	4.573	0.505
1005.000	593.312	80.008	19.993	104.260	20.031	4.697	0.501
1005.499	593.636	80.009	19.993	104.263	20.031	4.741	0.530
1005.999	593.856	80.008	19.993	104.263	20.027	4.997	0.555
1006.499	594.111	80.008	19.993	104.263	20.029	4.868	0.509
1006.999	594.356	80.007	19.993	104.263	20.034	4.513	0.488
1007.499	594.611	80.008	19.992	104.264	20.032	4.648	0.500
1007.999	594.842	80.008	19.992	104.261	20.031	4.699	0.493
1008.499	595.129	80.008	19.993	104.260	20.030	4.794	0.502
1008.999	595.396	80.008	19.992	104.260	20.034	4.489	0.536
1009.499	595.633	80.007	19.994	104.260	20.033	4.566	0.529
1009.999	595.875	80.007	19.993	104.261	20.032	4.687	0.492
1010.499	596.125	80.008	19.993	104.267	20.032	4.642	0.486
1010.999	596.409	80.008	19.993	104.269	20.030	4.790	0.513
1011.499	596.616	80.008	19.994	104.268	20.032	4.683	0.512
1011.999	596.914	80.008	19.994	104.269	20.031	4.711	0.498
1012.499	597.155	80.007	19.993	104.268	20.033	4.614	0.522
1012.999	597.392	80.007	19.993	104.262	20.031	4.737	0.508
1013.500	597.674	80.008	19.993	104.260	20.032	4.660	0.498
1014.000	597.942	80.008	19.993	104.260	20.032	4.650	0.535
1014.499	598.156	80.007	19.994	104.260	20.032	4.654	0.516
1014.999	598.417	80.009	19.994	104.261	20.033	4.562	0.478
1015.499	598.649	80.009	19.994	104.261	20.030	4.838	0.483
1015.999	598.913	80.009	19.994	104.261	20.031	4.699	0.494
1016.499	599.160	80.007	19.993	104.261	20.030	4.838	0.504
1016.999	599.414	80.008	19.994	104.262	20.031	4.727	0.506
1017.499	599.683	80.009	19.994	104.263	20.032	4.628	0.512
1017.999	599.928	80.008	19.993	104.263	20.032	4.668	0.519
1018.499	600.151	80.008	19.993	104.263	20.032	4.687	0.491
1018.999	600.435	80.007	19.993	104.262	20.036	4.372	0.487
1019.499	600.658	80.008	19.994	104.262	20.036	4.341	0.507
1019.999	600.887	80.008	19.992	104.258	20.034	4.519	0.479
1020.499	601.147	80.009	19.993	104.258	20.031	4.735	0.471
1020.999	601.436	80.008	19.993	104.258	20.030	4.776	0.520
1021.499	601.685	80.009	19.994	104.258	20.033	4.584	0.544
1021.999	601.908	80.008	19.994	104.258	20.031	4.699	0.505
1022.499	602.163	80.007	19.993	104.259	20.034	4.547	0.475
1022.999	602.395	80.008	19.993	104.259	20.033	4.604	0.482
1023.499	602.700	80.009	19.993	104.259	20.036	4.400	0.512
1024.000	602.931	80.008	19.993	104.259	20.036	4.392	0.537
1024.499	603.168	80.008	19.993	104.259	20.035	4.448	0.502
1024.999	603.438	80.009	19.993	104.258	20.036	4.337	0.487
1025.499	603.645	80.009	19.993	104.258	20.037	4.313	0.492
1025.999	603.903	80.008	19.994	104.258	20.034	4.523	0.471
1026.499	604.124	80.007	19.994	104.258	20.036	4.386	0.472
1026.999	604.400	80.007	19.995	104.258	20.035	4.475	0.488
1027.499	604.626	80.008	19.994	104.257	20.035	4.424	0.500
1027.999	604.894	80.008	19.994	104.258	20.038	4.188	0.498
1028.499	605.143	80.008	19.994	104.260	20.037	4.289	0.506
1028.999	605.419	80.009	19.994	104.261	20.038	4.228	0.521
1029.499	605.654	80.008	19.993	104.261	20.034	4.495	0.518
1029.999	605.912	80.006	19.993	104.261	20.035	4.455	0.502
1030.499	606.122	80.009	19.993	104.261	20.035	4.412	0.480
1030.999	606.385	80.007	19.993	104.258	20.032	4.648	0.470
1031.499	606.641	80.008	19.994	104.257	20.037	4.327	0.496
1031.999	606.905	80.007	19.993	104.258	20.036	4.337	0.520
1032.499	607.119	80.008	19.994	104.258	20.036	4.362	0.499
1032.999	607.395	80.007	19.994	104.258	20.036	4.356	0.484
1033.499	607.620	80.008	19.993	104.259	20.037	4.295	0.495
1033.999	607.886	80.009	19.993	104.258	20.036	4.384	0.496
1034.499	608.167	80.008	19.994	104.258	20.038	4.257	0.519
1034.999	608.382	80.009	19.994	104.259	20.039	4.178	0.521
1035.499	608.644	80.008	19.993	104.258	20.034	4.517	0.487
1035.999	608.902	80.007	19.993	104.258	20.033	4.582	0.499
1036.499	609.153	80.007	19.993	104.258	20.035	4.437	0.514
1036.999	609.384	80.007	19.993	104.258	20.035	4.443	0.495
1037.499	609.626	80.009	19.994	104.257	20.036	4.340	0.478
1037.999	609.869	80.007	19.992	104.257	20.035	4.428	0.479
1038.499	610.146	80.007	19.994	104.257	20.035	4.465	0.502
1038.999	610.398	80.008	19.994	104.257	20.035	4.454	0.524
1039.499	610.644	80.007	19.994	104.258	20.034	4.505	0.513
1039.999	610.866	80.007	19.994	104.258	20.032	4.630	0.483
1040.499	611.076	80.008	19.994	104.259	20.032	4.630	0.450
1040.999	611.347	80.007	19.994	104.257	20.033	4.576	0.457
1041.499	611.619	80.008	19.994	104.256	20.035	4.452	0.512
1041.999	611.889	80.007	19.994	104.256	20.035	4.410	0.543
1042.499	612.129	80.007	19.994	104.256	20.033	4.608	0.526
1042.999	612.391	80.007	19.994	104.256	20.033	4.620	0.505
1043.499	612.597	80.008	19.994	104.257	20.034	4.515	0.485
1043.999	612.858	80.008	19.993	104.258	20.037	4.269	0.468
1044.499	613.106	80.007	19.993	104.258	20.034	4.521	0.488
1044.999	613.359	80.008	19.993	104.257	20.031	4.703	0.505
1045.499	613.577	80.009	19.993	104.256	20.034	4.515	0.486
1045.999	613.871	80.007	19.993	104.255	20.032	4.636	0.491
1046.499	614.094	80.009	19.992	104.255	20.035	4.475	0.514
1046.999	614.370	80.008	19.993	104.254	20.034	4.489	0.508
1047.499	614.590	80.009	19.994	104.251	20.034	4.477	0.498
1047.999	614.857	80.008	19.993	104.253	20.033	4.604	0.492
1048.499	615.106	80.009	19.994	104.254	20.034	4.507	0.501
1048.999	615.382	80.009	19.993	104.254	20.034	4.493	0.521
1049.499	615.625	80.008	19.995	104.255	20.037	4.327	0.522
1049.999	615.871	80.009	19.994	104.258	20.035	4.414	0.504
1050.499	616.136	80.008	19.995	104.258	20.036	4.339	0.500
1050.999	616.408	80.007	19.993	104.258	20.032	4.644	0.524
1051.499	616.647	80.010	19.994	104.258	20.037	4.323	0.524
1051.999	616.874	80.009	19.994	104.257	20.034	4.545	0.489
1052.499	617.141	80.009	19.995	104.257	20.039	4.137	0.480
1052.999	617.399	80.009	19.994	104.256	20.035	4.442	0.509
1053.499	617.655	80.009	19.994	104.256	20.032	4.670	0.519
1053.999	617.874	80.009	19.995	104.256	20.035	4.408	0.495
1054.499	618.154	80.009	19.993	104.257	20.031	4.696	0.487
1054.999	618.401	80.009	19.993	104.257	20.033	4.620	0.513
1055.499	618.662	80.010	19.995	104.258	20.034	4.535	0.517
1055.999	618.899	80.010	19.994	104.258	20.033	4.557	0.503
1056.499	619.200	80.008	19.994	104.258	20.032	4.654	0.519
1056.999	619.402	80.008	19.994	104.258	20.034	4.521	0.521
1057.499	619.681	80.008	19.993	104.260	20.034	4.485	0.492
1057.999	619.952	80.009	19.994	104.261	20.034	4.517	0.516
1058.499	620.173	80.009	19.994	104.262	20.033	4.614	0.521
1058.999	620.507	80.008	19.994	104.261	20.029	4.909	0.523
1059.499	620.753	80.008	19.994	104.261	20.033	4.608	0.568
1059.999	620.980	80.009	19.993	104.260	20.033	4.610	0.527
1060.499	621.290	80.009	19.993	104.261	20.030	4.793	0.505
1060.999	621.518	80.009	19.993	104.260	20.032	4.642	0.538
1061.499	621.841	80.008	19.993	104.260	20.026	5.058	0.545
1061.999	622.072	80.008	19.992	104.261	20.031	4.699	0.552
1062.499	622.309	80.008	19.994	104.260	20.030	4.769	0.511
1062.999	622.594	80.009	19.994	104.259	20.035	4.454	0.495
1063.499	622.877	80.008	19.995	104.260	20.033	4.618	0.545
1063.999	623.143	80.008	19.995	104.263	20.033	4.572	0.558
1064.499	623.422	80.008	19.993	104.264	20.030	4.824	0.547
1064.999	623.646	80.009	19.994	104.266	20.033	4.577	0.524
1065.499	623.930	80.007	19.994	104.266	20.029	4.890	0.505
1065.999	624.202	80.007	19.993	104.265	20.031	4.761	0.533
1066.499	624.500	80.006	19.994	104.263	20.032	4.652	0.563
1066.999	624.771	80.006	19.994	104.261	20.032	4.658	0.569
1067.499	625.007	80.007	19.993	104.259	20.032	4.640	0.538
1067.999	625.275	80.007	19.995	104.260	20.033	4.596	0.505
1068.499	625.546	80.007	19.994	104.261	20.035	4.438	0.522
1068.999	625.837	80.007	19.994	104.262	20.031	4.751	0.551
1069.499	626.112	80.008	19.994	104.261	20.035	4.465	0.564
1069.999	626.399	80.008	19.993	104.263	20.033	4.557	0.564
1070.499	626.642	80.007	19.994	104.265	20.033	4.612	0.546
1070.999	626.917	80.008	19.993	104.265	20.031	4.721	0.524
1071.499	627.180	80.008	19.994	104.265	20.033	4.612	0.528
1071.999	627.495	80.008	19.993	104.265	20.032	4.663	0.558
1072.499	627.754	80.010	19.994	104.264	20.031	4.760	0.576
1073.000	628.064	80.009	19.993	104.261	20.031	4.721	0.572
1073.499	628.318	80.009	19.993	104.259	20.030	4.802	0.567
1073.999	628.598	80.009	19.993	104.258	20.031	4.699	0.549
1074.499	628.876	80.010	19.993	104.257	20.032	4.673	0.546
1074.999	629.168	80.008	19.994	104.257	20.031	4.752	0.564
1075.499	629.446	80.008	19.994	104.263	20.031	4.719	0.570
1075.999	629.734	80.009	19.994	104.266	20.031	4.701	0.568
1076.499	630.010	80.008	19.994	104.270	20.029	4.890	0.565
1076.999	630.311	80.010	19.995	104.274	20.028	4.957	0.571
1077.499	630.566	80.010	19.994	104.274	20.030	4.802	0.566
1077.999	630.869	80.009	19.993	104.268	20.034	4.483	0.557
1078.499	631.138	80.009	19.994	104.265	20.030	4.788	0.565
1078.999	631.415	80.009	19.995	104.260	20.031	4.695	0.559
1079.499	631.696	80.009	19.994	104.257	20.025	5.131	0.552
1079.999	632.029	80.009	19.994	104.257	20.029	4.844	0.586
1080.499	632.250	80.009	19.994	104.256	20.030	4.810	0.584
1080.999	632.596	80.010	19.994	104.258	20.030	4.777	0.561
1081.499	632.900	80.008	19.994	104.258	20.028	4.929	0.608
1081.999	633.155	80.008	19.994	104.257	20.030	4.838	0.604
1082.499	633.472	80.008	19.994	104.256	20.029	4.901	0.566
1082.999	633.732	80.008	19.994	104.256	20.028	4.971	0.575
1083.499	634.027	80.009	19.994	104.254	20.028	4.933	0.566
1083.999	634.309	80.009	19.995	104.254	20.028	4.974	0.567
1084.499	634.586	80.007	19.995	104.253	20.030	4.794	0.568
1084.999	634.895	80.007	19.994	104.251	20.032	4.689	0.572
1085.499	635.194	80.006	19.993	104.252	20.031	4.742	0.597
1085.999	635.494	80.007	19.994	104.252	20.029	4.859	0.604
1086.499	635.756	80.008	19.994	104.253	20.027	5.049	0.581
1086.999	636.058	80.009	19.994	104.259	20.031	4.699	0.563
1087.499	636.336	80.008	19.994	104.263	20.029	4.863	0.572
1087.999	636.608	80.007	19.994	104.263	20.030	4.824	0.565
1088.499	636.896	80.009	19.994	104.263	20.029	4.856	0.555
1088.999	637.196	80.008	19.994	104.261	20.028	4.929	0.574
1089.499	637.483	80.007	19.994	104.258	20.029	4.846	0.587
1089.999	637.746	80.008	19.994	104.256	20.028	4.939	0.569
1090.499	638.033	80.008	19.992	104.260	20.029	4.846	0.550
1090.999	638.340	80.008	19.994	104.261	20.029	4.897	0.572
1091.499	638.641	80.008	19.993	104.261	20.028	4.933	0.601
1091.999	638.894	80.008	19.994	104.262	20.028	4.977	0.581
1092.499	639.220	80.008	19.993	104.261	20.028	4.949	0.566
1092.999	639.470	80.009	19.993	104.258	20.024	5.218	0.578
1093.499	639.762	80.010	19.995	104.257	20.028	4.929	0.559
1093.999	640.014	80.008	19.994	104.256	20.027	5.040	0.543
1094.499	640.354	80.008	19.994	104.256	20.029	4.903	0.568
1094.999	640.604	80.008	19.994	104.256	20.026	5.107	0.591
1095.499	640.893	80.008	19.993	104.252	20.022	5.414	0.564
1095.999	641.187	80.007	19.993	104.250	20.029	4.891	0.561
1096.499	641.450	80.008	19.993	104.249	20.028	4.959	0.570
1096.999	641.710	80.009	19.993	104.249	20.027	5.050	0.540
1097.499	642.001	80.008	19.993	104.248	20.027	5.010	0.537
1097.999	642.305	80.008	19.994	104.253	20.028	4.980	0.573
1098.499	642.548	80.008	19.993	104.255	20.025	5.196	0.571
1098.999	642.837	80.007	19.993	104.256	20.029	4.899	0.540
1099.499	643.134	80.008	19.993	104.257	20.029	4.846	0.559
1100.000	643.400	80.008	19.994	104.257	20.025	5.173	0.575
1100.500	643.688	80.008	19.993	104.257	20.030	4.769	0.559
1101.000	643.957	80.009	19.994	104.257	20.027	5.010	0.555
1101.499	644.245	80.008	19.993	104.258	20.030	4.788	0.557
1101.999	644.472	80.009	19.993	104.257	20.032	4.644	0.536
1102.499	644.786	80.008	19.993	104.257	20.029	4.862	0.528
1102.999	645.030	80.008	19.993	104.259	20.029	4.891	0.550
1103.499	645.326	80.008	19.994	104.260	20.029	4.866	0.550
1103.999	645.597	80.008	19.994	104.259	20.029	4.876	0.554
1104.499	645.886	80.007	19.993	104.259	20.027	5.008	0.563
1104.999	646.142	80.007	19.993	104.259	20.028	4.941	0.552
1105.499	646.413	80.007	19.994	104.258	20.031	4.757	0.536
1105.999	646.704	80.007	19.993	104.258	20.031	4.743	0.544
1106.499	646.938	80.009	19.994	104.257	20.027	5.054	0.544
1106.999	647.217	80.008	19.993	104.257	20.027	4.987	0.519
1107.499	647.544	80.008	19.993	104.257	20.032	4.648	0.559
1107.999	647.781	80.008	19.993	104.256	20.025	5.189	0.585
1108.499	648.050	80.008	19.995	104.256	20.030	4.780	0.535
1108.999	648.285	80.007	19.993	104.257	20.028	4.921	0.505
1109.499	648.620	80.007	19.993	104.257	20.029	4.880	0.537
1109.999	648.920	80.007	19.994	104.256	20.028	4.973	0.603
1110.499	649.152	80.008	19.993	104.257	20.027	5.012	0.583
1110.999	649.456	80.007	19.995	104.258	20.029	4.870	0.534
1111.499	649.704	80.007	19.994	104.258	20.028	4.983	0.544
1111.999	649.987	80.008	19.995	104.259	20.027	5.014	0.541
1112.499	650.260	80.006	19.994	104.260	20.028	4.961	0.544
1112.999	650.528	80.007	19.994	104.260	20.028	4.939	0.548
1113.499	650.816	80.008	19.995	104.259	20.029	4.870	0.548
1113.999	651.093	80.007	19.994	104.259	20.031	4.723	0.561
1114.499	651.363	80.008	19.994	104.258	20.026	5.056	0.556
1114.999	651.625	80.007	19.993	104.258	20.027	5.006	0.539
1115.499	651.896	80.008	19.995	104.258	20.027	5.042	0.533
1115.999	652.176	80.008	19.995	104.259	20.028	4.923	0.542
1116.499	652.425	80.007	19.993	104.260	20.028	4.969	0.540
1116.999	652.718	80.007	19.994	104.262	20.030	4.820	0.535
1117.499	652.989	80.007	19.994	104.262	20.027	5.028	0.553
1117.999	653.241	80.007	19.993	104.263	20.028	4.947	0.544
1118.499	653.522	80.007	19.993	104.261	20.030	4.830	0.528
1118.999	653.743	80.007	19.994	104.261	20.031	4.739	0.518
1119.499	654.067	80.008	19.994	104.260	20.031	4.763	0.524
1119.999	654.334	80.007	19.993	104.261	20.029	4.876	0.568
1120.499	654.639	80.009	19.993	104.261	20.029	4.854	0.581
1120.999	654.916	80.009	19.994	104.262	20.030	4.834	0.577
1121.499	655.186	80.007	19.994	104.260	20.032	4.636	0.565
1121.999	655.446	80.008	19.993	104.261	20.031	4.757	0.538
1122.499	655.710	80.008	19.993	104.258	20.029	4.878	0.526
1122.999	656.040	80.008	19.992	104.258	20.032	4.673	0.559
1123.499	656.278	80.007	19.993	104.259	20.033	4.608	0.581
1123.999	656.535	80.008	19.993	104.260	20.029	4.870	0.531
1124.499	656.819	80.009	19.993	104.260	20.030	4.786	0.518
1124.999	657.078	80.007	19.994	104.260	20.030	4.780	0.542
1125.499	657.349	80.008	19.994	104.261	20.033	4.594	0.537
1125.999	657.646	80.009	19.994	104.261	20.027	5.024	0.549
1126.499	657.887	80.009	19.994	104.261	20.031	4.703	0.553
1126.999	658.153	80.010	19.994	104.261	20.027	5.020	0.523
1127.499	658.437	80.010	19.993	104.261	20.028	4.971	0.528
1127.999	658.695	80.009	19.993	104.260	20.032	4.636	0.546
1128.499	658.995	80.009	19.992	104.260	20.026	5.081	0.550
1128.999	659.267	80.009	19.993	104.260	20.030	4.806	0.565
1129.499	659.565	80.009	19.994	104.260	20.029	4.893	0.571
1129.999	659.798	80.009	19.994	104.260	20.028	4.931	0.551
1130.499	660.029	80.009	19.992	104.261	20.033	4.616	0.497
1130.999	660.336	80.010	19.993	104.259	20.032	4.693	0.501
1131.499	660.614	80.008	19.993	104.259	20.031	4.725	0.562
1131.999	660.885	80.008	19.992	104.258	20.028	4.976	0.567
1132.499	661.213	80.009	19.993	104.258	20.028	4.978	0.574
1133.000	661.470	80.010	19.992	104.258	20.031	4.723	0.592
1133.499	661.710	80.010	19.993	104.259	20.028	4.923	0.541
1133.999	661.976	80.009	19.993	104.259	20.029	4.872	0.502
1134.499	662.277	80.009	19.993	104.259	20.021	5.458	0.536
1134.999	662.540	80.009	19.993	104.258	20.025	5.145	0.565
1135.499	662.791	80.009	19.994	104.257	20.029	4.883	0.539
1135.999	663.062	80.008	19.993	104.257	20.031	4.751	0.518
1136.499	663.367	80.010	19.994	104.257	20.032	4.657	0.549
1136.999	663.589	80.008	19.994	104.256	20.028	4.935	0.551
1137.499	663.859	80.009	19.994	104.257	20.030	4.794	0.509
1137.999	664.141	80.009	19.994	104.258	20.027	5.004	0.522
1138.499	664.384	80.008	19.993	104.257	20.028	4.970	0.538
1138.999	664.622	80.008	19.994	104.256	20.027	5.018	0.503
1139.499	664.887	80.008	19.994	104.254	20.030	4.788	0.492
1139.999	665.172	80.008	19.993	104.254	20.030	4.807	0.526
1140.499	665.412	80.008	19.994	104.253	20.032	4.639	0.537
1140.999	665.677	80.008	19.994	104.254	20.026	5.083	0.515
1141.499	665.930	80.008	19.994	104.254	20.027	5.007	0.512
1141.999	666.192	80.007	19.994	104.256	20.027	5.002	0.516
1142.499	666.437	80.007	19.995	104.256	20.028	4.974	0.511
1142.999	666.670	80.007	19.994	104.256	20.026	5.117	0.492
1143.499	666.956	80.007	19.995	104.257	20.028	4.911	0.498
1143.999	667.187	80.008	19.994	104.258	20.027	5.018	0.518
1144.499	667.433	80.008	19.995	104.258	20.029	4.887	0.497
1144.999	667.691	80.009	19.995	104.257	20.029	4.867	0.490
1145.499	667.949	80.009	19.995	104.257	20.030	4.796	0.510
1145.999	668.185	80.006	19.993	104.257	20.027	5.002	0.505
1146.500	668.446	80.009	19.994	104.256	20.024	5.246	0.495
1146.999	668.675	80.008	19.995	104.254	20.027	4.998	0.494
1147.499	668.932	80.008	19.995	104.255	20.028	4.911	0.489
1147.999	669.173	80.008	19.994	104.254	20.028	4.968	0.492
1148.499	669.375	80.008	19.995	104.253	20.031	4.715	0.471
1148.999	669.661	80.008	19.995	104.258	20.028	4.915	0.465
1149.499	669.895	80.007	19.994	104.240	20.028	4.946	0.504
1149.999	670.149	80.009	19.993	104.218	20.030	4.806	0.504
1150.499	670.399	80.007	19.994	104.204	20.031	4.760	0.496
1150.999	670.621	80.009	19.994	104.198	20.030	4.810	0.488
1151.499	670.885	80.008	19.994	104.196	20.031	4.695	0.479
1151.999	671.119	80.008	19.994	104.243	20.031	4.735	0.492
1152.499	671.390	80.009	19.993	104.275	20.030	4.818	0.501
1152.999	671.641	80.010	19.993	104.290	20.032	4.636	0.513
1153.499	671.855	80.010	19.994	104.296	20.029	4.846	0.494
1153.999	672.089	80.010	19.994	104.291	20.032	4.630	0.457
1154.499	672.378	80.011	19.994	104.261	20.031	4.754	0.485
1154.999	672.581	80.010	19.994	104.251	20.030	4.818	0.508
1155.500	672.857	80.010	19.995	104.250	20.028	4.964	0.486
1155.999	673.060	80.010	19.993	104.251	20.027	5.014	0.479
1156.499	673.333	80.009	19.994	104.253	20.028	4.944	0.477
1157.000	673.584	80.010	19.993	104.255	20.028	4.948	0.500
1157.500	673.821	80.011	19.993	104.255	20.027	5.022	0.506
1157.999	674.074	80.010	19.993	104.255	20.029	4.853	0.489
1158.499	674.335	80.009	19.993	104.254	20.029	4.901	0.502
1158.999	674.584	80.009	19.992	104.250	20.027	4.992	0.512
1159.499	674.815	80.009	19.993	104.249	20.031	4.697	0.495
1159.999	675.055	80.009	19.993	104.248	20.027	4.988	0.475
1160.499	675.312	80.010	19.993	104.248	20.026	5.071	0.484
1160.999	675.548	80.009	19.993	104.249	20.031	4.764	0.495
1161.499	675.839	80.010	19.994	104.253	20.028	4.913	0.510
1161.999	676.072	80.010	19.993	104.254	20.033	4.580	0.525
1162.499	676.326	80.009	19.994	104.255	20.030	4.824	0.506
1162.999	676.583	80.010	19.993	104.255	20.030	4.802	0.499
1163.500	676.824	80.009	19.994	104.255	20.034	4.477	0.504
1163.999	677.061	80.009	19.995	104.255	20.028	4.939	0.488
1164.499	677.307	80.007	19.995	104.256	20.026	5.069	0.481
1164.999	677.536	80.007	19.995	104.255	20.030	4.776	0.479
1165.499	677.801	80.008	19.995	104.251	20.028	4.917	0.485
1165.999	677.996	80.006	19.994	104.251	20.031	4.755	0.477
1166.499	678.271	80.008	19.995	104.250	20.030	4.794	0.465
1166.999	678.565	80.007	19.995	104.247	20.033	4.600	0.520
1167.499	678.772	80.007	19.995	104.247	20.031	4.715	0.535
1167.999	679.032	80.007	19.995	104.251	20.031	4.717	0.484
1168.499	679.334	80.006	19.995	104.251	20.033	4.572	0.515
1168.999	679.550	80.005	19.993	104.252	20.031	4.705	0.540
1169.499	679.831	80.008	19.995	104.255	20.032	4.654	0.508
1169.999	680.048	80.007	19.996	104.255	20.033	4.608	0.498
1170.499	680.320	80.008	19.996	104.255	20.034	4.517	0.494
1170.999	680.556	80.007	19.996	104.254	20.030	4.820	0.498
1171.499	680.795	80.008	19.994	104.254	20.034	4.548	0.491
1171.999	681.061	80.007	19.996	104.255	20.032	4.687	0.490
1172.499	681.335	80.007	19.994	104.255	20.033	4.554	0.523
1172.999	681.567	80.007	19.995	104.255	20.034	4.543	0.523
1173.499	681.823	80.007	19.996	104.255	20.033	4.551	0.497
1173.999	682.075	80.007	19.995	104.253	20.034	4.503	0.498
1174.499	682.322	80.007	19.993	104.252	20.029	4.860	0.503
1174.999	682.553	80.007	19.995	104.252	20.034	4.525	0.488
1175.499	682.826	80.007	19.995	104.253	20.028	4.955	0.492
1175.999	683.065	80.007	19.995	104.252	20.031	4.699	0.508
1176.499	683.357	80.007	19.994	104.255	20.032	4.681	0.521
1176.999	683.599	80.007	19.993	104.256	20.031	4.703	0.532
1177.499	683.881	80.007	19.993	104.256	20.031	4.735	0.529
1177.999	684.094	80.007	19.995	104.256	20.027	5.016	0.510
1178.499	684.346	80.006	19.994	104.257	20.032	4.640	0.480
1178.999	684.613	80.006	19.994	104.257	20.030	4.830	0.492
1179.499	684.892	80.007	19.993	104.257	20.034	4.521	0.533
1179.999	685.122	80.007	19.995	104.257	20.029	4.907	0.527
1180.499	685.388	80.008	19.993	104.256	20.030	4.786	0.502
1180.999	685.641	80.007	19.994	104.251	20.030	4.776	0.507
1181.499	685.888	80.008	19.994	104.249	20.032	4.685	0.509
1181.999	686.165	80.006	19.992	104.247	20.033	4.612	0.512
1182.499	686.403	80.007	19.994	104.247	20.031	4.727	0.520
1182.999	686.678	80.007	19.993	104.248	20.031	4.739	0.515
1183.499	686.940	80.007	19.994	104.253	20.032	4.671	0.525
1183.999	687.203	80.007	19.993	104.255	20.029	4.859	0.531
1184.499	687.427	80.009	19.994	104.258	20.030	4.826	0.506
1184.999	687.680	80.008	19.992	104.259	20.034	4.493	0.482
1185.499	687.914	80.007	19.993	104.259	20.032	4.648	0.482
1185.999	688.204	80.007	19.992	104.258	20.030	4.773	0.506
1186.499	688.452	80.008	19.993	104.257	20.031	4.735	0.531
1186.999	688.700	80.007	19.994	104.255	20.030	4.771	0.517
1187.499	688.964	80.008	19.994	104.253	20.033	4.612	0.504
1187.999	689.200	80.008	19.994	104.253	20.036	4.404	0.506
1188.499	689.457	80.009	19.995	104.255	20.034	4.501	0.497
1189.000	689.739	80.008	19.994	104.255	20.033	4.566	0.516
1189.499	689.989	80.007	19.994	104.257	20.033	4.617	0.535
1189.999	690.212	80.008	19.993	104.260	20.032	4.633	0.503
1190.499	690.480	80.006	19.993	104.258	20.034	4.548	0.482
1190.999	690.729	80.007	19.994	104.256	20.028	4.911	0.504
1191.499	690.990	80.009	19.994	104.253	20.033	4.574	0.513
1191.999	691.221	80.007	19.994	104.252	20.030	4.812	0.501
1192.500	691.500	80.009	19.994	104.251	20.035	4.475	0.501
1192.999	691.791	80.008	19.994	104.252	20.032	4.655	0.541
1193.499	692.006	80.007	19.994	104.251	20.029	4.875	0.538
1193.999	692.248	80.006	19.994	104.252	20.032	4.651	0.481
1194.499	692.520	80.006	19.993	104.252	20.034	4.495	0.485
1194.999	692.782	80.007	19.995	104.253	20.033	4.584	0.524
1195.499	693.047	80.009	19.993	104.253	20.033	4.576	0.531
1195.999	693.299	80.006	19.994	104.257	20.036	4.365	0.522
1196.499	693.587	80.007	19.993	104.260	20.036	4.334	0.529
1196.999	693.792	80.008	19.994	104.261	20.029	4.847	0.516
1197.499	694.072	80.007	19.994	104.261	20.035	4.431	0.489
1197.999	694.348	80.008	19.993	104.261	20.033	4.577	0.521
1198.499	694.593	80.006	19.993	104.260	20.033	4.558	0.538
1198.999	694.869	80.006	19.994	104.259	20.034	4.528	0.520
1199.499	695.124	80.008	19.993	104.255	20.031	4.758	0.526
1199.999	695.377	80.007	19.994	104.248	20.034	4.536	0.520
1200.499	695.562	80.006	19.992	104.244	20.031	4.716	0.473
1200.999	695.913	80.006	19.994	104.242	20.029	4.890	0.486
1201.499	696.153	80.006	19.994	104.240	20.027	5.003	0.563
1201.999	696.415	80.007	19.993	104.245	20.032	4.630	0.547
1202.499	696.661	80.005	19.994	104.251	20.028	4.955	0.505
1202.999	696.961	80.006	19.993	104.251	20.032	4.656	0.527
1203.499	697.195	80.006	19.993	104.250	20.032	4.634	0.540
1203.999	697.433	80.008	19.995	104.250	20.027	5.031	0.503
1204.499	697.673	80.007	19.993	104.250	20.033	4.575	0.475
1204.999	697.982	80.008	19.994	104.249	20.029	4.892	0.513
1205.499	698.222	80.008	19.994	104.248	20.031	4.750	0.549
1205.999	698.421	80.008	19.994	104.246	20.032	4.677	0.494
1206.499	698.707	80.008	19.994	104.244	20.031	4.764	0.462
1206.999	698.918	80.008	19.993	104.236	20.032	4.639	0.491
1207.499	699.196	80.008	19.994	104.235	20.036	4.389	0.493
1207.999	699.457	80.007	19.993	104.234	20.037	4.282	0.514
1208.499	699.697	80.009	19.993	104.234	20.038	4.254	0.520
1208.999	699.989	80.008	19.994	104.237	20.031	4.754	0.517
1209.499	700.247	80.009	19.994	104.240	20.033	4.573	0.542
1209.999	700.538	80.009	19.994	104.239	20.036	4.393	0.550
1210.499	700.776	80.009	19.993	104.238	20.035	4.417	0.538
1210.999	700.979	80.009	19.993	104.236	20.034	4.518	0.485
1211.499	701.256	80.010	19.993	104.231	20.033	4.571	0.460
1211.999	701.503	80.010	19.993	104.227	20.034	4.527	0.502
1212.499	701.775	80.008	19.993	104.225	20.034	4.520	0.522
1212.999	701.975	80.009	19.993	104.226	20.030	4.770	0.495
1213.499	702.274	80.010	19.994	104.228	20.034	4.522	0.486
1213.999	702.486	80.009	19.994	104.228	20.032	4.634	0.505
1214.499	702.772	80.010	19.994	104.228	20.029	4.866	0.505
1214.999	703.035	80.010	19.993	104.229	20.029	4.890	0.523
1215.499	703.257	80.009	19.993	104.227	20.031	4.732	0.517
1215.999	703.523	80.009	19.993	104.230	20.030	4.814	0.487
1216.499	703.782	80.009	19.993	104.237	20.028	4.983	0.507
1216.999	704.049	80.009	19.993	104.239	20.030	4.804	0.525
1217.499	704.286	80.009	19.992	104.241	20.032	4.660	0.515
1217.999	704.540	80.007	19.992	104.245	20.026	5.084	0.498
1218.499	704.785	80.009	19.995	104.242	20.032	4.626	0.495
1218.999	705.029	80.009	19.993	104.238	20.028	4.955	0.494
1219.499	705.280	80.009	19.993	104.235	20.029	4.896	0.492
1219.999	705.565	80.009	19.994	104.235	20.027	5.031	0.516
1220.499	705.786	80.008	19.993	104.237	20.027	5.029	0.521
1220.999	706.052	80.009	19.993	104.241	20.026	5.083	0.496
1221.499	706.327	80.009	19.993	104.244	20.030	4.796	0.514
1221.999	706.573	80.009	19.994	104.236	20.029	4.891	0.531
1222.499	706.818	80.009	19.994	104.224	20.026	5.077	0.506
1222.999	707.051	80.009	19.992	104.209	20.028	4.940	0.485
1223.499	707.323	80.008	19.993	104.201	20.028	4.920	0.492
1223.999	707.555	80.009	19.993	104.194	20.034	4.478	0.505
1224.499	707.807	80.007	19.993	104.201	20.029	4.870	0.494
1224.999	708.071	80.008	19.993	104.229	20.029	4.890	0.501
1225.499	708.283	80.009	19.993	104.262	20.026	5.121	0.496
1225.999	708.563	80.008	19.993	104.277	20.030	4.765	0.484
1226.499	708.805	80.009	19.994	104.283	20.029	4.850	0.506
1226.999	709.029	80.009	19.994	104.288	20.033	4.613	0.494
1227.499	709.259	80.009	19.994	104.273	20.033	4.581	0.460
1227.999	709.506	80.008	19.994	104.248	20.031	4.722	0.465
1228.499	709.748	80.010	19.994	104.235	20.029	4.906	0.483
1228.999	710.017	80.010	19.993	104.229	20.027	5.051	0.501
1229.499	710.249	80.007	19.993	104.223	20.032	4.678	0.506
1229.999	710.520	80.009	19.995	104.221	20.032	4.656	0.502
1230.499	710.768	80.008	19.994	104.228	20.032	4.650	0.511
1230.999	710.968	80.010	19.995	104.235	20.032	4.668	0.484
1231.499	711.232	80.009	19.995	104.242	20.032	4.652	0.456
1231.999	711.478	80.010	19.994	104.250	20.035	4.408	0.488
1232.499	711.744	80.009	19.993	104.254	20.031	4.741	0.511
1232.999	711.928	80.009	19.995	104.252	20.034	4.507	0.481
1233.499	712.245	80.008	19.994	104.245	20.031	4.701	0.476
1233.999	712.474	80.009	19.994	104.239	20.032	4.636	0.523
1234.499	712.712	80.009	19.994	104.231	20.031	4.702	0.507
1234.999	712.970	80.009	19.994	104.224	20.033	4.553	0.482
1235.499	713.184	80.010	19.994	104.219	20.034	4.504	0.484
1235.999	713.459	80.009	19.994	104.219	20.034	4.518	0.480
1236.499	713.695	80.010	19.993	104.222	20.032	4.667	0.500
1236.999	713.927	80.008	19.994	104.225	20.035	4.459	0.490
1237.499	714.220	80.011	19.994	104.228	20.031	4.730	0.497
1237.999	714.450	80.010	19.993	104.234	20.031	4.695	0.524
1238.499	714.713	80.010	19.994	104.238	20.036	4.399	0.508
1238.999	714.960	80.011	19.993	104.238	20.035	4.459	0.501
1239.499	715.175	80.010	19.994	104.236	20.032	4.629	0.486
1239.999	715.406	80.011	19.994	104.235	20.033	4.578	0.454
1240.499	715.698	80.009	19.994	104.230	20.034	4.544	0.484
1240.999	715.939	80.009	19.994	104.225	20.033	4.620	0.528
1241.499	716.181	80.010	19.994	104.221	20.028	4.913	0.508
1241.999	716.428	80.009	19.994	104.221	20.031	4.733	0.486
1242.499	716.691	80.009	19.993	104.219	20.033	4.552	0.499
1242.999	716.947	80.008	19.993	104.219	20.036	4.401	0.514
1243.499	717.211	80.008	19.994	104.220	20.031	4.702	0.519
1243.999	717.400	80.010	19.994	104.220	20.032	4.686	0.486
1244.499	717.677	80.009	19.994	104.221	20.033	4.561	0.460
1244.999	717.909	80.007	19.993	104.223	20.035	4.437	0.488
1245.499	718.194	80.008	19.993	104.229	20.032	4.621	0.513
1245.999	718.410	80.007	19.994	104.233	20.031	4.732	0.509
1246.499	718.672	80.007	19.994	104.235	20.031	4.704	0.489
1246.999	718.897	80.007	19.993	104.237	20.032	4.656	0.482
1247.499	719.158	80.007	19.993	104.239	20.035	4.464	0.487
1247.999	719.374	80.008	19.993	104.239	20.031	4.726	0.482
1248.499	719.620	80.006	19.994	104.240	20.036	4.367	0.469
1248.999	719.885	80.007	19.994	104.242	20.035	4.447	0.486
1249.499	720.117	80.008	19.994	104.241	20.033	4.607	0.504
1249.999	720.375	80.008	19.994	104.242	20.031	4.725	0.493
1250.499	720.627	80.006	19.994	104.240	20.033	4.571	0.500
1250.999	720.878	80.008	19.993	104.240	20.034	4.517	0.507
1251.499	721.119	80.008	19.993	104.245	20.033	4.567	0.497
1251.999	721.384	80.007	19.994	104.250	20.031	4.723	0.498
1252.499	721.615	80.007	19.993	104.253	20.029	4.874	0.501
1252.999	721.888	80.007	19.994	104.254	20.033	4.585	0.500
1253.499	722.088	80.006	19.993	104.250	20.032	4.670	0.489
1253.999	722.348	80.008	19.994	104.243	20.030	4.769	0.467
1254.499	722.633	80.007	19.994	104.237	20.031	4.698	0.503
1254.999	722.877	80.008	19.994	104.232	20.033	4.601	0.537
1255.499	723.118	80.008	19.993	104.234	20.030	4.791	0.507
1255.999	723.365	80.008	19.994	104.235	20.032	4.664	0.486
1256.499	723.592	80.008	19.995	104.234	20.035	4.456	0.481
1256.999	723.881	80.007	19.995	104.233	20.034	4.522	0.495
1257.499	724.095	80.007	19.993	104.231	20.034	4.480	0.510
1257.999	724.353	80.007	19.994	104.226	20.032	4.660	0.487
1258.499	724.635	80.008	19.994	104.230	20.033	4.605	0.505
1258.999	724.854	80.007	19.995	104.233	20.031	4.760	0.520
1259.499	725.079	80.005	19.994	104.234	20.031	4.699	0.473
1259.999	725.358	80.007	19.994	104.234	20.027	5.002	0.474
1260.499	725.582	80.005	19.994	104.231	20.029	4.875	0.504
1260.999	725.819	80.008	19.995	104.224	20.029	4.895	0.482
1261.499	726.085	80.007	19.994	104.221	20.026	5.090	0.481
1261.999	726.330	80.007	19.994	104.222	20.029	4.846	0.507
1262.499	726.586	80.006	19.995	104.224	20.030	4.829	0.506
1262.999	726.823	80.007	19.994	104.225	20.028	4.982	0.497
1263.499	727.076	80.007	19.996	104.225	20.028	4.953	0.491
1263.999	727.321	80.006	19.994	104.224	20.029	4.856	0.494
1264.499	727.599	80.007	19.995	104.223	20.027	5.004	0.510
1264.999	727.836	80.006	19.994	104.223	20.026	5.069	0.519
1265.499	728.085	80.007	19.994	104.223	20.026	5.108	0.501
1265.999	728.330	80.006	19.993	104.224	20.026	5.123	0.490
1266.499	728.570	80.006	19.994	104.229	20.032	4.660	0.490
1266.999	728.811	80.006	19.995	104.229	20.026	5.072	0.483
1267.499	729.076	80.006	19.995	104.228	20.025	5.155	0.494
1267.999	729.285	80.008	19.995	104.229	20.027	5.016	0.490
1268.499	729.580	80.007	19.995	104.230	20.032	4.680	0.489
1268.999	729.854	80.008	19.994	104.228	20.028	4.925	0.536
1269.499	730.051	80.007	19.994	104.232	20.028	4.973	0.520
1269.999	730.338	80.007	19.994	104.240	20.028	4.937	0.478
1270.499	730.591	80.006	19.994	104.246	20.031	4.712	0.512
1270.999	730.855	80.007	19.994	104.251	20.031	4.706	0.529
1271.499	731.084	80.008	19.995	104.255	20.032	4.690	0.505
1271.999	731.364	80.007	19.993	104.259	20.030	4.821	0.501
1272.499	731.604	80.008	19.995	104.260	20.032	4.650	0.515
1272.999	731.831	80.006	19.994	104.268	20.033	4.551	0.493
1273.499	732.126	80.007	19.994	104.287	20.029	4.860	0.494
1273.999	732.389	80.008	19.993	104.323	20.036	4.401	0.540
1274.499	732.623	80.007	19.994	104.346	20.034	4.516	0.528
1274.999	732.900	80.009	19.994	104.352	20.030	4.767	0.504
1275.499	733.152	80.009	19.994	104.345	20.033	4.618	0.520
1275.999	733.403	80.007	19.993	104.321	20.034	4.503	0.515
1276.499	733.671	80.009	19.995	104.277	20.033	4.577	0.511
1276.999	733.922	80.008	19.994	104.245	20.035	4.448	0.519
1277.500	734.182	80.008	19.994	104.230	20.033	4.555	0.515
1278.000	734.429	80.008	19.995	104.223	20.030	4.769	0.509
1278.499	734.709	80.007	19.993	104.222	20.033	4.587	0.517
1278.999	734.962	80.008	19.994	104.222	20.033	4.590	0.530
1279.499	735.192	80.007	19.993	104.223	20.033	4.571	0.508
1279.999	735.495	80.007	19.994	104.224	20.033	4.559	0.508
1280.499	735.728	80.006	19.994	104.224	20.031	4.733	0.534
1280.999	736.014	80.006	19.994	104.223	20.029	4.842	0.528
1281.499	736.268	80.007	19.993	104.225	20.033	4.587	0.529
1281.999	736.530	80.007	19.994	104.226	20.032	4.678	0.528
1282.499	736.769	80.008	19.994	104.227	20.032	4.646	0.509
1282.999	737.048	80.007	19.993	104.229	20.031	4.709	0.509
1283.499	737.324	80.006	19.994	104.229	20.031	4.755	0.536
1283.999	737.599	80.006	19.993	104.230	20.032	4.660	0.553
1284.499	737.855	80.006	19.994	104.231	20.034	4.499	0.541
1284.999	738.075	80.007	19.993	104.228	20.032	4.690	0.504
1285.499	738.351	80.007	19.993	104.226	20.032	4.632	0.486
1285.999	738.562	80.007	19.994	104.225	20.031	4.733	0.491
1286.499	738.856	80.008	19.994	104.223	20.030	4.777	0.496
1286.999	739.117	80.008	19.994	104.220	20.029	4.906	0.530
1287.499	739.427	80.009	19.993	104.220	20.034	4.543	0.564
1287.999	739.656	80.007	19.995	104.220	20.033	4.587	0.555
1288.499	739.920	80.009	19.994	104.220	20.032	4.691	0.516
1289.000	740.200	80.008	19.995	104.219	20.034	4.531	0.518
1289.500	740.486	80.008	19.994	104.219	20.032	4.630	0.555
1289.999	740.726	80.010	19.996	104.219	20.034	4.486	0.546
1290.499	740.992	80.009	19.995	104.220	20.032	4.620	0.516
1290.999	741.269	80.009	19.996	104.222	20.030	4.824	0.525
1291.500	741.525	80.009	19.995	104.222	20.031	4.721	0.538
1291.999	741.805	80.010	19.995	104.225	20.027	5.003	0.534
1292.499	742.048	80.010	19.995	104.227	20.024	5.236	0.529
1292.999	742.324	80.009	19.993	104.226	20.030	4.819	0.521
1293.499	742.604	80.010	19.993	104.223	20.028	4.979	0.538
1293.999	742.870	80.009	19.994	104.223	20.025	5.176	0.551
1294.499	743.120	80.008	19.994	104.220	20.029	4.903	0.531
1294.999	743.380	80.010	19.995	104.219	20.028	4.933	0.513
