Sample ID:	C:\MCC\MCC Cal\Test\Cotton_Sheets_MCC_30K_min_220107_R3.txt
Sample Weight (mg):	4.59
Heating Rate (C/s):	0.5
Combustor Temp (C):	900
N2 Flow Rate (cc/min):	80
O2 Flow Rate (cc/min):	20
Calibration File:	C:\MCC\MCC Cal\Coeff1 JN10440_30_210304.txt.txt
T Correction Coefficients:	0	1.024463	0
Time Shift (s):	14
*
Time (s)	Temperature (C)	N2 flow rate (cc/min)	O2 flow rate (cc/min)	Flow Rate (cc/min)	Oxygen (%)	HRR (W/g)	Heating rate (C/s)
0.000	111.829	80.008	19.994	104.095	20.115	-0.095	0.004
0.500	111.854	80.007	19.993	104.097	20.115	-0.085	-0.022
1.000	111.835	80.007	19.995	104.098	20.117	-0.285	-0.005
1.500	111.796	80.005	19.994	104.099	20.114	-0.037	-0.026
2.000	111.831	80.006	19.993	104.098	20.114	-0.052	-0.031
2.500	111.823	80.007	19.994	104.099	20.115	-0.122	0.012
3.000	111.823	80.006	19.993	104.099	20.115	-0.093	0.010
3.500	111.825	80.008	19.992	104.098	20.113	0.035	-0.003
4.000	111.798	80.005	19.994	104.098	20.116	-0.173	-0.012
4.500	111.843	80.007	19.996	104.099	20.114	-0.068	-0.004
5.000	111.830	80.007	19.993	104.101	20.113	0.012	0.025
5.500	111.833	80.005	19.994	104.103	20.116	-0.155	0.011
6.000	111.845	80.005	19.994	104.103	20.112	0.132	0.002
6.500	111.788	80.006	19.994	104.103	20.114	-0.037	-0.015
7.000	111.820	80.006	19.994	104.108	20.115	-0.124	-0.034
7.500	111.798	80.004	19.993	104.114	20.115	-0.117	-0.007
8.000	111.807	80.006	19.993	104.114	20.113	0.056	-0.001
8.500	111.797	80.008	19.992	104.102	20.115	-0.105	-0.007
9.000	111.815	80.005	19.992	104.093	20.117	-0.231	0.003
9.500	111.805	80.008	19.994	104.084	20.114	-0.023	0.008
10.000	111.801	80.007	19.993	104.080	20.114	-0.060	-0.003
10.500	111.795	80.005	19.993	104.087	20.112	0.130	-0.012
11.001	111.806	80.006	19.993	104.107	20.114	-0.019	-0.003
11.501	111.797	80.007	19.993	104.124	20.110	0.274	0.003
12.000	111.819	80.006	19.993	104.135	20.109	0.288	0.008
12.500	111.777	80.006	19.993	104.142	20.106	0.548	-0.003
13.000	111.775	80.008	19.994	104.149	20.106	0.491	-0.032
13.500	111.791	80.005	19.994	104.158	20.104	0.653	-0.015
14.000	111.834	80.007	19.993	104.168	20.104	0.690	0.037
14.500	111.831	80.006	19.993	104.182	20.103	0.740	0.050
15.000	111.816	80.006	19.993	104.194	20.103	0.762	0.011
15.500	111.833	80.007	19.993	104.197	20.100	0.950	-0.008
16.000	111.837	80.008	19.992	104.201	20.098	1.100	0.012
16.500	111.831	80.009	19.992	104.207	20.098	1.127	0.009
17.000	111.883	80.008	19.993	104.213	20.098	1.123	0.022
17.500	111.862	80.008	19.992	104.224	20.096	1.226	0.039
18.000	111.892	80.008	19.993	104.241	20.092	1.486	0.020
18.500	111.910	80.009	19.992	104.256	20.094	1.352	0.028
19.000	111.905	80.009	19.992	104.271	20.094	1.381	0.030
19.500	111.949	80.008	19.992	104.283	20.091	1.556	0.026
20.000	111.975	80.009	19.992	104.290	20.089	1.698	0.054
20.500	111.985	80.009	19.992	104.295	20.090	1.681	0.053
21.000	112.079	80.008	19.992	104.297	20.089	1.720	0.070
21.500	112.067	80.008	19.992	104.301	20.090	1.632	0.093
22.000	112.099	80.007	19.992	104.302	20.087	1.894	0.051
22.500	112.153	80.006	19.993	104.293	20.085	2.025	0.053
23.000	112.153	80.008	19.991	104.286	20.084	2.110	0.070
23.500	112.207	80.007	19.992	104.282	20.084	2.091	0.054
24.000	112.251	80.008	19.992	104.278	20.084	2.073	0.076
24.500	112.279	80.007	19.993	104.278	20.086	1.908	0.085
25.000	112.344	80.009	19.991	104.287	20.086	1.939	0.082
25.500	112.357	80.007	19.993	104.296	20.086	1.943	0.086
26.000	112.409	80.007	19.992	104.299	20.088	1.796	0.072
26.500	112.426	80.008	19.993	104.307	20.086	1.959	0.067
27.000	112.506	80.006	19.992	104.315	20.084	2.066	0.083
27.500	112.537	80.007	19.991	104.321	20.081	2.307	0.104
28.000	112.609	80.005	19.992	104.314	20.085	2.043	0.107
28.500	112.646	80.006	19.992	104.302	20.083	2.145	0.106
29.000	112.687	80.005	19.992	104.288	20.083	2.136	0.094
29.500	112.743	80.005	19.992	104.278	20.081	2.311	0.088
30.000	112.819	80.005	19.992	104.271	20.081	2.278	0.114
30.500	112.898	80.006	19.992	104.278	20.082	2.234	0.144
31.000	112.914	80.005	19.993	104.289	20.083	2.123	0.125
31.500	112.992	80.005	19.992	104.297	20.078	2.525	0.095
32.000	113.089	80.005	19.993	104.298	20.082	2.233	0.135
32.500	113.143	80.005	19.994	104.298	20.084	2.062	0.163
33.001	113.187	80.004	19.994	104.299	20.081	2.330	0.124
33.501	113.291	80.005	19.993	104.303	20.081	2.326	0.123
34.000	113.369	80.006	19.993	104.305	20.079	2.465	0.165
34.500	113.413	80.006	19.993	104.306	20.080	2.383	0.152
35.000	113.544	80.005	19.992	104.308	20.081	2.329	0.149
35.500	113.615	80.006	19.993	104.308	20.079	2.405	0.188
36.000	113.704	80.005	19.993	104.308	20.079	2.461	0.181
36.501	113.751	80.005	19.993	104.312	20.076	2.621	0.148
37.001	113.847	80.005	19.994	104.319	20.076	2.648	0.140
37.500	113.913	80.006	19.993	104.329	20.077	2.572	0.152
38.000	114.023	80.005	19.995	104.336	20.074	2.829	0.169
38.500	114.118	80.006	19.994	104.327	20.077	2.547	0.191
39.000	114.191	80.006	19.994	104.319	20.075	2.693	0.186
39.500	114.309	80.003	19.994	104.315	20.076	2.665	0.180
40.000	114.407	80.006	19.994	104.311	20.078	2.487	0.204
40.500	114.491	80.006	19.993	104.311	20.075	2.726	0.199
41.000	114.608	80.005	19.994	104.331	20.076	2.683	0.191
41.500	114.707	80.005	19.993	104.346	20.077	2.578	0.209
42.000	114.786	80.005	19.994	104.350	20.074	2.816	0.197
42.501	114.880	80.005	19.993	104.344	20.075	2.722	0.175
43.001	114.983	80.006	19.993	104.336	20.072	2.930	0.185
43.500	115.071	80.006	19.993	104.330	20.073	2.882	0.194
44.000	115.202	80.006	19.994	104.323	20.075	2.716	0.206
44.500	115.320	80.005	19.995	104.326	20.073	2.852	0.234
45.000	115.410	80.005	19.995	104.332	20.072	2.963	0.228
45.500	115.493	80.006	19.994	104.338	20.072	2.948	0.190
46.000	115.643	80.006	19.993	104.343	20.072	2.930	0.203
46.500	115.766	80.004	19.996	104.344	20.070	3.045	0.253
47.000	115.858	80.007	19.994	104.345	20.072	2.926	0.244
47.500	115.947	80.007	19.993	104.354	20.068	3.241	0.198
48.000	116.089	80.008	19.993	104.361	20.068	3.196	0.206
48.500	116.219	80.006	19.993	104.360	20.068	3.212	0.251
49.000	116.346	80.007	19.994	104.364	20.070	3.058	0.264
49.500	116.482	80.004	19.994	104.364	20.068	3.245	0.260
50.000	116.541	80.005	19.993	104.362	20.066	3.341	0.229
50.500	116.694	80.008	19.992	104.361	20.067	3.261	0.203
51.001	116.807	80.005	19.993	104.365	20.066	3.340	0.239
51.501	116.988	80.006	19.994	104.367	20.068	3.251	0.280
52.001	117.069	80.007	19.993	104.374	20.067	3.320	0.278
52.500	117.255	80.007	19.994	104.378	20.066	3.392	0.264
53.000	117.364	80.004	19.994	104.380	20.066	3.346	0.281
53.500	117.503	80.006	19.993	104.382	20.065	3.430	0.271
54.000	117.647	80.004	19.994	104.382	20.066	3.353	0.266
54.500	117.780	80.007	19.993	104.377	20.067	3.302	0.281
55.000	117.903	80.007	19.993	104.374	20.067	3.318	0.267
55.500	118.047	80.007	19.994	104.372	20.065	3.431	0.261
56.000	118.154	80.005	19.993	104.371	20.065	3.427	0.259
56.500	118.319	80.006	19.994	104.371	20.067	3.328	0.262
57.000	118.466	80.007	19.993	104.371	20.066	3.394	0.292
57.500	118.620	80.006	19.994	104.372	20.063	3.554	0.306
58.000	118.771	80.005	19.994	104.371	20.063	3.585	0.303
58.500	118.919	80.006	19.994	104.367	20.065	3.429	0.302
59.000	119.052	80.005	19.994	104.365	20.064	3.505	0.290
59.500	119.209	80.004	19.994	104.364	20.065	3.437	0.286
60.001	119.337	80.006	19.993	104.369	20.065	3.410	0.287
60.501	119.479	80.007	19.994	104.378	20.064	3.522	0.277
61.000	119.674	80.005	19.995	104.389	20.063	3.559	0.304
61.500	119.792	80.005	19.994	104.383	20.062	3.623	0.325
62.000	119.962	80.004	19.994	104.369	20.060	3.802	0.300
62.500	120.124	80.005	19.994	104.356	20.059	3.849	0.310
63.000	120.260	80.004	19.994	104.345	20.060	3.800	0.315
63.500	120.426	80.004	19.993	104.340	20.062	3.654	0.300
64.000	120.551	80.005	19.994	104.353	20.059	3.876	0.296
64.500	120.763	80.003	19.994	104.374	20.062	3.667	0.314
65.001	120.932	80.002	19.996	104.390	20.060	3.776	0.359
65.501	121.069	80.005	19.994	104.400	20.062	3.633	0.343
66.000	121.238	80.003	19.994	104.401	20.060	3.802	0.306
66.500	121.472	80.006	19.994	104.401	20.064	3.534	0.355
67.000	121.604	80.004	19.994	104.402	20.060	3.800	0.385
67.500	121.782	80.003	19.994	104.401	20.063	3.602	0.339
68.001	121.946	80.004	19.994	104.402	20.063	3.588	0.326
68.501	122.146	80.005	19.995	104.407	20.060	3.804	0.353
69.000	122.329	80.004	19.995	104.408	20.062	3.627	0.374
69.500	122.503	80.005	19.993	104.408	20.062	3.661	0.370
70.000	122.663	80.004	19.994	104.409	20.061	3.684	0.345
70.500	122.887	80.004	19.994	104.409	20.059	3.853	0.359
71.000	123.044	80.005	19.995	104.408	20.062	3.618	0.383
71.500	123.187	80.005	19.995	104.403	20.062	3.618	0.340
72.000	123.412	80.004	19.994	104.398	20.061	3.752	0.334
72.500	123.585	80.005	19.994	104.393	20.060	3.824	0.383
73.000	123.769	80.007	19.994	104.391	20.059	3.855	0.378
73.500	123.971	80.006	19.994	104.389	20.061	3.729	0.372
74.000	124.137	80.007	19.994	104.387	20.062	3.680	0.377
74.500	124.349	80.007	19.993	104.385	20.055	4.118	0.373
75.000	124.523	80.006	19.993	104.382	20.059	3.857	0.382
75.500	124.701	80.008	19.994	104.380	20.061	3.752	0.369
76.000	124.906	80.005	19.994	104.382	20.059	3.846	0.368
76.500	125.110	80.007	19.993	104.385	20.059	3.842	0.396
77.001	125.265	80.007	19.993	104.387	20.060	3.807	0.384
77.501	125.469	80.007	19.994	104.390	20.059	3.840	0.359
78.000	125.704	80.008	19.992	104.390	20.062	3.624	0.399
78.500	125.881	80.006	19.993	104.390	20.057	4.007	0.426
79.000	126.067	80.007	19.993	104.394	20.061	3.750	0.388
79.501	126.290	80.007	19.993	104.400	20.059	3.876	0.385
80.001	126.467	80.007	19.993	104.403	20.059	3.886	0.404
80.500	126.699	80.006	19.993	104.407	20.060	3.797	0.405
81.000	126.927	80.006	19.992	104.408	20.059	3.896	0.435
81.500	127.128	80.006	19.992	104.407	20.059	3.857	0.444
82.000	127.312	80.006	19.993	104.405	20.062	3.680	0.407
82.501	127.521	80.005	19.993	104.405	20.060	3.814	0.389
83.001	127.760	80.007	19.993	104.406	20.057	3.984	0.420
83.501	127.950	80.007	19.993	104.407	20.058	3.960	0.439
84.000	128.146	80.007	19.993	104.404	20.057	4.030	0.407
84.500	128.367	80.008	19.994	104.405	20.061	3.746	0.401
85.000	128.560	80.007	19.993	104.406	20.058	3.952	0.416
85.500	128.761	80.006	19.993	104.406	20.060	3.774	0.404
86.000	128.978	80.006	19.994	104.406	20.058	3.916	0.406
86.500	129.197	80.007	19.993	104.411	20.059	3.844	0.427
87.000	129.428	80.005	19.993	104.413	20.059	3.888	0.443
87.500	129.645	80.007	19.993	104.413	20.061	3.752	0.449
88.000	129.863	80.006	19.993	104.412	20.056	4.042	0.441
88.500	130.068	80.006	19.993	104.410	20.057	3.991	0.429
89.000	130.297	80.005	19.993	104.407	20.058	3.908	0.429
89.500	130.513	80.006	19.993	104.404	20.057	3.985	0.439
90.000	130.744	80.005	19.993	104.405	20.060	3.824	0.446
90.500	130.972	80.007	19.993	104.406	20.060	3.822	0.453
91.000	131.158	80.006	19.993	104.407	20.060	3.781	0.436
91.500	131.407	80.005	19.993	104.410	20.057	3.970	0.425
92.000	131.623	80.007	19.992	104.412	20.056	4.065	0.450
92.500	131.844	80.007	19.993	104.413	20.059	3.861	0.451
93.000	132.102	80.006	19.992	104.413	20.058	3.904	0.458
93.500	132.296	80.004	19.993	104.414	20.057	4.016	0.466
94.001	132.498	80.008	19.992	104.413	20.055	4.127	0.424
94.501	132.771	80.007	19.993	104.413	20.056	4.104	0.436
95.000	132.972	80.007	19.993	104.410	20.058	3.923	0.475
95.500	133.229	80.007	19.992	104.410	20.056	4.047	0.466
96.000	133.462	80.009	19.993	104.410	20.056	4.069	0.474
96.500	133.658	80.009	19.992	104.411	20.058	3.963	0.460
97.000	133.867	80.007	19.993	104.411	20.060	3.796	0.417
97.500	134.114	80.008	19.993	104.413	20.062	3.656	0.430
98.000	134.349	80.007	19.993	104.413	20.057	4.009	0.469
98.500	134.587	80.009	19.992	104.413	20.060	3.758	0.477
99.000	134.818	80.008	19.993	104.413	20.059	3.894	0.471
99.500	135.051	80.008	19.991	104.412	20.059	3.882	0.466
100.000	135.304	80.007	19.993	104.412	20.058	3.913	0.475
100.501	135.542	80.009	19.993	104.409	20.061	3.732	0.488
101.001	135.790	80.009	19.992	104.405	20.060	3.814	0.489
101.500	135.973	80.008	19.993	104.404	20.057	4.008	0.459
102.000	136.192	80.008	19.993	104.403	20.057	3.973	0.417
102.500	136.469	80.008	19.993	104.402	20.059	3.855	0.449
103.000	136.662	80.008	19.993	104.404	20.058	3.905	0.482
103.500	136.927	80.008	19.992	104.408	20.059	3.872	0.464
104.000	137.172	80.007	19.994	104.408	20.058	3.954	0.484
104.500	137.447	80.008	19.993	104.406	20.059	3.857	0.515
105.000	137.660	80.009	19.993	104.405	20.061	3.715	0.504
105.500	137.902	80.008	19.992	104.401	20.060	3.755	0.472
106.000	138.126	80.007	19.993	104.396	20.063	3.603	0.460
106.500	138.388	80.008	19.992	104.392	20.060	3.815	0.475
107.000	138.592	80.008	19.993	104.394	20.060	3.792	0.476
107.500	138.858	80.006	19.992	104.392	20.062	3.650	0.469
108.000	139.102	80.008	19.993	104.395	20.059	3.839	0.490
108.500	139.303	80.007	19.993	104.400	20.064	3.483	0.477
109.000	139.550	80.006	19.993	104.404	20.063	3.611	0.446
109.500	139.803	80.006	19.992	104.400	20.061	3.691	0.474
110.000	140.044	80.007	19.993	104.400	20.063	3.603	0.497
110.500	140.301	80.007	19.992	104.400	20.063	3.547	0.496
111.000	140.546	80.005	19.992	104.400	20.060	3.780	0.500
111.500	140.822	80.006	19.993	104.400	20.064	3.524	0.512
112.001	141.062	80.005	19.993	104.401	20.065	3.463	0.518
112.501	141.324	80.006	19.992	104.401	20.061	3.712	0.508
113.000	141.563	80.005	19.993	104.400	20.060	3.778	0.501
113.500	141.804	80.005	19.994	104.396	20.065	3.467	0.491
114.000	142.034	80.007	19.993	104.396	20.059	3.856	0.476
114.500	142.274	80.006	19.993	104.397	20.062	3.644	0.471
115.000	142.525	80.007	19.993	104.400	20.063	3.566	0.481
115.500	142.794	80.007	19.993	104.399	20.063	3.578	0.505
116.000	142.981	80.005	19.993	104.395	20.061	3.698	0.488
116.500	143.269	80.007	19.993	104.390	20.059	3.848	0.466
117.001	143.535	80.007	19.993	104.387	20.059	3.885	0.514
117.501	143.785	80.006	19.993	104.387	20.058	3.937	0.535
118.000	144.045	80.007	19.992	104.389	20.058	3.947	0.513
118.500	144.310	80.005	19.992	104.393	20.059	3.850	0.518
119.000	144.558	80.005	19.992	104.397	20.061	3.749	0.519
119.500	144.820	80.005	19.993	104.395	20.061	3.710	0.511
120.000	145.016	80.006	19.992	104.388	20.064	3.529	0.484
120.501	145.272	80.006	19.992	104.381	20.059	3.846	0.455
121.001	145.557	80.006	19.993	104.382	20.058	3.918	0.497
121.500	145.796	80.004	19.994	104.382	20.060	3.762	0.533
122.000	146.043	80.005	19.992	104.385	20.059	3.846	0.505
122.500	146.310	80.006	19.993	104.388	20.061	3.700	0.500
123.000	146.597	80.007	19.993	104.387	20.061	3.710	0.534
123.500	146.825	80.005	19.992	104.383	20.057	3.992	0.535
124.000	147.065	80.007	19.993	104.378	20.055	4.132	0.492
124.500	147.330	80.007	19.993	104.374	20.059	3.887	0.486
125.000	147.558	80.005	19.994	104.372	20.060	3.782	0.499
125.500	147.863	80.005	19.994	104.377	20.058	3.934	0.513
126.000	148.048	80.004	19.994	104.378	20.060	3.755	0.512
126.500	148.331	80.004	19.994	104.378	20.060	3.795	0.480
127.001	148.571	80.006	19.994	104.378	20.063	3.597	0.495
127.501	148.855	80.006	19.994	104.378	20.060	3.807	0.523
128.000	149.105	80.006	19.995	104.374	20.060	3.786	0.529
128.500	149.369	80.006	19.994	104.373	20.058	3.939	0.524
129.000	149.635	80.006	19.994	104.374	20.065	3.451	0.522
129.500	149.863	80.006	19.994	104.375	20.062	3.661	0.512
130.000	150.131	80.006	19.994	104.375	20.063	3.547	0.495
130.500	150.347	80.005	19.994	104.376	20.064	3.512	0.490
131.000	150.603	80.007	19.994	104.374	20.061	3.691	0.478
131.500	150.875	80.005	19.995	104.373	20.063	3.603	0.500
132.000	151.117	80.007	19.994	104.371	20.063	3.590	0.521
132.500	151.371	80.005	19.993	104.372	20.060	3.807	0.505
133.000	151.707	80.006	19.993	104.372	20.061	3.702	0.544
133.500	151.896	80.004	19.995	104.373	20.061	3.694	0.557
134.000	152.134	80.005	19.993	104.372	20.061	3.710	0.475
134.500	152.402	80.005	19.994	104.374	20.060	3.809	0.467
135.000	152.677	80.004	19.994	104.373	20.061	3.747	0.525
135.500	152.928	80.005	19.993	104.373	20.060	3.786	0.534
136.000	153.147	80.005	19.994	104.373	20.062	3.617	0.498
136.500	153.406	80.004	19.993	104.373	20.061	3.749	0.474
137.000	153.669	80.005	19.994	104.372	20.066	3.362	0.500
137.500	153.908	80.005	19.993	104.372	20.063	3.589	0.512
138.000	154.153	80.006	19.994	104.372	20.065	3.468	0.493
138.500	154.380	80.005	19.994	104.372	20.065	3.430	0.478
139.000	154.651	80.006	19.993	104.373	20.062	3.628	0.485
139.500	154.927	80.004	19.993	104.373	20.065	3.459	0.523
140.000	155.153	80.003	19.993	104.373	20.062	3.620	0.525
140.500	155.415	80.003	19.994	104.373	20.063	3.558	0.495
141.000	155.678	80.005	19.994	104.374	20.066	3.393	0.506
141.500	155.948	80.005	19.994	104.376	20.064	3.490	0.529
142.000	156.176	80.004	19.993	104.379	20.064	3.521	0.515
142.500	156.387	80.004	19.993	104.379	20.067	3.264	0.469
143.000	156.681	80.004	19.993	104.379	20.065	3.418	0.472
143.500	156.927	80.005	19.994	104.380	20.065	3.464	0.523
144.000	157.231	80.004	19.994	104.377	20.067	3.311	0.545
144.500	157.442	80.004	19.994	104.374	20.068	3.194	0.532
145.000	157.739	80.006	19.995	104.374	20.067	3.256	0.511
145.500	157.945	80.004	19.994	104.374	20.067	3.315	0.506
146.000	158.222	80.003	19.994	104.375	20.067	3.327	0.493
146.500	158.466	80.004	19.994	104.375	20.067	3.284	0.502
147.001	158.710	80.004	19.994	104.373	20.067	3.323	0.505
147.500	158.981	80.004	19.994	104.372	20.066	3.391	0.501
148.000	159.240	80.005	19.994	104.372	20.065	3.453	0.522
148.500	159.466	80.007	19.994	104.366	20.064	3.501	0.507
149.000	159.753	80.006	19.993	104.363	20.066	3.390	0.500
149.500	159.975	80.006	19.995	104.363	20.066	3.373	0.511
150.000	160.256	80.005	19.993	104.363	20.064	3.523	0.506
150.500	160.491	80.005	19.994	104.363	20.065	3.406	0.510
151.000	160.768	80.005	19.993	104.363	20.064	3.515	0.514
151.500	161.047	80.005	19.994	104.362	20.064	3.528	0.533
152.000	161.245	80.005	19.994	104.361	20.068	3.212	0.516
152.500	161.525	80.004	19.995	104.356	20.065	3.410	0.478
153.000	161.741	80.005	19.993	104.351	20.068	3.227	0.487
153.500	161.998	80.005	19.994	104.351	20.065	3.424	0.485
154.000	162.295	80.006	19.993	104.350	20.064	3.501	0.513
154.500	162.512	80.006	19.993	104.352	20.063	3.552	0.534
155.000	162.778	80.006	19.994	104.355	20.065	3.452	0.499
155.500	163.048	80.005	19.993	104.355	20.068	3.242	0.509
156.000	163.263	80.005	19.993	104.359	20.064	3.497	0.510
156.500	163.513	80.007	19.993	104.362	20.065	3.445	0.475
157.000	163.759	80.005	19.993	104.362	20.065	3.406	0.481
157.500	164.084	80.007	19.994	104.362	20.065	3.425	0.534
158.000	164.323	80.006	19.993	104.361	20.065	3.462	0.568
158.500	164.582	80.006	19.993	104.358	20.066	3.346	0.531
159.000	164.820	80.005	19.994	104.353	20.065	3.435	0.497
159.500	165.065	80.006	19.994	104.349	20.062	3.647	0.490
160.000	165.351	80.006	19.994	104.346	20.065	3.468	0.507
160.500	165.582	80.007	19.994	104.351	20.063	3.558	0.524
161.000	165.821	80.005	19.993	104.353	20.063	3.576	0.493
161.500	166.133	80.007	19.995	104.353	20.059	3.824	0.510
162.000	166.348	80.005	19.995	104.352	20.065	3.402	0.539
162.500	166.609	80.005	19.995	104.355	20.065	3.461	0.502
163.000	166.810	80.006	19.994	104.355	20.062	3.661	0.469
163.500	167.101	80.007	19.994	104.355	20.063	3.597	0.477
164.000	167.350	80.008	19.995	104.358	20.065	3.428	0.516
164.500	167.592	80.006	19.993	104.360	20.063	3.579	0.516
165.000	167.824	80.005	19.994	104.355	20.062	3.624	0.483
165.501	168.091	80.005	19.994	104.349	20.065	3.462	0.486
166.001	168.343	80.005	19.994	104.345	20.065	3.443	0.509
166.500	168.559	80.006	19.994	104.341	20.066	3.386	0.494
167.000	168.838	80.006	19.994	104.340	20.066	3.382	0.482
167.500	169.082	80.005	19.994	104.344	20.063	3.571	0.509
168.000	169.333	80.006	19.994	104.347	20.063	3.547	0.508
168.500	169.595	80.007	19.994	104.352	20.065	3.433	0.504
169.000	169.833	80.006	19.994	104.353	20.064	3.497	0.507
169.500	170.063	80.005	19.994	104.355	20.066	3.370	0.484
170.000	170.316	80.007	19.993	104.358	20.067	3.268	0.476
170.500	170.606	80.005	19.993	104.361	20.065	3.466	0.513
171.000	170.841	80.007	19.993	104.361	20.066	3.367	0.534
171.500	171.051	80.006	19.994	104.366	20.067	3.256	0.485
172.000	171.326	80.007	19.993	104.368	20.066	3.338	0.465
172.500	171.569	80.005	19.993	104.366	20.066	3.330	0.502
173.000	171.819	80.006	19.992	104.365	20.064	3.520	0.506
173.500	172.033	80.005	19.994	104.366	20.064	3.487	0.478
174.000	172.325	80.007	19.993	104.364	20.065	3.407	0.484
174.500	172.568	80.006	19.993	104.363	20.067	3.273	0.520
175.000	172.789	80.006	19.993	104.361	20.065	3.450	0.500
175.500	173.013	80.007	19.993	104.359	20.067	3.277	0.455
176.000	173.241	80.007	19.992	104.357	20.066	3.367	0.448
176.500	173.527	80.006	19.994	104.356	20.069	3.130	0.483
177.000	173.748	80.007	19.993	104.353	20.065	3.435	0.511
177.500	174.028	80.008	19.991	104.352	20.066	3.363	0.504
178.000	174.261	80.006	19.993	104.347	20.067	3.272	0.507
178.500	174.525	80.009	19.993	104.341	20.065	3.451	0.505
179.000	174.773	80.008	19.993	104.337	20.065	3.466	0.505
179.500	174.984	80.006	19.993	104.336	20.066	3.376	0.486
180.000	175.269	80.007	19.993	104.334	20.067	3.285	0.477
180.500	175.478	80.006	19.994	104.339	20.066	3.346	0.495
181.000	175.749	80.006	19.992	104.341	20.064	3.482	0.487
181.500	175.984	80.009	19.993	104.341	20.065	3.434	0.493
182.000	176.243	80.008	19.993	104.343	20.063	3.555	0.500
182.500	176.488	80.007	19.992	104.349	20.065	3.458	0.499
183.000	176.730	80.008	19.993	104.347	20.063	3.548	0.495
183.500	176.991	80.008	19.991	104.345	20.063	3.575	0.495
184.000	177.254	80.008	19.993	104.344	20.065	3.452	0.513
184.500	177.470	80.010	19.993	104.341	20.069	3.126	0.502
185.000	177.673	80.007	19.994	104.337	20.068	3.213	0.449
185.500	177.935	80.007	19.992	104.333	20.064	3.493	0.442
186.000	178.215	80.007	19.994	104.332	20.069	3.146	0.503
186.500	178.426	80.009	19.993	104.334	20.068	3.230	0.517
187.000	178.687	80.009	19.992	104.342	20.070	3.049	0.482
187.500	178.942	80.008	19.993	104.347	20.069	3.166	0.494
188.000	179.164	80.008	19.992	104.352	20.069	3.168	0.497
188.500	179.374	80.007	19.992	104.352	20.066	3.356	0.455
189.000	179.651	80.006	19.992	104.357	20.067	3.277	0.460
189.500	179.891	80.006	19.994	104.352	20.067	3.320	0.502
190.000	180.171	80.006	19.993	104.343	20.072	2.904	0.518
190.500	180.375	80.007	19.993	104.338	20.072	2.922	0.501
191.000	180.616	80.006	19.992	104.328	20.069	3.131	0.464
191.500	180.898	80.004	19.993	104.315	20.069	3.120	0.485
192.000	181.121	80.005	19.992	104.311	20.070	3.089	0.514
192.500	181.346	80.005	19.993	104.313	20.065	3.411	0.476
193.000	181.613	80.006	19.993	104.322	20.068	3.223	0.470
193.500	181.884	80.004	19.994	104.337	20.069	3.159	0.515
194.000	182.107	80.006	19.993	104.345	20.065	3.439	0.516
194.500	182.339	80.006	19.994	104.346	20.065	3.433	0.475
195.000	182.586	80.006	19.992	104.345	20.063	3.582	0.467
195.500	182.811	80.005	19.993	104.342	20.068	3.240	0.475
196.000	183.026	80.005	19.993	104.336	20.067	3.320	0.456
196.500	183.303	80.007	19.992	104.328	20.065	3.405	0.466
197.000	183.500	80.004	19.993	104.323	20.064	3.534	0.483
197.500	183.770	80.007	19.993	104.320	20.066	3.366	0.470
198.000	183.997	80.004	19.992	104.311	20.063	3.541	0.482
198.500	184.247	80.005	19.992	104.312	20.065	3.436	0.487
199.000	184.483	80.006	19.994	104.320	20.064	3.499	0.481
199.500	184.748	80.005	19.994	104.326	20.066	3.376	0.493
200.000	184.975	80.005	19.994	104.328	20.066	3.341	0.497
200.500	185.260	80.005	19.993	104.334	20.067	3.287	0.503
201.000	185.517	80.004	19.993	104.338	20.066	3.349	0.527
201.500	185.773	80.005	19.993	104.340	20.062	3.654	0.527
202.000	186.005	80.005	19.993	104.339	20.067	3.295	0.501
202.500	186.274	80.004	19.992	104.339	20.066	3.335	0.494
203.000	186.527	80.005	19.993	104.339	20.068	3.221	0.512
203.500	186.770	80.004	19.993	104.337	20.069	3.132	0.509
204.000	186.999	80.005	19.993	104.337	20.067	3.291	0.484
204.500	187.240	80.006	19.991	104.337	20.068	3.213	0.471
205.000	187.457	80.006	19.992	104.339	20.065	3.409	0.464
205.500	187.735	80.005	19.993	104.341	20.066	3.371	0.477
206.000	187.974	80.005	19.993	104.340	20.067	3.277	0.506
206.500	188.210	80.005	19.992	104.340	20.068	3.250	0.496
207.000	188.449	80.007	19.993	104.340	20.071	3.021	0.475
207.500	188.687	80.005	19.993	104.338	20.068	3.211	0.476
208.000	188.913	80.006	19.992	104.337	20.069	3.143	0.471
208.500	189.178	80.005	19.993	104.335	20.068	3.238	0.478
209.000	189.352	80.006	19.993	104.334	20.067	3.273	0.465
209.500	189.633	80.006	19.993	104.333	20.069	3.122	0.447
210.000	189.871	80.005	19.992	104.333	20.068	3.238	0.487
210.500	190.110	80.005	19.993	104.334	20.069	3.131	0.498
211.000	190.334	80.006	19.992	104.337	20.067	3.318	0.470
211.500	190.580	80.004	19.993	104.338	20.069	3.122	0.467
212.000	190.831	80.006	19.993	104.339	20.068	3.188	0.484
212.500	191.071	80.005	19.992	104.340	20.068	3.252	0.494
213.000	191.299	80.005	19.993	104.339	20.070	3.098	0.479
213.500	191.598	80.006	19.992	104.337	20.069	3.160	0.497
214.000	191.813	80.006	19.993	104.338	20.069	3.153	0.521
214.500	192.042	80.005	19.993	104.342	20.066	3.382	0.480
215.000	192.305	80.005	19.992	104.342	20.069	3.141	0.468
215.500	192.518	80.005	19.993	104.342	20.068	3.225	0.483
216.000	192.781	80.004	19.994	104.342	20.069	3.182	0.476
216.500	193.038	80.005	19.993	104.340	20.072	2.964	0.498
217.000	193.265	80.005	19.993	104.338	20.068	3.223	0.502
217.500	193.501	80.004	19.994	104.337	20.067	3.318	0.474
218.000	193.747	80.004	19.994	104.337	20.069	3.123	0.472
218.500	194.016	80.004	19.995	104.338	20.069	3.172	0.499
219.000	194.254	80.005	19.994	104.338	20.068	3.209	0.511
219.500	194.480	80.005	19.994	104.337	20.067	3.300	0.486
220.000	194.701	80.004	19.994	104.336	20.067	3.298	0.456
220.500	194.966	80.005	19.994	104.335	20.067	3.322	0.466
221.000	195.213	80.003	19.993	104.335	20.067	3.316	0.499
221.500	195.469	80.005	19.994	104.335	20.067	3.308	0.508
222.000	195.708	80.004	19.993	104.335	20.066	3.392	0.499
222.500	195.959	80.004	19.993	104.335	20.068	3.205	0.493
223.000	196.152	80.005	19.993	104.336	20.067	3.297	0.467
223.500	196.380	80.003	19.993	104.335	20.065	3.462	0.432
224.000	196.661	80.003	19.993	104.334	20.067	3.295	0.465
224.500	196.919	80.004	19.994	104.334	20.069	3.133	0.524
225.000	197.144	80.004	19.993	104.335	20.068	3.234	0.511
225.500	197.408	80.005	19.994	104.339	20.065	3.446	0.486
226.000	197.634	80.004	19.994	104.343	20.066	3.386	0.490
226.500	197.860	80.004	19.994	104.345	20.065	3.458	0.471
227.000	198.118	80.004	19.993	104.345	20.065	3.421	0.468
227.500	198.347	80.004	19.993	104.342	20.066	3.357	0.485
228.000	198.576	80.004	19.993	104.337	20.069	3.135	0.473
228.500	198.831	80.006	19.993	104.333	20.070	3.075	0.471
229.000	199.092	80.004	19.995	104.331	20.068	3.193	0.500
229.500	199.340	80.006	19.993	104.330	20.067	3.292	0.512
230.000	199.577	80.006	19.993	104.332	20.068	3.207	0.497
230.500	199.788	80.005	19.993	104.332	20.068	3.243	0.467
231.000	200.050	80.005	19.994	104.332	20.069	3.158	0.460
231.500	200.304	80.004	19.994	104.333	20.068	3.213	0.494
232.000	200.570	80.005	19.993	104.335	20.068	3.221	0.518
232.500	200.803	80.006	19.993	104.338	20.067	3.258	0.509
233.000	201.023	80.005	19.994	104.338	20.070	3.063	0.476
233.501	201.266	80.006	19.994	104.338	20.069	3.158	0.458
234.000	201.532	80.006	19.994	104.338	20.069	3.154	0.486
234.500	201.777	80.005	19.993	104.336	20.067	3.288	0.510
235.000	202.008	80.006	19.993	104.333	20.070	3.100	0.494
235.500	202.250	80.006	19.993	104.333	20.070	3.053	0.475
236.000	202.507	80.006	19.993	104.333	20.070	3.050	0.486
236.500	202.771	80.007	19.993	104.333	20.070	3.059	0.510
237.000	203.022	80.006	19.993	104.332	20.066	3.372	0.518
237.500	203.263	80.008	19.993	104.331	20.069	3.125	0.504
238.000	203.508	80.008	19.992	104.330	20.069	3.176	0.490
238.500	203.729	80.006	19.992	104.333	20.065	3.405	0.476
239.000	203.981	80.008	19.993	104.340	20.067	3.261	0.469
239.500	204.225	80.007	19.992	104.341	20.067	3.298	0.484
240.000	204.476	80.007	19.993	104.334	20.067	3.292	0.496
240.500	204.706	80.006	19.994	104.327	20.067	3.326	0.488
241.000	204.964	80.007	19.994	104.320	20.071	3.026	0.484
241.500	205.233	80.006	19.994	104.312	20.068	3.203	0.507
242.000	205.486	80.007	19.993	104.312	20.067	3.316	0.524
242.500	205.721	80.007	19.994	104.325	20.069	3.184	0.505
243.000	205.986	80.007	19.994	104.340	20.066	3.374	0.495
243.500	206.234	80.005	19.992	104.348	20.067	3.273	0.506
244.000	206.465	80.007	19.993	104.339	20.065	3.438	0.495
244.500	206.733	80.007	19.995	104.330	20.067	3.273	0.489
245.000	206.958	80.006	19.993	104.323	20.068	3.189	0.496
245.500	207.260	80.007	19.995	104.315	20.066	3.339	0.510
246.000	207.485	80.006	19.994	104.312	20.068	3.201	0.527
246.500	207.730	80.006	19.994	104.322	20.068	3.215	0.499
247.000	207.966	80.008	19.995	104.331	20.069	3.174	0.476
247.500	208.226	80.007	19.994	104.333	20.067	3.263	0.489
248.000	208.459	80.005	19.993	104.333	20.067	3.284	0.495
248.500	208.683	80.005	19.995	104.331	20.068	3.222	0.475
249.000	208.994	80.005	19.995	104.329	20.066	3.350	0.495
249.500	209.270	80.006	19.994	104.328	20.066	3.376	0.561
250.000	209.479	80.007	19.994	104.328	20.067	3.288	0.536
250.500	209.693	80.005	19.995	104.328	20.066	3.370	0.454
251.000	209.930	80.006	19.993	104.329	20.067	3.315	0.437
251.500	210.203	80.004	19.994	104.330	20.065	3.409	0.481
252.000	210.419	80.006	19.994	104.330	20.064	3.471	0.500
252.500	210.697	80.005	19.995	104.330	20.070	3.053	0.491
253.000	210.951	80.005	19.994	104.330	20.064	3.516	0.513
253.500	211.182	80.006	19.994	104.329	20.062	3.625	0.509
254.000	211.458	80.005	19.995	104.328	20.066	3.362	0.496
254.500	211.671	80.005	19.994	104.328	20.066	3.370	0.498
255.000	211.971	80.005	19.994	104.327	20.066	3.376	0.501
255.500	212.176	80.005	19.994	104.327	20.066	3.327	0.509
256.000	212.457	80.006	19.994	104.329	20.067	3.277	0.495
256.500	212.686	80.007	19.993	104.329	20.067	3.300	0.498
257.000	212.943	80.005	19.993	104.330	20.067	3.259	0.498
257.500	213.179	80.006	19.994	104.331	20.066	3.386	0.489
258.000	213.396	80.006	19.993	104.327	20.066	3.382	0.473
258.500	213.658	80.006	19.993	104.323	20.064	3.490	0.467
259.001	213.928	80.007	19.994	104.321	20.062	3.655	0.506
259.501	214.198	80.007	19.995	104.320	20.068	3.249	0.535
260.000	214.438	80.007	19.995	104.321	20.064	3.500	0.525
260.500	214.675	80.008	19.993	104.321	20.061	3.712	0.494
261.000	214.952	80.009	19.993	104.317	20.065	3.436	0.496
261.500	215.181	80.007	19.993	104.318	20.061	3.747	0.510
262.000	215.412	80.008	19.994	104.316	20.064	3.531	0.483
262.500	215.645	80.008	19.993	104.316	20.066	3.350	0.462
263.000	215.897	80.008	19.993	104.316	20.064	3.500	0.474
263.500	216.159	80.007	19.993	104.323	20.065	3.445	0.500
264.000	216.403	80.008	19.993	104.325	20.063	3.579	0.510
264.500	216.648	80.008	19.993	104.328	20.062	3.640	0.497
265.000	216.871	80.009	19.992	104.327	20.065	3.419	0.478
265.500	217.141	80.007	19.992	104.331	20.066	3.396	0.481
266.000	217.390	80.009	19.992	104.331	20.063	3.600	0.506
266.500	217.657	80.007	19.991	104.331	20.061	3.709	0.517
267.000	217.874	80.007	19.992	104.331	20.066	3.376	0.500
267.500	218.132	80.007	19.993	104.332	20.064	3.473	0.480
268.000	218.399	80.007	19.992	104.332	20.063	3.608	0.500
268.500	218.638	80.008	19.992	104.329	20.060	3.777	0.515
269.000	218.870	80.006	19.992	104.324	20.061	3.711	0.488
269.500	219.109	80.006	19.992	104.317	20.063	3.572	0.471
270.000	219.404	80.006	19.992	104.310	20.062	3.671	0.503
270.500	219.624	80.005	19.993	104.304	20.061	3.683	0.524
271.000	219.868	80.007	19.993	104.304	20.063	3.609	0.489
271.500	220.118	80.006	19.992	104.309	20.065	3.425	0.479
272.000	220.337	80.005	19.992	104.316	20.063	3.592	0.482
272.500	220.630	80.006	19.992	104.318	20.062	3.665	0.490
273.000	220.821	80.005	19.993	104.317	20.063	3.593	0.498
273.500	221.108	80.005	19.994	104.311	20.059	3.822	0.481
274.000	221.363	80.005	19.993	104.306	20.063	3.603	0.510
274.500	221.625	80.005	19.993	104.305	20.062	3.669	0.529
275.000	221.868	80.004	19.993	104.308	20.061	3.737	0.511
275.500	222.090	80.005	19.993	104.315	20.064	3.504	0.485
276.000	222.358	80.006	19.993	104.323	20.060	3.772	0.478
276.500	222.598	80.005	19.994	104.334	20.061	3.696	0.499
277.000	222.852	80.005	19.993	104.337	20.065	3.438	0.501
277.500	223.095	80.006	19.992	104.337	20.061	3.737	0.495
278.000	223.348	80.004	19.994	104.324	20.062	3.659	0.497
278.500	223.615	80.005	19.993	104.314	20.060	3.776	0.509
279.000	223.840	80.004	19.993	104.304	20.063	3.562	0.506
279.500	224.111	80.005	19.993	104.303	20.060	3.756	0.494
280.000	224.351	80.005	19.994	104.307	20.061	3.741	0.503
280.500	224.593	80.006	19.993	104.321	20.063	3.581	0.496
281.000	224.848	80.005	19.993	104.330	20.063	3.593	0.490
281.500	225.078	80.004	19.994	104.335	20.062	3.617	0.492
282.000	225.356	80.006	19.993	104.335	20.061	3.722	0.497
282.500	225.642	80.004	19.993	104.333	20.063	3.565	0.536
283.000	225.864	80.005	19.993	104.326	20.059	3.862	0.536
283.500	226.097	80.006	19.991	104.319	20.062	3.633	0.482
284.000	226.381	80.005	19.992	104.313	20.064	3.506	0.486
284.500	226.613	80.006	19.994	104.310	20.061	3.691	0.516
285.001	226.869	80.006	19.992	104.309	20.063	3.590	0.502
285.501	227.105	80.004	19.992	104.316	20.064	3.537	0.490
286.000	227.384	80.005	19.994	104.321	20.059	3.874	0.503
286.500	227.608	80.004	19.994	104.324	20.064	3.504	0.509
287.000	227.875	80.005	19.992	104.323	20.061	3.749	0.497
287.500	228.114	80.006	19.993	104.318	20.061	3.681	0.498
288.000	228.363	80.005	19.994	104.312	20.060	3.766	0.497
288.500	228.635	80.007	19.993	104.310	20.063	3.546	0.505
289.000	228.861	80.005	19.993	104.312	20.059	3.867	0.509
289.500	229.126	80.005	19.993	104.310	20.061	3.750	0.494
290.000	229.376	80.005	19.992	104.311	20.061	3.719	0.503
290.500	229.635	80.005	19.993	104.309	20.061	3.729	0.512
291.000	229.890	80.006	19.993	104.310	20.063	3.564	0.511
291.500	230.133	80.006	19.991	104.310	20.061	3.719	0.506
292.000	230.414	80.007	19.994	104.318	20.063	3.589	0.511
292.500	230.599	80.007	19.993	104.323	20.061	3.727	0.495
293.000	230.924	80.006	19.993	104.330	20.064	3.480	0.488
293.500	231.129	80.007	19.993	104.331	20.065	3.438	0.520
294.000	231.392	80.008	19.993	104.331	20.065	3.434	0.499
294.500	231.644	80.007	19.993	104.331	20.063	3.539	0.492
295.000	231.891	80.007	19.992	104.331	20.061	3.706	0.507
295.500	232.167	80.006	19.993	104.331	20.061	3.748	0.511
296.000	232.386	80.006	19.993	104.332	20.063	3.546	0.509
296.500	232.666	80.006	19.993	104.332	20.062	3.663	0.497
297.000	232.898	80.006	19.993	104.331	20.061	3.682	0.505
297.500	233.127	80.007	19.993	104.330	20.063	3.552	0.486
298.000	233.403	80.006	19.994	104.325	20.061	3.699	0.483
298.500	233.647	80.006	19.991	104.318	20.061	3.748	0.513
299.000	233.908	80.006	19.993	104.310	20.059	3.863	0.513
299.500	234.143	80.006	19.992	104.303	20.061	3.709	0.500
300.000	234.398	80.005	19.993	104.297	20.061	3.702	0.493
300.500	234.690	80.006	19.993	104.295	20.060	3.783	0.519
301.000	234.888	80.005	19.992	104.299	20.060	3.781	0.519
301.500	235.136	80.007	19.992	104.304	20.055	4.172	0.468
302.000	235.412	80.006	19.992	104.307	20.058	3.921	0.485
302.500	235.652	80.005	19.993	104.308	20.057	3.997	0.520
303.000	235.886	80.007	19.992	104.311	20.060	3.756	0.495
303.500	236.140	80.006	19.992	104.311	20.059	3.853	0.481
304.000	236.365	80.005	19.993	104.310	20.063	3.561	0.484
304.500	236.618	80.005	19.993	104.314	20.062	3.645	0.479
305.000	236.921	80.005	19.993	104.316	20.064	3.511	0.517
305.500	237.130	80.006	19.994	104.318	20.059	3.837	0.534
306.000	237.401	80.005	19.994	104.313	20.062	3.670	0.496
306.500	237.662	80.004	19.994	104.309	20.061	3.692	0.506
307.000	237.925	80.005	19.994	104.303	20.061	3.713	0.528
307.500	238.151	80.006	19.993	104.298	20.063	3.606	0.507
308.000	238.430	80.004	19.993	104.293	20.061	3.709	0.498
308.500	238.674	80.005	19.994	104.293	20.061	3.688	0.514
309.000	238.902	80.005	19.992	104.295	20.064	3.530	0.497
309.500	239.145	80.005	19.995	104.295	20.063	3.598	0.471
310.000	239.383	80.004	19.994	104.297	20.063	3.594	0.476
310.500	239.646	80.006	19.993	104.300	20.064	3.478	0.491
311.000	239.861	80.005	19.993	104.301	20.063	3.600	0.489
311.500	240.152	80.005	19.993	104.301	20.064	3.526	0.492
312.000	240.363	80.005	19.992	104.304	20.063	3.593	0.505
312.500	240.617	80.006	19.994	104.303	20.062	3.649	0.484
313.000	240.833	80.005	19.993	104.300	20.063	3.544	0.467
313.500	241.072	80.007	19.993	104.298	20.064	3.526	0.462
314.000	241.353	80.005	19.993	104.295	20.063	3.548	0.488
314.500	241.603	80.006	19.994	104.292	20.063	3.608	0.526
315.000	241.813	80.007	19.993	104.295	20.061	3.730	0.495
315.500	242.109	80.005	19.994	104.298	20.064	3.488	0.483
316.000	242.314	80.006	19.992	104.298	20.066	3.332	0.503
316.500	242.592	80.007	19.994	104.298	20.062	3.653	0.492
317.000	242.855	80.007	19.994	104.298	20.061	3.737	0.512
317.500	243.103	80.007	19.995	104.295	20.061	3.748	0.526
318.000	243.360	80.007	19.994	104.292	20.064	3.511	0.508
318.500	243.613	80.006	19.993	104.291	20.062	3.622	0.507
319.000	243.897	80.006	19.993	104.291	20.060	3.780	0.524
319.500	244.124	80.007	19.993	104.291	20.059	3.855	0.524
320.000	244.358	80.007	19.994	104.291	20.060	3.759	0.486
320.500	244.583	80.007	19.994	104.291	20.059	3.862	0.460
321.000	244.864	80.007	19.993	104.291	20.060	3.809	0.483
321.500	245.072	80.007	19.994	104.292	20.062	3.677	0.498
322.000	245.343	80.008	19.994	104.292	20.060	3.817	0.484
322.500	245.631	80.006	19.992	104.293	20.063	3.574	0.519
323.000	245.839	80.008	19.993	104.295	20.062	3.640	0.527
323.500	246.078	80.006	19.994	104.295	20.062	3.634	0.471
324.000	246.369	80.007	19.993	104.294	20.061	3.690	0.488
324.500	246.585	80.005	19.994	104.294	20.062	3.657	0.519
325.000	246.885	80.007	19.994	104.296	20.065	3.432	0.512
325.500	247.092	80.006	19.993	104.294	20.066	3.391	0.511
326.000	247.361	80.006	19.993	104.296	20.061	3.690	0.491
326.500	247.597	80.006	19.994	104.297	20.062	3.678	0.491
327.000	247.863	80.006	19.994	104.303	20.062	3.649	0.504
327.500	248.100	80.007	19.993	104.306	20.062	3.622	0.503
328.000	248.362	80.006	19.993	104.307	20.063	3.596	0.500
328.500	248.630	80.007	19.994	104.307	20.062	3.672	0.514
329.000	248.845	80.004	19.994	104.310	20.061	3.682	0.507
329.500	249.137	80.007	19.993	104.309	20.062	3.649	0.495
330.000	249.372	80.005	19.993	104.311	20.060	3.800	0.517
330.500	249.668	80.005	19.994	104.313	20.058	3.903	0.529
331.000	249.890	80.006	19.993	104.319	20.066	3.363	0.524
331.500	250.135	80.006	19.993	104.323	20.063	3.597	0.493
332.000	250.413	80.006	19.993	104.327	20.064	3.536	0.495
332.500	250.650	80.006	19.993	104.326	20.061	3.690	0.519
333.000	250.887	80.006	19.993	104.327	20.061	3.733	0.495
333.500	251.157	80.006	19.993	104.326	20.061	3.690	0.490
334.000	251.363	80.006	19.993	104.324	20.063	3.604	0.491
334.500	251.630	80.006	19.993	104.317	20.063	3.598	0.475
335.000	251.925	80.006	19.994	104.312	20.062	3.633	0.518
335.500	252.150	80.006	19.993	104.310	20.060	3.785	0.541
336.000	252.442	80.005	19.994	104.305	20.063	3.591	0.518
336.500	252.670	80.008	19.993	104.303	20.062	3.672	0.518
337.000	252.933	80.007	19.993	104.302	20.061	3.723	0.505
337.500	253.181	80.006	19.993	104.302	20.062	3.639	0.501
338.000	253.460	80.008	19.994	104.299	20.063	3.583	0.519
338.500	253.711	80.007	19.994	104.298	20.063	3.579	0.529
339.000	253.981	80.007	19.995	104.295	20.064	3.536	0.526
339.500	254.203	80.007	19.992	104.295	20.064	3.489	0.507
340.000	254.427	80.006	19.993	104.295	20.061	3.721	0.469
340.500	254.685	80.008	19.993	104.295	20.062	3.610	0.464
341.000	254.928	80.007	19.993	104.294	20.063	3.591	0.492
341.500	255.187	80.008	19.994	104.295	20.061	3.680	0.501
342.000	255.441	80.007	19.994	104.297	20.064	3.501	0.507
342.500	255.657	80.006	19.993	104.301	20.062	3.643	0.491
343.000	255.931	80.006	19.994	104.302	20.061	3.717	0.480
343.500	256.209	80.007	19.994	104.301	20.060	3.781	0.521
344.000	256.443	80.007	19.993	104.300	20.060	3.810	0.532
344.500	256.680	80.009	19.994	104.298	20.057	3.968	0.492
345.000	256.954	80.007	19.993	104.294	20.062	3.641	0.491
345.500	257.168	80.006	19.993	104.295	20.061	3.746	0.499
346.000	257.441	80.008	19.994	104.297	20.065	3.462	0.487
346.500	257.724	80.006	19.994	104.297	20.065	3.425	0.521
347.000	257.924	80.007	19.994	104.300	20.062	3.643	0.519
347.500	258.163	80.008	19.993	104.302	20.062	3.655	0.461
348.000	258.419	80.008	19.993	104.300	20.064	3.491	0.467
348.500	258.700	80.007	19.994	104.298	20.063	3.606	0.516
349.000	258.959	80.006	19.994	104.297	20.061	3.711	0.539
349.500	259.243	80.005	19.993	104.294	20.063	3.598	0.542
350.000	259.469	80.005	19.994	104.292	20.059	3.841	0.526
350.500	259.737	80.007	19.993	104.292	20.061	3.738	0.501
351.000	259.979	80.005	19.992	104.292	20.060	3.798	0.502
351.500	260.171	80.007	19.993	104.292	20.060	3.773	0.472
352.000	260.435	80.005	19.992	104.294	20.061	3.723	0.445
352.500	260.697	80.006	19.993	104.295	20.062	3.656	0.491
353.000	260.943	80.006	19.994	104.300	20.059	3.890	0.517
353.500	261.175	80.005	19.994	104.300	20.062	3.674	0.493
354.000	261.407	80.006	19.993	104.300	20.060	3.816	0.471
354.500	261.691	80.005	19.993	104.300	20.061	3.713	0.490
355.000	261.933	80.004	19.993	104.301	20.057	4.018	0.521
355.500	262.182	80.006	19.993	104.296	20.061	3.723	0.508
356.000	262.426	80.004	19.992	104.296	20.059	3.828	0.492
356.500	262.680	80.006	19.992	104.297	20.061	3.707	0.496
357.000	262.913	80.006	19.993	104.296	20.060	3.789	0.493
357.500	263.148	80.006	19.993	104.294	20.058	3.903	0.478
358.000	263.419	80.006	19.993	104.294	20.057	3.989	0.487
358.500	263.704	80.007	19.993	104.293	20.057	3.973	0.531
359.000	263.906	80.005	19.993	104.292	20.059	3.867	0.522
359.500	264.164	80.006	19.993	104.292	20.060	3.814	0.473
360.000	264.409	80.006	19.993	104.292	20.057	3.979	0.482
360.500	264.685	80.007	19.992	104.292	20.057	3.983	0.513
361.000	264.931	80.005	19.992	104.291	20.054	4.189	0.522
361.500	265.192	80.005	19.992	104.292	20.055	4.156	0.514
362.000	265.396	80.006	19.993	104.292	20.055	4.164	0.486
362.500	265.666	80.007	19.992	104.291	20.058	3.952	0.469
363.000	265.928	80.007	19.993	104.290	20.056	4.065	0.503
363.500	266.181	80.005	19.992	104.290	20.056	4.098	0.523
364.000	266.407	80.006	19.992	104.289	20.057	4.012	0.497
364.500	266.652	80.005	19.993	104.289	20.056	4.090	0.475
365.000	266.902	80.006	19.994	104.294	20.057	4.020	0.483
365.500	267.176	80.004	19.994	104.297	20.054	4.185	0.510
366.000	267.420	80.006	19.994	104.297	20.054	4.216	0.521
366.500	267.630	80.006	19.994	104.298	20.053	4.286	0.486
367.000	267.902	80.006	19.994	104.298	20.053	4.275	0.468
367.500	268.152	80.006	19.993	104.293	20.054	4.207	0.502
368.000	268.396	80.007	19.993	104.292	20.052	4.347	0.508
368.500	268.629	80.006	19.994	104.293	20.052	4.366	0.485
369.000	268.874	80.006	19.993	104.293	20.055	4.174	0.477
369.500	269.160	80.006	19.993	104.294	20.051	4.445	0.504
370.000	269.379	80.006	19.994	104.299	20.051	4.391	0.518
370.500	269.642	80.006	19.993	104.303	20.053	4.315	0.494
371.000	269.889	80.005	19.994	104.303	20.053	4.261	0.496
371.500	270.147	80.007	19.994	104.304	20.055	4.171	0.507
372.000	270.373	80.005	19.993	104.304	20.055	4.158	0.495
372.500	270.659	80.006	19.993	104.301	20.053	4.304	0.498
373.000	270.900	80.006	19.994	104.299	20.052	4.381	0.520
373.500	271.161	80.006	19.994	104.299	20.048	4.655	0.515
374.000	271.446	80.006	19.993	104.298	20.052	4.325	0.524
374.500	271.639	80.006	19.993	104.297	20.050	4.488	0.512
375.000	271.905	80.005	19.994	104.298	20.051	4.403	0.468
375.500	272.148	80.006	19.993	104.301	20.049	4.554	0.484
376.000	272.417	80.006	19.992	104.301	20.052	4.386	0.510
376.500	272.660	80.005	19.993	104.301	20.048	4.628	0.512
377.000	272.905	80.005	19.993	104.302	20.051	4.436	0.500
377.500	273.157	80.007	19.994	104.303	20.049	4.588	0.493
378.000	273.421	80.006	19.993	104.302	20.049	4.562	0.507
378.500	273.672	80.007	19.992	104.302	20.047	4.720	0.515
379.000	273.921	80.006	19.994	104.302	20.049	4.564	0.507
379.500	274.172	80.007	19.992	104.301	20.049	4.568	0.500
380.000	274.435	80.006	19.994	104.299	20.047	4.681	0.507
380.500	274.664	80.006	19.995	104.294	20.045	4.824	0.503
381.000	274.890	80.005	19.994	104.293	20.044	4.920	0.474
381.500	275.154	80.005	19.993	104.293	20.046	4.809	0.473
382.000	275.408	80.004	19.993	104.292	20.046	4.795	0.503
382.500	275.637	80.005	19.994	104.293	20.046	4.801	0.500
383.000	275.884	80.004	19.993	104.294	20.045	4.819	0.479
383.500	276.132	80.005	19.994	104.294	20.044	4.946	0.485
384.000	276.403	80.005	19.994	104.294	20.042	5.041	0.507
384.500	276.649	80.005	19.993	104.295	20.043	4.994	0.519
385.000	276.889	80.005	19.994	104.293	20.043	4.977	0.502
385.500	277.157	80.006	19.992	104.293	20.041	5.157	0.497
386.000	277.383	80.004	19.994	104.293	20.039	5.241	0.501
386.500	277.654	80.004	19.992	104.297	20.039	5.248	0.495
387.000	277.890	80.005	19.993	104.301	20.041	5.157	0.502
387.500	278.144	80.004	19.993	104.302	20.040	5.194	0.499
388.000	278.392	80.005	19.994	104.303	20.038	5.370	0.496
388.500	278.650	80.005	19.993	104.305	20.040	5.205	0.504
389.000	278.907	80.003	19.993	104.301	20.036	5.489	0.511
389.500	279.140	80.005	19.992	104.297	20.035	5.590	0.502
390.000	279.388	80.004	19.993	104.297	20.037	5.415	0.485
390.500	279.647	80.006	19.992	104.296	20.039	5.306	0.494
391.000	279.897	80.004	19.993	104.296	20.038	5.374	0.508
391.500	280.113	80.006	19.992	104.296	20.034	5.601	0.487
392.000	280.345	80.005	19.993	104.296	20.034	5.615	0.457
392.500	280.640	80.006	19.993	104.297	20.031	5.825	0.488
393.000	280.884	80.007	19.993	104.299	20.033	5.668	0.533
393.500	281.102	80.007	19.993	104.301	20.036	5.520	0.500
394.000	281.353	80.005	19.992	104.304	20.032	5.773	0.465
394.500	281.601	80.005	19.994	104.311	20.030	5.920	0.484
395.000	281.837	80.005	19.994	104.318	20.034	5.644	0.491
395.501	282.083	80.006	19.992	104.317	20.034	5.654	0.483
396.001	282.337	80.007	19.993	104.315	20.032	5.761	0.492
396.500	282.584	80.006	19.994	104.313	20.031	5.862	0.501
397.000	282.827	80.006	19.993	104.310	20.030	5.891	0.495
397.500	283.077	80.006	19.993	104.302	20.029	5.963	0.491
398.000	283.300	80.006	19.993	104.301	20.029	5.996	0.483
398.500	283.579	80.006	19.993	104.300	20.030	5.922	0.487
399.000	283.825	80.006	19.994	104.299	20.029	6.018	0.514
399.500	284.096	80.006	19.993	104.295	20.029	5.950	0.521
400.000	284.298	80.006	19.992	104.295	20.026	6.184	0.495
400.500	284.571	80.006	19.993	104.295	20.028	6.024	0.474
401.000	284.836	80.007	19.993	104.294	20.027	6.149	0.507
401.500	285.090	80.006	19.993	104.294	20.029	6.009	0.529
402.000	285.295	80.006	19.993	104.294	20.024	6.304	0.489
402.500	285.570	80.007	19.994	104.294	20.027	6.139	0.469
403.000	285.826	80.006	19.993	104.297	20.026	6.177	0.505
403.500	286.088	80.006	19.993	104.300	20.026	6.224	0.524
404.000	286.318	80.007	19.993	104.300	20.021	6.563	0.505
404.500	286.560	80.006	19.994	104.300	20.024	6.324	0.482
405.000	286.800	80.006	19.993	104.300	20.023	6.384	0.477
405.500	287.091	80.008	19.994	104.298	20.020	6.653	0.506
406.000	287.349	80.007	19.995	104.298	20.020	6.653	0.540
406.501	287.596	80.006	19.994	104.301	20.020	6.629	0.527
407.000	287.795	80.006	19.994	104.303	20.019	6.709	0.475
407.500	288.048	80.006	19.995	104.303	20.019	6.721	0.449
408.000	288.308	80.006	19.994	104.302	20.017	6.859	0.483
408.500	288.551	80.006	19.993	104.302	20.017	6.802	0.508
409.000	288.800	80.006	19.993	104.300	20.015	7.001	0.497
409.500	289.038	80.006	19.994	104.299	20.017	6.863	0.490
410.000	289.335	80.006	19.993	104.300	20.017	6.867	0.511
410.500	289.573	80.007	19.993	104.307	20.013	7.107	0.535
411.000	289.843	80.006	19.993	104.313	20.013	7.136	0.521
411.500	290.064	80.006	19.994	104.317	20.013	7.103	0.500
412.000	290.303	80.006	19.994	104.316	20.010	7.297	0.476
412.500	290.577	80.006	19.993	104.315	20.011	7.227	0.486
413.000	290.827	80.007	19.994	104.309	20.012	7.198	0.518
413.500	291.089	80.006	19.994	104.308	20.009	7.408	0.518
414.000	291.274	80.005	19.993	104.308	20.012	7.189	0.479
414.500	291.575	80.008	19.994	104.314	20.007	7.522	0.466
415.000	291.840	80.007	19.993	104.319	20.007	7.520	0.526
415.500	292.065	80.007	19.994	104.322	20.006	7.623	0.528
416.000	292.338	80.006	19.993	104.323	20.007	7.529	0.494
416.500	292.582	80.006	19.993	104.325	20.003	7.825	0.508
417.000	292.831	80.007	19.993	104.324	20.003	7.823	0.505
417.500	293.081	80.007	19.994	104.322	20.000	8.050	0.496
418.000	293.309	80.005	19.993	104.324	20.002	7.885	0.489
418.500	293.571	80.007	19.993	104.323	20.000	8.035	0.484
419.000	293.780	80.006	19.994	104.323	20.000	8.040	0.481
419.500	294.047	80.007	19.993	104.326	19.996	8.338	0.473
420.000	294.294	80.008	19.993	104.331	19.997	8.245	0.495
420.500	294.559	80.007	19.993	104.330	19.997	8.245	0.513
421.000	294.798	80.008	19.992	104.327	19.993	8.503	0.508
421.500	295.064	80.009	19.993	104.323	19.997	8.280	0.505
422.000	295.317	80.007	19.992	104.323	19.994	8.443	0.512
422.500	295.512	80.008	19.993	104.322	19.992	8.587	0.483
423.000	295.787	80.008	19.993	104.316	19.992	8.628	0.459
423.500	296.084	80.008	19.992	104.319	19.990	8.772	0.521
424.000	296.296	80.008	19.993	104.321	19.987	8.954	0.541
424.500	296.540	80.007	19.994	104.321	19.983	9.223	0.483
425.000	296.796	80.008	19.994	104.321	19.986	9.050	0.478
425.500	297.079	80.008	19.994	104.328	19.982	9.347	0.519
426.000	297.263	80.008	19.994	104.330	19.984	9.201	0.503
426.500	297.545	80.008	19.994	104.330	19.982	9.318	0.467
427.000	297.779	80.009	19.993	104.328	19.981	9.404	0.492
427.500	298.024	80.008	19.994	104.328	19.976	9.730	0.497
428.000	298.307	80.009	19.994	104.328	19.975	9.785	0.503
428.500	298.544	80.007	19.994	104.328	19.977	9.643	0.524
429.000	298.805	80.009	19.994	104.329	19.976	9.733	0.509
429.500	299.087	80.007	19.996	104.328	19.976	9.765	0.520
430.000	299.274	80.007	19.995	104.327	19.973	9.969	0.506
430.500	299.544	80.007	19.995	104.328	19.974	9.880	0.464
431.000	299.802	80.007	19.994	104.327	19.970	10.176	0.493
431.500	300.077	80.007	19.994	104.327	19.969	10.211	0.531
432.000	300.290	80.005	19.994	104.329	19.965	10.541	0.511
432.500	300.543	80.005	19.994	104.330	19.964	10.615	0.477
433.000	300.762	80.005	19.995	104.330	19.966	10.424	0.469
433.500	301.024	80.006	19.993	104.329	19.964	10.626	0.476
434.000	301.275	80.006	19.994	104.329	19.962	10.737	0.497
434.500	301.510	80.006	19.994	104.331	19.963	10.686	0.500
435.000	301.783	80.006	19.994	104.332	19.959	10.918	0.497
435.500	302.029	80.005	19.994	104.334	19.957	11.072	0.514
436.000	302.287	80.005	19.995	104.334	19.957	11.111	0.512
436.500	302.542	80.006	19.994	104.334	19.953	11.358	0.508
437.000	302.782	80.005	19.994	104.334	19.952	11.442	0.504
437.500	303.037	80.007	19.995	104.333	19.953	11.361	0.495
438.000	303.238	80.004	19.994	104.336	19.951	11.518	0.475
438.500	303.530	80.005	19.994	104.339	19.947	11.814	0.474
439.000	303.778	80.006	19.995	104.339	19.948	11.728	0.517
439.500	304.003	80.006	19.994	104.341	19.947	11.804	0.507
440.000	304.234	80.005	19.994	104.347	19.944	12.016	0.465
440.500	304.472	80.005	19.995	104.350	19.941	12.247	0.463
441.000	304.788	80.005	19.995	104.355	19.939	12.368	0.511
441.500	305.017	80.005	19.994	104.362	19.937	12.492	0.549
442.000	305.270	80.005	19.994	104.366	19.938	12.422	0.514
442.500	305.497	80.005	19.994	104.363	19.939	12.387	0.481
443.000	305.770	80.005	19.994	104.362	19.934	12.735	0.490
443.500	306.031	80.005	19.994	104.359	19.936	12.596	0.517
444.000	306.227	80.006	19.994	104.355	19.930	13.000	0.495
444.500	306.550	80.007	19.993	104.353	19.926	13.263	0.488
445.001	306.801	80.004	19.993	104.356	19.928	13.129	0.546
445.501	307.012	80.005	19.994	104.354	19.928	13.159	0.518
446.000	307.262	80.005	19.994	104.353	19.925	13.398	0.462
446.500	307.514	80.006	19.993	104.357	19.922	13.582	0.481
447.000	307.789	80.006	19.994	104.359	19.922	13.602	0.515
447.500	307.992	80.005	19.993	104.360	19.917	13.934	0.502
448.000	308.270	80.006	19.994	104.364	19.918	13.896	0.479
448.500	308.492	80.005	19.993	104.368	19.916	14.008	0.491
449.000	308.721	80.006	19.993	104.369	19.915	14.076	0.475
449.500	309.016	80.007	19.993	104.371	19.913	14.238	0.487
450.000	309.273	80.007	19.994	104.371	19.907	14.623	0.538
450.500	309.493	80.006	19.993	104.371	19.904	14.854	0.515
451.001	309.751	80.007	19.993	104.371	19.902	14.976	0.478
451.500	310.023	80.006	19.993	104.369	19.904	14.885	0.504
452.000	310.251	80.006	19.993	104.368	19.902	14.973	0.514
452.500	310.514	80.006	19.993	104.367	19.900	15.169	0.495
453.000	310.753	80.005	19.992	104.366	19.897	15.320	0.497
453.500	311.032	80.006	19.993	104.366	19.895	15.526	0.510
454.000	311.250	80.005	19.993	104.369	19.892	15.719	0.507
454.500	311.512	80.005	19.993	104.371	19.891	15.762	0.488
455.000	311.743	80.006	19.992	104.372	19.889	15.917	0.486
455.500	312.034	80.006	19.994	104.374	19.886	16.122	0.508
456.000	312.303	80.005	19.993	104.372	19.884	16.307	0.542
456.500	312.564	80.006	19.992	104.368	19.879	16.645	0.545
457.000	312.784	80.007	19.992	104.363	19.879	16.638	0.505
457.500	313.051	80.005	19.993	104.362	19.877	16.803	0.484
458.000	313.311	80.004	19.992	104.363	19.871	17.202	0.507
458.500	313.559	80.006	19.994	104.364	19.871	17.202	0.518
459.000	313.782	80.005	19.992	104.372	19.868	17.440	0.490
459.500	314.066	80.004	19.993	104.379	19.865	17.629	0.489
460.000	314.287	80.005	19.993	104.380	19.860	17.999	0.506
460.500	314.535	80.006	19.991	104.379	19.857	18.180	0.486
461.000	314.814	80.005	19.993	104.379	19.857	18.229	0.498
461.500	315.063	80.007	19.994	104.380	19.852	18.535	0.528
462.000	315.325	80.006	19.993	104.378	19.849	18.799	0.520
462.500	315.575	80.006	19.993	104.378	19.846	19.012	0.511
463.000	315.794	80.006	19.994	104.378	19.845	19.060	0.490
463.500	316.065	80.006	19.994	104.378	19.841	19.358	0.480
464.000	316.337	80.005	19.993	104.376	19.841	19.367	0.516
464.500	316.517	80.003	19.993	104.376	19.836	19.694	0.497
465.000	316.819	80.006	19.993	104.375	19.831	20.047	0.467
465.500	317.036	80.006	19.994	104.375	19.830	20.135	0.500
466.000	317.328	80.003	19.993	104.375	19.826	20.393	0.514
466.500	317.597	80.005	19.993	104.377	19.822	20.705	0.535
467.000	317.803	80.006	19.993	104.382	19.818	20.989	0.518
467.500	318.083	80.005	19.994	104.388	19.815	21.186	0.481
468.000	318.305	80.005	19.994	104.396	19.812	21.383	0.494
468.500	318.618	80.005	19.992	104.403	19.806	21.832	0.518
469.000	318.847	80.006	19.992	104.407	19.804	21.955	0.539
469.500	319.108	80.005	19.993	104.409	19.802	22.089	0.516
470.000	319.338	80.005	19.992	104.411	19.797	22.442	0.491
470.500	319.585	80.005	19.993	104.413	19.795	22.614	0.484
471.000	319.846	80.007	19.994	104.416	19.793	22.775	0.492
471.500	320.119	80.005	19.994	104.417	19.788	23.111	0.521
472.000	320.372	80.006	19.994	104.421	19.784	23.391	0.530
472.500	320.579	80.005	19.993	104.424	19.781	23.590	0.493
473.000	320.856	80.004	19.993	104.429	19.774	24.076	0.472
473.500	321.137	80.006	19.992	104.435	19.774	24.069	0.521
474.000	321.360	80.005	19.993	104.441	19.770	24.384	0.531
474.500	321.632	80.006	19.993	104.446	19.767	24.588	0.499
475.000	321.841	80.006	19.992	104.450	19.761	25.005	0.488
475.500	322.106	80.005	19.992	104.452	19.757	25.340	0.478
476.000	322.390	80.006	19.993	104.453	19.752	25.640	0.511
476.500	322.605	80.006	19.993	104.455	19.749	25.909	0.524
477.000	322.877	80.007	19.993	104.455	19.744	26.234	0.493
477.500	323.124	80.007	19.993	104.455	19.740	26.523	0.503
478.000	323.372	80.009	19.993	104.457	19.733	27.002	0.507
478.500	323.599	80.005	19.993	104.459	19.732	27.109	0.484
479.000	323.879	80.008	19.993	104.459	19.728	27.345	0.491
479.500	324.095	80.008	19.993	104.465	19.720	27.907	0.502
480.000	324.365	80.007	19.993	104.471	19.719	28.022	0.491
480.500	324.587	80.006	19.992	104.477	19.710	28.637	0.489
481.000	324.834	80.008	19.993	104.481	19.703	29.139	0.481
481.500	325.118	80.007	19.993	104.485	19.701	29.330	0.500
482.000	325.350	80.007	19.992	104.481	19.695	29.697	0.523
482.500	325.579	80.007	19.992	104.477	19.691	30.003	0.488
483.000	325.856	80.007	19.993	104.476	19.686	30.362	0.484
483.500	326.137	80.007	19.992	104.476	19.677	30.972	0.532
484.000	326.330	80.008	19.992	104.476	19.676	31.071	0.516
484.500	326.606	80.007	19.993	104.480	19.670	31.501	0.471
485.000	326.884	80.008	19.992	104.485	19.666	31.772	0.512
485.500	327.136	80.008	19.993	104.486	19.660	32.190	0.542
486.000	327.372	80.008	19.993	104.487	19.651	32.885	0.509
486.500	327.613	80.007	19.992	104.489	19.644	33.328	0.483
487.000	327.853	80.008	19.993	104.489	19.640	33.662	0.479
487.500	328.131	80.007	19.993	104.488	19.638	33.812	0.499
488.000	328.358	80.007	19.993	104.488	19.628	34.517	0.512
488.500	328.656	80.008	19.994	104.487	19.621	35.015	0.515
489.000	328.889	80.007	19.993	104.487	19.616	35.345	0.528
489.500	329.180	80.007	19.993	104.487	19.609	35.830	0.527
490.000	329.399	80.006	19.993	104.488	19.601	36.426	0.517
490.500	329.657	80.005	19.993	104.492	19.596	36.752	0.493
491.000	329.893	80.008	19.994	104.499	19.590	37.184	0.485
491.500	330.098	80.007	19.993	104.506	19.584	37.626	0.468
492.000	330.367	80.005	19.993	104.513	19.579	37.964	0.458
492.500	330.633	80.006	19.994	104.521	19.574	38.377	0.505
493.000	330.923	80.008	19.992	104.525	19.564	39.031	0.546
493.500	331.187	80.005	19.992	104.526	19.556	39.661	0.555
494.000	331.416	80.007	19.994	104.519	19.550	40.075	0.523
494.500	331.636	80.007	19.993	104.516	19.542	40.626	0.471
495.000	331.881	80.007	19.994	104.515	19.535	41.102	0.458
495.500	332.141	80.006	19.993	104.515	19.530	41.510	0.485
496.000	332.409	80.007	19.994	104.516	19.520	42.228	0.516
496.500	332.672	80.008	19.993	104.527	19.516	42.461	0.529
497.000	332.909	80.007	19.993	104.539	19.507	43.133	0.516
497.500	333.201	80.007	19.994	104.547	19.503	43.441	0.514
498.000	333.418	80.007	19.993	104.555	19.496	43.938	0.518
498.500	333.701	80.007	19.993	104.562	19.486	44.640	0.504
499.001	333.938	80.007	19.993	104.566	19.478	45.219	0.510
499.500	334.236	80.006	19.993	104.566	19.468	45.871	0.528
500.000	334.442	80.007	19.993	104.566	19.460	46.461	0.520
500.500	334.707	80.006	19.995	104.566	19.454	46.923	0.488
501.000	334.980	80.009	19.994	104.568	19.445	47.543	0.504
501.500	335.214	80.007	19.994	104.568	19.437	48.146	0.522
502.000	335.465	80.008	19.993	104.568	19.432	48.470	0.496
502.500	335.691	80.008	19.994	104.572	19.422	49.203	0.481
503.000	335.952	80.009	19.994	104.581	19.411	49.953	0.482
503.500	336.220	80.008	19.993	104.587	19.406	50.334	0.508
504.000	336.461	80.009	19.993	104.594	19.396	51.014	0.519
504.500	336.730	80.008	19.995	104.602	19.386	51.721	0.510
505.000	336.949	80.009	19.993	104.608	19.373	52.653	0.499
505.500	337.237	80.009	19.993	104.607	19.367	53.119	0.497
506.000	337.503	80.008	19.993	104.608	19.360	53.600	0.530
506.500	337.758	80.009	19.993	104.611	19.351	54.235	0.537
507.000	337.986	80.008	19.993	104.613	19.342	54.876	0.502
507.500	338.254	80.009	19.993	104.611	19.331	55.655	0.490
508.000	338.451	80.008	19.993	104.615	19.323	56.258	0.480
508.500	338.722	80.009	19.994	104.620	19.312	57.013	0.466
509.000	338.971	80.009	19.993	104.624	19.301	57.815	0.495
509.500	339.252	80.009	19.994	104.628	19.292	58.455	0.525
510.000	339.469	80.008	19.993	104.634	19.282	59.150	0.514
510.500	339.712	80.009	19.993	104.637	19.272	59.914	0.479
511.000	339.986	80.007	19.994	104.638	19.259	60.827	0.489
511.500	340.243	80.007	19.995	104.639	19.253	61.284	0.524
512.000	340.500	80.007	19.993	104.640	19.241	62.141	0.523
512.500	340.777	80.008	19.992	104.641	19.231	62.860	0.524
513.000	340.997	80.006	19.993	104.645	19.221	63.547	0.516
513.500	341.237	80.007	19.993	104.653	19.211	64.252	0.478
514.000	341.466	80.007	19.992	104.660	19.199	65.114	0.464
514.500	341.711	80.006	19.993	104.667	19.188	65.927	0.471
515.000	342.010	80.005	19.994	104.673	19.180	66.470	0.509
515.500	342.258	80.007	19.993	104.676	19.169	67.240	0.545
516.000	342.503	80.006	19.993	104.675	19.161	67.879	0.520
516.500	342.733	80.006	19.995	104.676	19.150	68.634	0.484
517.000	342.983	80.006	19.994	104.677	19.137	69.575	0.477
517.500	343.238	80.007	19.995	104.681	19.124	70.481	0.493
518.000	343.528	80.005	19.995	104.687	19.114	71.221	0.525
518.500	343.768	80.005	19.994	104.695	19.102	72.036	0.537
519.000	343.977	80.006	19.994	104.704	19.092	72.751	0.489
519.500	344.243	80.006	19.993	104.712	19.082	73.472	0.462
520.000	344.479	80.006	19.994	104.718	19.068	74.492	0.489
520.500	344.774	80.006	19.995	104.722	19.056	75.354	0.516
521.000	345.009	80.007	19.994	104.726	19.045	76.148	0.530
521.500	345.257	80.004	19.995	104.732	19.032	77.018	0.506
522.000	345.498	80.006	19.996	104.739	19.021	77.808	0.486
522.500	345.755	80.006	19.995	104.746	19.009	78.676	0.494
523.000	346.025	80.005	19.995	104.753	18.997	79.587	0.513
523.500	346.232	80.004	19.994	104.758	18.983	80.548	0.502
524.000	346.549	80.005	19.993	104.761	18.972	81.339	0.500
524.500	346.774	80.005	19.995	104.764	18.961	82.104	0.533
525.000	347.005	80.005	19.994	104.770	18.951	82.865	0.499
525.500	347.265	80.006	19.995	104.778	18.935	83.995	0.474
526.000	347.496	80.005	19.995	104.785	18.925	84.672	0.491
526.500	347.749	80.007	19.994	104.793	18.914	85.466	0.487
527.000	348.007	80.005	19.995	104.799	18.899	86.583	0.497
527.500	348.270	80.005	19.996	104.801	18.889	87.261	0.516
528.000	348.508	80.005	19.995	104.802	18.874	88.391	0.511
528.500	348.741	80.006	19.995	104.802	18.865	89.042	0.486
529.000	349.031	80.007	19.993	104.802	18.852	89.904	0.497
529.500	349.278	80.006	19.995	104.802	18.837	90.991	0.530
530.000	349.561	80.005	19.994	104.804	18.825	91.861	0.534
530.500	349.787	80.006	19.996	104.804	18.813	92.753	0.520
531.000	350.038	80.004	19.991	104.805	18.799	93.707	0.493
531.500	350.342	80.005	19.995	104.810	18.786	94.679	0.516
532.000	350.543	80.005	19.994	104.816	18.769	95.858	0.530
532.500	350.820	80.004	19.994	104.823	18.759	96.558	0.492
533.000	351.033	80.006	19.994	104.830	18.747	97.458	0.484
533.500	351.268	80.005	19.994	104.837	18.736	98.224	0.469
534.000	351.551	80.004	19.994	104.840	18.721	99.340	0.483
534.500	351.787	80.005	19.994	104.841	18.706	100.344	0.519
535.000	352.042	80.005	19.995	104.840	18.693	101.326	0.505
535.500	352.293	80.006	19.993	104.841	18.679	102.348	0.499
536.000	352.572	80.006	19.994	104.846	18.669	103.066	0.518
536.500	352.836	80.005	19.993	104.853	18.653	104.176	0.536
537.000	353.061	80.006	19.994	104.861	18.640	105.125	0.516
537.500	353.313	80.007	19.993	104.869	18.623	106.294	0.483
538.000	353.548	80.006	19.993	104.876	18.612	107.108	0.483
538.500	353.812	80.007	19.994	104.881	18.600	107.935	0.493
539.000	354.064	80.007	19.993	104.886	18.584	109.072	0.507
539.500	354.364	80.006	19.992	104.888	18.573	109.856	0.534
540.000	354.575	80.007	19.993	104.891	18.560	110.817	0.531
540.501	354.832	80.005	19.994	104.899	18.543	112.020	0.490
541.001	355.092	80.006	19.994	104.903	18.534	112.642	0.493
541.500	355.334	80.007	19.994	104.907	18.521	113.599	0.510
542.000	355.586	80.006	19.993	104.911	18.509	114.443	0.498
542.500	355.884	80.006	19.993	104.916	18.495	115.472	0.522
543.000	356.124	80.006	19.993	104.917	18.482	116.406	0.544
543.500	356.319	80.004	19.991	104.919	18.472	117.128	0.487
544.000	356.626	80.006	19.994	104.920	18.458	118.085	0.468
544.500	356.863	80.006	19.994	104.922	18.444	119.127	0.523
545.000	357.099	80.007	19.995	104.925	18.436	119.686	0.509
545.500	357.336	80.004	19.993	104.927	18.422	120.659	0.474
546.000	357.597	80.005	19.994	104.934	18.411	121.481	0.486
546.500	357.824	80.006	19.994	104.942	18.397	122.440	0.493
547.000	358.062	80.004	19.994	104.946	18.388	123.089	0.476
547.500	358.355	80.004	19.994	104.949	18.378	123.859	0.498
548.000	358.618	80.005	19.994	104.952	18.364	124.797	0.544
548.500	358.876	80.006	19.993	104.950	18.353	125.647	0.539
549.000	359.084	80.006	19.993	104.949	18.341	126.489	0.494
549.500	359.334	80.007	19.995	104.949	18.331	127.191	0.462
550.000	359.634	80.006	19.993	104.948	18.320	127.976	0.504
550.500	359.844	80.006	19.994	104.948	18.311	128.657	0.530
551.000	360.106	80.006	19.993	104.945	18.302	129.298	0.491
551.500	360.326	80.006	19.993	104.946	18.291	130.030	0.477
552.000	360.590	80.006	19.994	104.948	18.282	130.706	0.483
552.500	360.858	80.007	19.995	104.953	18.273	131.318	0.507
553.000	361.090	80.006	19.994	104.957	18.262	132.093	0.515
553.500	361.384	80.005	19.994	104.965	18.256	132.494	0.513
554.000	361.635	80.005	19.995	104.965	18.244	133.327	0.536
554.500	361.870	80.007	19.993	104.965	18.235	133.991	0.515
555.000	362.144	80.006	19.994	104.963	18.229	134.432	0.497
555.500	362.359	80.006	19.994	104.965	18.221	134.949	0.499
556.000	362.625	80.006	19.994	104.965	18.212	135.587	0.485
556.500	362.881	80.008	19.994	104.969	18.205	136.123	0.502
557.000	363.132	80.006	19.993	104.973	18.198	136.593	0.514
557.500	363.404	80.008	19.994	104.974	18.191	137.079	0.515
558.000	363.641	80.007	19.994	104.976	18.184	137.562	0.516
558.500	363.911	80.008	19.994	104.975	18.177	138.099	0.508
559.000	364.159	80.007	19.994	104.978	18.168	138.766	0.512
559.500	364.431	80.007	19.994	104.980	18.163	139.112	0.519
560.000	364.678	80.007	19.993	104.986	18.156	139.557	0.520
560.500	364.959	80.009	19.994	104.988	18.152	139.857	0.523
561.000	365.226	80.007	19.994	104.993	18.147	140.198	0.538
561.500	365.458	80.008	19.994	104.991	18.140	140.715	0.524
562.000	365.682	80.007	19.994	104.988	18.136	141.000	0.478
562.500	365.950	80.007	19.994	104.980	18.128	141.536	0.474
563.000	366.205	80.008	19.992	104.974	18.126	141.698	0.507
563.500	366.467	80.007	19.993	104.967	18.121	142.043	0.520
564.000	366.743	80.008	19.993	104.960	18.118	142.216	0.528
564.500	366.965	80.007	19.995	104.949	18.115	142.419	0.518
565.000	367.239	80.007	19.993	104.946	18.114	142.503	0.497
565.500	367.509	80.006	19.993	104.940	18.110	142.774	0.520
566.000	367.753	80.007	19.993	104.933	18.110	142.759	0.529
566.500	368.035	80.007	19.993	104.928	18.109	142.810	0.520
567.000	368.265	80.007	19.993	104.926	18.103	143.252	0.519
567.500	368.527	80.008	19.993	104.921	18.108	142.915	0.502
568.000	368.788	80.008	19.993	104.919	18.108	142.909	0.507
568.500	369.044	80.008	19.993	104.917	18.106	142.969	0.520
569.000	369.302	80.007	19.993	104.916	18.107	142.933	0.516
569.500	369.560	80.007	19.993	104.916	18.107	142.881	0.515
570.000	369.800	80.006	19.992	104.917	18.111	142.583	0.507
570.500	370.047	80.006	19.993	104.917	18.113	142.452	0.493
571.000	370.315	80.008	19.993	104.915	18.115	142.287	0.501
571.500	370.563	80.007	19.993	104.910	18.121	141.864	0.515
572.000	370.836	80.007	19.993	104.903	18.122	141.767	0.518
572.500	371.095	80.007	19.992	104.898	18.128	141.322	0.526
573.000	371.301	80.008	19.993	104.891	18.133	140.971	0.499
573.500	371.613	80.008	19.993	104.887	18.138	140.568	0.492
574.000	371.843	80.008	19.992	104.884	18.146	140.029	0.530
574.500	372.138	80.006	19.994	104.880	18.149	139.772	0.533
575.000	372.365	80.006	19.993	104.873	18.161	138.887	0.524
575.500	372.632	80.007	19.993	104.865	18.169	138.293	0.509
576.000	372.877	80.006	19.992	104.856	18.176	137.775	0.503
576.500	373.128	80.006	19.993	104.849	18.186	137.053	0.504
577.000	373.367	80.007	19.993	104.843	18.198	136.207	0.493
577.500	373.616	80.007	19.993	104.838	18.211	135.238	0.488
578.000	373.869	80.007	19.994	104.831	18.219	134.682	0.495
578.500	374.167	80.006	19.994	104.824	18.233	133.627	0.527
579.000	374.401	80.006	19.993	104.816	18.246	132.692	0.541
579.500	374.629	80.007	19.993	104.803	18.259	131.805	0.497
580.000	374.948	80.006	19.994	104.790	18.273	130.755	0.505
580.500	375.178	80.008	19.993	104.780	18.291	129.472	0.548
581.000	375.453	80.007	19.993	104.768	18.306	128.396	0.527
581.500	375.709	80.007	19.994	104.760	18.321	127.333	0.518
582.000	375.969	80.007	19.993	104.753	18.340	125.916	0.523
582.500	376.222	80.008	19.994	104.748	18.356	124.768	0.514
583.000	376.482	80.007	19.993	104.741	18.373	123.591	0.513
583.500	376.751	80.008	19.993	104.736	18.394	122.073	0.521
584.000	377.000	80.008	19.992	104.724	18.413	120.726	0.524
584.500	377.224	80.008	19.994	104.711	18.435	119.153	0.496
585.000	377.470	80.008	19.993	104.694	18.455	117.676	0.471
585.500	377.741	80.007	19.993	104.678	18.476	116.223	0.493
586.000	378.010	80.007	19.993	104.659	18.495	114.826	0.529
586.500	378.264	80.006	19.992	104.642	18.519	113.112	0.532
587.000	378.538	80.008	19.992	104.627	18.544	111.363	0.525
587.500	378.773	80.008	19.993	104.617	18.562	110.092	0.518
588.000	379.041	80.008	19.992	104.601	18.594	107.789	0.506
588.500	379.287	80.008	19.993	104.590	18.615	106.321	0.509
589.000	379.546	80.007	19.993	104.582	18.642	104.388	0.510
589.500	379.790	80.007	19.993	104.568	18.669	102.430	0.504
590.000	380.107	80.008	19.994	104.553	18.702	100.116	0.532
590.500	380.321	80.008	19.993	104.541	18.726	98.425	0.546
591.000	380.565	80.007	19.994	104.525	18.750	96.654	0.495
591.500	380.862	80.008	19.993	104.510	18.778	94.704	0.500
592.000	381.103	80.007	19.993	104.499	18.808	92.573	0.539
592.500	381.401	80.007	19.993	104.486	18.838	90.432	0.538
593.000	381.641	80.006	19.993	104.475	18.863	88.657	0.538
593.500	381.892	80.006	19.994	104.465	18.888	86.883	0.514
594.000	382.156	80.006	19.994	104.455	18.917	84.831	0.503
594.500	382.403	80.005	19.993	104.442	18.945	82.849	0.514
595.000	382.628	80.005	19.993	104.435	18.976	80.637	0.491
595.500	382.905	80.005	19.994	104.428	19.002	78.793	0.487
596.000	383.146	80.004	19.992	104.421	19.030	76.788	0.510
596.500	383.426	80.006	19.994	104.414	19.057	74.865	0.519
597.000	383.654	80.006	19.993	104.407	19.085	72.860	0.515
597.500	383.928	80.005	19.993	104.400	19.115	70.794	0.505
598.000	384.184	80.005	19.994	104.392	19.143	68.791	0.516
598.500	384.427	80.006	19.993	104.384	19.170	66.859	0.514
599.001	384.705	80.005	19.994	104.372	19.196	65.031	0.510
599.500	384.939	80.006	19.994	104.367	19.222	63.162	0.516
600.000	385.210	80.005	19.993	104.360	19.250	61.204	0.509
600.500	385.449	80.005	19.992	104.352	19.274	59.463	0.508
601.000	385.711	80.006	19.993	104.339	19.301	57.601	0.506
601.500	385.935	80.006	19.993	104.331	19.327	55.716	0.493
602.000	386.184	80.005	19.994	104.318	19.351	53.994	0.479
602.500	386.471	80.004	19.992	104.302	19.375	52.331	0.505
603.000	386.734	80.005	19.993	104.294	19.400	50.583	0.543
603.500	386.983	80.002	19.992	104.290	19.426	48.750	0.531
604.000	387.253	80.006	19.994	104.288	19.449	47.115	0.516
604.500	387.536	80.006	19.994	104.288	19.473	45.364	0.536
605.000	387.806	80.005	19.993	104.290	19.496	43.739	0.553
605.500	388.002	80.005	19.994	104.284	19.521	42.017	0.509
606.000	388.273	80.005	19.994	104.281	19.541	40.579	0.467
606.500	388.570	80.005	19.993	104.275	19.557	39.409	0.518
607.000	388.802	80.005	19.994	104.267	19.581	37.754	0.549
607.500	389.055	80.005	19.993	104.268	19.601	36.288	0.507
608.000	389.333	80.004	19.993	104.267	19.620	34.997	0.508
608.500	389.559	80.005	19.993	104.265	19.641	33.501	0.517
609.000	389.848	80.005	19.994	104.261	19.659	32.224	0.509
609.500	390.114	80.005	19.995	104.259	19.675	31.039	0.535
610.000	390.369	80.005	19.993	104.252	19.695	29.612	0.538
610.500	390.639	80.007	19.994	104.252	19.710	28.617	0.523
611.000	390.874	80.006	19.995	104.251	19.728	27.329	0.515
611.500	391.144	80.006	19.993	104.253	19.743	26.214	0.505
612.000	391.375	80.005	19.994	104.254	19.759	25.091	0.503
612.500	391.635	80.005	19.994	104.256	19.780	23.622	0.496
613.000	391.912	80.006	19.995	104.256	19.789	22.963	0.514
613.500	392.160	80.005	19.994	104.259	19.810	21.472	0.531
614.000	392.441	80.004	19.992	104.260	19.818	20.946	0.527
614.500	392.715	80.005	19.994	104.261	19.834	19.782	0.542
615.000	392.946	80.007	19.994	104.262	19.844	19.088	0.530
615.500	393.175	80.006	19.995	104.263	19.855	18.283	0.483
616.000	393.444	80.006	19.994	104.260	19.867	17.431	0.479
616.500	393.703	80.006	19.994	104.262	19.880	16.566	0.513
617.000	393.965	80.006	19.995	104.261	19.888	16.004	0.524
617.500	394.256	80.006	19.994	104.260	19.897	15.329	0.537
618.000	394.503	80.005	19.995	104.258	19.906	14.712	0.545
618.500	394.759	80.006	19.996	104.259	19.917	13.939	0.521
619.000	395.051	80.006	19.994	104.251	19.925	13.318	0.526
619.500	395.274	80.005	19.994	104.244	19.935	12.668	0.532
620.000	395.544	80.008	19.994	104.238	19.943	12.100	0.503
620.500	395.799	80.005	19.994	104.238	19.950	11.575	0.508
621.000	396.046	80.005	19.994	104.237	19.956	11.147	0.513
621.500	396.293	80.006	19.996	104.242	19.961	10.774	0.498
622.000	396.554	80.005	19.995	104.250	19.970	10.195	0.501
622.501	396.804	80.005	19.993	104.254	19.975	9.831	0.510
623.001	397.079	80.005	19.994	104.254	19.982	9.280	0.519
623.500	397.339	80.005	19.994	104.248	19.985	9.074	0.530
624.000	397.567	80.007	19.994	104.241	19.992	8.630	0.511
624.500	397.851	80.005	19.994	104.231	19.997	8.211	0.500
625.000	398.078	80.006	19.994	104.223	20.002	7.925	0.512
625.500	398.351	80.006	19.994	104.219	20.003	7.842	0.505
626.000	398.591	80.005	19.993	104.225	20.007	7.541	0.506
626.500	398.855	80.006	19.993	104.238	20.012	7.199	0.508
627.000	399.121	80.006	19.994	104.252	20.012	7.164	0.517
627.500	399.345	80.006	19.994	104.261	20.017	6.847	0.511
628.001	399.591	80.006	19.994	104.259	20.018	6.787	0.480
628.500	399.874	80.004	19.994	104.251	20.023	6.425	0.499
629.000	400.129	80.005	19.995	104.238	20.023	6.414	0.534
629.501	400.374	80.006	19.994	104.223	20.028	6.019	0.519
630.000	400.613	80.005	19.994	104.214	20.027	6.149	0.492
630.500	400.848	80.006	19.994	104.217	20.028	6.027	0.479
631.000	401.100	80.006	19.993	104.224	20.032	5.748	0.481
631.500	401.357	80.005	19.993	104.234	20.035	5.555	0.498
632.000	401.584	80.005	19.994	104.242	20.036	5.462	0.496
632.500	401.888	80.007	19.993	104.246	20.037	5.404	0.508
633.000	402.100	80.005	19.993	104.243	20.043	5.002	0.523
633.501	402.355	80.006	19.992	104.231	20.041	5.135	0.491
634.001	402.610	80.005	19.996	104.216	20.042	5.094	0.489
634.501	402.888	80.005	19.992	104.213	20.042	5.062	0.521
635.001	403.104	80.006	19.997	104.217	20.042	5.041	0.513
635.500	403.346	80.007	19.994	104.225	20.046	4.771	0.476
636.000	403.630	80.007	19.993	104.238	20.048	4.629	0.492
636.500	403.863	80.006	19.992	104.251	20.042	5.061	0.521
637.000	404.146	80.006	19.993	104.253	20.045	4.859	0.517
637.500	404.372	80.007	19.993	104.248	20.048	4.601	0.512
638.000	404.619	80.007	19.990	104.240	20.049	4.585	0.491
638.500	404.840	80.007	19.994	104.233	20.051	4.419	0.471
639.000	405.107	80.008	19.993	104.232	20.050	4.497	0.478
639.500	405.355	80.007	19.993	104.234	20.051	4.411	0.501
640.000	405.604	80.008	19.995	104.241	20.055	4.138	0.506
640.500	405.841	80.008	19.994	104.252	20.055	4.134	0.492
641.000	406.085	80.007	19.993	104.260	20.056	4.082	0.484
641.500	406.408	80.008	19.993	104.263	20.053	4.296	0.524
642.000	406.601	80.006	19.993	104.270	20.054	4.199	0.541
642.500	406.848	80.006	19.993	104.269	20.056	4.088	0.477
643.000	407.096	80.007	19.993	104.270	20.053	4.249	0.467
643.500	407.375	80.007	19.993	104.270	20.053	4.274	0.511
644.000	407.629	80.008	19.994	104.265	20.055	4.141	0.530
644.501	407.857	80.008	19.994	104.251	20.056	4.092	0.508
645.000	408.084	80.008	19.993	104.244	20.056	4.058	0.469
645.500	408.340	80.007	19.994	104.238	20.056	4.044	0.469
646.000	408.562	80.007	19.993	104.231	20.059	3.836	0.481
646.500	408.878	80.007	19.994	104.233	20.057	4.017	0.508
647.000	409.122	80.007	19.993	104.238	20.057	3.993	0.549
647.500	409.377	80.007	19.994	104.242	20.057	3.991	0.529
648.000	409.595	80.007	19.992	104.244	20.060	3.786	0.486
648.500	409.833	80.006	19.994	104.246	20.056	4.054	0.465
649.000	410.093	80.007	19.993	104.239	20.058	3.940	0.477
649.500	410.354	80.006	19.992	104.232	20.059	3.854	0.509
650.000	410.585	80.007	19.990	104.226	20.059	3.852	0.506
650.500	410.836	80.006	19.991	104.221	20.056	4.077	0.487
651.000	411.099	80.008	19.995	104.224	20.057	3.980	0.498
651.500	411.360	80.007	19.993	104.227	20.060	3.813	0.519
652.000	411.586	80.006	19.993	104.235	20.059	3.838	0.506
652.500	411.857	80.006	19.994	104.242	20.061	3.713	0.492
653.000	412.070	80.006	19.992	104.248	20.060	3.813	0.491
653.500	412.337	80.007	19.992	104.243	20.058	3.928	0.482
654.000	412.615	80.006	19.991	104.245	20.062	3.664	0.513
654.500	412.863	80.008	19.992	104.246	20.061	3.723	0.536
655.000	413.109	80.008	19.994	104.249	20.062	3.642	0.510
655.500	413.355	80.006	19.992	104.253	20.062	3.653	0.493
656.000	413.570	80.007	19.992	104.263	20.062	3.628	0.477
656.500	413.801	80.006	19.994	104.266	20.060	3.752	0.454
657.000	414.063	80.006	19.993	104.266	20.060	3.794	0.469
657.500	414.328	80.007	19.993	104.264	20.060	3.780	0.510
658.000	414.591	80.007	19.993	104.260	20.064	3.524	0.527
658.500	414.845	80.006	19.992	104.259	20.062	3.675	0.522
659.000	415.076	80.008	19.993	104.266	20.062	3.650	0.501
659.500	415.313	80.007	19.994	104.273	20.063	3.546	0.477
660.000	415.612	80.007	19.992	104.275	20.061	3.730	0.502
660.500	415.834	80.007	19.993	104.276	20.060	3.816	0.529
661.000	416.085	80.007	19.993	104.274	20.061	3.693	0.497
661.500	416.292	80.006	19.993	104.266	20.061	3.689	0.466
662.000	416.543	80.007	19.993	104.256	20.060	3.798	0.458
662.500	416.798	80.007	19.993	104.254	20.060	3.761	0.482
663.000	417.062	80.007	19.989	104.254	20.065	3.436	0.512
663.500	417.326	80.006	19.992	104.254	20.062	3.677	0.523
664.000	417.586	80.009	19.993	104.262	20.063	3.555	0.526
664.500	417.805	80.007	19.993	104.276	20.063	3.549	0.501
665.000	418.074	80.008	19.992	104.291	20.063	3.572	0.484
665.500	418.358	80.007	19.994	104.303	20.066	3.378	0.521
666.000	418.608	80.009	19.992	104.310	20.065	3.451	0.543
666.500	418.819	80.008	19.993	104.310	20.063	3.564	0.497
667.000	419.083	80.008	19.992	104.303	20.067	3.255	0.468
667.500	419.331	80.009	19.993	104.291	20.067	3.270	0.494
668.000	419.572	80.008	19.994	104.280	20.067	3.301	0.501
668.500	419.816	80.008	19.993	104.275	20.068	3.249	0.487
669.000	420.095	80.007	19.991	104.273	20.065	3.441	0.504
669.500	420.345	80.008	19.993	104.276	20.068	3.197	0.526
670.000	420.589	80.008	19.994	104.279	20.066	3.348	0.511
670.500	420.826	80.007	19.993	104.287	20.068	3.239	0.487
671.000	421.084	80.007	19.991	104.290	20.068	3.224	0.488
671.500	421.332	80.008	19.992	104.289	20.066	3.387	0.501
672.000	421.611	80.007	19.992	104.283	20.065	3.461	0.517
672.500	421.843	80.007	19.990	104.280	20.069	3.150	0.519
673.000	422.094	80.007	19.992	104.273	20.070	3.107	0.497
673.500	422.334	80.007	19.994	104.267	20.066	3.327	0.487
674.000	422.601	80.007	19.991	104.265	20.068	3.230	0.499
674.500	422.817	80.006	19.993	104.270	20.066	3.325	0.495
675.000	423.122	80.006	19.993	104.268	20.068	3.195	0.502
675.500	423.354	80.006	19.993	104.267	20.066	3.337	0.529
676.000	423.584	80.005	19.992	104.270	20.067	3.292	0.500
676.500	423.844	80.006	19.994	104.267	20.065	3.426	0.476
677.000	424.101	80.005	19.994	104.254	20.066	3.368	0.503
677.500	424.324	80.004	19.994	104.246	20.064	3.513	0.498
678.000	424.591	80.005	19.994	104.241	20.066	3.379	0.485
678.500	424.832	80.005	19.990	104.237	20.064	3.515	0.499
679.000	425.096	80.006	19.994	104.238	20.065	3.411	0.507
679.500	425.338	80.006	19.993	104.243	20.064	3.515	0.505
680.000	425.567	80.005	19.992	104.250	20.066	3.333	0.488
680.500	425.868	80.005	19.996	104.254	20.063	3.560	0.500
681.000	426.140	80.005	19.995	104.249	20.064	3.488	0.551
681.500	426.352	80.005	19.993	104.247	20.064	3.494	0.528
682.000	426.619	80.004	19.992	104.244	20.067	3.294	0.482
682.500	426.864	80.006	19.991	104.243	20.067	3.288	0.495
683.000	427.127	80.005	19.994	104.243	20.065	3.459	0.510
683.500	427.380	80.006	19.994	104.248	20.067	3.302	0.512
684.000	427.654	80.006	19.994	104.250	20.064	3.492	0.522
684.500	427.871	80.005	19.990	104.254	20.065	3.434	0.509
685.000	428.141	80.006	19.995	104.254	20.063	3.537	0.489
685.500	428.382	80.005	19.994	104.255	20.064	3.490	0.499
686.000	428.650	80.005	19.995	104.254	20.062	3.616	0.510
686.500	428.899	80.006	19.994	104.254	20.065	3.418	0.513
687.000	429.152	80.006	19.993	104.253	20.066	3.365	0.510
687.500	429.417	80.005	19.993	104.252	20.066	3.342	0.510
688.000	429.678	80.005	19.994	104.252	20.065	3.420	0.522
688.500	429.943	80.005	19.993	104.252	20.067	3.323	0.526
689.000	430.150	80.006	19.993	104.254	20.069	3.158	0.499
689.500	430.389	80.005	19.994	104.255	20.065	3.443	0.459
690.000	430.680	80.006	19.994	104.256	20.067	3.308	0.488
690.500	430.930	80.006	19.993	104.256	20.066	3.327	0.535
691.000	431.206	80.006	19.993	104.256	20.064	3.533	0.533
691.500	431.439	80.006	19.994	104.255	20.065	3.424	0.518
692.000	431.714	80.006	19.993	104.254	20.068	3.226	0.509
692.500	431.932	80.007	19.993	104.255	20.067	3.257	0.500
693.000	432.221	80.007	19.994	104.254	20.068	3.199	0.500
693.500	432.458	80.006	19.993	104.248	20.067	3.323	0.517
694.000	432.726	80.006	19.992	104.248	20.063	3.589	0.516
694.500	432.981	80.004	19.993	104.248	20.066	3.343	0.514
695.000	433.240	80.005	19.992	104.248	20.067	3.253	0.519
695.500	433.519	80.005	19.992	104.248	20.065	3.397	0.526
696.000	433.759	80.007	19.993	104.254	20.065	3.408	0.528
696.500	434.074	80.006	19.994	104.252	20.067	3.319	0.537
697.000	434.315	80.007	19.995	104.248	20.069	3.129	0.556
697.500	434.560	80.007	19.998	104.245	20.068	3.236	0.521
698.000	434.849	80.006	19.994	104.243	20.070	3.063	0.510
698.500	435.088	80.006	19.993	104.243	20.069	3.158	0.531
699.000	435.364	80.006	19.993	104.245	20.070	3.053	0.521
699.500	435.591	80.005	19.994	104.249	20.070	3.098	0.509
700.000	435.864	80.006	19.994	104.251	20.068	3.216	0.502
700.500	436.100	80.005	19.994	104.253	20.067	3.311	0.504
701.000	436.373	80.005	19.997	104.254	20.068	3.197	0.508
701.500	436.662	80.006	19.994	104.257	20.068	3.187	0.535
702.000	436.913	80.005	19.994	104.258	20.071	3.036	0.551
702.500	437.167	80.006	19.995	104.258	20.070	3.072	0.523
703.001	437.425	80.006	19.994	104.258	20.069	3.119	0.508
703.500	437.668	80.006	19.996	104.258	20.070	3.057	0.507
704.000	437.921	80.008	19.996	104.255	20.070	3.096	0.499
704.500	438.207	80.006	19.997	104.254	20.067	3.282	0.518
705.000	438.455	80.007	19.992	104.255	20.068	3.201	0.536
705.500	438.689	80.005	19.996	104.254	20.068	3.241	0.507
706.000	438.951	80.004	19.995	104.252	20.069	3.175	0.489
706.500	439.235	80.005	19.994	104.251	20.069	3.150	0.522
707.000	439.477	80.006	19.994	104.251	20.070	3.088	0.536
707.500	439.747	80.006	19.997	104.251	20.066	3.383	0.519
708.000	439.967	80.005	19.996	104.251	20.069	3.178	0.501
708.500	440.191	80.005	19.995	104.253	20.071	3.030	0.467
709.000	440.453	80.004	19.999	104.253	20.070	3.053	0.465
709.500	440.727	80.004	19.993	104.252	20.070	3.106	0.511
710.000	441.033	80.005	19.997	104.251	20.073	2.880	0.558
710.500	441.240	80.006	19.995	104.252	20.069	3.156	0.547
711.000	441.510	80.005	19.994	104.253	20.069	3.123	0.495
711.500	441.775	80.004	19.996	104.254	20.072	2.909	0.506
712.000	442.037	80.004	19.995	104.252	20.068	3.236	0.531
712.500	442.278	80.005	19.994	104.251	20.068	3.243	0.514
713.000	442.529	80.004	19.993	104.252	20.071	2.975	0.497
713.500	442.767	80.006	19.996	104.251	20.072	2.954	0.491
714.000	443.009	80.004	19.994	104.250	20.072	2.921	0.485
714.500	443.307	80.003	19.992	104.254	20.071	2.973	0.510
715.000	443.545	80.005	19.995	104.255	20.069	3.156	0.538
715.500	443.777	80.006	19.994	104.253	20.070	3.043	0.503
716.000	444.017	80.004	19.991	104.253	20.071	3.002	0.471
716.500	444.299	80.003	19.993	104.254	20.071	3.026	0.496
717.000	444.561	80.005	19.993	104.255	20.069	3.138	0.533
717.500	444.781	80.006	19.994	104.258	20.074	2.816	0.513
718.000	445.038	80.005	19.995	104.259	20.070	3.109	0.480
718.500	445.266	80.004	19.993	104.260	20.070	3.065	0.481
719.000	445.553	80.005	19.995	104.264	20.071	3.003	0.500
719.500	445.763	80.007	19.992	104.264	20.072	2.966	0.506
720.000	445.994	80.007	19.998	104.262	20.073	2.830	0.470
720.500	446.283	80.008	19.993	104.262	20.071	2.987	0.480
721.000	446.527	80.007	19.992	104.261	20.071	2.981	0.526
721.500	446.764	80.007	19.994	104.258	20.070	3.059	0.507
722.000	447.051	80.008	19.993	104.257	20.066	3.337	0.503
722.500	447.306	80.006	19.993	104.257	20.073	2.857	0.533
723.000	447.544	80.007	19.992	104.256	20.071	3.028	0.517
723.500	447.798	80.005	19.991	104.255	20.068	3.224	0.492
724.000	448.038	80.007	19.993	104.249	20.070	3.085	0.493
724.500	448.282	80.007	19.994	104.243	20.071	2.974	0.489
725.000	448.508	80.006	19.993	104.238	20.068	3.248	0.477
725.500	448.820	80.005	19.993	104.238	20.068	3.221	0.504
726.000	449.054	80.007	19.993	104.238	20.071	2.986	0.542
726.500	449.319	80.007	19.994	104.242	20.075	2.757	0.522
727.000	449.564	80.006	19.993	104.243	20.072	2.963	0.504
727.500	449.810	80.005	19.993	104.244	20.072	2.933	0.500
728.000	450.054	80.007	19.994	104.246	20.069	3.166	0.491
728.500	450.294	80.007	19.993	104.247	20.071	3.000	0.487
729.000	450.570	80.006	19.993	104.249	20.069	3.173	0.500
729.500	450.811	80.006	19.994	104.252	20.068	3.196	0.517
730.000	451.055	80.005	19.989	104.254	20.070	3.103	0.501
730.500	451.332	80.006	19.994	104.254	20.071	3.006	0.503
731.000	451.562	80.007	19.993	104.254	20.072	2.919	0.514
731.500	451.766	80.006	19.992	104.254	20.070	3.107	0.470
732.000	452.037	80.006	19.994	104.256	20.069	3.158	0.454
732.500	452.285	80.007	20.001	104.256	20.069	3.121	0.497
733.000	452.526	80.007	19.998	104.257	20.070	3.063	0.504
733.500	452.788	80.007	19.994	104.258	20.074	2.770	0.496
734.000	453.070	80.006	19.995	104.259	20.073	2.876	0.523
734.500	453.296	80.007	19.996	104.265	20.071	2.972	0.526
735.000	453.565	80.008	19.995	104.272	20.073	2.865	0.502
735.500	453.797	80.006	19.994	104.278	20.072	2.904	0.498
736.000	454.055	80.007	19.999	104.285	20.073	2.838	0.495
736.500	454.342	80.006	19.990	104.292	20.076	2.669	0.518
737.000	454.570	80.007	19.994	104.295	20.075	2.721	0.530
737.500	454.819	80.007	19.996	104.291	20.070	3.068	0.497
738.000	455.047	80.007	19.990	104.280	20.072	2.954	0.477
738.500	455.314	80.006	19.992	104.263	20.073	2.841	0.486
739.000	455.550	80.008	19.996	104.248	20.071	2.995	0.499
739.500	455.821	80.009	19.994	104.232	20.070	3.053	0.505
740.000	456.054	80.008	19.997	104.222	20.072	2.908	0.505
740.500	456.308	80.008	19.993	104.222	20.070	3.079	0.495
741.000	456.599	80.008	19.993	104.230	20.076	2.647	0.516
741.500	456.813	80.007	19.989	104.237	20.074	2.791	0.525
742.000	457.052	80.008	19.991	104.245	20.075	2.701	0.479
742.500	457.319	80.007	19.994	104.251	20.076	2.682	0.480
743.000	457.558	80.008	19.993	104.256	20.072	2.958	0.506
743.500	457.782	80.008	19.992	104.256	20.070	3.045	0.484
744.000	458.043	80.008	19.991	104.256	20.072	2.923	0.474
744.500	458.306	80.007	19.989	104.256	20.075	2.730	0.505
745.000	458.569	80.009	19.993	104.257	20.073	2.829	0.525
745.500	458.830	80.008	19.998	104.259	20.074	2.802	0.525
746.000	459.049	80.008	19.994	104.265	20.075	2.723	0.502
746.500	459.299	80.008	19.994	104.268	20.072	2.946	0.474
747.000	459.571	80.008	19.995	104.264	20.077	2.581	0.495
747.500	459.817	80.008	19.991	104.255	20.075	2.733	0.520
748.000	460.086	80.009	19.992	104.250	20.073	2.841	0.516
748.500	460.317	80.009	19.993	104.244	20.071	2.987	0.507
749.000	460.548	80.009	19.992	104.240	20.074	2.824	0.481
749.500	460.806	80.008	19.991	104.248	20.076	2.674	0.475
750.000	461.100	80.009	19.993	104.263	20.073	2.896	0.521
750.500	461.349	80.009	19.992	104.266	20.074	2.768	0.548
751.000	461.606	80.009	19.991	104.265	20.073	2.898	0.524
751.500	461.814	80.009	19.993	104.263	20.076	2.626	0.485
752.000	462.063	80.008	19.992	104.256	20.074	2.777	0.461
752.500	462.353	80.010	19.994	104.248	20.075	2.686	0.498
753.000	462.591	80.006	19.993	104.246	20.074	2.766	0.534
753.500	462.870	80.008	19.993	104.246	20.077	2.606	0.523
754.000	463.096	80.010	19.995	104.249	20.077	2.605	0.511
754.500	463.357	80.007	19.995	104.244	20.074	2.770	0.496
755.000	463.616	80.007	19.993	104.237	20.075	2.707	0.504
755.500	463.841	80.008	19.994	104.231	20.074	2.822	0.502
756.000	464.091	80.007	19.992	104.230	20.073	2.890	0.479
756.500	464.326	80.007	19.993	104.230	20.075	2.727	0.480
757.000	464.602	80.007	19.993	104.238	20.074	2.764	0.498
757.500	464.836	80.007	19.992	104.246	20.076	2.628	0.511
758.000	465.083	80.005	19.992	104.252	20.076	2.680	0.495
758.500	465.373	80.008	19.997	104.254	20.074	2.820	0.509
759.000	465.623	80.007	19.994	104.255	20.075	2.707	0.539
759.500	465.840	80.006	19.991	104.256	20.075	2.727	0.503
760.000	466.105	80.007	19.992	104.255	20.076	2.672	0.474
760.500	466.357	80.006	19.989	104.255	20.076	2.671	0.500
761.000	466.628	80.006	19.991	104.255	20.075	2.702	0.520
761.500	466.879	80.006	19.992	104.255	20.076	2.626	0.522
762.000	467.133	80.005	19.991	104.254	20.075	2.749	0.513
762.500	467.397	80.006	19.994	104.254	20.075	2.733	0.512
763.000	467.683	80.004	19.993	104.255	20.075	2.714	0.534
763.500	467.897	80.006	19.994	104.256	20.074	2.809	0.525
764.000	468.167	80.006	19.991	104.256	20.077	2.595	0.493
764.500	468.439	80.006	19.992	104.256	20.078	2.515	0.513
765.000	468.666	80.006	19.994	104.257	20.076	2.673	0.520
765.500	468.921	80.007	19.994	104.257	20.079	2.403	0.490
766.000	469.185	80.005	19.993	104.256	20.077	2.608	0.500
766.500	469.460	80.006	19.993	104.255	20.080	2.395	0.530
767.000	469.709	80.006	19.993	104.255	20.080	2.387	0.532
767.500	469.978	80.006	19.995	104.255	20.077	2.601	0.521
768.000	470.227	80.006	19.993	104.255	20.079	2.461	0.518
768.500	470.489	80.006	19.993	104.256	20.079	2.428	0.514
769.000	470.741	80.007	19.993	104.256	20.077	2.574	0.512
769.500	470.994	80.006	19.993	104.256	20.080	2.389	0.510
770.000	471.234	80.007	19.994	104.256	20.076	2.616	0.500
770.500	471.505	80.006	19.993	104.256	20.077	2.558	0.502
771.000	471.751	80.004	19.994	104.256	20.078	2.535	0.514
771.500	471.987	80.006	19.994	104.260	20.080	2.370	0.499
772.000	472.242	80.006	19.994	104.262	20.079	2.407	0.486
772.500	472.534	80.007	19.995	104.269	20.080	2.389	0.519
773.000	472.804	80.005	19.992	104.269	20.076	2.657	0.554
773.500	473.048	80.007	19.995	104.269	20.081	2.272	0.538
774.000	473.325	80.007	19.995	104.266	20.077	2.570	0.518
774.500	473.594	80.005	19.995	104.264	20.077	2.579	0.534
775.000	473.851	80.007	19.997	104.258	20.079	2.407	0.536
775.500	474.108	80.005	19.994	104.257	20.078	2.523	0.520
776.000	474.368	80.006	19.995	104.257	20.079	2.432	0.516
776.500	474.617	80.005	19.993	104.258	20.078	2.510	0.513
777.000	474.888	80.005	19.996	104.258	20.078	2.521	0.514
777.500	475.133	80.005	19.995	104.259	20.078	2.509	0.518
778.000	475.431	80.005	19.994	104.259	20.080	2.337	0.530
778.500	475.681	80.006	19.992	104.260	20.077	2.566	0.545
779.000	475.959	80.006	19.994	104.260	20.077	2.564	0.538
779.500	476.195	80.005	19.993	104.261	20.078	2.515	0.521
780.000	476.446	80.006	19.994	104.260	20.081	2.267	0.501
780.500	476.697	80.006	19.996	104.261	20.081	2.331	0.495
781.000	476.981	80.006	19.995	104.265	20.080	2.340	0.518
781.500	477.262	80.006	19.995	104.268	20.081	2.261	0.550
782.000	477.527	80.005	19.994	104.268	20.082	2.253	0.555
782.500	477.760	80.005	19.994	104.270	20.080	2.381	0.522
783.000	478.004	80.007	19.994	104.269	20.079	2.451	0.488
783.500	478.282	80.005	19.992	104.263	20.081	2.276	0.500
784.000	478.524	80.005	19.996	104.260	20.081	2.286	0.521
784.500	478.751	80.006	19.995	104.260	20.083	2.170	0.495
785.000	479.038	80.005	19.993	104.257	20.082	2.212	0.491
785.500	479.303	80.005	19.996	104.258	20.081	2.317	0.533
786.000	479.524	80.005	19.994	104.260	20.082	2.199	0.519
786.500	479.803	80.005	19.993	104.261	20.080	2.346	0.492
787.000	480.052	80.006	19.994	104.261	20.083	2.146	0.514
787.500	480.289	80.005	19.993	104.263	20.078	2.486	0.507
788.000	480.559	80.004	19.993	104.262	20.081	2.296	0.496
788.500	480.818	80.005	19.991	104.261	20.080	2.360	0.518
789.000	481.115	80.005	19.993	104.260	20.078	2.507	0.543
789.500	481.343	80.004	19.994	104.260	20.078	2.507	0.541
790.000	481.598	80.005	19.994	104.259	20.080	2.395	0.504
790.500	481.858	80.004	19.995	104.259	20.080	2.389	0.499
791.000	482.089	80.005	19.993	104.259	20.081	2.292	0.503
791.500	482.361	80.004	19.995	104.260	20.082	2.255	0.497
792.000	482.613	80.004	19.993	104.260	20.080	2.383	0.514
792.500	482.895	80.005	19.993	104.260	20.082	2.202	0.529
793.000	483.123	80.005	19.994	104.259	20.082	2.247	0.522
793.500	483.420	80.005	19.993	104.262	20.080	2.335	0.518
794.000	483.665	80.005	19.995	104.262	20.080	2.337	0.534
794.500	483.898	80.006	19.993	104.262	20.081	2.275	0.510
795.000	484.221	80.005	19.994	104.262	20.080	2.335	0.517
795.500	484.444	80.004	19.994	104.262	20.080	2.362	0.551
796.000	484.699	80.005	19.993	104.259	20.083	2.168	0.512
796.500	484.959	80.005	19.994	104.260	20.080	2.379	0.497
797.000	485.219	80.004	19.992	104.259	20.080	2.395	0.517
797.500	485.506	80.005	19.994	104.260	20.077	2.601	0.533
798.000	485.739	80.005	19.994	104.258	20.078	2.484	0.533
798.500	486.013	80.005	19.994	104.257	20.079	2.402	0.514
799.000	486.265	80.005	19.995	104.257	20.082	2.195	0.517
799.500	486.534	80.006	19.994	104.257	20.080	2.348	0.524
800.000	486.823	80.005	19.993	104.256	20.080	2.369	0.539
800.500	487.082	80.005	19.994	104.258	20.083	2.133	0.553
801.000	487.341	80.005	19.994	104.258	20.080	2.387	0.533
801.500	487.555	80.007	19.995	104.258	20.078	2.476	0.495
802.000	487.808	80.005	19.993	104.258	20.078	2.508	0.470
802.500	488.073	80.006	19.995	104.258	20.081	2.331	0.493
803.000	488.326	80.006	19.995	104.257	20.080	2.401	0.518
803.500	488.593	80.006	19.995	104.257	20.080	2.395	0.519
804.000	488.868	80.007	19.993	104.256	20.078	2.527	0.530
804.500	489.145	80.006	19.995	104.259	20.077	2.602	0.547
805.000	489.420	80.006	19.995	104.261	20.080	2.348	0.552
805.500	489.667	80.005	19.994	104.264	20.080	2.377	0.537
806.001	489.934	80.006	19.995	104.263	20.080	2.340	0.518
806.501	490.199	80.006	19.995	104.263	20.079	2.424	0.523
807.000	490.426	80.006	19.995	104.259	20.080	2.364	0.512
807.500	490.721	80.006	19.994	104.256	20.085	2.026	0.507
808.000	490.951	80.006	19.993	104.253	20.082	2.210	0.523
808.500	491.216	80.005	19.994	104.252	20.077	2.562	0.510
809.000	491.473	80.007	19.993	104.249	20.080	2.362	0.508
809.500	491.694	80.007	19.995	104.248	20.081	2.300	0.500
810.000	491.986	80.006	19.994	104.248	20.086	1.931	0.496
810.500	492.209	80.007	19.994	104.248	20.083	2.189	0.514
811.000	492.471	80.007	19.994	104.250	20.083	2.140	0.500
811.500	492.776	80.007	19.993	104.257	20.081	2.319	0.526
812.000	493.006	80.007	19.992	104.259	20.081	2.323	0.551
812.500	493.261	80.007	19.992	104.259	20.081	2.263	0.510
813.000	493.532	80.007	19.994	104.261	20.079	2.447	0.505
813.500	493.800	80.008	19.997	104.260	20.081	2.327	0.533
814.000	494.066	80.007	19.993	104.256	20.081	2.284	0.537
814.500	494.367	80.007	19.995	104.252	20.084	2.109	0.551
815.001	494.617	80.007	19.993	104.253	20.082	2.239	0.559
815.500	494.832	80.007	19.991	104.252	20.082	2.222	0.508
816.000	495.136	80.007	19.992	104.251	20.083	2.173	0.492
816.500	495.385	80.007	19.994	104.254	20.082	2.202	0.537
817.000	495.627	80.007	19.993	104.259	20.086	1.971	0.522
817.500	495.888	80.008	19.994	104.259	20.083	2.128	0.497
818.000	496.167	80.006	19.994	104.260	20.083	2.157	0.521
818.500	496.413	80.007	19.994	104.260	20.084	2.111	0.532
819.000	496.687	80.006	19.993	104.257	20.079	2.412	0.523
819.500	496.933	80.007	19.994	104.256	20.080	2.348	0.520
820.000	497.216	80.006	19.993	104.255	20.080	2.369	0.525
820.500	497.479	80.007	19.994	104.255	20.079	2.447	0.537
821.000	497.723	80.006	19.992	104.254	20.080	2.384	0.526
821.500	497.983	80.007	19.993	104.254	20.079	2.414	0.506
822.000	498.261	80.007	19.992	104.254	20.080	2.357	0.521
822.500	498.513	80.009	19.994	104.255	20.078	2.525	0.534
823.000	498.768	80.007	19.993	104.255	20.079	2.437	0.518
823.500	499.027	80.008	19.994	104.255	20.079	2.437	0.510
824.000	499.304	80.007	19.994	104.255	20.080	2.371	0.525
824.500	499.553	80.008	19.993	104.253	20.079	2.426	0.531
825.000	499.801	80.008	19.992	104.251	20.083	2.148	0.512
825.500	500.069	80.008	19.993	104.250	20.081	2.303	0.506
826.000	500.315	80.008	19.994	104.252	20.083	2.183	0.515
826.500	500.594	80.009	19.993	104.256	20.081	2.327	0.520
827.000	500.795	80.009	19.993	104.261	20.080	2.344	0.503
827.500	501.103	80.008	19.994	104.255	20.083	2.187	0.495
828.000	501.358	80.009	19.992	104.249	20.080	2.401	0.536
828.500	501.605	80.008	19.993	104.242	20.080	2.358	0.532
829.000	501.838	80.008	19.993	104.238	20.080	2.333	0.491
829.500	502.149	80.008	19.993	104.235	20.081	2.302	0.512
830.000	502.393	80.008	19.993	104.241	20.081	2.282	0.550
830.500	502.658	80.007	19.993	104.244	20.082	2.251	0.532
831.000	502.911	80.008	19.994	104.241	20.080	2.332	0.514
831.500	503.173	80.008	19.994	104.234	20.081	2.313	0.516
832.000	503.416	80.008	19.993	104.229	20.083	2.183	0.510
832.500	503.684	80.009	19.993	104.229	20.082	2.204	0.508
833.000	503.878	80.008	19.992	104.233	20.082	2.195	0.487
833.500	504.147	80.007	19.993	104.240	20.083	2.189	0.463
834.000	504.412	80.007	19.992	104.247	20.081	2.265	0.498
834.500	504.647	80.007	19.993	104.251	20.085	2.001	0.517
835.000	504.870	80.007	19.994	104.253	20.084	2.117	0.479
835.500	505.179	80.007	19.992	104.253	20.086	1.944	0.495
836.000	505.428	80.007	19.994	104.253	20.085	2.026	0.545
836.500	505.681	80.006	19.993	104.255	20.087	1.861	0.530
837.000	505.954	80.006	19.990	104.256	20.083	2.133	0.514
837.500	506.220	80.006	19.994	104.256	20.088	1.818	0.532
838.000	506.447	80.005	19.992	104.256	20.085	1.983	0.516
838.500	506.739	80.006	19.993	104.256	20.083	2.156	0.507
839.000	507.003	80.006	19.993	104.258	20.085	1.997	0.538
839.500	507.245	80.006	19.994	104.265	20.084	2.049	0.531
840.000	507.519	80.007	19.993	104.273	20.087	1.903	0.510
840.500	507.785	80.005	19.993	104.267	20.085	2.024	0.528
841.000	508.062	80.005	19.993	104.257	20.084	2.057	0.542
841.500	508.254	80.006	19.994	104.252	20.084	2.084	0.507
842.000	508.540	80.008	19.994	104.245	20.086	1.971	0.474
842.500	508.792	80.006	19.994	104.241	20.084	2.069	0.508
843.000	509.051	80.007	19.994	104.248	20.081	2.274	0.524
843.500	509.319	80.005	19.993	104.259	20.084	2.051	0.519
844.000	509.542	80.007	19.996	104.261	20.084	2.076	0.509
844.500	509.849	80.006	19.994	104.261	20.087	1.903	0.511
845.000	510.074	80.006	19.993	104.259	20.084	2.072	0.531
845.500	510.309	80.005	19.995	104.259	20.086	1.938	0.496
846.000	510.579	80.007	19.993	104.258	20.086	1.944	0.482
846.500	510.848	80.006	19.993	104.258	20.084	2.078	0.522
847.000	511.088	80.007	19.993	104.257	20.085	2.039	0.524
847.500	511.354	80.006	19.993	104.256	20.083	2.152	0.508
848.000	511.620	80.007	19.994	104.256	20.084	2.113	0.519
848.500	511.875	80.006	19.993	104.257	20.086	1.919	0.526
849.000	512.135	80.005	19.993	104.258	20.086	1.940	0.517
849.500	512.397	80.005	19.995	104.261	20.082	2.229	0.519
850.000	512.651	80.006	19.993	104.259	20.082	2.212	0.519
850.500	512.906	80.007	19.992	104.252	20.085	2.010	0.512
851.000	513.155	80.005	19.993	104.249	20.082	2.191	0.507
851.500	513.404	80.006	19.992	104.247	20.084	2.076	0.501
852.000	513.674	80.005	19.994	104.245	20.083	2.156	0.508
852.500	513.914	80.006	19.993	104.248	20.081	2.292	0.514
853.000	514.176	80.006	19.993	104.254	20.086	1.973	0.506
853.500	514.480	80.006	19.993	104.259	20.082	2.247	0.534
854.000	514.693	80.007	19.992	104.260	20.084	2.092	0.541
854.500	514.960	80.005	19.992	104.260	20.085	1.993	0.499
855.000	515.246	80.006	19.990	104.259	20.086	1.952	0.517
855.500	515.480	80.005	19.992	104.257	20.084	2.057	0.537
856.000	515.726	80.007	19.993	104.254	20.084	2.076	0.500
856.500	515.996	80.006	19.992	104.253	20.083	2.127	0.498
857.000	516.241	80.006	19.989	104.254	20.085	1.979	0.515
857.500	516.520	80.005	19.995	104.253	20.086	1.942	0.519
858.000	516.757	80.006	19.993	104.255	20.082	2.206	0.521
858.500	517.027	80.006	19.993	104.257	20.086	1.948	0.511
859.000	517.252	80.005	19.993	104.254	20.085	1.989	0.501
859.500	517.527	80.006	19.994	104.247	20.086	1.962	0.498
860.000	517.809	80.004	19.993	104.240	20.086	1.929	0.529
860.500	518.032	80.005	19.994	104.238	20.083	2.165	0.531
861.000	518.282	80.006	19.992	104.238	20.083	2.144	0.488
861.500	518.517	80.006	19.992	104.242	20.086	1.964	0.479
862.001	518.837	80.005	19.993	104.249	20.083	2.175	0.521
862.500	519.084	80.005	19.994	104.256	20.084	2.070	0.561
863.000	519.302	80.004	19.993	104.258	20.086	1.950	0.516
863.500	519.592	80.006	19.993	104.258	20.081	2.272	0.486
864.000	519.788	80.005	19.995	104.258	20.083	2.183	0.497
864.500	520.128	80.006	19.995	104.257	20.085	2.043	0.512
865.000	520.348	80.005	19.993	104.256	20.083	2.138	0.548
865.500	520.607	80.006	19.994	104.252	20.084	2.062	0.519
866.000	520.860	80.006	19.994	104.250	20.086	1.965	0.495
866.500	521.103	80.005	19.994	104.250	20.088	1.793	0.504
867.000	521.384	80.006	19.995	104.249	20.083	2.137	0.510
867.500	521.618	80.005	19.994	104.248	20.088	1.805	0.519
868.000	521.870	80.006	19.994	104.248	20.084	2.049	0.500
868.500	522.162	80.006	19.995	104.249	20.086	1.952	0.515
869.000	522.382	80.005	19.993	104.249	20.085	2.045	0.528
869.500	522.652	80.006	19.993	104.249	20.087	1.905	0.501
870.000	522.880	80.005	19.994	104.250	20.083	2.171	0.494
870.500	523.189	80.005	19.994	104.253	20.085	2.001	0.517
871.000	523.451	80.006	19.995	104.254	20.084	2.071	0.554
871.500	523.733	80.006	19.994	104.252	20.085	2.048	0.558
872.000	523.934	80.005	19.994	104.252	20.083	2.139	0.513
872.500	524.224	80.006	19.994	104.252	20.085	2.028	0.487
873.000	524.465	80.006	19.995	104.252	20.082	2.222	0.511
873.500	524.732	80.006	19.994	104.250	20.086	1.955	0.519
874.000	524.989	80.006	19.994	104.248	20.086	1.945	0.516
874.500	525.239	80.005	19.993	104.245	20.086	1.924	0.516
875.000	525.487	80.005	19.994	104.242	20.087	1.868	0.502
875.500	525.790	80.006	19.994	104.243	20.086	1.936	0.524
876.001	525.948	80.007	19.995	104.245	20.088	1.833	0.506
876.500	526.286	80.006	19.992	104.249	20.087	1.876	0.478
877.000	526.507	80.006	19.994	104.251	20.085	2.004	0.528
877.500	526.795	80.007	19.993	104.258	20.091	1.595	0.534
878.000	527.035	80.006	19.994	104.265	20.081	2.321	0.518
878.500	527.251	80.007	19.993	104.268	20.097	1.196	0.492
879.000	527.534	80.008	19.995	104.260	20.085	1.998	0.478
879.500	527.790	80.007	19.993	104.254	20.077	2.581	0.519
880.000	527.998	80.006	19.993	104.248	20.082	2.224	0.502
880.500	528.342	80.008	19.994	104.241	20.084	2.105	0.508
881.000	528.514	80.006	19.994	104.244	20.087	1.853	0.534
881.500	528.862	80.007	19.995	104.260	20.100	0.946	0.518
882.000	529.122	80.007	19.992	104.276	20.085	1.990	0.564
882.500	529.301	80.007	19.996	104.285	20.082	2.212	0.523
883.000	529.597	80.007	19.994	104.283	20.087	1.885	0.457
883.500	529.868	80.008	19.993	104.264	20.093	1.468	0.521
884.000	530.061	80.007	19.992	104.248	20.084	2.082	0.516
884.500	530.378	80.008	19.993	104.233	20.088	1.792	0.488
885.000	530.602	80.007	19.994	104.223	20.094	1.390	0.526
885.500	530.830	80.007	19.993	104.226	20.091	1.617	0.496
886.000	531.077	80.008	19.994	104.240	20.085	2.002	0.463
886.500	531.423	80.007	19.994	104.247	20.086	1.951	0.534
887.000	531.499	80.008	19.993	104.254	20.090	1.670	0.508
887.500	531.875	80.007	19.993	104.256	20.090	1.682	0.437
888.000	532.052	80.007	19.994	104.255	20.090	1.676	0.503
888.500	532.434	80.007	19.994	104.253	20.087	1.901	0.556
889.000	532.664	80.008	19.995	104.253	20.092	1.548	0.585
889.500	532.882	80.007	19.994	104.253	20.088	1.777	0.530
890.000	533.126	80.008	19.994	104.253	20.091	1.573	0.455
890.500	533.716	80.007	19.994	104.253	20.091	1.585	0.648
891.000	533.447	80.007	19.995	104.252	20.092	1.538	0.578
891.500	534.053	80.006	19.996	104.248	20.089	1.736	0.329
892.000	534.205	80.006	19.994	104.244	20.089	1.726	0.548
892.500	534.878	80.007	19.996	104.239	20.093	1.460	0.791
893.000	534.323	80.004	19.994	104.234	20.088	1.773	0.471
893.500	534.348	80.007	19.995	104.228	20.093	1.466	-0.206
894.000	534.803	80.008	19.995	104.226	20.089	1.705	-0.025
894.500	535.374	80.007	19.996	104.227	20.091	1.559	0.752
895.000	535.553	80.006	19.995	104.231	20.090	1.664	0.888
895.500	536.423	80.008	19.995	104.231	20.090	1.689	0.900
896.000	536.510	80.007	19.994	104.230	20.088	1.775	1.003
896.500	536.046	80.007	19.994	104.230	20.089	1.701	0.290
897.000	536.796	80.008	19.995	104.225	20.092	1.499	-0.045
897.500	537.007	80.006	19.996	104.223	20.090	1.657	0.623
898.000	536.837	80.007	19.995	104.225	20.088	1.818	0.500
898.500	537.594	80.008	19.994	104.233	20.092	1.505	0.314
899.000	537.808	80.007	19.997	104.238	20.090	1.666	0.779
899.500	538.072	80.008	19.995	104.243	20.089	1.736	0.724
900.000	537.901	80.007	19.994	104.246	20.089	1.707	0.285
900.500	538.503	80.007	19.995	104.247	20.090	1.670	0.262
901.000	538.827	80.008	19.996	104.244	20.090	1.672	0.679
901.500	538.846	80.007	19.995	104.243	20.087	1.865	0.634
902.000	539.236	80.007	19.993	104.242	20.087	1.859	0.376
902.500	539.364	80.007	19.993	104.239	20.088	1.824	0.463
903.000	539.734	80.006	19.994	104.233	20.090	1.670	0.508
903.500	539.827	80.007	19.992	104.231	20.087	1.853	0.481
904.000	540.166	80.008	19.994	104.228	20.092	1.542	0.448
904.500	540.455	80.009	19.994	104.226	20.088	1.784	0.530
905.000	540.725	80.008	19.993	104.224	20.089	1.738	0.593
905.500	540.887	80.009	19.994	104.226	20.089	1.746	0.495
906.000	541.078	80.009	19.993	104.229	20.092	1.530	0.393
906.500	541.391	80.008	19.992	104.232	20.089	1.711	0.428
907.000	541.616	80.008	19.993	104.233	20.089	1.707	0.521
907.500	541.907	80.010	19.994	104.237	20.088	1.793	0.527
908.000	542.109	80.009	19.992	104.241	20.087	1.843	0.504
908.500	542.352	80.009	19.989	104.245	20.086	1.909	0.469
909.000	542.710	80.008	19.995	104.247	20.086	1.921	0.523
909.500	542.876	80.009	19.991	104.253	20.091	1.597	0.563
910.000	543.122	80.009	19.990	104.255	20.089	1.764	0.469
910.500	543.334	80.008	19.992	104.256	20.089	1.750	0.435
911.000	543.657	80.010	19.995	104.256	20.088	1.795	0.496
911.500	543.863	80.009	19.996	104.257	20.087	1.869	0.531
912.000	544.095	80.010	19.993	104.256	20.089	1.760	0.483
912.500	544.374	80.009	19.992	104.256	20.091	1.589	0.475
913.000	544.599	80.009	19.993	104.256	20.089	1.736	0.508
913.500	544.928	80.010	19.993	104.255	20.087	1.858	0.529
914.000	545.078	80.009	19.994	104.249	20.089	1.736	0.517
914.500	545.377	80.008	19.994	104.239	20.087	1.853	0.464
915.000	545.574	80.009	19.997	104.233	20.087	1.880	0.472
915.500	545.862	80.007	19.992	104.231	20.088	1.769	0.490
916.000	546.060	80.007	19.993	104.232	20.085	1.993	0.486
916.500	546.350	80.006	19.993	104.240	20.085	2.024	0.487
917.000	546.607	80.005	19.993	104.255	20.088	1.820	0.517
917.500	546.827	80.006	19.993	104.265	20.085	2.028	0.512
918.000	547.119	80.006	19.992	104.267	20.089	1.750	0.495
918.500	547.337	80.006	19.993	104.267	20.087	1.855	0.511
919.000	547.618	80.008	19.992	104.265	20.088	1.781	0.504
919.500	547.892	80.006	19.993	104.260	20.090	1.651	0.527
920.000	548.096	80.006	19.993	104.257	20.087	1.892	0.516
920.500	548.398	80.006	19.994	104.257	20.088	1.833	0.492
921.000	548.619	80.006	19.994	104.256	20.085	2.002	0.515
921.500	548.895	80.005	19.993	104.262	20.087	1.865	0.510
922.000	549.117	80.005	19.995	104.270	20.086	1.927	0.498
922.500	549.397	80.006	19.994	104.268	20.088	1.769	0.500
923.000	549.662	80.006	19.993	104.262	20.088	1.783	0.524
923.500	549.912	80.005	19.994	104.259	20.087	1.860	0.530
924.000	550.160	80.007	19.995	104.248	20.089	1.756	0.507
924.500	550.406	80.006	19.994	104.238	20.090	1.637	0.496
925.000	550.629	80.005	19.993	104.241	20.088	1.771	0.481
925.500	550.917	80.005	19.993	104.248	20.090	1.655	0.490
926.000	551.185	80.005	19.993	104.251	20.091	1.565	0.533
926.500	551.437	80.005	19.994	104.257	20.089	1.705	0.538
927.000	551.688	80.005	19.994	104.260	20.089	1.699	0.511
927.500	551.877	80.005	19.993	104.259	20.090	1.626	0.472
928.000	552.182	80.006	19.993	104.256	20.090	1.639	0.467
928.500	552.407	80.006	19.993	104.255	20.091	1.614	0.512
929.000	552.675	80.006	19.993	104.253	20.090	1.678	0.512
929.500	552.911	80.006	19.993	104.249	20.090	1.633	0.499
930.000	553.183	80.006	19.992	104.251	20.092	1.536	0.506
930.500	553.423	80.005	19.992	104.253	20.091	1.600	0.510
931.000	553.710	80.006	19.994	104.253	20.089	1.697	0.519
931.500	553.941	80.006	19.993	104.255	20.085	1.987	0.522
932.000	554.225	80.004	19.994	104.259	20.087	1.851	0.517
932.500	554.449	80.006	19.992	104.257	20.087	1.837	0.512
933.000	554.644	80.007	19.993	104.253	20.091	1.598	0.464
933.500	554.990	80.008	19.993	104.246	20.085	1.983	0.479
934.001	555.214	80.008	19.993	104.244	20.087	1.880	0.555
934.500	555.456	80.007	19.992	104.242	20.088	1.767	0.518
935.000	555.727	80.006	19.993	104.241	20.089	1.756	0.490
935.500	555.987	80.006	19.994	104.243	20.087	1.863	0.522
936.000	556.197	80.007	19.994	104.251	20.086	1.964	0.501
936.500	556.447	80.007	19.993	104.251	20.087	1.845	0.465
937.000	556.755	80.006	19.993	104.252	20.089	1.738	0.509
937.500	556.955	80.008	19.993	104.254	20.089	1.754	0.534
938.000	557.279	80.006	19.994	104.254	20.090	1.694	0.516
938.500	557.469	80.007	19.993	104.252	20.090	1.624	0.519
939.000	557.737	80.006	19.992	104.251	20.089	1.709	0.486
939.500	557.947	80.008	19.993	104.251	20.090	1.680	0.468
940.000	558.269	80.007	19.993	104.249	20.091	1.565	0.505
940.500	558.473	80.008	19.994	104.244	20.088	1.820	0.529
941.000	558.756	80.008	19.995	104.245	20.088	1.814	0.506
941.500	558.989	80.007	19.993	104.246	20.088	1.791	0.501
942.000	559.236	80.007	19.993	104.246	20.091	1.581	0.499
942.500	559.522	80.008	19.993	104.248	20.089	1.748	0.506
943.000	559.730	80.008	19.992	104.253	20.092	1.544	0.513
943.500	559.978	80.005	19.993	104.255	20.091	1.558	0.475
944.000	560.232	80.008	19.993	104.255	20.089	1.699	0.479
944.500	560.458	80.006	19.993	104.256	20.090	1.684	0.491
945.000	560.710	80.007	19.993	104.257	20.091	1.590	0.480
945.500	560.991	80.008	19.993	104.257	20.090	1.645	0.506
946.000	561.225	80.006	19.992	104.258	20.089	1.761	0.524
946.500	561.480	80.006	19.995	104.258	20.091	1.561	0.502
947.000	561.720	80.006	19.993	104.257	20.092	1.490	0.492
947.500	561.965	80.008	19.993	104.257	20.092	1.544	0.490
948.000	562.215	80.007	19.995	104.255	20.091	1.563	0.490
948.500	562.472	80.006	19.993	104.256	20.093	1.458	0.501
949.000	562.744	80.006	19.996	104.256	20.094	1.394	0.518
949.500	562.973	80.006	19.993	104.254	20.089	1.717	0.515
950.000	563.250	80.006	19.994	104.251	20.090	1.624	0.503
950.500	563.436	80.007	19.994	104.250	20.092	1.544	0.484
951.000	563.738	80.007	19.995	104.250	20.096	1.264	0.476
951.500	563.978	80.006	19.993	104.250	20.093	1.433	0.515
952.000	564.211	80.006	19.994	104.250	20.096	1.218	0.508
952.500	564.477	80.007	19.995	104.253	20.094	1.356	0.486
953.000	564.702	80.006	19.995	104.254	20.095	1.328	0.495
953.500	564.988	80.006	19.995	104.253	20.093	1.462	0.501
954.001	565.229	80.006	19.995	104.252	20.092	1.536	0.519
954.500	565.474	80.006	19.995	104.247	20.093	1.464	0.507
955.000	565.745	80.006	19.994	104.241	20.090	1.676	0.501
955.500	565.965	80.004	19.994	104.238	20.094	1.352	0.503
956.000	566.259	80.006	19.994	104.239	20.089	1.738	0.502
956.500	566.470	80.005	19.995	104.240	20.091	1.585	0.509
957.000	566.748	80.006	19.995	104.245	20.093	1.478	0.497
957.500	567.000	80.007	19.995	104.250	20.093	1.459	0.510
958.000	567.270	80.007	19.995	104.251	20.091	1.569	0.527
958.500	567.535	80.006	19.994	104.246	20.091	1.599	0.529
959.000	567.802	80.007	19.993	104.242	20.091	1.585	0.533
959.500	567.988	80.006	19.994	104.239	20.091	1.620	0.492
960.000	568.281	80.006	19.995	104.237	20.091	1.599	0.466
960.500	568.510	80.008	19.992	104.239	20.088	1.828	0.501
961.000	568.785	80.007	19.994	104.244	20.088	1.818	0.513
961.500	569.052	80.007	19.992	104.248	20.089	1.730	0.523
962.000	569.285	80.007	19.992	104.251	20.093	1.478	0.521
962.500	569.574	80.008	19.994	104.253	20.092	1.526	0.511
963.000	569.869	80.009	19.993	104.253	20.093	1.421	0.553
963.500	570.066	80.006	19.992	104.253	20.089	1.717	0.538
964.000	570.358	80.008	19.995	104.253	20.093	1.478	0.490
964.500	570.584	80.008	19.994	104.253	20.093	1.460	0.503
965.000	570.872	80.008	19.993	104.253	20.092	1.490	0.516
965.500	571.088	80.008	19.993	104.253	20.092	1.488	0.509
966.000	571.355	80.008	19.995	104.250	20.093	1.466	0.494
966.500	571.599	80.008	19.994	104.250	20.095	1.286	0.497
967.000	571.856	80.009	19.993	104.251	20.094	1.365	0.506
967.500	572.130	80.008	19.993	104.251	20.095	1.330	0.516
968.000	572.344	80.008	19.993	104.251	20.093	1.478	0.509
968.500	572.638	80.007	19.993	104.257	20.093	1.441	0.498
969.000	572.882	80.007	19.993	104.260	20.094	1.398	0.523
969.500	573.131	80.008	19.994	104.266	20.092	1.497	0.515
970.000	573.381	80.008	19.994	104.274	20.094	1.392	0.496
970.500	573.618	80.008	19.993	104.280	20.091	1.600	0.493
971.000	573.909	80.006	19.993	104.277	20.094	1.410	0.508
971.500	574.165	80.007	19.993	104.274	20.093	1.425	0.537
972.000	574.406	80.006	19.993	104.262	20.095	1.313	0.522
972.500	574.702	80.008	19.994	104.250	20.094	1.406	0.517
973.000	574.970	80.006	19.993	104.242	20.091	1.557	0.550
973.500	575.190	80.007	19.993	104.239	20.093	1.452	0.526
974.000	575.452	80.007	19.995	104.232	20.094	1.375	0.485
974.500	575.679	80.006	19.992	104.238	20.096	1.237	0.486
975.000	575.951	80.006	19.994	104.242	20.092	1.534	0.494
975.500	576.191	80.007	19.993	104.241	20.097	1.152	0.505
976.000	576.474	80.006	19.994	104.244	20.089	1.748	0.517
976.500	576.701	80.007	19.995	104.252	20.094	1.379	0.517
977.000	576.946	80.007	19.995	104.251	20.092	1.513	0.492
977.500	577.190	80.008	19.994	104.249	20.091	1.593	0.480
978.000	577.441	80.007	19.994	104.250	20.092	1.534	0.492
978.500	577.682	80.006	19.993	104.251	20.092	1.528	0.494
979.000	577.954	80.007	19.994	104.246	20.095	1.303	0.503
979.500	578.191	80.007	19.995	104.244	20.092	1.525	0.511
980.000	578.462	80.006	19.993	104.247	20.092	1.548	0.508
980.500	578.737	80.007	19.994	104.249	20.092	1.494	0.527
981.000	578.941	80.007	19.994	104.244	20.093	1.433	0.513
981.500	579.205	80.006	19.994	104.243	20.094	1.367	0.474
982.000	579.435	80.008	19.993	104.238	20.093	1.464	0.481
982.500	579.685	80.008	19.995	104.232	20.094	1.393	0.487
983.000	579.927	80.007	19.995	104.225	20.094	1.383	0.486
983.500	580.178	80.007	19.996	104.226	20.094	1.358	0.492
984.000	580.446	80.007	19.994	104.232	20.093	1.435	0.506
984.500	580.665	80.007	19.994	104.235	20.092	1.488	0.503
985.000	580.949	80.008	19.995	104.240	20.095	1.338	0.495
985.500	581.189	80.008	19.994	104.247	20.093	1.416	0.513
986.000	581.459	80.006	19.993	104.250	20.093	1.447	0.517
986.500	581.707	80.008	19.994	104.250	20.094	1.381	0.514
987.000	581.956	80.008	19.994	104.252	20.091	1.553	0.508
987.500	582.141	80.009	19.993	104.253	20.093	1.431	0.466
988.000	582.442	80.007	19.993	104.252	20.091	1.594	0.460
988.500	582.709	80.009	19.993	104.250	20.093	1.452	0.526
989.000	582.918	80.006	19.994	104.246	20.090	1.664	0.521
989.500	583.217	80.007	19.994	104.246	20.095	1.309	0.492
990.000	583.426	80.008	19.994	104.246	20.093	1.460	0.508
990.500	583.669	80.008	19.993	104.248	20.092	1.550	0.481
991.000	583.919	80.008	19.994	104.251	20.096	1.268	0.473
991.500	584.182	80.009	19.993	104.255	20.094	1.361	0.503
992.000	584.429	80.009	19.995	104.256	20.093	1.418	0.511
992.500	584.701	80.009	19.994	104.256	20.096	1.243	0.515
993.000	584.901	80.007	19.993	104.256	20.095	1.311	0.495
993.500	585.176	80.008	19.994	104.256	20.092	1.493	0.473
994.000	585.413	80.008	19.993	104.256	20.092	1.521	0.494
994.500	585.658	80.009	19.993	104.256	20.094	1.346	0.497
995.000	585.927	80.008	19.993	104.256	20.095	1.317	0.498
995.500	586.174	80.007	19.993	104.255	20.095	1.322	0.515
996.000	586.414	80.008	19.993	104.256	20.093	1.414	0.502
996.500	586.663	80.008	19.992	104.250	20.091	1.591	0.488
997.000	586.953	80.008	19.992	104.247	20.090	1.629	0.514
997.500	587.215	80.008	19.993	104.240	20.093	1.464	0.545
998.000	587.419	80.008	19.993	104.233	20.094	1.408	0.510
998.500	587.649	80.007	19.993	104.226	20.094	1.377	0.450
999.000	587.934	80.007	19.994	104.229	20.092	1.519	0.474
999.500	588.151	80.008	19.993	104.232	20.095	1.299	0.508
1000.000	588.398	80.007	19.994	104.238	20.091	1.573	0.482
1000.500	588.657	80.006	19.993	104.245	20.093	1.476	0.485
1001.000	588.891	80.007	19.993	104.251	20.092	1.550	0.500
1001.500	589.157	80.007	19.993	104.254	20.096	1.247	0.497
1002.000	589.401	80.006	19.994	104.256	20.092	1.509	0.505
1002.500	589.667	80.007	19.993	104.255	20.095	1.297	0.510
1003.000	589.938	80.006	19.993	104.255	20.093	1.439	0.524
1003.500	590.193	80.007	19.993	104.254	20.092	1.519	0.531
1004.000	590.443	80.006	19.993	104.251	20.094	1.398	0.515
1004.500	590.680	80.006	19.992	104.248	20.094	1.357	0.496
1005.000	590.923	80.006	19.992	104.244	20.092	1.485	0.484
1005.500	591.196	80.006	19.993	104.243	20.093	1.429	0.498
1006.000	591.466	80.007	19.994	104.242	20.094	1.363	0.529
1006.500	591.710	80.006	19.993	104.243	20.094	1.404	0.528
1007.000	591.935	80.007	19.993	104.245	20.093	1.441	0.491
1007.500	592.184	80.007	19.993	104.248	20.094	1.383	0.472
1008.000	592.460	80.008	19.994	104.250	20.091	1.589	0.500
1008.500	592.739	80.007	19.993	104.252	20.094	1.350	0.540
1009.000	592.935	80.008	19.993	104.253	20.094	1.351	0.515
1009.500	593.218	80.006	19.993	104.253	20.096	1.248	0.476
1010.000	593.462	80.007	19.993	104.248	20.092	1.534	0.503
1010.500	593.704	80.007	19.993	104.242	20.095	1.320	0.507
1011.000	593.954	80.007	19.993	104.235	20.093	1.447	0.489
1011.500	594.211	80.007	19.993	104.233	20.094	1.383	0.499
1012.000	594.498	80.008	19.994	104.234	20.094	1.394	0.525
1012.500	594.780	80.006	19.995	104.240	20.092	1.488	0.557
1013.000	595.073	80.007	19.993	104.246	20.095	1.324	0.572
1013.500	595.272	80.007	19.994	104.254	20.095	1.301	0.533
1014.000	595.546	80.006	19.993	104.258	20.096	1.216	0.482
1014.500	595.775	80.007	19.993	104.257	20.093	1.416	0.488
1015.000	596.068	80.006	19.992	104.248	20.094	1.396	0.513
1015.500	596.323	80.006	19.995	104.239	20.093	1.429	0.535
1016.000	596.550	80.007	19.994	104.232	20.092	1.486	0.515
1016.500	596.813	80.007	19.994	104.230	20.095	1.334	0.486
1017.000	597.081	80.008	19.993	104.231	20.095	1.309	0.510
1017.500	597.300	80.008	19.992	104.242	20.094	1.396	0.509
1018.000	597.532	80.007	19.993	104.255	20.094	1.381	0.469
1018.500	597.845	80.007	19.993	104.264	20.095	1.303	0.498
1019.000	598.109	80.008	19.993	104.250	20.098	1.103	0.561
1019.500	598.346	80.007	19.993	104.233	20.093	1.460	0.539
1020.000	598.594	80.007	19.993	104.224	20.092	1.538	0.493
1020.500	598.848	80.008	19.993	104.215	20.096	1.233	0.494
1021.000	599.141	80.007	19.993	104.213	20.091	1.569	0.524
1021.500	599.400	80.008	19.994	104.227	20.094	1.388	0.549
1022.000	599.610	80.007	19.993	104.242	20.094	1.400	0.511
1022.500	599.842	80.007	19.993	104.242	20.090	1.643	0.456
1023.000	600.123	80.007	19.993	104.245	20.093	1.460	0.477
1023.500	600.386	80.006	19.992	104.246	20.093	1.449	0.528
1024.000	600.619	80.007	19.994	104.243	20.092	1.503	0.520
1024.500	600.855	80.007	19.993	104.244	20.092	1.491	0.483
1025.001	601.171	80.007	19.994	104.249	20.091	1.554	0.510
1025.501	601.388	80.008	19.993	104.251	20.091	1.556	0.542
1026.000	601.620	80.008	19.993	104.246	20.091	1.600	0.491
1026.500	601.919	80.007	19.994	104.242	20.091	1.608	0.490
1027.000	602.159	80.008	19.992	104.239	20.092	1.497	0.535
1027.501	602.395	80.006	19.992	104.237	20.092	1.484	0.508
1028.001	602.670	80.006	19.993	104.231	20.091	1.587	0.493
1028.500	602.897	80.006	19.992	104.230	20.091	1.618	0.506
1029.000	603.139	80.007	19.991	104.234	20.094	1.400	0.486
1029.501	603.423	80.007	19.994	104.237	20.094	1.385	0.498
1030.001	603.652	80.007	19.993	104.240	20.094	1.393	0.519
1030.501	603.905	80.007	19.994	104.245	20.093	1.424	0.497
1031.000	604.170	80.006	19.992	104.248	20.095	1.338	0.500
1031.500	604.434	80.007	19.992	104.244	20.092	1.519	0.524
1032.000	604.708	80.006	19.993	104.239	20.092	1.503	0.534
1032.500	604.991	80.007	19.992	104.237	20.092	1.497	0.548
1033.000	605.203	80.006	19.992	104.236	20.090	1.678	0.526
1033.500	605.469	80.006	19.994	104.238	20.090	1.674	0.486
1034.000	605.703	80.006	19.993	104.241	20.093	1.466	0.489
1034.500	605.950	80.006	19.992	104.242	20.090	1.676	0.491
1035.000	606.238	80.007	19.992	104.240	20.091	1.556	0.508
1035.500	606.486	80.006	19.993	104.239	20.092	1.515	0.535
1036.000	606.721	80.006	19.994	104.240	20.093	1.425	0.509
1036.500	606.953	80.007	19.993	104.243	20.092	1.505	0.474
1037.000	607.203	80.006	19.993	104.248	20.092	1.495	0.474
1037.500	607.487	80.007	19.992	104.251	20.094	1.352	0.508
1038.000	607.731	80.007	19.993	104.254	20.092	1.513	0.531
1038.500	607.999	80.006	19.992	104.254	20.092	1.515	0.521
1039.000	608.237	80.007	19.992	104.254	20.091	1.583	0.509
1039.500	608.543	80.006	19.992	104.256	20.093	1.425	0.525
1040.001	608.761	80.006	19.993	104.265	20.090	1.662	0.534
1040.501	608.992	80.007	19.993	104.271	20.094	1.379	0.487
1041.000	609.266	80.006	19.993	104.270	20.093	1.416	0.477
1041.500	609.491	80.006	19.993	104.259	20.089	1.750	0.502
1042.000	609.793	80.007	19.992	104.249	20.093	1.437	0.512
1042.500	610.029	80.006	19.993	104.235	20.095	1.297	0.532
1043.000	610.253	80.006	19.993	104.226	20.092	1.548	0.499
1043.500	610.541	80.007	19.993	104.225	20.093	1.457	0.486
1044.000	610.791	80.008	19.993	104.236	20.092	1.509	0.525
1044.500	611.017	80.008	19.995	104.240	20.094	1.398	0.507
1045.000	611.294	80.007	19.994	104.240	20.093	1.441	0.490
1045.500	611.536	80.008	19.994	104.242	20.096	1.253	0.511
1046.000	611.817	80.007	19.993	104.244	20.095	1.313	0.521
1046.500	612.032	80.007	19.994	104.243	20.092	1.482	0.510
1047.000	612.252	80.007	19.993	104.243	20.091	1.579	0.466
1047.500	612.506	80.008	19.993	104.246	20.096	1.268	0.454
1048.000	612.781	80.008	19.993	104.247	20.097	1.142	0.501
1048.500	613.017	80.007	19.994	104.244	20.094	1.388	0.520
1049.000	613.312	80.006	19.993	104.244	20.094	1.408	0.521
1049.500	613.574	80.007	19.993	104.248	20.094	1.406	0.544
1050.000	613.801	80.007	19.993	104.249	20.093	1.468	0.523
1050.500	614.056	80.006	19.993	104.248	20.095	1.324	0.485
1051.000	614.319	80.007	19.993	104.248	20.094	1.408	0.500
1051.500	614.550	80.006	19.994	104.248	20.096	1.247	0.506
1052.000	614.825	80.006	19.992	104.245	20.094	1.352	0.500
1052.500	615.088	80.007	19.994	104.240	20.093	1.462	0.523
1053.000	615.307	80.006	19.994	104.240	20.092	1.523	0.510
1053.500	615.571	80.006	19.994	104.241	20.094	1.352	0.483
1054.000	615.835	80.007	19.994	104.243	20.094	1.346	0.505
1054.500	616.085	80.008	19.995	104.246	20.094	1.367	0.521
1055.000	616.350	80.006	19.993	104.252	20.097	1.173	0.514
1055.500	616.614	80.006	19.994	104.250	20.092	1.526	0.522
1056.000	616.856	80.007	19.993	104.244	20.093	1.470	0.517
1056.500	617.126	80.006	19.993	104.240	20.092	1.507	0.509
1057.000	617.369	80.006	19.993	104.237	20.093	1.439	0.513
1057.501	617.613	80.006	19.993	104.236	20.092	1.519	0.500
1058.001	617.858	80.006	19.993	104.240	20.089	1.744	0.488
1058.500	618.140	80.007	19.993	104.245	20.092	1.484	0.508
1059.000	618.347	80.007	19.993	104.244	20.095	1.315	0.508
1059.500	618.626	80.007	19.994	104.241	20.095	1.334	0.488
1060.000	618.878	80.008	19.994	104.238	20.092	1.519	0.508
1060.500	619.136	80.007	19.994	104.237	20.093	1.472	0.520
1061.000	619.399	80.007	19.993	104.241	20.093	1.441	0.515
1061.500	619.666	80.008	19.994	104.244	20.091	1.593	0.525
1062.000	619.907	80.007	19.993	104.251	20.096	1.257	0.519
1062.500	620.156	80.008	19.994	104.255	20.091	1.554	0.499
1063.000	620.409	80.008	19.993	104.254	20.093	1.453	0.496
1063.500	620.654	80.008	19.994	104.251	20.093	1.453	0.500
1064.000	620.887	80.008	19.994	104.251	20.092	1.536	0.488
1064.500	621.171	80.009	19.994	104.251	20.094	1.373	0.498
1065.000	621.417	80.008	19.994	104.250	20.095	1.338	0.524
1065.500	621.682	80.008	19.993	104.250	20.090	1.651	0.521
1066.000	621.942	80.008	19.994	104.252	20.090	1.624	0.518
1066.500	622.199	80.008	19.993	104.247	20.090	1.624	0.521
1067.001	622.434	80.010	19.994	104.244	20.093	1.424	0.504
1067.501	622.729	80.009	19.995	104.243	20.094	1.408	0.511
1068.000	622.982	80.008	19.993	104.239	20.092	1.505	0.539
1068.500	623.243	80.008	19.994	104.239	20.093	1.433	0.531
1069.000	623.532	80.008	19.993	104.244	20.094	1.346	0.532
1069.500	623.761	80.010	19.993	104.248	20.090	1.631	0.534
1070.000	624.006	80.008	19.993	104.250	20.092	1.513	0.496
1070.500	624.278	80.008	19.993	104.255	20.093	1.431	0.495
1071.000	624.517	80.008	19.993	104.256	20.094	1.365	0.514
1071.500	624.758	80.009	19.993	104.255	20.089	1.738	0.496
1072.000	625.039	80.008	19.992	104.254	20.093	1.460	0.500
1072.500	625.277	80.008	19.993	104.253	20.094	1.371	0.520
1073.001	625.576	80.008	19.993	104.252	20.093	1.414	0.528
1073.501	625.831	80.009	19.994	104.251	20.092	1.532	0.546
1074.000	626.090	80.006	19.994	104.251	20.093	1.461	0.534
1074.500	626.352	80.009	19.993	104.251	20.094	1.385	0.518
1075.000	626.625	80.008	19.994	104.251	20.095	1.319	0.528
1075.500	626.870	80.007	19.994	104.248	20.092	1.546	0.526
1076.000	627.113	80.007	19.994	104.248	20.096	1.262	0.502
1076.500	627.387	80.006	19.993	104.248	20.095	1.307	0.503
1077.000	627.675	80.007	19.993	104.248	20.093	1.443	0.540
1077.501	627.935	80.007	19.993	104.248	20.094	1.355	0.555
1078.001	628.187	80.006	19.994	104.249	20.095	1.307	0.529
1078.500	628.456	80.006	19.995	104.250	20.093	1.435	0.516
1079.000	628.728	80.004	19.994	104.250	20.092	1.551	0.531
1079.500	628.956	80.006	19.995	104.251	20.094	1.384	0.521
1080.000	629.227	80.005	19.994	104.252	20.090	1.629	0.499
1080.501	629.488	80.006	19.994	104.253	20.095	1.289	0.515
1081.001	629.744	80.006	19.994	104.253	20.096	1.268	0.525
1081.500	630.014	80.005	19.994	104.253	20.096	1.223	0.522
1082.000	630.302	80.005	19.995	104.251	20.093	1.419	0.542
1082.500	630.569	80.007	19.994	104.250	20.095	1.284	0.556
1083.000	630.821	80.005	19.994	104.249	20.093	1.480	0.537
1083.500	631.057	80.005	19.992	104.251	20.095	1.334	0.503
1084.000	631.315	80.005	19.994	104.251	20.096	1.268	0.491
1084.500	631.590	80.006	19.995	104.252	20.098	1.111	0.513
1085.000	631.859	80.006	19.995	104.253	20.096	1.225	0.539
1085.500	632.075	80.006	19.994	104.253	20.099	1.052	0.515
1086.000	632.350	80.005	19.994	104.250	20.096	1.254	0.488
1086.500	632.619	80.007	19.993	104.245	20.098	1.056	0.518
1087.000	632.853	80.007	19.993	104.240	20.096	1.215	0.523
1087.500	633.127	80.005	19.993	104.240	20.096	1.264	0.506
1088.000	633.397	80.005	19.993	104.241	20.091	1.557	0.526
1088.500	633.661	80.006	19.993	104.236	20.093	1.421	0.539
1089.000	633.909	80.007	19.992	104.235	20.094	1.394	0.523
1089.501	634.220	80.006	19.993	104.233	20.093	1.415	0.536
1090.001	634.440	80.007	19.993	104.232	20.094	1.369	0.545
1090.500	634.725	80.007	19.992	104.230	20.093	1.480	0.518
1091.001	634.934	80.008	19.993	104.231	20.095	1.289	0.499
1091.501	635.234	80.006	19.993	104.236	20.095	1.272	0.501
1092.000	635.467	80.007	19.993	104.241	20.094	1.346	0.521
1092.500	635.709	80.006	19.993	104.238	20.094	1.387	0.504
1093.000	635.962	80.005	19.992	104.235	20.095	1.289	0.485
1093.500	636.241	80.006	19.993	104.234	20.095	1.272	0.513
1094.000	636.482	80.006	19.993	104.227	20.094	1.346	0.526
1094.500	636.764	80.007	19.992	104.224	20.093	1.462	0.522
1095.000	637.022	80.005	19.992	104.222	20.090	1.637	0.532
1095.500	637.288	80.007	19.994	104.222	20.094	1.367	0.532
1096.001	637.553	80.007	19.994	104.224	20.091	1.573	0.527
1096.501	637.774	80.006	19.992	104.225	20.093	1.455	0.509
1097.001	638.024	80.005	19.992	104.224	20.092	1.525	0.479
1097.501	638.296	80.006	19.993	104.225	20.093	1.416	0.497
1098.001	638.535	80.006	19.992	104.223	20.090	1.651	0.516
1098.501	638.807	80.005	19.994	104.222	20.091	1.559	0.511
1099.001	639.074	80.006	19.992	104.226	20.095	1.338	0.525
1099.501	639.324	80.005	19.992	104.225	20.093	1.439	0.528
1100.000	639.581	80.007	19.992	104.223	20.091	1.571	0.512
1100.500	639.789	80.006	19.993	104.224	20.092	1.515	0.486
1101.000	640.081	80.007	19.991	104.226	20.092	1.492	0.483
1101.500	640.318	80.006	19.993	104.226	20.090	1.633	0.515
1102.000	640.550	80.006	19.993	104.233	20.091	1.606	0.499
1102.500	640.814	80.007	19.993	104.244	20.092	1.538	0.483
1103.000	641.058	80.007	19.993	104.251	20.091	1.579	0.502
1103.500	641.332	80.007	19.993	104.244	20.093	1.460	0.512
1104.000	641.600	80.007	19.992	104.239	20.095	1.289	0.530
1104.500	641.831	80.007	19.992	104.236	20.095	1.285	0.521
1105.000	642.114	80.006	19.993	104.233	20.096	1.252	0.506
1105.500	642.375	80.007	19.993	104.232	20.091	1.557	0.529
1106.000	642.613	80.007	19.993	104.246	20.096	1.206	0.522
1106.500	642.859	80.007	19.994	104.255	20.094	1.363	0.491
1107.000	643.117	80.006	19.994	104.258	20.097	1.161	0.493
1107.501	643.380	80.007	19.993	104.258	20.096	1.223	0.512
1108.001	643.643	80.006	19.993	104.259	20.096	1.220	0.524
1108.501	643.882	80.007	19.993	104.258	20.094	1.390	0.514
1109.001	644.142	80.006	19.993	104.251	20.095	1.324	0.501
1109.501	644.360	80.005	19.993	104.245	20.094	1.387	0.488
1110.001	644.674	80.006	19.993	104.240	20.097	1.181	0.505
1110.501	644.857	80.005	19.994	104.239	20.096	1.237	0.515
1111.001	645.138	80.006	19.992	104.239	20.093	1.427	0.481
1111.501	645.371	80.006	19.993	104.245	20.092	1.486	0.488
1112.001	645.657	80.005	19.993	104.248	20.090	1.692	0.516
1112.501	645.940	80.004	19.993	104.251	20.092	1.542	0.544
1113.001	646.165	80.006	19.994	104.249	20.092	1.551	0.539
1113.501	646.435	80.005	19.993	104.245	20.093	1.468	0.502
1114.001	646.694	80.006	19.993	104.243	20.091	1.619	0.512
1114.500	646.948	80.006	19.992	104.240	20.089	1.724	0.521
1115.000	647.204	80.005	19.993	104.235	20.094	1.408	0.511
1115.500	647.476	80.008	19.992	104.231	20.094	1.389	0.519
1116.000	647.679	80.007	19.993	104.228	20.096	1.256	0.502
1116.500	647.972	80.006	19.993	104.226	20.092	1.538	0.486
1117.000	648.179	80.007	19.992	104.227	20.093	1.472	0.498
1117.500	648.469	80.006	19.993	104.228	20.090	1.637	0.498
1118.000	648.739	80.007	19.992	104.230	20.093	1.449	0.528
1118.500	648.957	80.006	19.994	104.238	20.091	1.563	0.524
1119.001	649.237	80.006	19.992	104.239	20.094	1.367	0.493
1119.501	649.469	80.008	19.992	104.243	20.094	1.396	0.505
1120.000	649.737	80.006	19.992	104.247	20.092	1.526	0.506
1120.500	650.011	80.007	19.992	104.248	20.094	1.357	0.521
1121.000	650.221	80.008	19.993	104.242	20.091	1.596	0.513
1121.500	650.497	80.007	19.992	104.243	20.091	1.598	0.485
1122.000	650.808	80.007	19.992	104.244	20.093	1.474	0.537
1122.500	651.025	80.009	19.992	104.246	20.093	1.447	0.558
1123.000	651.330	80.007	19.993	104.245	20.090	1.666	0.525
1123.500	651.507	80.009	19.992	104.238	20.093	1.456	0.502
1124.000	651.788	80.008	19.992	104.231	20.087	1.864	0.470
1124.500	652.062	80.008	19.992	104.227	20.090	1.652	0.506
1125.000	652.333	80.008	19.993	104.227	20.092	1.495	0.550
1125.500	652.523	80.009	19.992	104.232	20.091	1.565	0.503
1126.000	652.801	80.010	19.992	104.245	20.088	1.781	0.465
1126.500	653.056	80.009	19.992	104.246	20.089	1.730	0.501
1127.000	653.283	80.009	19.994	104.244	20.090	1.684	0.507
1127.500	653.510	80.007	19.992	104.241	20.089	1.707	0.468
1128.000	653.839	80.008	19.993	104.238	20.091	1.562	0.505
1128.500	654.068	80.008	19.992	104.234	20.089	1.711	0.557
1129.000	654.334	80.009	19.993	104.233	20.090	1.663	0.526
1129.500	654.566	80.010	19.993	104.230	20.087	1.888	0.496
1130.000	654.866	80.007	19.993	104.225	20.090	1.645	0.515
1130.500	655.131	80.008	19.993	104.219	20.087	1.898	0.548
1131.000	655.378	80.009	19.993	104.216	20.091	1.567	0.539
1131.500	655.575	80.008	19.993	104.218	20.089	1.754	0.478
1132.000	655.865	80.008	19.992	104.221	20.089	1.756	0.465
1132.500	656.167	80.008	19.993	104.224	20.087	1.851	0.540
1133.000	656.393	80.008	19.993	104.230	20.088	1.787	0.560
1133.500	656.621	80.009	19.992	104.231	20.089	1.705	0.491
1134.000	656.921	80.007	19.993	104.229	20.092	1.490	0.491
1134.500	657.166	80.007	19.994	104.228	20.089	1.703	0.536
1135.001	657.429	80.007	19.994	104.230	20.092	1.482	0.526
1135.501	657.656	80.007	19.993	104.232	20.089	1.734	0.499
1136.000	657.939	80.007	19.994	104.239	20.093	1.453	0.500
1136.500	658.209	80.008	19.995	104.244	20.088	1.775	0.532
1137.000	658.426	80.008	19.993	104.251	20.096	1.227	0.519
1137.500	658.728	80.007	19.993	104.253	20.091	1.557	0.503
1138.000	658.912	80.008	19.993	104.253	20.093	1.476	0.503
1138.500	659.204	80.007	19.994	104.253	20.092	1.509	0.481
1139.000	659.469	80.007	19.994	104.254	20.092	1.530	0.516
1139.500	659.762	80.007	19.993	104.255	20.096	1.264	0.558
1140.000	659.969	80.007	19.993	104.256	20.093	1.462	0.529
1140.500	660.218	80.009	19.995	104.256	20.092	1.534	0.478
1141.001	660.485	80.007	19.993	104.256	20.095	1.301	0.486
1141.501	660.747	80.008	19.993	104.256	20.092	1.497	0.523
1142.000	661.024	80.008	19.994	104.254	20.097	1.161	0.534
1142.500	661.260	80.007	19.994	104.250	20.096	1.229	0.526
1143.000	661.546	80.008	19.994	104.247	20.094	1.361	0.518
1143.500	661.751	80.007	19.992	104.244	20.094	1.377	0.506
1144.000	662.037	80.007	19.994	104.243	20.096	1.214	0.491
1144.500	662.238	80.008	19.994	104.243	20.098	1.124	0.489
1145.000	662.588	80.009	19.994	104.246	20.092	1.515	0.519
1145.501	662.777	80.008	19.994	104.249	20.096	1.204	0.545
1146.001	663.067	80.008	19.994	104.255	20.096	1.266	0.509
1146.500	663.289	80.008	19.993	104.257	20.096	1.227	0.495
1147.000	663.577	80.009	19.992	104.246	20.095	1.332	0.511
1147.500	663.889	80.010	19.993	104.236	20.094	1.404	0.555
1148.000	664.138	80.010	19.993	104.229	20.093	1.439	0.581
1148.500	664.307	80.010	19.993	104.218	20.097	1.142	0.490
1149.000	664.652	80.010	19.992	104.217	20.093	1.476	0.466
1149.501	664.858	80.011	19.993	104.228	20.094	1.363	0.533
1150.001	665.202	80.008	19.993	104.238	20.095	1.311	0.550
1150.500	665.320	80.010	19.992	104.245	20.096	1.221	0.506
1151.000	665.669	80.009	19.993	104.240	20.098	1.058	0.464
1151.500	665.831	80.010	19.993	104.228	20.096	1.202	0.489
1152.000	666.099	80.010	19.992	104.220	20.094	1.396	0.470
1152.500	666.385	80.010	19.992	104.212	20.098	1.062	0.492
1153.000	666.581	80.010	19.993	104.210	20.096	1.243	0.518
1153.500	666.939	80.009	19.993	104.222	20.097	1.177	0.518
1154.000	667.155	80.009	19.993	104.236	20.098	1.122	0.564
1154.500	667.336	80.009	19.993	104.243	20.094	1.345	0.486
1155.000	667.686	80.009	19.993	104.249	20.095	1.338	0.464
1155.500	667.917	80.008	19.993	104.237	20.095	1.313	0.556
1156.000	668.151	80.010	19.993	104.226	20.094	1.356	0.523
1156.500	668.423	80.008	19.993	104.218	20.091	1.579	0.486
1157.000	668.653	80.008	19.993	104.212	20.095	1.276	0.504
1157.500	668.974	80.007	19.993	104.207	20.096	1.210	0.526
1158.000	669.226	80.007	19.994	104.219	20.093	1.439	0.562
1158.500	669.455	80.006	19.993	104.231	20.094	1.381	0.527
1159.000	669.731	80.006	19.993	104.240	20.097	1.189	0.493
1159.500	669.991	80.006	19.993	104.241	20.094	1.362	0.521
1160.000	670.252	80.005	19.994	104.238	20.094	1.385	0.529
1160.500	670.479	80.006	19.993	104.239	20.095	1.288	0.505
1161.000	670.776	80.006	19.993	104.233	20.094	1.381	0.506
1161.500	671.004	80.006	19.993	104.229	20.091	1.596	0.524
1162.000	671.249	80.006	19.994	104.236	20.096	1.249	0.498
1162.500	671.541	80.006	19.994	104.247	20.093	1.421	0.505
1163.000	671.785	80.007	19.994	104.250	20.095	1.309	0.537
1163.500	671.943	80.006	19.994	104.253	20.093	1.478	0.469
1164.000	672.243	80.006	19.994	104.240	20.093	1.449	0.430
1164.500	672.565	80.006	19.994	104.228	20.098	1.113	0.540
1165.000	672.826	80.006	19.994	104.220	20.096	1.266	0.603
1165.500	673.050	80.006	19.994	104.218	20.095	1.313	0.534
1166.000	673.326	80.005	19.994	104.219	20.093	1.474	0.492
1166.500	673.558	80.005	19.995	104.236	20.097	1.175	0.504
1167.000	673.882	80.006	19.994	104.247	20.096	1.258	0.532
1167.500	674.129	80.005	19.993	104.253	20.094	1.367	0.563
1168.000	674.349	80.006	19.995	104.255	20.095	1.305	0.519
1168.501	674.639	80.006	19.993	104.256	20.092	1.488	0.488
1169.001	674.877	80.005	19.994	104.255	20.092	1.525	0.519
1169.501	675.122	80.006	19.995	104.254	20.091	1.596	0.506
1170.001	675.391	80.005	19.995	104.253	20.094	1.344	0.499
1170.500	675.637	80.005	19.994	104.256	20.092	1.518	0.514
1171.001	675.903	80.006	19.996	104.259	20.091	1.596	0.514
1171.501	676.196	80.006	19.995	104.256	20.092	1.483	0.536
1172.000	676.386	80.005	19.994	104.247	20.094	1.404	0.521
1172.501	676.638	80.006	19.994	104.243	20.095	1.280	0.462
1173.001	676.944	80.005	19.994	104.238	20.093	1.435	0.500
1173.500	677.161	80.005	19.995	104.234	20.092	1.501	0.541
1174.000	677.407	80.006	19.995	104.238	20.091	1.564	0.493
1174.500	677.639	80.005	19.993	104.247	20.094	1.393	0.471
1175.000	677.899	80.007	19.994	104.248	20.090	1.659	0.485
1175.500	678.160	80.006	19.993	104.242	20.090	1.680	0.506
1176.000	678.407	80.006	19.994	104.237	20.093	1.474	0.515
1176.500	678.645	80.005	19.994	104.230	20.092	1.481	0.496
1177.000	678.920	80.007	19.994	104.228	20.093	1.423	0.499
1177.500	679.097	80.007	19.993	104.230	20.092	1.524	0.483
1178.000	679.400	80.005	19.993	104.234	20.093	1.468	0.466
1178.500	679.630	80.005	19.994	104.240	20.094	1.391	0.507
1179.000	679.927	80.006	19.994	104.251	20.092	1.482	0.530
1179.500	680.151	80.005	19.993	104.258	20.092	1.548	0.524
1180.000	680.406	80.006	19.992	104.255	20.097	1.175	0.500
1180.500	680.663	80.007	19.993	104.243	20.094	1.387	0.496
1181.000	680.874	80.007	19.992	104.234	20.094	1.344	0.490
1181.500	681.146	80.006	19.993	104.227	20.094	1.394	0.475
1182.000	681.390	80.006	19.993	104.223	20.095	1.318	0.499
1182.500	681.627	80.007	19.993	104.229	20.092	1.526	0.499
1183.000	681.862	80.005	19.992	104.245	20.091	1.569	0.477
1183.500	682.100	80.005	19.993	104.253	20.090	1.655	0.472
1184.000	682.346	80.006	19.993	104.257	20.094	1.340	0.479
1184.500	682.649	80.004	19.993	104.257	20.095	1.278	0.516
1185.000	682.895	80.006	19.992	104.259	20.094	1.398	0.549
1185.500	683.138	80.005	19.993	104.264	20.093	1.420	0.519
1186.000	683.364	80.005	19.992	104.255	20.096	1.268	0.479
1186.500	683.664	80.006	19.994	104.240	20.095	1.313	0.498
1187.000	683.907	80.005	19.992	104.232	20.092	1.518	0.535
1187.500	684.194	80.005	19.993	104.225	20.091	1.567	0.536
1188.000	684.430	80.005	19.993	104.222	20.091	1.584	0.527
1188.500	684.677	80.006	19.993	104.231	20.093	1.468	0.503
1189.000	684.947	80.005	19.992	104.245	20.093	1.468	0.500
1189.500	685.186	80.007	19.993	104.252	20.092	1.548	0.513
1190.000	685.435	80.004	19.993	104.257	20.092	1.519	0.499
1190.500	685.678	80.005	19.993	104.260	20.090	1.690	0.490
1191.000	685.987	80.005	19.993	104.258	20.089	1.734	0.522
1191.500	686.236	80.006	19.993	104.245	20.092	1.484	0.555
1192.000	686.480	80.005	19.993	104.236	20.094	1.396	0.525
1192.500	686.751	80.004	19.994	104.230	20.090	1.652	0.504
1193.000	687.017	80.005	19.993	104.225	20.093	1.441	0.526
1193.500	687.285	80.006	19.994	104.229	20.092	1.519	0.535
1194.000	687.563	80.005	19.994	104.244	20.092	1.511	0.540
1194.500	687.797	80.005	19.993	104.252	20.097	1.177	0.529
1195.000	688.039	80.005	19.993	104.258	20.095	1.305	0.494
1195.500	688.352	80.005	19.993	104.259	20.090	1.690	0.516
1196.000	688.600	80.004	19.993	104.263	20.094	1.406	0.558
1196.500	688.824	80.003	19.992	104.258	20.091	1.614	0.517
1197.000	689.103	80.005	19.992	104.243	20.093	1.470	0.487
1197.501	689.359	80.006	19.992	104.234	20.093	1.422	0.519
1198.001	689.629	80.006	19.993	104.228	20.090	1.659	0.531
1198.500	689.872	80.005	19.993	104.222	20.090	1.682	0.520
1199.000	690.095	80.007	19.994	104.225	20.094	1.340	0.490
1199.500	690.386	80.006	19.993	104.240	20.091	1.586	0.490
1200.000	690.643	80.006	19.994	104.249	20.096	1.254	0.530
1200.501	690.914	80.008	19.993	104.260	20.092	1.545	0.538
1201.001	691.160	80.007	19.995	104.264	20.093	1.472	0.523
1201.500	691.406	80.008	19.994	104.259	20.095	1.319	0.505
1202.000	691.628	80.007	19.994	104.243	20.095	1.301	0.480
1202.500	691.891	80.006	19.993	104.236	20.094	1.354	0.476
1203.001	692.148	80.007	19.992	104.224	20.092	1.540	0.502
1203.501	692.355	80.006	19.992	104.221	20.091	1.606	0.492
1204.000	692.586	80.009	19.994	104.234	20.094	1.345	0.451
1204.500	692.906	80.008	19.994	104.257	20.093	1.454	0.494
1205.000	693.123	80.008	19.993	104.272	20.093	1.454	0.544
1205.500	693.374	80.007	19.994	104.272	20.093	1.425	0.503
1206.000	693.671	80.009	19.992	104.263	20.098	1.117	0.508
1206.500	693.922	80.008	19.992	104.255	20.096	1.256	0.547
1207.000	694.183	80.008	19.994	104.246	20.097	1.169	0.530
1207.500	694.417	80.008	19.993	104.239	20.096	1.255	0.504
1208.000	694.686	80.007	19.993	104.245	20.094	1.392	0.499
1208.500	694.932	80.008	19.993	104.252	20.094	1.365	0.509
1209.000	695.192	80.009	19.992	104.254	20.093	1.480	0.511
1209.500	695.433	80.008	19.993	104.249	20.091	1.565	0.503
1210.000	695.665	80.009	19.994	104.236	20.093	1.441	0.486
1210.500	695.905	80.008	19.993	104.228	20.092	1.514	0.472
1211.000	696.153	80.007	19.993	104.220	20.096	1.204	0.480
1211.500	696.440	80.009	19.994	104.217	20.093	1.443	0.512
1212.000	696.640	80.008	19.993	104.223	20.095	1.321	0.511
1212.500	696.896	80.007	19.993	104.236	20.095	1.278	0.472
1213.000	697.129	80.008	19.994	104.244	20.092	1.486	0.472
1213.500	697.394	80.007	19.994	104.249	20.096	1.243	0.493
1214.000	697.627	80.008	19.993	104.235	20.094	1.394	0.498
1214.500	697.871	80.007	19.993	104.222	20.093	1.423	0.487
1215.000	698.123	80.007	19.994	104.215	20.090	1.658	0.486
1215.500	698.413	80.008	19.993	104.210	20.093	1.451	0.519
1216.000	698.633	80.008	19.993	104.211	20.095	1.303	0.526
1216.500	698.889	80.009	19.994	104.227	20.097	1.130	0.493
1217.000	699.148	80.006	19.993	104.238	20.097	1.184	0.495
1217.500	699.354	80.007	19.994	104.242	20.094	1.361	0.490
1218.001	699.551	80.007	19.994	104.244	20.096	1.227	0.434
1218.501	699.855	80.006	19.994	104.246	20.097	1.196	0.452
1219.000	700.076	80.007	19.994	104.247	20.094	1.390	0.513
1219.501	700.329	80.007	19.992	104.243	20.097	1.128	0.499
1220.001	700.589	80.007	19.994	104.230	20.095	1.336	0.494
1220.500	700.838	80.007	19.993	104.220	20.096	1.253	0.511
1221.000	701.060	80.008	19.993	104.212	20.096	1.208	0.490
1221.500	701.307	80.008	19.993	104.208	20.095	1.334	0.470
1222.000	701.517	80.006	19.994	104.215	20.095	1.320	0.463
1222.500	701.777	80.008	19.993	104.230	20.095	1.307	0.464
1223.000	702.047	80.007	19.993	104.243	20.097	1.177	0.500
1223.500	702.270	80.007	19.992	104.246	20.094	1.383	0.511
1224.000	702.510	80.008	19.993	104.237	20.094	1.352	0.478
1224.500	702.793	80.007	19.993	104.230	20.097	1.196	0.493
1225.000	703.014	80.007	19.993	104.226	20.093	1.451	0.513
1225.500	703.257	80.008	19.994	104.226	20.094	1.342	0.484
1226.000	703.490	80.008	19.994	104.231	20.094	1.384	0.471
1226.500	703.766	80.008	19.993	104.243	20.093	1.425	0.493
1227.001	704.008	80.009	19.993	104.250	20.093	1.441	0.513
1227.501	704.219	80.007	19.995	104.248	20.094	1.350	0.485
1228.000	704.496	80.009	19.993	104.233	20.096	1.255	0.471
1228.500	704.703	80.009	19.994	104.229	20.094	1.369	0.486
1229.000	704.943	80.008	19.993	104.227	20.092	1.515	0.466
1229.500	705.191	80.009	19.993	104.227	20.094	1.348	0.467
1230.000	705.497	80.008	19.994	104.234	20.093	1.456	0.521
1230.500	705.715	80.008	19.995	104.256	20.099	1.023	0.539
1231.000	705.937	80.007	19.994	104.264	20.092	1.519	0.482
1231.500	706.197	80.008	19.994	104.267	20.094	1.371	0.461
1232.001	706.462	80.008	19.993	104.255	20.093	1.428	0.504
1232.501	706.715	80.009	19.994	104.244	20.094	1.356	0.521
1233.000	706.967	80.007	19.993	104.232	20.099	1.020	0.511
1233.500	707.212	80.008	19.993	104.225	20.095	1.284	0.501
1234.000	707.451	80.007	19.993	104.224	20.099	1.014	0.491
1234.501	707.672	80.007	19.994	104.238	20.094	1.370	0.472
1235.001	707.935	80.008	19.994	104.248	20.092	1.550	0.472
1235.501	708.201	80.007	19.993	104.252	20.097	1.136	0.506
1236.001	708.405	80.007	19.992	104.244	20.092	1.501	0.499
1236.500	708.684	80.008	19.993	104.235	20.092	1.548	0.477
1237.001	708.930	80.008	19.995	104.231	20.097	1.194	0.505
1237.501	709.180	80.007	19.992	104.229	20.092	1.538	0.511
1238.000	709.438	80.005	19.992	104.230	20.095	1.298	0.502
1238.500	709.713	80.006	19.993	104.242	20.092	1.515	0.520
1239.000	709.941	80.005	19.993	104.253	20.097	1.150	0.518
1239.500	710.223	80.005	19.993	104.258	20.094	1.365	0.506
1240.000	710.455	80.005	19.994	104.255	20.097	1.132	0.512
1240.500	710.696	80.005	19.993	104.244	20.095	1.270	0.494
1241.000	710.942	80.004	19.993	104.241	20.098	1.091	0.480
1241.500	711.209	80.006	19.994	104.239	20.096	1.231	0.501
1242.001	711.462	80.006	19.994	104.244	20.095	1.309	0.516
1242.501	711.724	80.005	19.994	104.255	20.095	1.326	0.517
1243.000	711.980	80.005	19.994	104.269	20.096	1.268	0.517
1243.500	712.219	80.005	19.993	104.274	20.095	1.305	0.507
1244.000	712.464	80.004	19.994	104.277	20.095	1.301	0.490
1244.501	712.731	80.006	19.994	104.280	20.093	1.419	0.498
1245.001	712.990	80.006	19.994	104.278	20.095	1.330	0.519
1245.501	713.245	80.005	19.994	104.275	20.097	1.188	0.520
1246.001	713.514	80.006	19.994	104.265	20.096	1.258	0.519
1246.501	713.731	80.005	19.992	104.257	20.095	1.313	0.504
1247.001	713.990	80.004	19.994	104.247	20.093	1.449	0.481
1247.501	714.263	80.004	19.993	104.241	20.097	1.186	0.504
1248.000	714.537	80.004	19.994	104.242	20.096	1.260	0.539
1248.500	714.790	80.004	19.993	104.253	20.094	1.345	0.537
1249.000	715.042	80.004	19.993	104.264	20.096	1.233	0.516
1249.500	715.285	80.004	19.992	104.267	20.098	1.116	0.500
1250.000	715.562	80.005	19.994	104.262	20.096	1.229	0.508
1250.500	715.838	80.005	19.993	104.246	20.096	1.235	0.536
1251.000	716.088	80.005	19.993	104.235	20.096	1.212	0.540
1251.500	716.345	80.005	19.994	104.223	20.094	1.351	0.517
1252.000	716.620	80.005	19.993	104.221	20.095	1.285	0.520
1252.500	716.840	80.005	19.993	104.226	20.095	1.301	0.514
1253.000	717.115	80.006	19.994	104.242	20.096	1.223	0.495
1253.500	717.347	80.006	19.994	104.248	20.095	1.299	0.501
1254.000	717.638	80.006	19.994	104.241	20.093	1.425	0.515
1254.500	717.865	80.004	19.995	104.229	20.093	1.412	0.520
1255.000	718.130	80.006	19.994	104.221	20.096	1.252	0.505
1255.500	718.357	80.005	19.994	104.215	20.095	1.317	0.492
1256.000	718.603	80.005	19.994	104.217	20.093	1.468	0.482
1256.500	718.891	80.005	19.994	104.231	20.095	1.291	0.504
1257.000	719.123	80.005	19.995	104.245	20.095	1.279	0.527
1257.500	719.385	80.006	19.994	104.252	20.095	1.314	0.507
1258.000	719.626	80.005	19.994	104.240	20.092	1.514	0.498
1258.500	719.886	80.005	19.995	104.223	20.091	1.563	0.502
1259.000	720.146	80.005	19.994	104.213	20.092	1.483	0.510
1259.500	720.415	80.005	19.994	104.204	20.092	1.518	0.524
1260.000	720.654	80.005	19.994	104.204	20.094	1.361	0.518
1260.500	720.909	80.006	19.994	104.220	20.094	1.400	0.501
1261.000	721.186	80.005	19.994	104.238	20.093	1.468	0.514
1261.500	721.430	80.005	19.994	104.246	20.095	1.284	0.527
1262.000	721.668	80.005	19.994	104.237	20.092	1.540	0.501
1262.500	721.949	80.005	19.994	104.222	20.092	1.516	0.501
1263.000	722.178	80.006	19.994	104.214	20.088	1.835	0.514
1263.500	722.435	80.004	19.993	104.207	20.092	1.486	0.498
1264.000	722.706	80.006	19.996	104.204	20.091	1.583	0.507
1264.500	722.975	80.006	19.994	104.216	20.094	1.360	0.534
1265.000	723.198	80.005	19.994	104.230	20.091	1.573	0.516
1265.500	723.437	80.004	19.994	104.231	20.091	1.620	0.477
1266.000	723.728	80.007	19.994	104.233	20.095	1.320	0.496
1266.500	723.979	80.006	19.995	104.237	20.093	1.441	0.536
1267.000	724.233	80.005	19.994	104.238	20.093	1.472	0.524
1267.500	724.481	80.006	19.994	104.229	20.091	1.613	0.503
1268.000	724.722	80.006	19.994	104.218	20.092	1.544	0.495
1268.500	724.986	80.007	19.994	104.211	20.093	1.412	0.497
1269.001	725.244	80.005	19.994	104.202	20.090	1.650	0.514
1269.501	725.502	80.006	19.993	104.196	20.087	1.862	0.520
1270.000	725.735	80.006	19.993	104.204	20.091	1.553	0.504
1270.500	726.025	80.006	19.993	104.222	20.094	1.394	0.507
1271.000	726.271	80.005	19.995	104.238	20.087	1.893	0.529
1271.500	726.547	80.005	19.994	104.246	20.088	1.784	0.529
1272.000	726.747	80.006	19.992	104.242	20.092	1.491	0.499
1272.500	727.032	80.005	19.993	104.237	20.092	1.546	0.481
1273.000	727.272	80.006	19.993	104.231	20.091	1.559	0.505
1273.500	727.503	80.004	19.994	104.223	20.093	1.422	0.497
1274.001	727.778	80.005	19.994	104.224	20.090	1.653	0.488
1274.501	728.039	80.006	19.994	104.238	20.088	1.771	0.521
1275.000	728.314	80.006	19.993	104.248	20.093	1.462	0.536
1275.500	728.552	80.006	19.993	104.253	20.088	1.783	0.525
1276.000	728.808	80.006	19.994	104.248	20.090	1.623	0.504
1276.500	729.071	80.006	19.993	104.239	20.088	1.784	0.507
1277.000	729.335	80.005	19.993	104.229	20.092	1.544	0.523
1277.500	729.572	80.006	19.994	104.219	20.091	1.584	0.514
1278.000	729.847	80.006	19.993	104.215	20.090	1.680	0.506
1278.500	730.113	80.006	19.994	104.218	20.090	1.647	0.526
1279.000	730.350	80.006	19.994	104.220	20.093	1.478	0.522
1279.500	730.649	80.005	19.993	104.223	20.089	1.763	0.519
1280.001	730.934	80.005	19.993	104.223	20.087	1.872	0.560
1280.501	731.202	80.005	19.994	104.221	20.089	1.705	0.569
1281.000	731.446	80.007	19.993	104.224	20.088	1.831	0.532
1281.500	731.725	80.006	19.994	104.226	20.090	1.692	0.518
1282.000	731.965	80.006	19.993	104.225	20.089	1.730	0.521
1282.500	732.251	80.007	19.993	104.227	20.092	1.499	0.522
1283.000	732.514	80.006	19.993	104.234	20.090	1.626	0.537
1283.500	732.767	80.007	19.993	104.240	20.092	1.532	0.533
1284.000	733.053	80.006	19.993	104.244	20.094	1.404	0.528
1284.500	733.301	80.006	19.994	104.250	20.095	1.288	0.537
1285.000	733.577	80.007	19.993	104.255	20.093	1.431	0.529
1285.500	733.854	80.006	19.993	104.254	20.090	1.631	0.539
1286.000	734.075	80.008	19.993	104.250	20.090	1.690	0.525
1286.500	734.326	80.007	19.993	104.245	20.091	1.622	0.485
1287.001	734.624	80.005	19.993	104.238	20.088	1.794	0.510
1287.501	734.890	80.007	19.993	104.230	20.091	1.606	0.556
1288.000	735.136	80.007	19.992	104.225	20.086	1.940	0.538
1288.501	735.401	80.007	19.992	104.224	20.084	2.064	0.511
1289.001	735.683	80.007	19.993	104.226	20.085	1.980	0.529
1289.500	735.940	80.008	19.992	104.228	20.089	1.754	0.543
1290.000	736.223	80.008	19.993	104.231	20.089	1.719	0.540
1290.500	736.482	80.007	19.993	104.238	20.091	1.620	0.541
1291.000	736.722	80.008	19.993	104.242	20.088	1.787	0.521
1291.500	737.026	80.006	19.994	104.245	20.090	1.661	0.522
1292.000	737.305	80.007	19.992	104.248	20.089	1.740	0.563
1292.500	737.545	80.007	19.993	104.248	20.090	1.686	0.551
1293.000	737.797	80.007	19.993	104.249	20.091	1.606	0.506
1293.500	738.066	80.008	19.994	104.250	20.089	1.717	0.507
1294.000	738.366	80.007	19.993	104.250	20.093	1.462	0.545
1294.500	738.621	80.007	19.993	104.254	20.091	1.573	0.562
1295.000	738.888	80.006	19.993	104.258	20.090	1.623	0.539
1295.500	739.146	80.006	19.993	104.257	20.091	1.581	0.524
1296.000	739.420	80.006	19.993	104.256	20.093	1.431	0.529
1296.500	739.707	80.007	19.993	104.256	20.086	1.958	0.546
1297.000	739.991	80.006	19.993	104.259	20.088	1.775	0.566
1297.500	740.227	80.005	19.992	104.259	20.092	1.521	0.546
1298.000	740.498	80.006	19.993	104.245	20.091	1.577	0.514
1298.500	740.792	80.006	19.993	104.232	20.088	1.792	0.536
1299.000	741.043	80.006	19.993	104.226	20.091	1.565	0.555
1299.500	741.304	80.007	19.992	104.221	20.092	1.548	0.528
1300.001	741.550	80.007	19.992	104.226	20.090	1.661	0.509
1300.501	741.823	80.006	19.992	104.241	20.097	1.167	0.513
1301.000	742.097	80.006	19.993	104.254	20.093	1.451	0.533
1301.500	742.359	80.008	19.993	104.257	20.089	1.732	0.542
1302.001	742.627	80.007	19.993	104.258	20.091	1.600	0.533
1302.501	742.915	80.006	19.993	104.254	20.095	1.292	0.543
1303.000	743.172	80.007	19.994	104.251	20.089	1.752	0.551
1303.500	743.416	80.007	19.993	104.245	20.095	1.288	0.523
