Sample ID:	C:\MCC\MCC Cal\Test\Cotton_Sheets_MCC_30K_min_220107_R2.txt
Sample Weight (mg):	4.97
Heating Rate (C/s):	0.5
Combustor Temp (C):	900
N2 Flow Rate (cc/min):	80
O2 Flow Rate (cc/min):	20
Calibration File:	C:\MCC\MCC Cal\Coeff1 JN10440_30_210304.txt.txt
T Correction Coefficients:	0	1.024463	0
Time Shift (s):	14
*
Time (s)	Temperature (C)	N2 flow rate (cc/min)	O2 flow rate (cc/min)	Flow Rate (cc/min)	Oxygen (%)	HRR (W/g)	Heating rate (C/s)
0.000	110.953	80.004	19.995	104.081	20.243	0.120	-0.142
0.500	111.088	80.004	19.994	104.083	20.241	0.299	0.042
1.000	111.048	80.003	19.993	104.081	20.246	-0.056	0.121
1.500	110.805	80.003	19.994	104.082	20.244	0.066	-0.094
2.000	111.189	80.004	19.992	104.076	20.244	0.063	-0.071
2.500	110.927	80.002	19.993	104.072	20.242	0.206	0.132
3.000	110.915	80.003	19.992	104.070	20.245	0.021	-0.076
3.500	110.847	80.003	19.993	104.070	20.243	0.111	-0.177
4.000	111.000	80.004	19.993	104.073	20.246	-0.073	0.002
4.500	111.164	80.003	19.992	104.074	20.245	0.030	0.201
5.000	110.881	80.002	19.993	104.074	20.242	0.193	0.099
5.500	110.972	80.003	19.994	104.071	20.243	0.134	-0.155
6.000	111.114	80.003	19.993	104.068	20.240	0.329	0.020
6.500	110.995	80.004	19.992	104.063	20.243	0.124	0.128
7.000	110.915	80.002	19.993	104.063	20.244	0.059	-0.087
7.500	111.036	80.003	19.993	104.065	20.243	0.127	-0.079
8.000	110.966	80.004	19.993	104.068	20.243	0.106	0.046
8.501	110.842	80.002	19.994	104.068	20.244	0.059	-0.071
9.001	111.171	80.003	19.992	104.068	20.242	0.231	0.005
9.500	111.009	80.004	19.994	104.068	20.243	0.163	0.186
10.000	110.907	80.005	19.993	104.065	20.245	0.032	-0.048
10.500	111.252	80.002	19.994	104.061	20.244	0.082	-0.010
11.000	110.879	80.005	19.993	104.063	20.240	0.324	0.107
11.500	110.892	80.004	19.994	104.065	20.239	0.397	-0.194
12.000	111.016	80.002	19.994	104.068	20.241	0.285	-0.111
12.500	111.034	80.004	19.994	104.069	20.240	0.346	0.139
13.000	110.968	80.001	19.994	104.068	20.243	0.150	0.047
13.500	111.064	80.004	19.994	104.067	20.239	0.390	-0.009
14.000	111.021	80.003	19.994	104.065	20.240	0.363	0.041
14.500	111.040	80.002	19.994	104.063	20.241	0.243	0.014
15.000	110.967	80.002	19.994	104.062	20.242	0.211	-0.039
15.500	111.024	80.002	19.993	104.062	20.244	0.043	-0.035
16.000	110.912	80.003	19.993	104.065	20.243	0.167	-0.035
16.500	111.035	80.001	19.993	104.069	20.245	0.018	-0.022
17.000	110.985	80.003	19.993	104.071	20.245	0.025	0.042
17.500	110.933	80.001	19.992	104.071	20.242	0.179	-0.014
18.000	111.076	80.002	19.995	104.071	20.242	0.172	-0.006
18.500	110.927	80.002	19.995	104.069	20.244	0.054	0.042
19.000	111.039	80.002	19.994	104.067	20.242	0.192	-0.021
19.500	110.909	80.004	19.994	104.065	20.243	0.156	-0.028
20.000	111.069	80.003	19.994	104.064	20.243	0.109	0.006
20.500	110.933	80.004	19.993	104.065	20.243	0.115	0.027
21.000	110.977	80.003	19.993	104.064	20.243	0.149	-0.034
21.500	111.039	80.002	19.994	104.062	20.241	0.251	0.007
22.000	110.915	80.005	19.993	104.062	20.242	0.211	0.022
22.500	111.068	80.004	19.994	104.062	20.241	0.252	-0.017
23.000	110.947	80.003	19.993	104.062	20.240	0.312	0.030
23.500	111.004	80.003	19.994	104.062	20.245	0.029	-0.016
24.000	110.941	80.003	19.993	104.063	20.241	0.295	-0.035
24.500	111.022	80.004	19.993	104.063	20.240	0.349	0.006
25.000	111.012	80.004	19.993	104.062	20.241	0.274	0.045
25.500	110.942	80.004	19.993	104.062	20.243	0.131	-0.004
26.000	110.912	80.004	19.993	104.061	20.243	0.111	-0.090
26.500	111.036	80.005	19.993	104.061	20.239	0.403	-0.003
27.000	110.968	80.004	19.993	104.061	20.241	0.270	0.075
27.500	110.977	80.005	19.993	104.061	20.242	0.218	-0.002
28.000	110.930	80.004	19.993	104.062	20.243	0.138	-0.049
28.500	111.042	80.005	19.993	104.061	20.239	0.374	0.014
29.000	110.963	80.005	19.994	104.062	20.241	0.279	0.049
29.500	111.045	80.005	19.993	104.062	20.241	0.261	0.018
30.000	110.979	80.004	19.993	104.063	20.240	0.353	0.009
30.500	110.970	80.005	19.993	104.062	20.244	0.102	-0.029
31.000	110.982	80.005	19.992	104.063	20.238	0.457	-0.036
31.500	111.016	80.004	19.993	104.064	20.240	0.321	0.024
32.000	111.011	80.004	19.993	104.065	20.238	0.448	0.037
32.500	110.996	80.004	19.993	104.065	20.235	0.643	0.004
33.000	110.978	80.004	19.993	104.065	20.240	0.349	-0.026
33.500	110.981	80.005	19.993	104.065	20.240	0.351	-0.024
34.000	111.017	80.004	19.993	104.063	20.237	0.512	0.012
34.500	111.006	80.004	19.993	104.060	20.242	0.188	0.032
35.000	110.958	80.004	19.992	104.060	20.237	0.510	-0.017
35.500	110.933	80.004	19.994	104.060	20.239	0.419	-0.066
36.000	110.977	80.004	19.994	104.059	20.238	0.484	-0.028
36.500	110.958	80.003	19.993	104.061	20.238	0.476	0.022
37.001	110.924	80.003	19.993	104.068	20.237	0.514	-0.014
37.501	110.999	80.003	19.993	104.076	20.238	0.467	-0.006
38.000	110.971	80.004	19.993	104.083	20.237	0.498	0.044
38.500	110.948	80.003	19.993	104.091	20.235	0.638	-0.002
39.000	110.919	80.004	19.995	104.098	20.236	0.566	-0.052
39.500	110.944	80.003	19.993	104.101	20.235	0.666	-0.028
40.000	111.027	80.004	19.994	104.102	20.237	0.530	0.052
40.500	110.907	80.003	19.994	104.100	20.238	0.448	0.035
41.000	111.047	80.004	19.993	104.099	20.232	0.864	-0.008
41.500	110.892	80.003	19.993	104.097	20.234	0.704	0.003
42.000	111.016	80.003	19.993	104.094	20.237	0.559	-0.023
42.500	110.982	80.002	19.995	104.089	20.235	0.677	0.029
43.000	110.947	80.002	19.995	104.086	20.235	0.692	0.011
43.500	110.994	80.002	19.994	104.086	20.238	0.453	-0.029
44.000	110.953	80.003	19.993	104.084	20.238	0.471	0.009
44.500	110.966	80.003	19.994	104.086	20.237	0.559	-0.011
45.000	110.975	80.004	19.994	104.090	20.236	0.608	-0.003
45.500	111.011	80.002	19.994	104.096	20.235	0.638	0.034
46.000	111.001	80.003	19.993	104.097	20.236	0.568	0.036
46.500	110.989	80.003	19.993	104.098	20.235	0.692	0.002
47.000	111.027	80.003	19.994	104.100	20.236	0.613	0.002
47.500	111.012	80.003	19.993	104.099	20.233	0.776	0.024
48.000	110.996	80.003	19.993	104.100	20.230	0.957	-0.004
48.500	110.978	80.004	19.993	104.101	20.235	0.660	-0.032
49.000	110.968	80.004	19.992	104.105	20.234	0.731	-0.032
49.500	111.079	80.004	19.992	104.106	20.230	0.972	0.036
50.000	111.010	80.005	19.992	104.112	20.230	0.957	0.072
50.500	111.054	80.004	19.993	104.118	20.231	0.941	0.009
51.000	111.005	80.006	19.992	104.125	20.228	1.110	-0.015
51.500	111.086	80.005	19.992	104.132	20.230	0.999	0.013
52.000	111.047	80.005	19.992	104.138	20.228	1.090	0.036
52.500	111.026	80.006	19.992	104.140	20.230	0.959	-0.009
53.000	111.086	80.006	19.992	104.142	20.226	1.226	-0.010
53.500	111.095	80.007	19.992	104.144	20.225	1.307	0.054
54.000	111.047	80.007	19.992	104.145	20.223	1.463	0.015
54.500	111.157	80.006	19.993	104.153	20.228	1.131	0.011
55.000	111.107	80.007	19.992	104.161	20.227	1.171	0.061
55.500	111.137	80.006	19.992	104.170	20.219	1.704	0.020
56.000	111.205	80.006	19.995	104.178	20.222	1.530	0.039
56.500	111.227	80.006	19.993	104.186	20.219	1.716	0.094
57.000	111.233	80.006	19.994	104.186	20.222	1.487	0.059
57.500	111.234	80.006	19.993	104.186	20.220	1.612	0.017
58.000	111.320	80.006	19.993	104.184	20.219	1.689	0.047
58.500	111.329	80.006	19.993	104.181	20.219	1.732	0.091
59.000	111.284	80.005	19.993	104.180	20.218	1.759	0.029
59.500	111.353	80.006	19.993	104.180	20.216	1.901	-0.006
60.000	111.397	80.006	19.993	104.182	20.215	1.975	0.069
60.500	111.409	80.006	19.993	104.186	20.215	1.994	0.085
61.000	111.450	80.006	19.993	104.193	20.214	2.023	0.054
61.500	111.474	80.004	19.994	104.200	20.215	1.944	0.059
62.000	111.517	80.004	19.993	104.209	20.213	2.118	0.066
62.500	111.510	80.005	19.993	104.215	20.211	2.260	0.052
63.000	111.589	80.004	19.992	104.218	20.211	2.202	0.054
63.500	111.662	80.003	19.992	104.221	20.213	2.091	0.112
64.000	111.682	80.003	19.992	104.221	20.211	2.249	0.122
64.500	111.719	80.003	19.993	104.220	20.211	2.218	0.075
65.000	111.733	80.003	19.992	104.220	20.208	2.398	0.054
65.500	111.780	80.003	19.992	104.224	20.208	2.430	0.056
66.000	111.841	80.002	19.993	104.228	20.208	2.423	0.085
66.501	111.905	80.003	19.993	104.230	20.206	2.565	0.117
67.001	111.981	80.002	19.993	104.230	20.207	2.516	0.133
67.501	112.033	80.002	19.992	104.230	20.204	2.710	0.134
68.000	112.027	80.003	19.993	104.227	20.206	2.553	0.087
68.500	112.112	80.004	19.992	104.225	20.206	2.558	0.063
69.000	112.189	80.003	19.992	104.229	20.205	2.603	0.120
69.500	112.204	80.003	19.993	104.234	20.204	2.716	0.127
70.000	112.341	80.003	19.992	104.238	20.204	2.675	0.122
70.500	112.282	80.003	19.993	104.242	20.203	2.788	0.115
71.000	112.475	80.002	19.992	104.241	20.203	2.788	0.106
71.500	112.476	80.001	19.993	104.242	20.204	2.720	0.165
72.000	112.549	80.003	19.994	104.244	20.202	2.808	0.134
72.500	112.644	80.003	19.994	104.248	20.203	2.771	0.121
73.000	112.696	80.003	19.994	104.246	20.203	2.783	0.158
73.500	112.760	80.003	19.993	104.245	20.202	2.832	0.132
74.000	112.803	80.002	19.994	104.243	20.203	2.735	0.112
74.500	112.915	80.003	19.994	104.238	20.200	2.954	0.131
75.000	112.962	80.004	19.994	104.233	20.200	2.946	0.157
75.500	113.075	80.003	19.994	104.236	20.201	2.880	0.159
76.000	113.117	80.004	19.994	104.236	20.200	2.981	0.157
76.500	113.216	80.002	19.994	104.231	20.200	2.947	0.148
77.000	113.354	80.003	19.993	104.233	20.197	3.141	0.190
77.500	113.389	80.003	19.992	104.238	20.200	2.970	0.205
78.000	113.421	80.002	19.994	104.240	20.199	3.008	0.120
78.500	113.563	80.005	19.994	104.249	20.195	3.258	0.120
79.000	113.650	80.002	19.993	104.262	20.197	3.161	0.201
79.500	113.708	80.005	19.992	104.267	20.196	3.192	0.187
80.000	113.804	80.004	19.993	104.268	20.195	3.273	0.150
80.500	113.891	80.004	19.993	104.273	20.195	3.264	0.169
81.000	113.966	80.004	19.994	104.277	20.195	3.255	0.172
81.500	114.015	80.002	19.993	104.279	20.192	3.452	0.142
82.000	114.188	80.003	19.993	104.285	20.194	3.331	0.173
82.500	114.279	80.003	19.993	104.292	20.194	3.349	0.243
83.000	114.324	80.003	19.993	104.295	20.195	3.272	0.200
83.500	114.474	80.004	19.993	104.295	20.193	3.417	0.166
84.000	114.620	80.005	19.993	104.295	20.191	3.551	0.246
84.500	114.672	80.004	19.993	104.296	20.191	3.528	0.247
85.000	114.748	80.004	19.992	104.297	20.189	3.657	0.163
85.500	114.871	80.004	19.992	104.296	20.192	3.462	0.163
86.000	114.985	80.004	19.993	104.296	20.188	3.724	0.218
86.500	115.101	80.003	19.992	104.296	20.191	3.555	0.233
87.000	115.255	80.004	19.992	104.297	20.191	3.542	0.250
87.501	115.303	80.004	19.992	104.300	20.190	3.605	0.237
88.001	115.429	80.003	19.992	104.307	20.192	3.492	0.188
88.500	115.502	80.005	19.993	104.313	20.192	3.481	0.186
89.001	115.689	80.003	19.993	104.321	20.191	3.519	0.229
89.501	115.735	80.004	19.993	104.329	20.192	3.445	0.246
90.000	115.908	80.002	19.994	104.334	20.190	3.584	0.226
90.500	116.044	80.004	19.993	104.339	20.193	3.395	0.264
91.001	116.120	80.003	19.993	104.342	20.193	3.435	0.261
91.501	116.275	80.003	19.993	104.343	20.194	3.331	0.221
92.001	116.380	80.002	19.993	104.342	20.192	3.472	0.246
92.501	116.514	80.004	19.992	104.335	20.193	3.383	0.250
93.001	116.642	80.003	19.993	104.325	20.193	3.406	0.251
93.501	116.785	80.002	19.992	104.316	20.189	3.699	0.267
94.001	116.894	80.001	19.993	104.308	20.189	3.691	0.261
94.500	117.001	80.003	19.993	104.302	20.191	3.535	0.234
95.000	117.158	80.004	19.993	104.301	20.192	3.480	0.240
95.500	117.232	80.003	19.993	104.303	20.193	3.419	0.248
96.000	117.426	80.003	19.993	104.305	20.189	3.681	0.249
96.500	117.553	80.003	19.994	104.306	20.191	3.564	0.294
97.000	117.731	80.003	19.994	104.306	20.189	3.691	0.313
97.500	117.874	80.002	19.993	104.306	20.190	3.633	0.313
98.000	117.917	80.003	19.993	104.303	20.190	3.612	0.254
98.500	118.099	80.003	19.994	104.302	20.192	3.506	0.206
99.000	118.198	80.003	19.993	104.301	20.190	3.614	0.253
99.500	118.365	80.002	19.992	104.302	20.191	3.521	0.273
100.000	118.462	80.002	19.993	104.302	20.191	3.560	0.265
100.500	118.664	80.002	19.992	104.302	20.189	3.659	0.282
101.000	118.797	80.003	19.994	104.302	20.190	3.610	0.317
101.500	118.958	80.003	19.994	104.302	20.192	3.506	0.315
102.000	119.066	80.002	19.993	104.303	20.188	3.715	0.281
102.500	119.229	80.003	19.992	104.304	20.190	3.584	0.270
103.001	119.406	80.003	19.994	104.305	20.190	3.628	0.306
103.501	119.563	80.002	19.993	104.304	20.191	3.557	0.337
104.001	119.675	80.003	19.993	104.304	20.190	3.580	0.301
104.501	119.821	80.002	19.993	104.303	20.192	3.507	0.263
105.001	119.931	80.003	19.993	104.304	20.192	3.454	0.257
105.501	120.140	80.003	19.993	104.303	20.193	3.433	0.287
106.001	120.295	80.003	19.994	104.303	20.188	3.729	0.341
106.501	120.404	80.003	19.994	104.302	20.191	3.571	0.314
107.001	120.580	80.003	19.994	104.301	20.190	3.632	0.275
107.500	120.712	80.003	19.993	104.298	20.191	3.573	0.296
108.000	120.859	80.004	19.994	104.295	20.192	3.505	0.294
108.500	121.029	80.004	19.993	104.289	20.188	3.709	0.299
109.000	121.170	80.004	19.993	104.289	20.189	3.656	0.314
109.500	121.357	80.004	19.993	104.291	20.192	3.471	0.319
110.000	121.534	80.004	19.993	104.291	20.188	3.736	0.346
110.501	121.693	80.004	19.993	104.293	20.190	3.632	0.350
111.001	121.838	80.005	19.993	104.299	20.190	3.577	0.320
111.500	121.992	80.003	19.993	104.299	20.186	3.896	0.301
112.000	122.116	80.005	19.992	104.298	20.188	3.745	0.288
112.501	122.287	80.005	19.993	104.298	20.191	3.517	0.287
113.001	122.514	80.004	19.993	104.299	20.189	3.670	0.346
113.501	122.620	80.004	19.993	104.299	20.189	3.657	0.365
114.001	122.803	80.004	19.993	104.300	20.189	3.681	0.311
114.501	122.997	80.005	19.992	104.300	20.189	3.654	0.333
115.001	123.152	80.004	19.993	104.300	20.191	3.549	0.363
115.501	123.340	80.004	19.993	104.303	20.191	3.539	0.346
116.000	123.450	80.004	19.993	104.303	20.188	3.747	0.320
116.500	123.605	80.004	19.993	104.303	20.190	3.614	0.281
117.000	123.789	80.003	19.994	104.302	20.190	3.616	0.302
117.500	124.001	80.004	19.992	104.303	20.190	3.629	0.368
118.000	124.159	80.004	19.993	104.305	20.189	3.692	0.383
118.500	124.275	80.005	19.992	104.306	20.189	3.703	0.321
119.000	124.500	80.003	19.994	104.306	20.188	3.762	0.307
119.500	124.675	80.005	19.995	104.306	20.188	3.753	0.371
120.001	124.821	80.004	19.995	104.306	20.188	3.710	0.361
120.501	125.017	80.004	19.994	104.304	20.185	3.911	0.331
121.001	125.225	80.003	19.993	104.303	20.188	3.713	0.373
121.500	125.323	80.002	19.994	104.303	20.186	3.859	0.355
122.000	125.564	80.004	19.993	104.304	20.185	3.939	0.322
122.500	125.688	80.004	19.994	104.306	20.182	4.113	0.353
123.000	125.845	80.004	19.994	104.306	20.186	3.869	0.324
123.500	126.033	80.003	19.993	104.308	20.185	3.923	0.313
124.000	126.212	80.003	19.994	104.309	20.186	3.882	0.356
124.500	126.379	80.003	19.993	104.308	20.186	3.842	0.356
125.000	126.599	80.004	19.994	104.305	20.183	4.045	0.366
125.500	126.789	80.004	19.994	104.302	20.184	4.009	0.399
126.000	126.930	80.004	19.994	104.298	20.187	3.774	0.371
126.500	127.087	80.003	19.994	104.297	20.188	3.731	0.315
127.000	127.319	80.003	19.993	104.296	20.183	4.047	0.343
127.500	127.478	80.003	19.994	104.297	20.186	3.849	0.390
128.000	127.693	80.004	19.993	104.302	20.182	4.104	0.382
128.500	127.861	80.004	19.993	104.310	20.183	4.084	0.379
129.000	127.980	80.004	19.993	104.314	20.185	3.939	0.335
129.500	128.246	80.004	19.994	104.316	20.185	3.910	0.336
130.000	128.399	80.003	19.993	104.318	20.185	3.944	0.401
130.500	128.519	80.004	19.994	104.314	20.184	4.018	0.346
131.000	128.756	80.003	19.993	104.312	20.183	4.036	0.315
131.500	128.971	80.003	19.994	104.314	20.185	3.957	0.405
132.000	129.110	80.004	19.993	104.315	20.185	3.955	0.403
132.500	129.291	80.004	19.993	104.312	20.186	3.881	0.337
133.000	129.507	80.005	19.994	104.310	20.186	3.892	0.358
133.500	129.638	80.004	19.994	104.306	20.180	4.269	0.372
134.001	129.861	80.005	19.994	104.302	20.182	4.101	0.351
134.500	130.028	80.005	19.993	104.302	20.186	3.842	0.372
135.000	130.189	80.005	19.993	104.307	20.183	4.074	0.359
135.500	130.447	80.005	19.993	104.311	20.182	4.111	0.374
136.000	130.616	80.004	19.993	104.311	20.183	4.077	0.423
136.500	130.790	80.005	19.995	104.314	20.182	4.109	0.385
137.000	131.002	80.005	19.994	104.314	20.178	4.414	0.365
137.500	131.223	80.004	19.993	104.310	20.179	4.357	0.409
138.000	131.363	80.005	19.995	104.306	20.181	4.184	0.397
138.500	131.644	80.004	19.994	104.304	20.180	4.285	0.391
139.000	131.795	80.005	19.996	104.299	20.179	4.353	0.426
139.500	131.959	80.006	19.995	104.296	20.180	4.236	0.374
140.000	132.168	80.006	19.995	104.295	20.178	4.387	0.344
140.500	132.379	80.005	19.994	104.295	20.179	4.301	0.397
141.000	132.553	80.005	19.994	104.295	20.178	4.377	0.402
141.500	132.798	80.005	19.994	104.295	20.179	4.354	0.402
142.000	132.971	80.004	19.993	104.294	20.177	4.480	0.418
142.500	133.170	80.004	19.993	104.294	20.180	4.256	0.395
143.000	133.393	80.005	19.993	104.295	20.177	4.473	0.397
143.500	133.591	80.004	19.993	104.295	20.179	4.317	0.422
144.000	133.795	80.005	19.993	104.295	20.176	4.546	0.411
144.500	133.993	80.003	19.992	104.299	20.175	4.604	0.402
145.000	134.212	80.004	19.992	104.307	20.176	4.509	0.410
145.500	134.379	80.004	19.992	104.314	20.178	4.392	0.402
146.000	134.660	80.003	19.993	104.322	20.177	4.463	0.417
146.500	134.838	80.004	19.992	104.330	20.176	4.498	0.453
147.000	135.018	80.004	19.993	104.333	20.177	4.488	0.409
147.500	135.200	80.004	19.993	104.334	20.178	4.380	0.360
148.000	135.431	80.003	19.992	104.334	20.173	4.712	0.388
148.500	135.639	80.004	19.993	104.334	20.174	4.662	0.426
149.000	135.846	80.003	19.993	104.335	20.172	4.772	0.427
149.500	136.021	80.002	19.992	104.335	20.175	4.585	0.398
150.000	136.307	80.003	19.994	104.336	20.174	4.632	0.422
150.500	136.480	80.003	19.993	104.336	20.174	4.637	0.460
151.000	136.677	80.003	19.992	104.335	20.172	4.804	0.415
151.500	136.915	80.003	19.994	104.337	20.174	4.662	0.403
152.000	137.118	80.002	19.992	104.344	20.172	4.763	0.438
152.500	137.319	80.003	19.993	104.352	20.176	4.556	0.422
153.000	137.521	80.002	19.994	104.359	20.175	4.571	0.403
153.500	137.737	80.002	19.992	104.365	20.175	4.587	0.410
154.000	137.967	80.003	19.994	104.368	20.176	4.515	0.432
154.500	138.166	80.002	19.993	104.368	20.176	4.499	0.437
155.000	138.372	80.003	19.994	104.361	20.175	4.587	0.417
155.500	138.643	80.003	19.992	104.361	20.176	4.559	0.441
156.000	138.816	80.003	19.993	104.364	20.178	4.428	0.461
156.500	139.039	80.003	19.992	104.362	20.175	4.605	0.420
157.001	139.256	80.003	19.993	104.356	20.177	4.454	0.418
157.500	139.501	80.003	19.993	104.357	20.178	4.404	0.451
158.000	139.715	80.004	19.992	104.350	20.176	4.558	0.461
158.500	139.923	80.003	19.993	104.343	20.175	4.610	0.441
159.000	140.137	80.003	19.993	104.343	20.175	4.594	0.422
159.500	140.369	80.002	19.993	104.347	20.176	4.517	0.434
160.000	140.535	80.003	19.993	104.347	20.175	4.613	0.422
160.500	140.788	80.003	19.992	104.348	20.176	4.542	0.408
161.000	141.033	80.003	19.993	104.347	20.178	4.366	0.458
161.500	141.219	80.003	19.992	104.344	20.178	4.384	0.464
162.000	141.464	80.003	19.992	104.341	20.178	4.425	0.431
162.500	141.651	80.003	19.992	104.341	20.174	4.633	0.431
163.000	141.873	80.004	19.993	104.340	20.175	4.577	0.420
163.500	142.156	80.002	19.993	104.340	20.176	4.550	0.457
164.000	142.308	80.003	19.993	104.341	20.177	4.464	0.470
164.500	142.586	80.003	19.993	104.343	20.178	4.394	0.432
165.000	142.802	80.004	19.993	104.349	20.176	4.543	0.462
165.500	142.990	80.003	19.993	104.353	20.178	4.392	0.449
166.000	143.210	80.003	19.993	104.357	20.182	4.117	0.406
166.500	143.449	80.003	19.993	104.362	20.178	4.395	0.433
167.000	143.711	80.003	19.994	104.362	20.179	4.354	0.480
167.500	143.911	80.002	19.994	104.357	20.179	4.321	0.482
168.000	144.170	80.002	19.993	104.352	20.176	4.492	0.461
168.500	144.406	80.003	19.993	104.348	20.179	4.305	0.477
169.000	144.649	80.003	19.993	104.342	20.176	4.550	0.487
169.500	144.840	80.003	19.992	104.338	20.179	4.334	0.457
170.000	145.109	80.003	19.993	104.338	20.176	4.528	0.447
170.500	145.322	80.004	19.993	104.337	20.176	4.500	0.470
171.000	145.523	80.004	19.993	104.337	20.176	4.527	0.448
171.501	145.780	80.004	19.993	104.337	20.180	4.259	0.436
172.000	146.016	80.002	19.993	104.337	20.176	4.516	0.475
172.500	146.255	80.003	19.993	104.337	20.179	4.336	0.484
173.000	146.464	80.003	19.992	104.338	20.176	4.542	0.462
173.500	146.692	80.002	19.993	104.338	20.178	4.373	0.442
174.000	146.926	80.003	19.993	104.335	20.178	4.404	0.449
174.500	147.188	80.002	19.992	104.330	20.175	4.616	0.479
175.000	147.409	80.004	19.993	104.328	20.176	4.530	0.490
175.500	147.605	80.002	19.993	104.325	20.175	4.592	0.450
176.000	147.859	80.002	19.993	104.318	20.173	4.707	0.433
176.500	148.103	80.003	19.992	104.314	20.176	4.513	0.474
177.000	148.376	80.001	19.993	104.312	20.174	4.669	0.508
177.500	148.553	80.003	19.993	104.310	20.177	4.491	0.483
178.000	148.778	80.003	19.992	104.305	20.179	4.348	0.426
178.500	149.032	80.002	19.993	104.305	20.176	4.531	0.441
179.000	149.312	80.003	19.993	104.308	20.174	4.680	0.507
179.500	149.522	80.002	19.992	104.310	20.174	4.671	0.512
180.000	149.798	80.002	19.992	104.312	20.175	4.562	0.488
180.501	150.010	80.002	19.993	104.312	20.172	4.806	0.487
181.000	150.254	80.003	19.993	104.313	20.174	4.687	0.472
181.500	150.484	80.003	19.993	104.318	20.172	4.768	0.465
182.000	150.676	80.001	19.993	104.323	20.172	4.804	0.449
182.500	150.953	80.003	19.993	104.321	20.175	4.565	0.445
183.000	151.152	80.002	19.993	104.321	20.172	4.759	0.472
183.500	151.421	80.003	19.993	104.317	20.173	4.732	0.472
184.000	151.660	80.002	19.992	104.310	20.170	4.926	0.488
184.500	151.852	80.002	19.993	104.304	20.172	4.777	0.470
185.000	152.105	80.004	19.992	104.307	20.173	4.708	0.438
185.500	152.389	80.004	19.992	104.315	20.173	4.732	0.491
186.000	152.618	80.004	19.993	104.325	20.174	4.660	0.525
186.500	152.837	80.005	19.993	104.334	20.177	4.488	0.481
187.000	153.082	80.004	19.992	104.341	20.175	4.577	0.456
187.500	153.332	80.004	19.992	104.341	20.175	4.589	0.479
188.000	153.548	80.003	19.993	104.338	20.176	4.519	0.481
188.500	153.766	80.004	19.993	104.334	20.174	4.634	0.450
189.000	154.012	80.003	19.992	104.331	20.177	4.461	0.449
189.500	154.273	80.004	19.993	104.330	20.177	4.439	0.485
190.000	154.482	80.005	19.993	104.330	20.177	4.480	0.489
190.500	154.726	80.005	19.993	104.337	20.173	4.749	0.462
191.000	154.958	80.005	19.993	104.343	20.174	4.675	0.464
191.500	155.239	80.005	19.992	104.343	20.175	4.611	0.494
192.000	155.484	80.004	19.994	104.342	20.173	4.735	0.520
192.500	155.679	80.005	19.993	104.343	20.174	4.672	0.483
193.000	155.989	80.004	19.994	104.346	20.173	4.721	0.473
193.500	156.192	80.005	19.994	104.345	20.177	4.459	0.509
194.000	156.415	80.005	19.992	104.344	20.175	4.570	0.470
194.500	156.664	80.004	19.994	104.344	20.175	4.563	0.449
195.000	156.904	80.005	19.993	104.342	20.174	4.658	0.480
195.500	157.153	80.005	19.992	104.335	20.178	4.423	0.489
196.000	157.360	80.005	19.994	104.332	20.181	4.226	0.472
196.500	157.633	80.005	19.994	104.334	20.177	4.491	0.468
197.000	157.900	80.005	19.993	104.340	20.175	4.561	0.510
197.500	158.137	80.004	19.992	104.349	20.180	4.244	0.522
198.000	158.421	80.005	19.995	104.357	20.177	4.482	0.512
198.500	158.623	80.005	19.994	104.364	20.176	4.549	0.503
199.000	158.887	80.005	19.993	104.362	20.177	4.470	0.476
199.500	159.094	80.004	19.994	104.354	20.177	4.461	0.469
200.000	159.373	80.006	19.994	104.340	20.178	4.400	0.479
200.500	159.613	80.003	19.994	104.324	20.177	4.466	0.502
201.000	159.854	80.005	19.994	104.312	20.176	4.554	0.500
201.500	160.115	80.005	19.993	104.309	20.176	4.511	0.491
202.000	160.379	80.005	19.995	104.309	20.178	4.411	0.514
202.500	160.615	80.005	19.994	104.315	20.176	4.506	0.513
203.000	160.878	80.005	19.994	104.322	20.177	4.468	0.499
203.500	161.105	80.004	19.995	104.327	20.177	4.428	0.495
204.000	161.353	80.005	19.994	104.327	20.176	4.502	0.483
204.500	161.602	80.005	19.994	104.328	20.176	4.522	0.486
205.000	161.839	80.005	19.994	104.328	20.178	4.373	0.491
205.500	162.105	80.004	19.994	104.331	20.176	4.502	0.495
206.000	162.321	80.004	19.994	104.333	20.177	4.457	0.492
206.500	162.607	80.005	19.994	104.336	20.179	4.329	0.492
207.001	162.841	80.004	19.993	104.338	20.177	4.446	0.511
207.500	163.086	80.004	19.994	104.339	20.179	4.342	0.500
208.000	163.347	80.004	19.993	104.335	20.181	4.216	0.492
208.500	163.553	80.005	19.993	104.334	20.180	4.293	0.486
209.000	163.857	80.006	19.993	104.334	20.179	4.356	0.488
209.500	164.119	80.004	19.994	104.333	20.179	4.342	0.538
210.000	164.371	80.006	19.993	104.333	20.176	4.518	0.540
210.500	164.610	80.004	19.994	104.334	20.180	4.270	0.502
211.000	164.827	80.005	19.994	104.335	20.177	4.489	0.474
211.500	165.102	80.005	19.993	104.335	20.180	4.250	0.474
212.000	165.410	80.004	19.993	104.336	20.178	4.411	0.537
212.500	165.607	80.005	19.993	104.336	20.178	4.385	0.544
213.000	165.873	80.004	19.993	104.336	20.178	4.401	0.484
213.500	166.098	80.005	19.993	104.336	20.179	4.344	0.477
214.000	166.357	80.006	19.993	104.336	20.178	4.419	0.488
214.500	166.644	80.006	19.994	104.333	20.179	4.311	0.515
215.000	166.880	80.006	19.993	104.331	20.177	4.475	0.534
215.500	167.148	80.006	19.994	104.329	20.172	4.780	0.513
216.000	167.381	80.005	19.993	104.328	20.175	4.581	0.503
216.500	167.647	80.006	19.993	104.327	20.176	4.500	0.500
217.000	167.874	80.006	19.994	104.328	20.177	4.464	0.496
217.500	168.135	80.006	19.994	104.325	20.175	4.575	0.491
218.000	168.378	80.007	19.993	104.320	20.177	4.462	0.496
218.500	168.637	80.007	19.993	104.318	20.178	4.406	0.503
219.000	168.839	80.006	19.992	104.317	20.177	4.448	0.482
219.500	169.149	80.007	19.993	104.318	20.178	4.392	0.486
220.000	169.376	80.006	19.994	104.322	20.178	4.392	0.524
220.500	169.608	80.007	19.994	104.326	20.180	4.236	0.498
221.000	169.909	80.006	19.994	104.323	20.177	4.464	0.496
221.500	170.124	80.005	19.993	104.319	20.176	4.551	0.525
222.000	170.428	80.004	19.994	104.312	20.176	4.496	0.517
222.500	170.677	80.007	19.993	104.312	20.174	4.625	0.536
223.000	170.890	80.005	19.993	104.315	20.178	4.413	0.508
223.500	171.182	80.005	19.994	104.321	20.174	4.661	0.484
224.000	171.375	80.007	19.995	104.325	20.174	4.684	0.495
224.500	171.661	80.005	19.994	104.328	20.178	4.413	0.482
225.000	171.923	80.005	19.994	104.330	20.177	4.476	0.513
225.501	172.166	80.005	19.994	104.327	20.178	4.411	0.527
226.000	172.437	80.005	19.994	104.324	20.176	4.510	0.510
226.500	172.654	80.003	19.994	104.325	20.179	4.326	0.501
227.000	172.881	80.003	19.995	104.323	20.181	4.172	0.466
227.500	173.196	80.004	19.997	104.318	20.176	4.509	0.494
228.000	173.450	80.004	19.995	104.317	20.178	4.423	0.556
228.500	173.701	80.003	19.996	104.318	20.176	4.504	0.537
229.000	173.940	80.004	19.995	104.317	20.177	4.452	0.497
229.500	174.186	80.003	19.995	104.322	20.173	4.714	0.488
230.000	174.430	80.002	19.994	104.326	20.176	4.501	0.488
230.500	174.699	80.002	19.994	104.323	20.177	4.474	0.502
231.000	174.960	80.002	19.994	104.317	20.175	4.593	0.521
231.500	175.186	80.003	19.995	104.319	20.175	4.582	0.508
232.000	175.413	80.003	19.994	104.316	20.172	4.760	0.470
232.500	175.715	80.003	19.995	104.310	20.177	4.473	0.492
233.000	175.906	80.003	19.993	104.310	20.179	4.333	0.511
233.500	176.153	80.003	19.994	104.311	20.176	4.506	0.465
234.000	176.463	80.003	19.994	104.310	20.180	4.246	0.497
234.500	176.690	80.004	19.993	104.312	20.181	4.208	0.547
235.000	176.963	80.003	19.994	104.318	20.177	4.459	0.519
235.500	177.213	80.002	19.994	104.319	20.179	4.323	0.512
236.000	177.427	80.003	19.994	104.317	20.180	4.244	0.493
236.500	177.710	80.002	19.993	104.312	20.179	4.330	0.480
237.000	177.952	80.003	19.992	104.306	20.180	4.247	0.511
237.500	178.223	80.004	19.992	104.300	20.179	4.308	0.519
238.000	178.473	80.003	19.992	104.298	20.177	4.450	0.517
238.500	178.754	80.002	19.993	104.298	20.178	4.399	0.527
239.000	178.980	80.003	19.994	104.300	20.178	4.370	0.519
239.500	179.212	80.003	19.993	104.301	20.176	4.524	0.482
240.000	179.474	80.004	19.993	104.302	20.176	4.524	0.476
240.500	179.740	80.001	19.994	104.305	20.177	4.435	0.511
241.000	180.015	80.003	19.993	104.307	20.177	4.470	0.535
241.500	180.231	80.004	19.993	104.310	20.177	4.431	0.516
242.000	180.477	80.004	19.993	104.312	20.176	4.515	0.476
242.500	180.698	80.003	19.993	104.314	20.177	4.456	0.464
243.000	180.978	80.001	19.993	104.318	20.178	4.391	0.484
243.500	181.242	80.004	19.993	104.320	20.177	4.479	0.522
244.000	181.484	80.003	19.993	104.316	20.177	4.474	0.525
244.500	181.752	80.002	19.993	104.312	20.177	4.447	0.508
245.000	182.018	80.003	19.993	104.311	20.179	4.334	0.522
245.500	182.224	80.004	19.994	104.305	20.177	4.485	0.503
246.000	182.457	80.003	19.993	104.303	20.178	4.366	0.456
246.500	182.758	80.003	19.993	104.302	20.176	4.521	0.486
247.000	182.994	80.003	19.993	104.300	20.176	4.512	0.536
247.500	183.247	80.004	19.993	104.299	20.177	4.463	0.513
248.000	183.508	80.003	19.992	104.298	20.177	4.445	0.501
248.500	183.757	80.003	19.994	104.298	20.177	4.486	0.512
249.000	184.003	80.004	19.993	104.302	20.176	4.519	0.503
249.500	184.237	80.003	19.993	104.310	20.178	4.375	0.487
250.000	184.500	80.005	19.993	104.310	20.174	4.623	0.488
250.500	184.764	80.004	19.994	104.310	20.174	4.650	0.512
251.000	184.994	80.005	19.993	104.314	20.176	4.502	0.511
251.500	185.279	80.003	19.993	104.310	20.173	4.696	0.505
252.000	185.550	80.003	19.993	104.307	20.177	4.436	0.536
252.500	185.777	80.003	19.993	104.309	20.178	4.414	0.527
253.000	186.083	80.004	19.994	104.310	20.175	4.586	0.515
253.500	186.300	80.005	19.994	104.307	20.174	4.647	0.528
254.000	186.559	80.005	19.993	104.309	20.173	4.691	0.500
254.500	186.791	80.003	19.993	104.307	20.175	4.567	0.483
255.000	187.067	80.005	19.993	104.304	20.177	4.459	0.500
255.500	187.327	80.003	19.993	104.306	20.175	4.581	0.522
256.000	187.577	80.003	19.993	104.310	20.174	4.669	0.523
256.500	187.826	80.004	19.993	104.310	20.172	4.793	0.504
257.000	188.061	80.003	19.994	104.310	20.174	4.657	0.491
257.500	188.307	80.003	19.992	104.311	20.174	4.676	0.482
258.000	188.564	80.003	19.995	104.308	20.174	4.640	0.492
258.500	188.803	80.004	19.995	104.304	20.177	4.430	0.500
259.000	189.049	80.003	19.994	104.301	20.174	4.673	0.491
259.500	189.284	80.004	19.994	104.300	20.174	4.664	0.483
260.000	189.573	80.003	19.995	104.301	20.175	4.606	0.502
260.500	189.817	80.003	19.994	104.305	20.176	4.550	0.529
261.000	190.052	80.002	19.994	104.302	20.172	4.798	0.506
261.500	190.306	80.003	19.992	104.302	20.177	4.489	0.484
262.000	190.574	80.002	19.993	104.300	20.176	4.502	0.505
262.500	190.829	80.003	19.994	104.295	20.174	4.629	0.522
263.000	191.044	80.003	19.993	104.290	20.174	4.624	0.497
263.500	191.306	80.002	19.993	104.289	20.174	4.633	0.473
264.000	191.526	80.003	19.994	104.289	20.177	4.430	0.480
264.500	191.798	80.003	19.993	104.294	20.176	4.531	0.487
265.000	192.054	80.005	19.993	104.297	20.178	4.421	0.510
265.500	192.259	80.004	19.994	104.298	20.174	4.629	0.494
266.000	192.592	80.003	19.993	104.299	20.176	4.541	0.500
266.500	192.806	80.003	19.993	104.303	20.174	4.631	0.543
267.000	193.047	80.004	19.992	104.303	20.175	4.620	0.501
267.500	193.286	80.005	19.993	104.304	20.177	4.436	0.468
268.000	193.579	80.004	19.993	104.303	20.176	4.495	0.506
268.500	193.828	80.004	19.994	104.302	20.175	4.592	0.537
269.000	194.066	80.004	19.992	104.297	20.177	4.459	0.515
269.500	194.313	80.003	19.994	104.296	20.175	4.594	0.486
270.000	194.560	80.005	19.993	104.294	20.176	4.522	0.489
270.500	194.801	80.004	19.992	104.294	20.173	4.732	0.491
271.000	195.065	80.004	19.993	104.294	20.174	4.631	0.497
271.500	195.286	80.005	19.993	104.293	20.172	4.757	0.495
272.000	195.561	80.005	19.994	104.289	20.175	4.592	0.490
272.500	195.815	80.006	19.992	104.286	20.175	4.570	0.513
273.000	196.049	80.005	19.993	104.285	20.173	4.700	0.508
273.500	196.328	80.005	19.993	104.285	20.174	4.673	0.500
274.000	196.569	80.005	19.993	104.287	20.175	4.567	0.517
274.500	196.806	80.005	19.993	104.292	20.176	4.518	0.499
275.000	197.022	80.005	19.992	104.295	20.173	4.691	0.466
275.500	197.312	80.005	19.992	104.294	20.175	4.597	0.479
276.000	197.556	80.006	19.993	104.288	20.176	4.556	0.519
276.500	197.821	80.005	19.992	104.284	20.175	4.606	0.521
277.000	198.060	80.005	19.992	104.284	20.173	4.730	0.506
277.500	198.281	80.005	19.993	104.282	20.172	4.777	0.482
278.000	198.536	80.006	19.992	104.283	20.174	4.685	0.468
278.500	198.814	80.005	19.994	104.289	20.170	4.926	0.504
279.000	199.055	80.005	19.992	104.295	20.173	4.710	0.526
279.500	199.312	80.006	19.992	104.295	20.175	4.606	0.508
280.001	199.543	80.006	19.993	104.297	20.173	4.730	0.493
280.500	199.774	80.006	19.992	104.298	20.175	4.601	0.476
281.000	199.999	80.004	19.993	104.298	20.174	4.655	0.459
281.500	200.321	80.005	19.993	104.297	20.173	4.734	0.501
282.000	200.521	80.005	19.993	104.297	20.169	4.954	0.535
282.500	200.778	80.005	19.993	104.297	20.172	4.818	0.490
283.000	201.034	80.005	19.993	104.296	20.172	4.793	0.485
283.500	201.277	80.005	19.993	104.296	20.172	4.782	0.505
284.000	201.520	80.004	19.993	104.296	20.172	4.804	0.493
284.500	201.785	80.005	19.992	104.296	20.170	4.919	0.497
285.000	201.988	80.005	19.993	104.296	20.173	4.693	0.488
285.500	202.267	80.005	19.993	104.295	20.174	4.675	0.475
286.001	202.510	80.004	19.992	104.296	20.173	4.730	0.502
286.501	202.794	80.005	19.993	104.296	20.175	4.615	0.524
287.001	202.986	80.004	19.992	104.297	20.175	4.621	0.501
287.501	203.244	80.004	19.994	104.296	20.175	4.592	0.463
288.000	203.535	80.005	19.994	104.297	20.174	4.658	0.500
288.500	203.738	80.004	19.993	104.297	20.172	4.786	0.521
289.000	203.977	80.005	19.993	104.297	20.170	4.899	0.468
289.500	204.264	80.004	19.993	104.296	20.174	4.685	0.484
290.000	204.468	80.004	19.993	104.297	20.170	4.926	0.509
290.500	204.740	80.004	19.993	104.295	20.174	4.676	0.484
291.000	204.971	80.004	19.993	104.293	20.172	4.780	0.489
291.500	205.201	80.005	19.994	104.293	20.171	4.874	0.482
292.000	205.468	80.007	19.993	104.293	20.171	4.831	0.479
292.500	205.718	80.004	19.993	104.294	20.172	4.775	0.507
293.000	205.947	80.005	19.994	104.296	20.171	4.823	0.499
293.501	206.221	80.004	19.993	104.298	20.171	4.829	0.491
294.000	206.458	80.005	19.993	104.298	20.172	4.814	0.507
294.500	206.743	80.004	19.994	104.299	20.173	4.732	0.516
295.000	206.959	80.005	19.994	104.298	20.172	4.814	0.511
295.500	207.224	80.005	19.993	104.299	20.171	4.841	0.491
296.000	207.471	80.005	19.994	104.299	20.172	4.818	0.496
296.500	207.727	80.005	19.993	104.299	20.173	4.744	0.507
297.000	207.957	80.007	19.994	104.299	20.172	4.818	0.495
297.500	208.225	80.006	19.993	104.300	20.172	4.773	0.492
298.000	208.490	80.005	19.993	104.299	20.169	4.995	0.515
298.500	208.707	80.006	19.993	104.298	20.170	4.914	0.507
299.000	208.972	80.006	19.993	104.297	20.173	4.738	0.482
299.500	209.241	80.006	19.993	104.297	20.171	4.864	0.508
300.000	209.460	80.006	19.993	104.296	20.174	4.674	0.511
300.500	209.723	80.005	19.993	104.297	20.170	4.927	0.485
301.000	209.969	80.006	19.993	104.298	20.169	5.003	0.495
301.500	210.230	80.006	19.993	104.298	20.170	4.946	0.508
302.000	210.486	80.007	19.993	104.297	20.170	4.885	0.512
302.500	210.711	80.006	19.993	104.295	20.172	4.816	0.499
303.000	210.969	80.006	19.993	104.296	20.174	4.681	0.482
303.500	211.201	80.006	19.993	104.296	20.173	4.747	0.487
304.000	211.446	80.007	19.993	104.296	20.171	4.831	0.484
304.500	211.712	80.005	19.993	104.298	20.173	4.700	0.494
305.000	211.954	80.006	19.992	104.296	20.171	4.867	0.510
305.500	212.180	80.006	19.993	104.294	20.170	4.926	0.488
306.000	212.433	80.007	19.993	104.293	20.169	4.971	0.473
306.500	212.672	80.007	19.993	104.292	20.171	4.833	0.485
307.000	212.936	80.005	19.992	104.292	20.174	4.639	0.497
307.500	213.173	80.005	19.993	104.295	20.172	4.786	0.502
308.000	213.443	80.005	19.993	104.293	20.171	4.819	0.504
308.500	213.703	80.005	19.993	104.290	20.172	4.774	0.518
309.000	213.911	80.004	19.993	104.286	20.172	4.810	0.499
309.500	214.197	80.005	19.993	104.281	20.169	4.995	0.481
310.000	214.482	80.004	19.993	104.281	20.169	4.966	0.532
310.500	214.717	80.005	19.994	104.285	20.172	4.779	0.545
311.000	214.942	80.003	19.994	104.289	20.171	4.865	0.490
311.500	215.199	80.004	19.994	104.293	20.168	5.016	0.471
312.000	215.429	80.004	19.993	104.298	20.168	5.038	0.484
312.500	215.691	80.004	19.994	104.299	20.169	4.991	0.489
313.000	215.941	80.004	19.995	104.299	20.169	5.006	0.502
313.500	216.178	80.003	19.993	104.296	20.169	4.979	0.500
314.000	216.439	80.003	19.994	104.290	20.170	4.895	0.493
314.500	216.674	80.003	19.994	104.281	20.170	4.933	0.497
315.000	216.883	80.004	19.993	104.274	20.170	4.940	0.470
315.500	217.133	80.003	19.994	104.271	20.171	4.845	0.451
316.000	217.453	80.003	19.994	104.265	20.168	5.035	0.514
316.500	217.657	80.004	19.994	104.264	20.171	4.834	0.547
317.000	217.890	80.002	19.994	104.265	20.168	5.047	0.480
317.500	218.180	80.004	19.993	104.266	20.169	4.952	0.480
318.000	218.430	80.003	19.995	104.268	20.170	4.901	0.532
318.500	218.669	80.003	19.996	104.273	20.172	4.806	0.515
319.000	218.892	80.003	19.995	104.277	20.170	4.948	0.476
319.500	219.204	80.004	19.995	104.279	20.167	5.097	0.498
320.000	219.391	80.003	19.994	104.282	20.167	5.081	0.517
320.500	219.669	80.003	19.995	104.276	20.170	4.899	0.482
321.000	219.940	80.004	19.995	104.272	20.168	5.070	0.507
321.500	220.179	80.003	19.995	104.269	20.172	4.797	0.529
322.000	220.428	80.003	19.994	104.268	20.169	4.968	0.499
322.500	220.680	80.002	19.994	104.269	20.172	4.810	0.495
323.000	220.894	80.004	19.995	104.274	20.169	4.997	0.483
323.500	221.160	80.004	19.994	104.276	20.169	4.959	0.473
324.000	221.405	80.004	19.995	104.283	20.171	4.848	0.496
324.500	221.671	80.003	19.994	104.288	20.169	4.955	0.511
325.000	221.882	80.003	19.994	104.289	20.168	5.070	0.494
325.500	222.152	80.004	19.995	104.290	20.170	4.945	0.479
326.000	222.393	80.003	19.995	104.293	20.167	5.087	0.496
326.500	222.633	80.003	19.994	104.293	20.169	5.012	0.496
327.000	222.908	80.004	19.994	104.291	20.166	5.159	0.498
327.500	223.171	80.004	19.994	104.286	20.167	5.139	0.527
328.000	223.378	80.005	19.993	104.281	20.167	5.108	0.504
328.500	223.665	80.005	19.994	104.275	20.167	5.106	0.482
329.000	223.883	80.005	19.994	104.272	20.163	5.386	0.500
329.500	224.149	80.006	19.995	104.271	20.166	5.188	0.494
330.000	224.412	80.003	19.993	104.269	20.168	5.073	0.506
330.500	224.625	80.004	19.993	104.271	20.166	5.168	0.502
331.000	224.880	80.004	19.993	104.273	20.161	5.477	0.472
331.500	225.151	80.005	19.994	104.270	20.168	5.056	0.497
332.000	225.389	80.003	19.993	104.269	20.169	4.984	0.518
332.500	225.645	80.005	19.993	104.272	20.167	5.088	0.501
333.000	225.921	80.004	19.992	104.277	20.167	5.087	0.513
333.500	226.166	80.004	19.993	104.282	20.166	5.210	0.527
334.001	226.350	80.006	19.993	104.285	20.167	5.118	0.475
334.500	226.648	80.005	19.993	104.284	20.171	4.870	0.455
335.000	226.885	80.004	19.993	104.281	20.170	4.917	0.509
335.501	227.130	80.005	19.994	104.276	20.167	5.123	0.509
336.001	227.385	80.004	19.993	104.276	20.164	5.285	0.491
336.500	227.667	80.004	19.994	104.279	20.169	4.987	0.518
337.000	227.891	80.005	19.993	104.286	20.166	5.149	0.521
337.500	228.153	80.003	19.995	104.291	20.168	5.063	0.496
338.000	228.426	80.004	19.993	104.296	20.167	5.099	0.511
338.500	228.635	80.003	19.993	104.296	20.169	4.962	0.509
339.000	228.911	80.004	19.993	104.290	20.170	4.941	0.483
339.500	229.160	80.004	19.993	104.282	20.169	4.995	0.505
340.000	229.401	80.004	19.994	104.275	20.168	5.033	0.508
340.500	229.619	80.004	19.993	104.271	20.167	5.101	0.475
341.000	229.903	80.004	19.993	104.264	20.169	5.001	0.480
341.500	230.173	80.004	19.993	104.265	20.169	4.986	0.528
342.000	230.411	80.004	19.994	104.267	20.166	5.153	0.531
342.500	230.659	80.002	19.992	104.273	20.166	5.198	0.497
343.000	230.924	80.003	19.993	104.277	20.165	5.264	0.500
343.500	231.163	80.002	19.992	104.285	20.167	5.101	0.509
344.000	231.396	80.004	19.994	104.283	20.170	4.914	0.488
344.500	231.642	80.003	19.993	104.280	20.168	5.018	0.476
345.000	231.896	80.002	19.994	104.274	20.168	5.025	0.490
345.500	232.156	80.003	19.993	104.266	20.168	5.032	0.507
346.000	232.403	80.004	19.993	104.259	20.167	5.111	0.510
346.500	232.663	80.003	19.993	104.259	20.167	5.113	0.507
347.000	232.914	80.003	19.993	104.262	20.166	5.148	0.509
347.500	233.172	80.004	19.993	104.269	20.172	4.810	0.510
348.000	233.410	80.003	19.993	104.274	20.170	4.898	0.502
348.500	233.640	80.004	19.993	104.278	20.170	4.901	0.482
349.000	233.899	80.003	19.993	104.280	20.169	4.987	0.478
349.500	234.168	80.004	19.993	104.278	20.171	4.829	0.509
350.000	234.378	80.005	19.994	104.279	20.171	4.878	0.504
350.500	234.628	80.004	19.993	104.281	20.166	5.147	0.469
351.000	234.914	80.005	19.993	104.285	20.168	5.039	0.497
351.500	235.121	80.002	19.993	104.286	20.169	4.950	0.514
352.000	235.421	80.004	19.992	104.286	20.171	4.835	0.500
352.500	235.673	80.005	19.993	104.284	20.167	5.110	0.530
353.000	235.925	80.005	19.993	104.285	20.171	4.866	0.528
353.500	236.152	80.006	19.992	104.282	20.169	5.006	0.491
354.000	236.404	80.005	19.993	104.284	20.167	5.140	0.479
354.500	236.677	80.004	19.993	104.284	20.166	5.176	0.502
355.000	236.906	80.003	19.994	104.281	20.167	5.122	0.513
355.500	237.144	80.005	19.992	104.279	20.169	4.977	0.484
356.000	237.388	80.005	19.993	104.278	20.166	5.174	0.475
356.500	237.670	80.005	19.994	104.272	20.165	5.233	0.504
357.000	237.902	80.004	19.993	104.271	20.165	5.237	0.520
357.500	238.208	80.005	19.992	104.269	20.166	5.164	0.526
358.000	238.397	80.004	19.993	104.265	20.168	5.071	0.516
358.500	238.646	80.007	19.992	104.268	20.167	5.100	0.467
359.000	238.898	80.004	19.992	104.273	20.167	5.109	0.469
359.500	239.159	80.006	19.992	104.274	20.166	5.157	0.507
360.000	239.377	80.006	19.993	104.274	20.165	5.238	0.496
360.500	239.654	80.004	19.992	104.273	20.166	5.204	0.488
361.000	239.884	80.005	19.992	104.271	20.165	5.240	0.501
361.500	240.140	80.004	19.993	104.269	20.166	5.166	0.496
362.000	240.379	80.005	19.993	104.271	20.167	5.136	0.490
362.500	240.640	80.005	19.993	104.274	20.164	5.333	0.497
363.000	240.888	80.004	19.993	104.279	20.163	5.399	0.504
363.500	241.150	80.005	19.992	104.281	20.165	5.244	0.510
364.000	241.359	80.005	19.992	104.283	20.165	5.244	0.490
364.500	241.660	80.004	19.991	104.284	20.165	5.216	0.490
365.000	241.848	80.004	19.992	104.283	20.164	5.302	0.500
365.500	242.117	80.004	19.992	104.281	20.164	5.331	0.473
366.000	242.358	80.004	19.993	104.276	20.164	5.317	0.484
366.500	242.645	80.006	19.992	104.273	20.164	5.304	0.519
367.000	242.871	80.003	19.992	104.276	20.162	5.419	0.521
367.500	243.129	80.005	19.992	104.279	20.165	5.255	0.498
368.000	243.391	80.005	19.993	104.280	20.162	5.432	0.502
368.500	243.608	80.005	19.993	104.287	20.162	5.409	0.500
369.000	243.860	80.004	19.992	104.292	20.161	5.531	0.474
369.500	244.128	80.003	19.992	104.294	20.166	5.168	0.495
370.000	244.387	80.004	19.992	104.297	20.164	5.330	0.524
370.500	244.628	80.004	19.992	104.300	20.164	5.294	0.514
371.000	244.851	80.005	19.992	104.301	20.165	5.231	0.482
371.500	245.073	80.004	19.993	104.300	20.164	5.298	0.454
372.000	245.371	80.005	19.992	104.299	20.161	5.477	0.483
372.500	245.593	80.006	19.993	104.298	20.164	5.339	0.520
373.000	245.877	80.007	19.993	104.296	20.161	5.527	0.513
373.500	246.114	80.006	19.993	104.289	20.163	5.385	0.513
374.000	246.391	80.006	19.993	104.284	20.161	5.502	0.518
374.500	246.640	80.004	19.993	104.284	20.159	5.606	0.520
375.000	246.859	80.006	19.993	104.283	20.158	5.672	0.497
375.500	247.123	80.006	19.993	104.285	20.162	5.457	0.475
376.000	247.337	80.005	19.994	104.291	20.158	5.669	0.481
376.500	247.615	80.005	19.994	104.296	20.158	5.714	0.486
377.000	247.891	80.005	19.992	104.294	20.159	5.641	0.523
377.500	248.094	80.005	19.992	104.292	20.158	5.719	0.516
378.000	248.341	80.004	19.995	104.285	20.161	5.516	0.465
378.500	248.642	80.006	19.994	104.279	20.162	5.454	0.499
379.000	248.869	80.006	19.993	104.273	20.160	5.572	0.538
379.500	249.102	80.005	19.993	104.269	20.160	5.574	0.494
380.000	249.407	80.005	19.995	104.265	20.161	5.501	0.499
380.500	249.641	80.006	19.993	104.267	20.159	5.653	0.539
381.000	249.887	80.006	19.993	104.270	20.159	5.614	0.510
381.500	250.165	80.006	19.993	104.273	20.158	5.709	0.502
382.000	250.368	80.006	19.994	104.276	20.161	5.497	0.502
382.500	250.638	80.007	19.992	104.275	20.161	5.479	0.477
383.000	250.891	80.005	19.994	104.276	20.160	5.599	0.498
383.500	251.165	80.007	19.994	104.271	20.164	5.332	0.525
384.000	251.383	80.006	19.993	104.265	20.158	5.689	0.509
384.500	251.619	80.007	19.993	104.264	20.158	5.697	0.473
385.000	251.944	80.005	19.994	104.264	20.162	5.448	0.507
385.500	252.165	80.006	19.994	104.261	20.161	5.525	0.554
386.000	252.391	80.006	19.994	104.267	20.158	5.675	0.497
386.500	252.629	80.006	19.994	104.273	20.160	5.600	0.455
387.000	252.875	80.005	19.994	104.276	20.160	5.564	0.474
387.500	253.126	80.005	19.993	104.277	20.158	5.690	0.491
388.000	253.393	80.005	19.993	104.278	20.159	5.626	0.508
388.500	253.625	80.006	19.994	104.271	20.157	5.748	0.509
389.000	253.849	80.006	19.994	104.269	20.159	5.636	0.477
389.500	254.080	80.006	19.993	104.270	20.158	5.708	0.455
390.000	254.352	80.006	19.994	104.274	20.158	5.717	0.479
390.500	254.613	80.005	19.993	104.275	20.160	5.595	0.518
391.000	254.897	80.003	19.994	104.275	20.158	5.678	0.539
391.500	255.164	80.004	19.994	104.277	20.156	5.832	0.547
392.000	255.407	80.005	19.993	104.279	20.157	5.788	0.530
392.500	255.603	80.003	19.994	104.277	20.156	5.806	0.475
393.000	255.933	80.004	19.994	104.277	20.157	5.749	0.483
393.500	256.164	80.003	19.995	104.283	20.157	5.792	0.544
394.000	256.385	80.003	19.995	104.279	20.157	5.769	0.506
394.500	256.671	80.004	19.993	104.272	20.159	5.644	0.479
395.000	256.846	80.004	19.992	104.270	20.158	5.696	0.484
395.500	257.145	80.005	19.993	104.264	20.155	5.882	0.468
396.000	257.396	80.004	19.994	104.259	20.157	5.764	0.512
396.500	257.644	80.004	19.994	104.257	20.157	5.757	0.525
397.000	257.905	80.004	19.993	104.256	20.155	5.909	0.504
397.500	258.162	80.003	19.994	104.257	20.158	5.671	0.513
398.000	258.396	80.004	19.994	104.260	20.155	5.873	0.504
398.500	258.668	80.004	19.993	104.262	20.157	5.776	0.498
399.000	258.933	80.005	19.994	104.265	20.152	6.079	0.522
399.500	259.180	80.003	19.993	104.267	20.156	5.826	0.524
400.000	259.444	80.003	19.995	104.265	20.156	5.851	0.512
400.500	259.671	80.005	19.995	104.267	20.154	5.952	0.501
401.000	259.932	80.004	19.995	104.271	20.153	6.020	0.489
401.500	260.171	80.003	19.995	104.268	20.153	6.040	0.494
402.000	260.414	80.004	19.995	104.263	20.154	5.942	0.492
402.500	260.617	80.005	19.993	104.261	20.153	6.060	0.464
403.000	260.845	80.004	19.993	104.257	20.150	6.256	0.438
403.500	261.078	80.003	19.993	104.251	20.150	6.213	0.446
404.000	261.377	80.003	19.994	104.252	20.153	6.059	0.496
404.500	261.634	80.003	19.994	104.260	20.150	6.222	0.544
405.000	261.872	80.004	19.994	104.265	20.152	6.100	0.525
405.500	262.128	80.003	19.994	104.266	20.148	6.324	0.495
406.000	262.385	80.004	19.994	104.265	20.151	6.190	0.504
406.500	262.616	80.003	19.994	104.264	20.150	6.229	0.500
407.000	262.883	80.004	19.994	104.263	20.152	6.092	0.493
407.500	263.126	80.003	19.993	104.265	20.152	6.101	0.504
408.000	263.360	80.004	19.993	104.268	20.151	6.184	0.494
408.500	263.658	80.004	19.993	104.269	20.151	6.155	0.504
409.000	263.916	80.005	19.993	104.269	20.149	6.298	0.544
409.500	264.111	80.005	19.993	104.265	20.148	6.352	0.505
410.000	264.397	80.004	19.994	104.260	20.150	6.238	0.467
410.500	264.611	80.003	19.994	104.258	20.148	6.369	0.490
411.000	264.898	80.004	19.995	104.259	20.146	6.473	0.500
411.500	265.158	80.003	19.994	104.259	20.149	6.285	0.524
412.000	265.385	80.003	19.994	104.261	20.145	6.530	0.517
412.500	265.625	80.004	19.995	104.268	20.151	6.186	0.478
413.000	265.906	80.002	19.994	104.271	20.154	5.974	0.494
413.500	266.099	80.004	19.994	104.275	20.147	6.397	0.497
414.000	266.355	80.003	19.994	104.279	20.149	6.262	0.462
414.500	266.647	80.004	19.993	104.284	20.148	6.329	0.499
415.000	266.887	80.004	19.993	104.283	20.149	6.298	0.540
415.500	267.158	80.003	19.994	104.284	20.148	6.379	0.522
416.000	267.393	80.003	19.994	104.280	20.148	6.359	0.509
416.500	267.642	80.004	19.994	104.280	20.148	6.354	0.495
417.000	267.927	80.002	19.994	104.277	20.145	6.560	0.508
417.500	268.148	80.005	19.995	104.273	20.146	6.488	0.520
418.000	268.393	80.004	19.993	104.273	20.146	6.476	0.486
418.500	268.644	80.004	19.994	104.273	20.147	6.402	0.481
419.000	268.855	80.003	19.994	104.269	20.148	6.332	0.479
419.500	269.165	80.002	19.995	104.266	20.145	6.537	0.491
420.000	269.378	80.004	19.994	104.266	20.145	6.568	0.522
420.500	269.628	80.003	19.994	104.268	20.147	6.401	0.493
421.000	269.902	80.004	19.994	104.272	20.144	6.613	0.494
421.500	270.151	80.004	19.993	104.277	20.143	6.676	0.524
422.000	270.408	80.004	19.993	104.280	20.145	6.543	0.514
422.500	270.651	80.004	19.993	104.280	20.145	6.562	0.503
423.000	270.897	80.004	19.993	104.275	20.144	6.613	0.494
423.500	271.204	80.003	19.993	104.273	20.143	6.715	0.521
424.000	271.457	80.004	19.992	104.268	20.145	6.578	0.557
424.500	271.722	80.003	19.993	104.266	20.140	6.870	0.539
425.000	271.944	80.003	19.993	104.264	20.139	6.957	0.502
425.500	272.186	80.003	19.993	104.264	20.141	6.844	0.476
426.000	272.464	80.003	19.993	104.262	20.140	6.850	0.492
426.500	272.692	80.004	19.993	104.262	20.143	6.696	0.513
427.000	272.973	80.002	19.994	104.261	20.140	6.883	0.507
427.500	273.224	80.004	19.993	104.262	20.138	7.016	0.521
428.000	273.431	80.003	19.993	104.262	20.137	7.073	0.495
428.500	273.682	80.003	19.993	104.263	20.138	7.040	0.458
429.000	273.938	80.004	19.993	104.263	20.139	6.972	0.483
429.500	274.178	80.004	19.993	104.265	20.138	6.981	0.502
430.000	274.449	80.004	19.994	104.265	20.138	7.015	0.504
430.500	274.698	80.004	19.993	104.268	20.140	6.897	0.515
431.000	274.973	80.004	19.993	104.274	20.138	7.005	0.522
431.500	275.207	80.004	19.993	104.278	20.137	7.097	0.517
432.000	275.454	80.004	19.993	104.278	20.140	6.872	0.495
432.500	275.698	80.004	19.993	104.280	20.136	7.138	0.486
433.000	275.967	80.004	19.993	104.278	20.137	7.082	0.502
433.500	276.200	80.005	19.992	104.273	20.139	6.921	0.507
434.000	276.477	80.004	19.992	104.269	20.136	7.143	0.506
434.500	276.743	80.004	19.992	104.268	20.135	7.181	0.527
435.000	276.955	80.004	19.992	104.265	20.136	7.139	0.511
435.500	277.199	80.003	19.992	104.264	20.133	7.352	0.467
436.000	277.447	80.004	19.991	104.266	20.136	7.135	0.474
436.500	277.719	80.005	19.993	104.270	20.132	7.415	0.505
437.000	277.941	80.004	19.993	104.277	20.133	7.309	0.507
437.500	278.222	80.005	19.991	104.281	20.130	7.527	0.499
438.000	278.481	80.003	19.995	104.285	20.128	7.681	0.522
438.500	278.708	80.004	19.994	104.289	20.129	7.623	0.513
439.001	278.980	80.004	19.993	104.285	20.126	7.811	0.493
439.500	279.216	80.005	19.993	104.278	20.125	7.884	0.503
440.000	279.491	80.005	19.994	104.274	20.128	7.635	0.510
440.500	279.698	80.005	19.994	104.274	20.124	7.924	0.497
441.000	279.973	80.005	19.993	104.274	20.122	8.042	0.482
441.500	280.203	80.004	19.993	104.279	20.122	8.047	0.494
442.000	280.454	80.006	19.992	104.285	20.124	7.913	0.494
442.500	280.680	80.006	19.993	104.291	20.123	8.001	0.479
443.000	280.970	80.005	19.992	104.293	20.124	7.960	0.496
443.500	281.219	80.004	19.993	104.293	20.121	8.104	0.527
444.000	281.469	80.005	19.993	104.291	20.119	8.245	0.519
444.500	281.720	80.005	19.994	104.290	20.117	8.375	0.500
445.000	282.002	80.005	19.993	104.291	20.121	8.120	0.517
445.500	282.222	80.005	19.992	104.289	20.117	8.387	0.518
446.000	282.499	80.006	19.993	104.283	20.118	8.299	0.500
446.500	282.762	80.006	19.991	104.277	20.117	8.410	0.519
447.000	283.019	80.004	19.993	104.272	20.119	8.278	0.529
447.500	283.274	80.005	19.993	104.272	20.114	8.597	0.515
448.000	283.508	80.005	19.993	104.274	20.119	8.258	0.501
448.500	283.793	80.004	19.992	104.282	20.114	8.604	0.505
449.000	284.020	80.004	19.994	104.290	20.116	8.470	0.516
449.500	284.268	80.004	19.993	104.295	20.110	8.863	0.493
450.000	284.561	80.004	19.994	104.295	20.113	8.662	0.508
450.500	284.763	80.004	19.993	104.293	20.113	8.651	0.518
451.000	285.007	80.004	19.993	104.292	20.108	8.965	0.470
451.500	285.264	80.004	19.994	104.288	20.111	8.776	0.473
452.000	285.518	80.004	19.993	104.287	20.109	8.886	0.506
452.500	285.758	80.003	19.993	104.286	20.108	8.954	0.503
453.000	285.994	80.006	19.993	104.288	20.108	8.950	0.485
453.500	286.230	80.005	19.995	104.288	20.105	9.154	0.474
454.000	286.481	80.004	19.994	104.292	20.105	9.161	0.479
454.500	286.728	80.004	19.993	104.296	20.104	9.253	0.492
455.000	286.976	80.004	19.993	104.296	20.103	9.276	0.497
455.500	287.225	80.005	19.994	104.297	20.105	9.157	0.497
456.000	287.500	80.005	19.994	104.296	20.101	9.450	0.511
456.500	287.740	80.005	19.994	104.295	20.101	9.404	0.519
457.000	288.036	80.005	19.992	104.295	20.097	9.673	0.526
457.500	288.220	80.005	19.994	104.295	20.099	9.559	0.508
458.000	288.512	80.005	19.993	104.295	20.098	9.602	0.478
458.500	288.785	80.006	19.994	104.295	20.098	9.616	0.521
459.000	289.001	80.005	19.992	104.297	20.097	9.715	0.527
459.500	289.268	80.006	19.993	104.297	20.097	9.697	0.486
460.000	289.473	80.005	19.992	104.296	20.096	9.759	0.478
460.500	289.755	80.006	19.993	104.297	20.093	9.951	0.479
461.000	290.000	80.007	19.993	104.296	20.093	9.977	0.507
461.500	290.234	80.005	19.993	104.296	20.093	9.928	0.504
462.001	290.529	80.006	19.992	104.296	20.095	9.858	0.504
462.501	290.733	80.007	19.992	104.296	20.088	10.278	0.514
463.001	290.994	80.005	19.992	104.294	20.096	9.751	0.482
463.500	291.269	80.007	19.993	104.293	20.093	9.964	0.500
464.000	291.496	80.007	19.992	104.291	20.101	9.403	0.519
464.500	291.797	80.007	19.993	104.285	20.092	10.052	0.515
465.000	292.037	80.007	19.992	104.282	20.090	10.174	0.534
465.500	292.274	80.007	19.993	104.283	20.088	10.289	0.509
466.000	292.578	80.007	19.992	104.281	20.077	11.018	0.509
466.500	292.764	80.007	19.992	104.282	20.080	10.820	0.516
467.000	293.042	80.007	19.992	104.287	20.079	10.847	0.477
467.500	293.292	80.007	19.993	104.290	20.079	10.865	0.496
468.000	293.563	80.006	19.993	104.290	20.074	11.191	0.525
468.500	293.801	80.006	19.993	104.293	20.074	11.189	0.515
469.000	294.087	80.006	19.993	104.295	20.074	11.209	0.517
469.501	294.277	80.006	19.992	104.296	20.075	11.108	0.500
470.001	294.551	80.005	19.994	104.296	20.070	11.453	0.470
470.500	294.771	80.005	19.993	104.296	20.070	11.449	0.479
471.000	295.078	80.005	19.993	104.292	20.072	11.351	0.510
471.500	295.300	80.006	19.993	104.292	20.069	11.546	0.528
472.000	295.545	80.005	19.993	104.292	20.068	11.594	0.498
472.500	295.843	80.005	19.993	104.292	20.063	11.896	0.505
473.000	296.072	80.003	19.994	104.293	20.067	11.672	0.536
473.500	296.345	80.004	19.993	104.296	20.063	11.957	0.515
474.000	296.581	80.004	19.994	104.296	20.061	12.038	0.505
474.500	296.839	80.001	19.994	104.295	20.060	12.116	0.501
475.000	297.057	80.003	19.994	104.295	20.060	12.111	0.485
475.500	297.381	80.003	19.994	104.295	20.059	12.167	0.509
476.000	297.549	80.002	19.993	104.297	20.055	12.426	0.517
476.500	297.867	80.005	19.994	104.298	20.054	12.512	0.489
477.000	298.107	80.002	19.993	104.304	20.056	12.376	0.522
477.500	298.292	80.002	19.995	104.306	20.053	12.554	0.491
478.000	298.540	80.004	19.993	104.310	20.052	12.656	0.429
478.500	298.811	80.002	19.994	104.309	20.048	12.888	0.477
479.000	299.096	80.004	19.993	104.309	20.049	12.850	0.538
479.500	299.367	80.004	19.994	104.306	20.050	12.782	0.556
480.000	299.559	80.002	19.994	104.304	20.045	13.080	0.509
480.500	299.877	80.004	19.993	104.302	20.046	13.064	0.486
481.000	300.185	80.003	19.992	104.302	20.041	13.392	0.568
481.500	300.353	80.005	19.992	104.305	20.043	13.212	0.551
482.000	300.598	80.004	19.993	104.307	20.041	13.368	0.445
482.500	300.846	80.004	19.993	104.315	20.039	13.490	0.453
483.000	301.097	80.004	19.993	104.318	20.039	13.494	0.496
483.500	301.352	80.004	19.993	104.319	20.036	13.700	0.503
484.000	301.638	80.004	19.993	104.320	20.036	13.711	0.523
484.500	301.862	80.004	19.993	104.323	20.037	13.661	0.525
485.000	302.148	80.002	19.993	104.323	20.032	13.970	0.510
485.500	302.360	80.003	19.993	104.326	20.029	14.147	0.504
486.000	302.623	80.002	19.993	104.331	20.030	14.099	0.486
486.500	302.902	80.003	19.993	104.336	20.030	14.106	0.508
487.000	303.134	80.003	19.993	104.339	20.025	14.433	0.526
487.500	303.403	80.001	19.993	104.338	20.025	14.431	0.506
488.000	303.598	80.003	19.993	104.339	20.023	14.571	0.483
488.500	303.858	80.003	19.993	104.339	20.020	14.718	0.459
489.000	304.120	80.004	19.994	104.339	20.019	14.795	0.488
489.500	304.364	80.004	19.993	104.340	20.016	14.992	0.514
490.000	304.622	80.003	19.993	104.341	20.015	15.065	0.504
490.500	304.881	80.002	19.993	104.341	20.013	15.224	0.509
491.000	305.142	80.003	19.993	104.341	20.013	15.210	0.519
491.500	305.384	80.003	19.993	104.341	20.012	15.260	0.512
492.000	305.638	80.004	19.993	104.339	20.011	15.323	0.499
492.500	305.882	80.005	19.992	104.338	20.009	15.491	0.497
493.000	306.149	80.004	19.993	104.337	20.005	15.730	0.505
493.500	306.380	80.002	19.993	104.337	20.003	15.824	0.504
494.000	306.663	80.004	19.994	104.338	20.002	15.932	0.506
494.500	306.928	80.003	19.995	104.338	20.002	15.952	0.531
495.000	307.192	80.004	19.994	104.339	19.999	16.121	0.538
495.500	307.437	80.002	19.994	104.339	19.995	16.386	0.519
496.000	307.671	80.004	19.994	104.338	19.994	16.440	0.494
496.500	307.924	80.004	19.992	104.338	19.992	16.598	0.483
497.000	308.198	80.004	19.995	104.337	19.990	16.702	0.507
497.500	308.419	80.001	19.993	104.337	19.987	16.914	0.511
498.000	308.665	80.004	19.995	104.338	19.983	17.182	0.481
498.500	308.922	80.005	19.994	104.338	19.980	17.368	0.485
499.000	309.190	80.003	19.994	104.338	19.979	17.452	0.514
499.500	309.433	80.003	19.994	104.338	19.978	17.474	0.518
500.000	309.692	80.003	19.993	104.335	19.975	17.695	0.507
500.500	309.966	80.002	19.994	104.332	19.974	17.782	0.517
501.000	310.220	80.001	19.994	104.329	19.970	18.031	0.530
501.500	310.448	80.001	19.994	104.324	19.966	18.286	0.505
502.000	310.699	80.003	19.994	104.323	19.963	18.483	0.481
502.500	310.938	80.002	19.994	104.323	19.963	18.518	0.484
503.000	311.216	80.001	19.993	104.326	19.959	18.733	0.503
503.500	311.452	80.003	19.995	104.329	19.957	18.914	0.515
504.000	311.735	80.001	19.995	104.336	19.955	19.018	0.517
504.500	312.004	80.002	19.994	104.339	19.953	19.145	0.536
505.000	312.254	80.002	19.994	104.341	19.948	19.468	0.536
505.500	312.504	80.003	19.995	104.341	19.946	19.619	0.509
506.001	312.766	80.003	19.994	104.341	19.944	19.733	0.506
506.500	313.007	80.003	19.993	104.340	19.940	20.015	0.507
507.000	313.256	80.002	19.994	104.338	19.939	20.075	0.496
507.500	313.517	80.002	19.994	104.341	19.934	20.384	0.500
508.000	313.762	80.001	19.994	104.342	19.931	20.558	0.508
508.500	314.000	80.003	19.995	104.342	19.929	20.732	0.495
509.000	314.272	80.004	19.994	104.344	19.926	20.901	0.497
509.500	314.527	80.003	19.995	104.351	19.923	21.109	0.519
510.000	314.779	80.002	19.995	104.356	19.919	21.395	0.517
510.500	315.021	80.003	19.994	104.363	19.920	21.324	0.501
511.000	315.292	80.003	19.994	104.369	19.913	21.781	0.503
511.500	315.516	80.002	19.995	104.374	19.910	21.990	0.504
512.000	315.789	80.001	19.994	104.375	19.912	21.805	0.496
512.500	316.045	80.002	19.994	104.382	19.906	22.233	0.513
513.000	316.299	80.003	19.993	104.389	19.901	22.527	0.520
513.500	316.564	80.003	19.995	104.397	19.903	22.442	0.515
514.000	316.816	80.004	19.994	104.405	19.897	22.844	0.518
514.500	317.051	80.004	19.994	104.408	19.894	23.003	0.502
515.000	317.268	80.004	19.994	104.402	19.891	23.210	0.470
515.500	317.549	80.003	19.993	104.394	19.886	23.527	0.475
516.000	317.823	80.005	19.993	104.387	19.884	23.683	0.526
516.500	318.020	80.005	19.993	104.387	19.879	24.019	0.513
517.000	318.327	80.003	19.992	104.388	19.876	24.205	0.487
517.500	318.548	80.006	19.993	104.388	19.871	24.520	0.516
518.000	318.783	80.005	19.992	104.387	19.869	24.680	0.492
518.500	319.010	80.004	19.992	104.384	19.866	24.823	0.459
519.000	319.313	80.004	19.993	104.377	19.863	25.028	0.496
519.500	319.530	80.005	19.994	104.376	19.856	25.517	0.525
520.000	319.768	80.005	19.992	104.382	19.853	25.713	0.488
520.500	320.032	80.005	19.992	104.389	19.850	25.932	0.478
521.000	320.273	80.007	19.992	104.394	19.844	26.296	0.503
521.500	320.522	80.005	19.993	104.396	19.838	26.686	0.497
522.000	320.763	80.003	19.993	104.394	19.835	26.910	0.490
522.500	321.014	80.006	19.991	104.390	19.833	26.989	0.491
523.000	321.282	80.005	19.994	104.387	19.829	27.296	0.506
523.500	321.546	80.005	19.993	104.392	19.822	27.767	0.526
524.000	321.772	80.006	19.992	104.397	19.820	27.864	0.511
524.500	322.041	80.005	19.992	104.403	19.812	28.412	0.492
525.000	322.245	80.006	19.993	104.408	19.807	28.699	0.484
525.500	322.504	80.005	19.994	104.414	19.804	28.904	0.468
526.000	322.747	80.006	19.992	104.416	19.798	29.296	0.482
526.500	322.986	80.006	19.993	104.417	19.795	29.527	0.492
527.000	323.278	80.005	19.993	104.417	19.791	29.802	0.507
527.500	323.528	80.005	19.993	104.419	19.785	30.183	0.537
528.000	323.752	80.005	19.993	104.420	19.779	30.582	0.508
528.500	324.036	80.005	19.993	104.425	19.775	30.820	0.490
529.000	324.249	80.004	19.993	104.430	19.768	31.282	0.502
529.500	324.513	80.005	19.993	104.437	19.765	31.483	0.487
530.000	324.756	80.004	19.993	104.445	19.760	31.815	0.493
530.500	325.042	80.005	19.994	104.452	19.756	32.083	0.518
531.000	325.263	80.004	19.993	104.454	19.749	32.527	0.518
531.500	325.535	80.006	19.992	104.457	19.742	32.982	0.500
532.000	325.786	80.005	19.993	104.457	19.735	33.436	0.508
532.500	326.023	80.005	19.992	104.457	19.729	33.874	0.506
533.000	326.298	80.005	19.993	104.454	19.723	34.252	0.500
533.500	326.549	80.003	19.993	104.453	19.718	34.587	0.518
534.000	326.787	80.004	19.993	104.452	19.713	34.924	0.507
534.500	327.045	80.006	19.994	104.452	19.705	35.410	0.492
535.000	327.273	80.004	19.994	104.452	19.702	35.639	0.491
535.500	327.529	80.005	19.994	104.451	19.695	36.076	0.485
536.000	327.785	80.006	19.993	104.451	19.691	36.389	0.498
536.500	328.034	80.004	19.993	104.451	19.683	36.895	0.508
537.000	328.274	80.005	19.994	104.451	19.676	37.353	0.497
537.500	328.488	80.006	19.992	104.453	19.672	37.601	0.472
538.000	328.787	80.007	19.993	104.460	19.666	37.987	0.483
538.500	328.995	80.007	19.993	104.467	19.658	38.546	0.510
539.000	329.297	80.006	19.993	104.473	19.650	39.058	0.509
539.500	329.517	80.007	19.993	104.481	19.646	39.346	0.516
540.000	329.746	80.005	19.993	104.487	19.639	39.807	0.485
540.500	330.062	80.006	19.993	104.488	19.632	40.257	0.497
541.000	330.342	80.005	19.993	104.490	19.623	40.867	0.570
541.500	330.552	80.006	19.993	104.492	19.617	41.218	0.543
542.000	330.829	80.008	19.993	104.497	19.612	41.585	0.489
542.500	331.046	80.006	19.994	104.503	19.602	42.241	0.490
543.000	331.293	80.006	19.992	104.507	19.598	42.459	0.479
543.500	331.539	80.007	19.993	104.514	19.589	43.095	0.478
544.000	331.810	80.004	19.993	104.521	19.581	43.612	0.505
544.500	332.069	80.006	19.993	104.524	19.574	44.044	0.524
545.000	332.283	80.007	19.993	104.525	19.564	44.692	0.502
545.500	332.551	80.006	19.992	104.527	19.555	45.282	0.477
546.000	332.808	80.006	19.993	104.528	19.546	45.869	0.503
546.500	333.042	80.007	19.993	104.528	19.543	46.092	0.508
547.000	333.306	80.008	19.993	104.529	19.532	46.835	0.495
547.500	333.552	80.007	19.993	104.531	19.525	47.309	0.504
548.000	333.805	80.006	19.992	104.533	19.517	47.797	0.505
548.500	334.048	80.006	19.993	104.534	19.508	48.416	0.498
549.000	334.323	80.006	19.993	104.540	19.502	48.834	0.507
549.500	334.578	80.006	19.993	104.546	19.492	49.479	0.524
550.000	334.842	80.007	19.992	104.553	19.484	50.000	0.525
550.500	335.096	80.006	19.992	104.558	19.474	50.675	0.519
551.000	335.339	80.007	19.992	104.565	19.470	50.940	0.508
551.500	335.611	80.006	19.993	104.564	19.456	51.819	0.506
552.000	335.855	80.006	19.992	104.564	19.448	52.369	0.515
552.500	336.112	80.005	19.993	104.566	19.439	52.977	0.508
553.000	336.350	80.005	19.993	104.567	19.428	53.677	0.498
553.500	336.658	80.006	19.993	104.567	19.421	54.187	0.520
554.000	336.881	80.005	19.992	104.570	19.411	54.817	0.538
554.500	337.097	80.004	19.993	104.572	19.399	55.635	0.485
555.000	337.302	80.004	19.993	104.572	19.392	56.088	0.430
555.500	337.604	80.005	19.992	104.574	19.382	56.708	0.464
556.000	337.856	80.006	19.993	104.575	19.370	57.485	0.530
556.500	338.134	80.004	19.993	104.582	19.361	58.099	0.543
557.000	338.372	80.005	19.993	104.590	19.353	58.629	0.523
557.500	338.642	80.003	19.992	104.598	19.344	59.259	0.511
558.000	338.877	80.004	19.994	104.606	19.333	59.938	0.506
558.500	339.114	80.003	19.996	104.615	19.323	60.623	0.489
559.000	339.360	80.004	19.994	104.616	19.309	61.561	0.477
559.500	339.619	80.004	19.995	104.617	19.301	62.061	0.494
560.000	339.862	80.004	19.993	104.618	19.289	62.876	0.504
560.500	340.078	80.004	19.992	104.623	19.279	63.510	0.481
561.000	340.363	80.005	19.992	104.628	19.268	64.242	0.480
561.500	340.580	80.003	19.994	104.635	19.255	65.095	0.501
562.000	340.891	80.004	19.993	104.643	19.247	65.639	0.515
562.500	341.126	80.004	19.994	104.651	19.237	66.306	0.537
563.000	341.345	80.005	19.992	104.659	19.222	67.276	0.500
563.500	341.621	80.003	19.993	104.665	19.213	67.889	0.474
564.000	341.875	80.005	19.994	104.672	19.202	68.577	0.512
564.500	342.141	80.004	19.994	104.680	19.189	69.473	0.525
565.000	342.333	80.003	19.993	104.686	19.179	70.105	0.489
565.500	342.622	80.004	19.993	104.687	19.167	70.913	0.469
566.000	342.824	80.003	19.993	104.688	19.156	71.652	0.486
566.500	343.117	80.004	19.993	104.689	19.145	72.372	0.493
567.000	343.364	80.004	19.995	104.689	19.130	73.355	0.518
567.500	343.600	80.003	19.995	104.696	19.120	74.019	0.511
568.000	343.877	80.004	19.994	104.703	19.107	74.864	0.498
568.500	344.114	80.005	19.994	104.712	19.100	75.369	0.514
569.000	344.346	80.004	19.994	104.720	19.084	76.412	0.492
569.500	344.572	80.005	19.994	104.728	19.070	77.326	0.464
570.000	344.872	80.004	19.995	104.729	19.059	78.082	0.492
570.500	345.129	80.004	19.994	104.728	19.048	78.804	0.541
571.000	345.369	80.004	19.994	104.727	19.033	79.768	0.527
571.500	345.630	80.004	19.994	104.726	19.020	80.641	0.499
572.000	345.885	80.004	19.994	104.733	19.011	81.208	0.508
572.500	346.129	80.004	19.994	104.740	19.000	81.979	0.507
573.000	346.330	80.006	19.994	104.748	18.988	82.742	0.472
573.501	346.616	80.004	19.994	104.756	18.970	83.966	0.466
574.000	346.869	80.004	19.993	104.762	18.961	84.523	0.513
574.500	347.104	80.004	19.993	104.763	18.949	85.295	0.513
575.000	347.379	80.005	19.993	104.763	18.935	86.200	0.499
575.500	347.655	80.005	19.992	104.763	18.924	86.931	0.531
576.000	347.873	80.005	19.993	104.767	18.910	87.912	0.522
576.500	348.140	80.005	19.994	104.770	18.897	88.723	0.489
577.000	348.395	80.004	19.994	104.776	18.885	89.567	0.503
577.500	348.662	80.004	19.994	104.782	18.872	90.426	0.522
578.000	348.860	80.003	19.993	104.790	18.858	91.321	0.494
578.500	349.107	80.004	19.995	104.802	18.840	92.540	0.455
579.000	349.387	80.004	19.993	104.815	18.827	93.383	0.486
579.500	349.691	80.006	19.994	104.825	18.815	94.162	0.556
580.000	349.879	80.004	19.994	104.834	18.803	94.972	0.538
580.500	350.142	80.005	19.995	104.842	18.793	95.649	0.471
581.000	350.403	80.006	19.994	104.843	18.775	96.847	0.488
581.500	350.639	80.004	19.995	104.843	18.760	97.816	0.510
582.000	350.914	80.006	19.992	104.844	18.746	98.736	0.504
582.500	351.153	80.004	19.994	104.845	18.733	99.572	0.513
583.000	351.399	80.004	19.994	104.848	18.719	100.521	0.500
583.500	351.680	80.005	19.994	104.854	18.703	101.555	0.506
584.000	351.925	80.005	19.993	104.860	18.688	102.547	0.527
584.500	352.157	80.004	19.994	104.861	18.676	103.346	0.502
585.000	352.424	80.004	19.993	104.861	18.660	104.402	0.488
585.500	352.685	80.003	19.994	104.856	18.647	105.254	0.513
586.000	352.941	80.005	19.993	104.850	18.632	106.282	0.522
586.500	353.195	80.004	19.994	104.851	18.615	107.348	0.513
587.000	353.501	80.003	19.993	104.857	18.605	108.015	0.535
587.500	353.738	80.004	19.995	104.865	18.588	109.184	0.552
588.000	353.983	80.003	19.995	104.874	18.574	110.060	0.512
588.500	354.253	80.004	19.993	104.883	18.558	111.131	0.498
589.000	354.452	80.003	19.995	104.887	18.546	111.959	0.492
589.500	354.754	80.003	19.995	104.891	18.534	112.715	0.485
590.000	355.011	80.004	19.994	104.897	18.521	113.565	0.530
590.500	355.249	80.004	19.994	104.900	18.506	114.576	0.527
591.000	355.517	80.004	19.994	104.906	18.493	115.439	0.500
591.500	355.749	80.005	19.994	104.906	18.478	116.406	0.503
592.000	355.985	80.003	19.994	104.911	18.468	117.081	0.484
592.500	356.241	80.004	19.995	104.913	18.451	118.188	0.480
593.000	356.494	80.003	19.994	104.916	18.442	118.814	0.500
593.500	356.750	80.003	19.995	104.916	18.426	119.817	0.509
594.000	356.996	80.003	19.994	104.920	18.415	120.594	0.506
594.500	357.260	80.003	19.995	104.919	18.399	121.598	0.506
595.000	357.520	80.004	19.994	104.922	18.386	122.469	0.517
595.500	357.766	80.004	19.995	104.923	18.374	123.271	0.515
596.000	357.984	80.004	19.994	104.923	18.362	124.076	0.485
596.500	358.282	80.005	19.994	104.924	18.351	124.811	0.490
597.000	358.528	80.003	19.995	104.924	18.336	125.796	0.530
597.500	358.711	80.004	19.994	104.925	18.323	126.632	0.486
598.000	358.997	80.004	19.994	104.927	18.315	127.194	0.449
598.500	359.260	80.004	19.995	104.928	18.303	127.970	0.509
599.000	359.500	80.005	19.995	104.934	18.293	128.637	0.527
599.500	359.721	80.004	19.995	104.940	18.283	129.276	0.482
600.000	359.980	80.006	19.994	104.939	18.271	130.103	0.470
600.500	360.233	80.006	19.994	104.936	18.259	130.869	0.496
601.000	360.449	80.006	19.995	104.938	18.250	131.441	0.490
601.500	360.753	80.005	19.995	104.935	18.240	132.121	0.494
602.000	360.964	80.004	19.994	104.933	18.231	132.683	0.518
602.500	361.214	80.005	19.994	104.932	18.219	133.472	0.488
603.000	361.415	80.007	19.994	104.939	18.211	134.010	0.456
603.500	361.692	80.005	19.994	104.939	18.202	134.651	0.465
604.000	361.968	80.005	19.995	104.940	18.193	135.218	0.516
604.500	362.215	80.006	19.993	104.943	18.184	135.818	0.538
605.000	362.420	80.006	19.994	104.947	18.176	136.354	0.487
605.500	362.722	80.005	19.993	104.940	18.168	136.858	0.479
606.000	362.901	80.004	19.993	104.939	18.161	137.309	0.494
606.500	363.211	80.006	19.993	104.944	18.153	137.832	0.485
607.000	363.436	80.006	19.994	104.943	18.147	138.201	0.512
607.500	363.643	80.005	19.994	104.944	18.140	138.666	0.483
608.000	363.904	80.006	19.994	104.952	18.130	139.372	0.450
608.500	364.161	80.004	19.993	104.958	18.126	139.602	0.493
609.000	364.392	80.004	19.992	104.959	18.119	140.074	0.503
609.500	364.647	80.005	19.993	104.964	18.116	140.222	0.487
610.000	364.891	80.004	19.993	104.971	18.109	140.691	0.492
610.500	365.117	80.005	19.993	104.972	18.102	141.132	0.484
611.000	365.361	80.005	19.993	104.972	18.099	141.296	0.470
611.500	365.591	80.005	19.994	104.972	18.092	141.738	0.472
612.000	365.888	80.005	19.992	104.969	18.088	142.060	0.501
612.501	366.123	80.005	19.993	104.964	18.084	142.277	0.530
613.001	366.379	80.006	19.993	104.962	18.084	142.319	0.511
613.501	366.589	80.004	19.992	104.962	18.078	142.703	0.478
614.001	366.877	80.005	19.993	104.962	18.076	142.834	0.482
614.500	367.131	80.005	19.994	104.962	18.074	142.939	0.520
615.000	367.380	80.005	19.993	104.961	18.070	143.189	0.522
615.500	367.619	80.005	19.993	104.961	18.067	143.347	0.495
616.001	367.890	80.006	19.993	104.958	18.065	143.529	0.499
616.500	368.145	80.005	19.992	104.952	18.063	143.646	0.518
617.000	368.397	80.005	19.994	104.950	18.064	143.573	0.517
617.500	368.631	80.005	19.991	104.946	18.065	143.489	0.496
618.000	368.925	80.004	19.995	104.942	18.063	143.597	0.507
618.500	369.119	80.004	19.994	104.945	18.064	143.490	0.508
619.000	369.386	80.004	19.993	104.943	18.069	143.179	0.474
619.500	369.633	80.005	19.994	104.938	18.068	143.203	0.487
620.000	369.899	80.007	19.992	104.931	18.071	143.032	0.514
620.500	370.119	80.004	19.993	104.920	18.073	142.826	0.500
621.000	370.383	80.004	19.994	104.905	18.076	142.611	0.485
621.500	370.645	80.004	19.994	104.896	18.082	142.229	0.505
622.000	370.906	80.006	19.993	104.889	18.082	142.195	0.524
622.500	371.144	80.005	19.993	104.884	18.088	141.778	0.511
623.000	371.383	80.006	19.993	104.884	18.095	141.330	0.488
623.500	371.620	80.007	19.993	104.885	18.100	140.955	0.477
624.000	371.890	80.006	19.993	104.885	18.106	140.605	0.492
624.500	372.158	80.006	19.994	104.885	18.115	140.001	0.523
625.000	372.380	80.006	19.993	104.883	18.124	139.396	0.514
625.500	372.659	80.007	19.992	104.877	18.129	139.016	0.496
626.000	372.924	80.006	19.993	104.868	18.140	138.311	0.522
626.500	373.168	80.007	19.993	104.859	18.149	137.661	0.526
627.000	373.458	80.005	19.993	104.852	18.160	136.951	0.522
627.500	373.683	80.007	19.992	104.842	18.168	136.358	0.525
628.000	373.937	80.006	19.992	104.837	18.182	135.466	0.497
628.500	374.237	80.007	19.993	104.833	18.196	134.538	0.516
629.000	374.482	80.006	19.993	104.826	18.203	134.030	0.549
629.500	374.704	80.006	19.993	104.816	18.218	133.065	0.506
630.000	374.952	80.006	19.993	104.805	18.231	132.175	0.469
630.500	375.236	80.006	19.993	104.791	18.244	131.345	0.501
631.000	375.460	80.008	19.993	104.778	18.264	130.033	0.520
631.500	375.740	80.006	19.992	104.762	18.278	129.046	0.506
632.000	375.986	80.006	19.993	104.748	18.295	127.940	0.515
632.500	376.244	80.007	19.992	104.739	18.313	126.754	0.515
633.000	376.502	80.007	19.993	104.725	18.332	125.514	0.510
633.500	376.752	80.005	19.993	104.712	18.353	124.096	0.512
634.000	377.009	80.007	19.994	104.704	18.372	122.837	0.507
634.500	377.290	80.006	19.991	104.693	18.394	121.395	0.523
635.000	377.540	80.006	19.992	104.685	18.415	119.999	0.535
635.500	377.809	80.005	19.994	104.677	18.435	118.655	0.525
636.000	378.043	80.005	19.994	104.668	18.458	117.151	0.511
636.500	378.271	80.004	19.993	104.657	18.485	115.376	0.482
637.000	378.555	80.003	19.993	104.644	18.503	114.147	0.487
637.500	378.826	80.005	19.993	104.626	18.529	112.482	0.534
638.000	379.100	80.005	19.992	104.611	18.553	110.907	0.550
638.500	379.335	80.004	19.992	104.597	18.577	109.272	0.527
639.000	379.579	80.005	19.993	104.583	18.603	107.581	0.494
639.500	379.850	80.004	19.993	104.575	18.629	105.874	0.497
640.001	380.126	80.004	19.994	104.566	18.657	104.028	0.531
640.500	380.351	80.004	19.993	104.557	18.688	101.992	0.524
641.000	380.625	80.004	19.992	104.549	18.714	100.302	0.500
641.500	380.884	80.004	19.994	104.542	18.740	98.591	0.516
642.000	381.145	80.004	19.994	104.534	18.767	96.790	0.526
642.500	381.372	80.002	19.994	104.527	18.798	94.778	0.503
643.000	381.635	80.005	19.994	104.518	18.821	93.286	0.489
643.500	381.920	80.004	19.993	104.506	18.853	91.134	0.519
644.000	382.142	80.005	19.994	104.491	18.877	89.592	0.527
644.500	382.367	80.004	19.994	104.475	18.907	87.628	0.477
645.000	382.659	80.004	19.993	104.463	18.933	85.921	0.482
645.500	382.918	80.005	19.993	104.450	18.961	84.070	0.534
646.000	383.183	80.005	19.992	104.440	18.993	81.984	0.538
646.500	383.452	80.005	19.993	104.432	19.017	80.392	0.529
647.000	383.707	80.004	19.994	104.422	19.043	78.708	0.529
647.500	383.954	80.004	19.994	104.409	19.075	76.600	0.513
648.000	384.240	80.003	19.993	104.399	19.101	74.898	0.517
648.500	384.479	80.005	19.993	104.389	19.125	73.307	0.529
649.000	384.745	80.004	19.993	104.378	19.156	71.259	0.515
649.500	385.019	80.005	19.994	104.372	19.183	69.524	0.523
650.000	385.261	80.004	19.993	104.368	19.208	67.871	0.528
650.500	385.499	80.005	19.994	104.363	19.236	65.999	0.498
651.000	385.741	80.006	19.993	104.356	19.261	64.388	0.480
651.500	386.019	80.005	19.992	104.351	19.284	62.897	0.500
652.000	386.291	80.004	19.993	104.343	19.313	61.012	0.535
652.500	386.564	80.004	19.992	104.337	19.337	59.391	0.547
653.000	386.826	80.005	19.993	104.330	19.362	57.775	0.540
653.500	387.104	80.004	19.994	104.327	19.388	56.106	0.538
654.000	387.317	80.005	19.993	104.321	19.412	54.521	0.516
654.500	387.604	80.004	19.994	104.312	19.436	52.959	0.496
655.000	387.835	80.006	19.993	104.303	19.457	51.570	0.509
655.500	388.135	80.003	19.994	104.296	19.482	49.911	0.524
656.000	388.372	80.005	19.994	104.289	19.505	48.420	0.534
656.500	388.626	80.005	19.993	104.280	19.528	46.890	0.515
657.000	388.878	80.005	19.995	104.272	19.549	45.545	0.498
657.500	389.154	80.004	19.994	104.267	19.570	44.141	0.517
658.000	389.388	80.005	19.993	104.262	19.590	42.869	0.519
658.500	389.639	80.005	19.993	104.257	19.614	41.282	0.498
659.000	389.921	80.005	19.995	104.252	19.633	40.015	0.509
659.500	390.205	80.004	19.995	104.248	19.652	38.813	0.549
660.000	390.486	80.006	19.994	104.245	19.673	37.414	0.565
660.500	390.724	80.005	19.994	104.236	19.692	36.185	0.542
661.000	390.957	80.005	19.993	104.228	19.707	35.173	0.495
661.500	391.252	80.005	19.993	104.225	19.727	33.915	0.500
662.000	391.481	80.005	19.994	104.222	19.744	32.747	0.526
662.500	391.770	80.005	19.994	104.217	19.764	31.480	0.521
663.000	392.010	80.004	19.993	104.217	19.782	30.312	0.524
663.500	392.254	80.003	19.994	104.216	19.796	29.379	0.507
664.000	392.549	80.005	19.994	104.216	19.812	28.324	0.511
664.500	392.794	80.005	19.994	104.216	19.829	27.224	0.539
665.000	393.071	80.005	19.994	104.216	19.842	26.342	0.531
665.500	393.318	80.005	19.993	104.216	19.854	25.566	0.523
666.000	393.578	80.003	19.994	104.217	19.867	24.717	0.516
666.500	393.874	80.005	19.993	104.215	19.883	23.710	0.532
667.000	394.103	80.003	19.993	104.210	19.895	22.896	0.540
667.500	394.393	80.004	19.994	104.208	19.908	22.026	0.521
668.000	394.598	80.005	19.994	104.207	19.922	21.117	0.507
668.501	394.872	80.002	19.994	104.207	19.932	20.497	0.487
669.001	395.118	80.003	19.994	104.206	19.943	19.754	0.500
669.500	395.407	80.003	19.993	104.209	19.955	18.959	0.528
670.000	395.663	80.004	19.994	104.212	19.964	18.411	0.540
670.500	395.960	80.004	19.994	104.213	19.975	17.677	0.549
671.000	396.194	80.005	19.993	104.208	19.979	17.419	0.542
671.500	396.428	80.002	19.993	104.204	19.988	16.835	0.499
672.000	396.698	80.004	19.994	104.204	19.997	16.221	0.486
672.500	396.948	80.003	19.994	104.198	20.006	15.657	0.512
673.000	397.200	80.004	19.993	104.196	20.013	15.159	0.511
673.500	397.466	80.003	19.993	104.202	20.020	14.723	0.510
674.000	397.714	80.004	19.994	104.208	20.029	14.133	0.516
674.500	397.988	80.004	19.993	104.209	20.033	13.854	0.518
675.000	398.226	80.003	19.994	104.215	20.040	13.394	0.517
675.500	398.489	80.004	19.992	104.211	20.044	13.122	0.506
676.000	398.724	80.004	19.993	104.204	20.052	12.605	0.500
676.500	398.990	80.003	19.994	104.197	20.057	12.321	0.500
677.000	399.248	80.004	19.993	104.194	20.061	12.060	0.512
677.500	399.485	80.004	19.992	104.188	20.064	11.872	0.509
678.001	399.751	80.005	19.994	104.188	20.068	11.611	0.499
678.500	399.996	80.005	19.994	104.191	20.074	11.164	0.507
679.000	400.264	80.006	19.994	104.194	20.076	11.089	0.512
679.500	400.493	80.004	19.993	104.191	20.081	10.716	0.505
680.000	400.746	80.005	19.993	104.189	20.083	10.630	0.490
680.500	401.012	80.005	19.994	104.191	20.083	10.587	0.501
681.000	401.233	80.006	19.994	104.187	20.088	10.302	0.503
681.500	401.517	80.005	19.994	104.184	20.088	10.245	0.496
682.000	401.785	80.005	19.993	104.183	20.093	9.924	0.529
682.500	402.011	80.005	19.993	104.183	20.095	9.838	0.523
683.000	402.289	80.006	19.993	104.181	20.095	9.788	0.499
683.500	402.532	80.007	19.993	104.181	20.097	9.683	0.512
684.000	402.782	80.006	19.993	104.180	20.101	9.414	0.507
684.500	403.066	80.006	19.995	104.180	20.100	9.490	0.514
685.000	403.272	80.005	19.994	104.179	20.102	9.347	0.512
685.500	403.529	80.006	19.993	104.181	20.102	9.376	0.477
686.000	403.765	80.006	19.993	104.186	20.103	9.328	0.478
686.500	404.028	80.005	19.994	104.193	20.110	8.829	0.496
687.000	404.296	80.005	19.995	104.201	20.108	8.951	0.515
687.500	404.543	80.004	19.995	104.209	20.109	8.903	0.524
688.000	404.812	80.004	19.994	104.215	20.110	8.841	0.516
688.500	405.028	80.004	19.994	104.215	20.109	8.922	0.500
689.000	405.274	80.005	19.993	104.208	20.111	8.791	0.473
689.500	405.573	80.004	19.994	104.201	20.113	8.617	0.503
690.000	405.788	80.005	19.994	104.194	20.114	8.565	0.530
690.500	406.033	80.005	19.995	104.188	20.115	8.493	0.487
691.000	406.292	80.005	19.994	104.189	20.115	8.522	0.482
691.500	406.539	80.005	19.994	104.192	20.115	8.506	0.505
692.000	406.821	80.006	19.994	104.195	20.113	8.667	0.517
692.500	407.061	80.004	19.995	104.195	20.115	8.492	0.525
693.000	407.284	80.004	19.994	104.193	20.116	8.458	0.493
693.500	407.530	80.004	19.995	104.195	20.115	8.505	0.466
694.000	407.794	80.004	19.994	104.198	20.114	8.553	0.489
694.500	408.031	80.003	19.994	104.200	20.117	8.360	0.506
695.000	408.291	80.006	19.994	104.208	20.114	8.554	0.499
695.500	408.516	80.005	19.994	104.215	20.115	8.481	0.491
696.000	408.807	80.004	19.994	104.216	20.120	8.162	0.500
696.500	409.031	80.005	19.995	104.217	20.119	8.238	0.516
697.000	409.259	80.004	19.994	104.220	20.119	8.278	0.484
697.500	409.513	80.004	19.994	104.220	20.117	8.371	0.467
698.000	409.763	80.005	19.994	104.220	20.121	8.116	0.493
698.500	410.024	80.005	19.993	104.220	20.118	8.343	0.507
699.000	410.260	80.006	19.995	104.216	20.120	8.200	0.504
699.500	410.526	80.004	19.995	104.210	20.115	8.514	0.500
700.001	410.758	80.005	19.993	104.209	20.120	8.192	0.500
700.500	411.029	80.007	19.993	104.208	20.120	8.171	0.501
701.000	411.285	80.005	19.993	104.207	20.118	8.307	0.516
701.500	411.504	80.006	19.993	104.210	20.119	8.273	0.501
702.000	411.752	80.006	19.993	104.216	20.119	8.227	0.470
702.500	411.984	80.006	19.993	104.214	20.120	8.154	0.473
703.000	412.250	80.006	19.993	104.207	20.123	8.014	0.489
703.500	412.472	80.005	19.994	104.200	20.121	8.105	0.493
704.000	412.730	80.006	19.993	104.200	20.122	8.051	0.483
704.500	412.974	80.005	19.993	104.198	20.121	8.087	0.491
705.000	413.244	80.007	19.993	104.201	20.119	8.249	0.508
705.500	413.472	80.007	19.993	104.208	20.122	8.046	0.506
706.000	413.694	80.006	19.993	104.213	20.122	8.057	0.474
706.500	413.939	80.006	19.992	104.213	20.123	7.976	0.458
707.000	414.164	80.007	19.993	104.214	20.121	8.087	0.468
707.500	414.410	80.006	19.994	104.209	20.119	8.232	0.470
708.000	414.660	80.006	19.993	104.206	20.120	8.212	0.483
708.500	414.890	80.008	19.992	104.205	20.121	8.104	0.488
709.000	415.178	80.007	19.993	104.198	20.126	7.803	0.499
709.500	415.426	80.008	19.992	104.194	20.125	7.866	0.528
710.000	415.637	80.006	19.992	104.197	20.124	7.893	0.498
710.500	415.899	80.007	19.993	104.199	20.121	8.114	0.466
711.000	416.109	80.008	19.993	104.206	20.120	8.190	0.472
711.500	416.370	80.007	19.992	104.214	20.123	7.982	0.471
712.000	416.646	80.008	19.992	104.219	20.123	8.007	0.504
712.500	416.864	80.007	19.993	104.221	20.124	7.943	0.516
713.000	417.148	80.006	19.993	104.221	20.122	8.027	0.498
713.500	417.354	80.007	19.993	104.211	20.125	7.862	0.496
714.000	417.565	80.006	19.993	104.203	20.121	8.106	0.454
714.500	417.868	80.005	19.993	104.197	20.120	8.182	0.466
715.000	418.089	80.008	19.993	104.198	20.122	8.081	0.519
715.500	418.356	80.006	19.993	104.199	20.121	8.138	0.506
716.000	418.596	80.006	19.993	104.208	20.122	8.079	0.497
716.500	418.850	80.006	19.993	104.221	20.121	8.122	0.500
717.000	419.067	80.005	19.993	104.228	20.123	7.980	0.483
717.500	419.320	80.005	19.993	104.226	20.122	8.020	0.471
718.000	419.567	80.005	19.993	104.225	20.123	7.957	0.485
718.500	419.831	80.004	19.994	104.222	20.121	8.088	0.505
719.000	420.060	80.004	19.993	104.216	20.126	7.792	0.502
719.500	420.273	80.003	19.993	104.214	20.122	8.058	0.468
720.000	420.529	80.004	19.994	104.215	20.122	8.067	0.456
720.500	420.818	80.005	19.994	104.216	20.123	7.990	0.507
721.000	421.041	80.004	19.994	104.217	20.121	8.092	0.528
721.500	421.299	80.003	19.994	104.216	20.122	8.026	0.497
722.000	421.548	80.003	19.995	104.213	20.120	8.171	0.494
722.500	421.774	80.005	19.993	104.212	20.120	8.201	0.490
723.000	422.068	80.004	19.993	104.212	20.119	8.254	0.497
723.500	422.310	80.005	19.994	104.212	20.120	8.180	0.528
724.000	422.552	80.004	19.994	104.212	20.123	8.017	0.510
724.500	422.805	80.004	19.994	104.215	20.123	8.010	0.489
725.000	423.023	80.004	19.994	104.216	20.123	8.019	0.483
725.500	423.312	80.004	19.993	104.216	20.125	7.857	0.489
726.001	423.530	80.003	19.994	104.215	20.123	7.978	0.507
726.501	423.765	80.004	19.994	104.212	20.120	8.164	0.480
727.001	424.037	80.005	19.994	104.208	20.124	7.922	0.480
727.500	424.277	80.003	19.994	104.207	20.121	8.105	0.510
728.000	424.523	80.005	19.994	104.207	20.124	7.919	0.499
728.500	424.769	80.004	19.994	104.207	20.123	7.984	0.489
729.000	425.037	80.004	19.993	104.210	20.123	7.985	0.503
729.500	425.248	80.003	19.993	104.214	20.121	8.088	0.497
730.000	425.532	80.005	19.993	104.215	20.123	8.011	0.487
730.500	425.756	80.004	19.994	104.217	20.124	7.910	0.501
731.000	426.046	80.003	19.993	104.217	20.124	7.935	0.512
731.500	426.277	80.004	19.993	104.216	20.126	7.789	0.518
732.000	426.508	80.005	19.993	104.215	20.122	8.024	0.491
732.500	426.780	80.005	19.993	104.216	20.122	8.064	0.482
733.000	427.003	80.005	19.993	104.217	20.120	8.164	0.499
733.500	427.254	80.005	19.992	104.218	20.120	8.159	0.485
734.000	427.502	80.006	19.993	104.219	20.123	7.986	0.487
734.500	427.731	80.006	19.992	104.220	20.121	8.133	0.488
735.001	428.021	80.005	19.993	104.222	20.123	7.995	0.498
735.501	428.210	80.005	19.993	104.222	20.122	8.058	0.499
736.000	428.484	80.005	19.993	104.221	20.122	8.050	0.471
736.500	428.720	80.005	19.994	104.221	20.125	7.828	0.487
737.000	429.026	80.005	19.994	104.220	20.124	7.936	0.526
737.500	429.245	80.002	19.992	104.219	20.120	8.178	0.533
738.000	429.530	80.005	19.995	104.218	20.121	8.103	0.515
738.500	429.759	80.007	19.995	104.219	20.123	8.004	0.509
739.000	430.005	80.005	19.994	104.224	20.125	7.831	0.495
739.500	430.260	80.004	19.995	104.229	20.120	8.168	0.488
740.000	430.516	80.005	19.994	104.230	20.123	8.001	0.506
740.500	430.746	80.005	19.995	104.230	20.121	8.091	0.498
741.000	431.003	80.004	19.995	104.230	20.123	8.013	0.486
741.500	431.275	80.005	19.994	104.225	20.122	8.030	0.508
742.000	431.532	80.005	19.994	104.222	20.124	7.931	0.529
742.500	431.794	80.006	19.994	104.221	20.123	8.010	0.524
743.000	432.028	80.003	19.993	104.221	20.123	8.003	0.508
743.500	432.285	80.005	19.993	104.221	20.123	7.992	0.494
744.000	432.538	80.004	19.992	104.221	20.124	7.944	0.500
744.500	432.786	80.004	19.993	104.220	20.122	8.021	0.505
745.000	433.052	80.004	19.993	104.219	20.121	8.087	0.508
745.500	433.290	80.003	19.992	104.213	20.125	7.883	0.509
746.000	433.541	80.003	19.994	104.211	20.123	7.980	0.496
746.501	433.824	80.004	19.992	104.211	20.125	7.862	0.512
747.001	434.063	80.003	19.994	104.211	20.120	8.157	0.528
747.500	434.305	80.004	19.993	104.212	20.119	8.224	0.501
748.000	434.557	80.004	19.993	104.218	20.121	8.111	0.488
748.500	434.807	80.003	19.995	104.220	20.118	8.331	0.498
749.000	435.060	80.002	19.992	104.221	20.118	8.316	0.502
749.500	435.316	80.002	19.994	104.221	20.117	8.361	0.506
750.000	435.542	80.004	19.994	104.221	20.120	8.180	0.495
750.500	435.848	80.004	19.994	104.221	20.119	8.264	0.507
751.000	436.091	80.003	19.993	104.221	20.118	8.324	0.541
751.500	436.344	80.003	19.994	104.221	20.116	8.451	0.522
752.000	436.612	80.001	19.994	104.221	20.117	8.354	0.508
752.500	436.893	80.003	19.994	104.223	20.122	8.083	0.535
753.000	437.145	80.002	19.993	104.223	20.122	8.054	0.542
753.500	437.377	80.002	19.994	104.224	20.120	8.194	0.509
754.000	437.610	80.003	19.994	104.225	20.122	8.074	0.475
754.500	437.887	80.002	19.993	104.225	20.120	8.176	0.487
755.000	438.131	80.005	19.993	104.224	20.120	8.183	0.515
755.500	438.404	80.002	19.994	104.225	20.119	8.244	0.519
756.000	438.647	80.003	19.993	104.224	20.120	8.176	0.516
756.500	438.884	80.002	19.995	104.225	20.121	8.136	0.498
757.000	439.163	80.003	19.994	104.227	20.116	8.423	0.498
757.500	439.402	80.003	19.994	104.227	20.117	8.362	0.517
758.000	439.666	80.003	19.993	104.227	20.120	8.201	0.510
758.500	439.927	80.004	19.992	104.225	20.120	8.200	0.514
759.000	440.184	80.004	19.996	104.224	20.117	8.379	0.522
759.500	440.445	80.003	19.994	104.222	20.118	8.286	0.518
760.000	440.702	80.005	19.994	104.220	20.116	8.431	0.518
760.500	440.935	80.006	19.994	104.220	20.120	8.160	0.504
761.000	441.197	80.005	19.992	104.220	20.119	8.243	0.493
761.500	441.413	80.005	19.994	104.220	20.120	8.158	0.487
762.000	441.683	80.005	19.993	104.219	20.118	8.323	0.482
762.500	441.930	80.006	19.994	104.219	20.119	8.255	0.502
763.001	442.166	80.005	19.995	104.219	20.119	8.259	0.500
763.500	442.456	80.006	19.993	104.219	20.120	8.183	0.504
764.000	442.703	80.004	19.994	104.218	20.123	8.006	0.531
764.500	442.992	80.006	19.994	104.218	20.117	8.399	0.537
765.000	443.211	80.006	19.995	104.218	20.118	8.332	0.522
765.500	443.466	80.006	19.993	104.218	20.120	8.210	0.491
766.000	443.712	80.005	19.995	104.217	20.118	8.309	0.488
766.500	443.990	80.006	19.994	104.216	20.119	8.223	0.512
767.000	444.208	80.006	19.995	104.211	20.121	8.121	0.510
767.500	444.472	80.006	19.993	104.210	20.118	8.293	0.490
768.000	444.757	80.006	19.994	104.211	20.119	8.226	0.515
768.500	444.974	80.008	19.992	104.211	20.120	8.167	0.525
769.000	445.255	80.007	19.994	104.211	20.120	8.183	0.500
769.500	445.483	80.006	19.994	104.216	20.117	8.355	0.503
770.000	445.757	80.005	19.993	104.217	20.116	8.459	0.505
770.500	446.034	80.004	19.994	104.217	20.119	8.278	0.527
771.000	446.252	80.007	19.995	104.217	20.120	8.160	0.523
771.500	446.493	80.005	19.994	104.218	20.119	8.255	0.477
772.000	446.756	80.006	19.994	104.218	20.118	8.327	0.482
772.500	446.996	80.004	19.995	104.218	20.119	8.280	0.504
773.000	447.267	80.007	19.995	104.218	20.118	8.347	0.507
773.500	447.518	80.005	19.993	104.218	20.119	8.245	0.516
774.000	447.779	80.004	19.995	104.217	20.120	8.154	0.517
774.500	448.024	80.004	19.994	104.217	20.120	8.170	0.509
775.000	448.297	80.005	19.994	104.216	20.120	8.209	0.512
775.500	448.555	80.004	19.994	104.217	20.122	8.064	0.524
776.000	448.823	80.006	19.994	104.217	20.121	8.150	0.529
776.500	449.057	80.006	19.994	104.217	20.119	8.272	0.514
777.000	449.322	80.004	19.995	104.217	20.114	8.549	0.501
777.500	449.584	80.004	19.994	104.217	20.118	8.288	0.513
778.000	449.812	80.004	19.995	104.217	20.118	8.320	0.508
778.500	450.093	80.004	19.994	104.217	20.115	8.493	0.500
779.001	450.319	80.006	19.994	104.217	20.116	8.432	0.508
779.501	450.594	80.004	19.996	104.217	20.118	8.309	0.504
780.001	450.828	80.004	19.996	104.215	20.120	8.210	0.505
780.501	451.088	80.006	19.995	104.215	20.120	8.210	0.502
781.000	451.349	80.004	19.994	104.215	20.119	8.227	0.507
781.500	451.605	80.005	19.994	104.215	20.118	8.325	0.519
782.000	451.860	80.006	19.995	104.214	20.118	8.313	0.514
782.500	452.099	80.005	19.995	104.215	20.119	8.239	0.502
783.000	452.390	80.005	19.995	104.216	20.120	8.187	0.512
783.500	452.605	80.004	19.993	104.218	20.121	8.110	0.518
784.000	452.897	80.006	19.993	104.219	20.120	8.179	0.507
784.500	453.134	80.006	19.995	104.223	20.119	8.222	0.518
785.000	453.380	80.006	19.995	104.227	20.119	8.222	0.506
785.501	453.636	80.005	19.995	104.231	20.120	8.163	0.492
786.001	453.906	80.006	19.995	104.228	20.122	8.054	0.514
786.500	454.183	80.004	19.996	104.229	20.119	8.233	0.537
787.000	454.459	80.005	19.995	104.227	20.120	8.179	0.550
787.500	454.676	80.005	19.996	104.225	20.121	8.149	0.523
788.000	454.945	80.007	19.994	104.220	20.120	8.165	0.489
788.500	455.178	80.008	19.994	104.220	20.121	8.140	0.494
789.000	455.470	80.006	19.992	104.218	20.118	8.327	0.513
789.500	455.702	80.007	19.995	104.214	20.120	8.176	0.524
790.000	455.998	80.003	19.997	104.212	20.118	8.323	0.526
790.500	456.211	80.005	19.996	104.212	20.117	8.384	0.519
791.000	456.482	80.006	19.993	104.212	20.122	8.040	0.496
791.500	456.739	80.006	19.995	104.215	20.121	8.144	0.505
792.000	456.966	80.006	19.992	104.218	20.122	8.060	0.506
792.500	457.252	80.008	19.991	104.219	20.120	8.153	0.499
793.000	457.514	80.009	19.992	104.220	20.120	8.180	0.530
793.500	457.762	80.004	19.994	104.220	20.118	8.311	0.529
794.000	457.995	80.006	19.996	104.217	20.119	8.274	0.495
794.500	458.270	80.009	19.992	104.211	20.118	8.324	0.494
795.000	458.517	80.007	19.993	104.208	20.119	8.267	0.515
795.500	458.815	80.006	19.990	104.207	20.119	8.254	0.534
796.000	459.067	80.005	19.990	104.207	20.121	8.096	0.547
796.500	459.336	80.002	19.996	104.208	20.118	8.325	0.536
797.000	459.607	80.005	19.995	104.207	20.118	8.293	0.531
797.500	459.829	80.003	19.991	104.209	20.122	8.053	0.517
798.000	460.056	80.007	19.995	104.210	20.120	8.151	0.471
798.500	460.332	80.006	19.993	104.207	20.120	8.196	0.476
799.000	460.592	80.005	19.992	104.208	20.118	8.290	0.519
799.500	460.837	80.004	19.992	104.214	20.119	8.232	0.520
800.000	461.111	80.007	19.989	104.214	20.121	8.121	0.512
800.500	461.332	80.004	19.990	104.215	20.118	8.289	0.507
801.000	461.652	80.004	19.991	104.218	20.120	8.205	0.518
801.500	461.892	80.005	19.993	104.218	20.120	8.210	0.550
802.000	462.114	80.007	19.990	104.216	20.118	8.295	0.511
802.500	462.374	80.005	19.992	104.219	20.119	8.255	0.472
803.000	462.654	80.005	19.990	104.219	20.119	8.280	0.510
803.500	462.928	80.004	19.992	104.222	20.117	8.390	0.547
804.000	463.154	80.002	19.994	104.222	20.117	8.352	0.527
804.500	463.402	80.007	19.990	104.224	20.119	8.218	0.487
805.000	463.670	80.006	19.993	104.223	20.118	8.311	0.495
805.500	463.919	80.004	19.993	104.225	20.120	8.153	0.516
806.000	464.172	80.005	19.992	104.224	20.120	8.198	0.509
806.500	464.436	80.005	19.990	104.225	20.121	8.150	0.509
807.000	464.694	80.004	19.993	104.225	20.123	7.999	0.519
807.500	464.944	80.004	19.993	104.220	20.118	8.320	0.516
808.000	465.186	80.005	19.993	104.217	20.117	8.381	0.500
808.500	465.433	80.004	19.993	104.216	20.122	8.067	0.490
809.000	465.718	80.009	19.989	104.218	20.118	8.309	0.510
809.500	465.956	80.004	19.994	104.218	20.117	8.411	0.527
810.000	466.257	80.004	19.993	104.223	20.120	8.203	0.531
810.500	466.496	80.005	19.995	104.223	20.118	8.286	0.540
811.000	466.760	80.005	19.994	104.222	20.123	7.999	0.522
811.500	466.989	80.005	19.993	104.219	20.119	8.266	0.498
812.000	467.254	80.003	19.995	104.218	20.121	8.119	0.494
812.500	467.521	80.004	19.994	104.218	20.119	8.250	0.513
813.000	467.769	80.004	19.992	104.217	20.118	8.311	0.523
813.500	468.019	80.003	19.995	104.219	20.120	8.182	0.506
814.000	468.289	80.004	19.992	104.219	20.117	8.352	0.509
814.500	468.548	80.003	19.994	104.219	20.117	8.392	0.524
815.000	468.821	80.004	19.994	104.219	20.119	8.268	0.531
815.500	469.066	80.004	19.992	104.219	20.116	8.468	0.525
816.000	469.295	80.003	19.993	104.219	20.120	8.215	0.496
816.500	469.589	80.003	19.991	104.219	20.120	8.169	0.499
817.000	469.822	80.004	19.993	104.220	20.120	8.174	0.525
817.500	470.085	80.004	19.994	104.220	20.120	8.167	0.511
818.000	470.342	80.004	19.992	104.219	20.120	8.187	0.508
818.500	470.605	80.006	19.992	104.219	20.123	7.982	0.520
819.000	470.868	79.999	19.998	104.220	20.118	8.316	0.523
819.500	471.107	80.006	19.995	104.217	20.121	8.100	0.514
820.000	471.382	80.003	19.989	104.216	20.121	8.114	0.508
820.500	471.591	80.005	19.993	104.217	20.121	8.114	0.499
821.000	471.875	80.005	19.993	104.218	20.119	8.235	0.489
821.500	472.123	80.001	19.994	104.218	20.122	8.060	0.513
822.000	472.381	80.000	19.993	104.220	20.122	8.025	0.519
822.500	472.609	80.005	19.994	104.220	20.116	8.440	0.496
823.000	472.886	80.005	19.995	104.220	20.119	8.275	0.495
823.500	473.162	80.006	19.989	104.219	20.119	8.237	0.529
824.000	473.389	80.002	19.995	104.218	20.121	8.128	0.528
824.500	473.676	80.003	19.993	104.218	20.119	8.245	0.509
825.000	473.920	80.004	19.998	104.218	20.121	8.114	0.523
825.500	474.206	80.001	19.997	104.218	20.119	8.218	0.530
826.000	474.482	80.005	19.994	104.217	20.121	8.125	0.546
826.500	474.720	80.006	19.992	104.215	20.120	8.177	0.538
827.000	474.957	80.002	19.990	104.211	20.119	8.242	0.495
827.500	475.252	80.004	19.992	104.211	20.122	8.079	0.504
828.000	475.471	80.006	19.992	104.211	20.120	8.165	0.523
828.500	475.753	80.005	19.989	104.212	20.120	8.169	0.507
829.000	475.955	80.003	19.995	104.215	20.119	8.248	0.492
829.500	476.251	80.006	19.993	104.215	20.121	8.149	0.491
830.000	476.509	80.004	19.992	104.209	20.116	8.427	0.526
830.500	476.765	80.005	19.993	104.207	20.120	8.205	0.534
831.000	477.033	80.005	19.993	104.202	20.116	8.475	0.519
831.500	477.266	80.004	19.993	104.195	20.120	8.176	0.513
832.000	477.519	80.005	19.994	104.194	20.119	8.246	0.493
832.500	477.812	80.006	19.992	104.191	20.121	8.134	0.516
833.000	478.057	80.005	19.993	104.190	20.118	8.318	0.542
833.500	478.305	80.004	19.994	104.192	20.119	8.227	0.516
834.000	478.558	80.005	19.993	104.194	20.115	8.499	0.497
834.500	478.814	80.003	19.992	104.196	20.116	8.426	0.505
835.000	479.020	80.003	19.993	104.199	20.121	8.122	0.486
835.500	479.309	80.005	19.992	104.199	20.120	8.176	0.479
836.000	479.554	80.004	19.992	104.199	20.119	8.274	0.515
836.500	479.797	80.001	19.993	104.199	20.122	8.073	0.511
837.000	480.078	80.004	19.992	104.203	20.121	8.146	0.506
837.500	480.325	80.003	19.993	104.208	20.117	8.360	0.526
838.000	480.582	80.009	19.991	104.212	20.120	8.157	0.516
838.500	480.826	80.003	19.993	104.211	20.116	8.445	0.502
839.000	481.142	80.006	19.993	104.214	20.119	8.246	0.531
839.500	481.370	80.006	19.992	104.214	20.116	8.425	0.552
840.000	481.621	80.002	19.995	104.214	20.115	8.520	0.512
840.500	481.859	80.004	19.992	104.214	20.116	8.432	0.484
841.000	482.110	80.007	19.991	104.215	20.118	8.317	0.489
841.500	482.392	80.005	19.994	104.216	20.120	8.192	0.511
842.000	482.618	80.004	19.992	104.209	20.118	8.323	0.520
842.500	482.877	80.006	19.993	104.194	20.116	8.440	0.496
843.000	483.139	80.006	19.994	104.187	20.118	8.298	0.503
843.500	483.397	80.008	19.994	104.179	20.117	8.406	0.520
844.000	483.637	80.006	19.995	104.174	20.117	8.352	0.509
844.500	483.887	80.006	19.994	104.182	20.121	8.139	0.494
845.000	484.143	80.006	19.994	104.197	20.120	8.180	0.498
845.500	484.419	80.007	19.994	104.205	20.119	8.267	0.519
846.000	484.654	80.005	19.995	104.213	20.120	8.156	0.522
846.500	484.931	80.005	19.995	104.213	20.120	8.187	0.511
847.000	485.154	80.005	19.994	104.206	20.119	8.217	0.506
847.500	485.398	80.004	19.995	104.203	20.122	8.081	0.484
848.000	485.680	80.004	19.994	104.201	20.122	8.069	0.496
848.500	485.953	80.004	19.995	104.200	20.118	8.302	0.541
849.000	486.194	80.008	19.993	104.203	20.118	8.295	0.535
849.500	486.429	80.006	19.993	104.211	20.121	8.096	0.495
850.000	486.685	80.005	19.994	104.214	20.122	8.067	0.483
850.500	486.944	80.005	19.994	104.215	20.122	8.078	0.503
851.000	487.192	80.005	19.992	104.212	20.123	7.982	0.511
851.500	487.443	80.006	19.995	104.209	20.122	8.056	0.503
852.000	487.700	80.005	19.996	104.209	20.122	8.025	0.504
852.500	487.981	80.005	19.994	104.209	20.122	8.075	0.523
853.000	488.251	80.005	19.994	104.210	20.121	8.128	0.544
853.500	488.494	80.005	19.994	104.214	20.118	8.339	0.532
854.000	488.718	80.004	19.991	104.217	20.122	8.063	0.490
854.500	488.975	80.006	19.993	104.216	20.122	8.036	0.474
855.000	489.262	80.005	19.994	104.215	20.122	8.074	0.513
855.500	489.497	80.002	19.994	104.215	20.121	8.109	0.533
856.000	489.776	80.007	19.993	104.214	20.121	8.112	0.518
856.500	490.014	80.008	19.988	104.213	20.121	8.130	0.515
857.000	490.276	80.005	19.991	104.215	20.123	8.004	0.509
857.500	490.541	80.004	19.991	104.214	20.120	8.210	0.514
858.000	490.811	80.004	19.993	104.214	20.119	8.240	0.531
858.500	491.095	80.004	19.995	104.215	20.122	8.077	0.545
859.000	491.328	80.004	19.995	104.216	20.120	8.164	0.536
859.500	491.606	80.005	19.995	104.215	20.123	7.988	0.514
860.000	491.860	80.004	19.997	104.216	20.123	8.017	0.522
860.500	492.115	80.005	19.993	104.216	20.120	8.207	0.521
861.000	492.402	80.006	19.995	104.216	20.122	8.044	0.525
861.500	492.637	80.009	19.993	104.215	20.120	8.213	0.531
862.000	492.892	80.004	19.994	104.214	20.120	8.162	0.506
862.500	493.178	79.998	19.997	104.212	20.122	8.041	0.516
863.000	493.440	80.004	19.991	104.207	20.119	8.265	0.545
863.500	493.719	80.004	19.991	104.201	20.123	7.983	0.545
864.000	493.963	80.007	19.993	104.195	20.121	8.119	0.532
864.500	494.247	80.004	19.996	104.190	20.122	8.020	0.525
865.000	494.510	80.004	19.995	104.187	20.123	7.998	0.538
865.500	494.709	80.003	19.994	104.190	20.124	7.922	0.505
866.000	494.958	80.004	19.994	104.194	20.121	8.138	0.455
866.500	495.227	80.004	19.996	104.199	20.121	8.129	0.483
867.000	495.473	80.006	19.991	104.199	20.124	7.916	0.517
867.500	495.769	80.008	19.989	104.197	20.122	8.056	0.529
868.000	496.036	80.001	19.997	104.194	20.122	8.047	0.553
868.500	496.295	80.007	19.992	104.190	20.125	7.874	0.545
869.000	496.571	80.006	19.994	104.188	20.122	8.022	0.531
869.500	496.819	80.006	19.995	104.189	20.121	8.103	0.529
870.000	497.054	80.005	19.992	104.191	20.124	7.897	0.503
870.500	497.311	80.005	19.994	104.193	20.122	8.083	0.487
871.001	497.561	80.004	19.998	104.198	20.122	8.042	0.499
871.500	497.818	80.008	19.993	104.198	20.123	8.010	0.507
872.000	498.072	80.005	19.993	104.203	20.121	8.099	0.509
872.500	498.388	80.007	19.995	104.208	20.122	8.083	0.541
873.000	498.602	80.003	19.994	104.211	20.123	7.999	0.550
873.500	498.860	80.002	19.998	104.210	20.121	8.107	0.501
874.000	499.119	80.005	19.996	104.205	20.123	7.990	0.495
874.500	499.407	80.006	19.994	104.197	20.125	7.875	0.532
875.000	499.640	80.005	19.995	104.190	20.126	7.767	0.534
875.500	499.909	80.004	19.991	104.183	20.124	7.925	0.511
876.000	500.147	80.005	19.992	104.179	20.127	7.716	0.504
876.500	500.431	80.010	19.993	104.180	20.125	7.859	0.515
877.000	500.672	80.005	19.995	104.182	20.123	8.012	0.524
877.500	500.920	80.004	19.994	104.183	20.125	7.856	0.507
878.000	501.176	80.005	19.991	104.183	20.122	8.046	0.496
878.500	501.459	80.004	19.994	104.190	20.124	7.930	0.521
879.000	501.702	80.005	19.993	104.197	20.126	7.788	0.532
879.500	501.979	80.006	19.995	104.197	20.124	7.896	0.523
880.000	502.271	80.004	19.995	104.197	20.121	8.112	0.545
880.500	502.505	80.004	19.993	104.199	20.126	7.791	0.548
881.000	502.728	80.003	19.994	104.195	20.123	8.010	0.491
881.500	502.982	80.004	19.993	104.192	20.124	7.918	0.467
882.000	503.265	80.002	19.995	104.197	20.125	7.866	0.507
882.500	503.513	80.002	19.994	104.205	20.124	7.950	0.534
883.000	503.719	80.003	19.993	104.210	20.123	7.964	0.493
883.500	503.967	80.003	19.994	104.216	20.123	7.987	0.454
884.000	504.270	80.002	19.994	104.221	20.124	7.948	0.503
884.500	504.514	80.002	19.994	104.221	20.123	7.957	0.549
885.000	504.802	80.002	19.993	104.219	20.121	8.103	0.539
885.500	505.052	80.002	19.994	104.216	20.124	7.945	0.535
886.000	505.296	80.005	19.993	104.214	20.123	7.985	0.516
886.500	505.531	80.004	19.992	104.209	20.122	8.037	0.486
887.000	505.773	80.003	19.994	104.204	20.121	8.120	0.478
887.500	506.068	80.004	19.991	104.199	20.123	7.974	0.507
888.000	506.313	80.004	19.993	104.196	20.122	8.068	0.538
888.500	506.559	80.004	19.992	104.195	20.121	8.098	0.516
889.000	506.839	80.002	19.995	104.198	20.123	7.964	0.508
889.500	507.087	80.005	19.991	104.203	20.122	8.070	0.527
890.000	507.334	80.004	19.995	104.209	20.119	8.240	0.511
890.500	507.591	80.007	19.994	104.214	20.120	8.217	0.500
891.000	507.832	80.004	19.992	104.216	20.120	8.211	0.501
891.500	508.111	80.003	19.991	104.217	20.116	8.461	0.509
892.000	508.343	80.003	19.995	104.219	20.121	8.105	0.516
892.500	508.594	80.004	19.994	104.218	20.121	8.133	0.497
893.000	508.841	80.004	19.997	104.217	20.119	8.280	0.490
893.500	509.107	80.005	19.991	104.212	20.122	8.083	0.506
894.000	509.326	80.005	19.993	104.208	20.124	7.896	0.499
894.500	509.598	80.003	19.995	104.207	20.123	7.992	0.488
895.000	509.866	80.004	19.992	104.208	20.120	8.205	0.515
895.500	510.093	80.004	19.993	104.210	20.125	7.871	0.517
896.000	510.372	80.005	19.995	104.215	20.123	8.013	0.500
896.500	510.621	80.004	19.995	104.220	20.122	8.066	0.517
897.000	510.880	80.003	19.996	104.221	20.122	8.072	0.518
897.500	511.127	80.004	19.995	104.226	20.123	7.968	0.507
898.000	511.362	80.003	19.993	104.227	20.120	8.167	0.494
898.500	511.633	80.005	19.993	104.226	20.123	7.973	0.494
899.000	511.881	80.005	19.992	104.224	20.123	7.990	0.512
899.500	512.143	80.006	19.993	104.228	20.118	8.305	0.514
900.000	512.398	80.005	19.994	104.232	20.121	8.106	0.514
900.500	512.642	80.005	19.993	104.230	20.120	8.213	0.509
901.000	512.918	80.006	19.993	104.231	20.120	8.170	0.510
901.500	513.146	80.005	19.993	104.231	20.120	8.215	0.512
902.000	513.407	80.005	19.993	104.226	20.121	8.146	0.496
902.500	513.671	80.006	19.994	104.218	20.123	7.979	0.507
903.000	513.936	80.005	19.993	104.218	20.120	8.196	0.527
903.500	514.190	80.002	19.993	104.217	20.121	8.128	0.524
904.000	514.418	80.004	19.994	104.216	20.122	8.047	0.501
904.500	514.714	80.001	19.995	104.212	20.119	8.226	0.504
905.000	514.967	80.000	19.996	104.204	20.124	7.954	0.537
905.500	515.220	80.005	19.993	104.196	20.122	8.074	0.528
906.000	515.496	80.005	19.994	104.192	20.119	8.241	0.517
906.500	515.731	80.005	19.993	104.190	20.119	8.275	0.520
907.000	516.027	80.005	19.993	104.186	20.118	8.289	0.521
907.500	516.257	80.006	19.993	104.186	20.119	8.281	0.528
908.000	516.542	80.003	19.995	104.192	20.118	8.320	0.520
908.500	516.776	80.004	19.992	104.192	20.121	8.103	0.517
909.000	517.027	80.004	19.994	104.189	20.119	8.221	0.502
909.500	517.287	80.005	19.992	104.191	20.119	8.274	0.498
910.000	517.581	80.005	19.993	104.193	20.122	8.073	0.533
910.500	517.834	80.005	19.993	104.190	20.120	8.186	0.551
911.000	518.061	80.005	19.995	104.194	20.117	8.370	0.514
911.500	518.309	80.006	19.991	104.198	20.117	8.369	0.477
912.000	518.581	80.005	19.992	104.205	20.119	8.264	0.498
912.500	518.812	80.002	19.995	104.210	20.120	8.198	0.512
913.000	519.094	80.005	19.991	104.214	20.120	8.188	0.508
913.500	519.350	80.001	19.994	104.216	20.117	8.388	0.525
914.000	519.601	80.003	19.993	104.217	20.118	8.323	0.522
914.500	519.874	80.004	19.994	104.217	20.117	8.380	0.515
915.000	520.164	80.004	19.991	104.218	20.117	8.361	0.543
915.500	520.385	80.006	19.992	104.217	20.117	8.358	0.537
916.000	520.652	80.006	19.991	104.214	20.118	8.315	0.499
916.500	520.953	80.005	19.994	104.215	20.120	8.184	0.528
917.000	521.212	80.002	19.994	104.215	20.120	8.187	0.564
917.501	521.470	80.003	19.990	104.215	20.116	8.412	0.539
918.001	521.716	80.005	19.995	104.217	20.117	8.410	0.511
918.500	522.008	80.005	19.998	104.220	20.119	8.279	0.521
919.000	522.257	80.005	19.995	104.219	20.117	8.410	0.539
919.500	522.496	80.006	19.992	104.216	20.119	8.266	0.515
920.000	522.772	80.002	19.994	104.213	20.116	8.440	0.502
920.500	523.013	80.005	19.996	104.209	20.118	8.313	0.516
921.000	523.288	80.004	19.994	104.206	20.119	8.238	0.516
921.500	523.579	80.003	19.997	104.203	20.118	8.294	0.541
922.000	523.816	80.005	19.996	104.200	20.119	8.265	0.547
922.500	524.069	80.008	19.993	104.199	20.118	8.285	0.510
923.000	524.324	80.008	19.995	104.197	20.122	8.049	0.499
923.500	524.550	80.003	19.995	104.192	20.119	8.235	0.494
924.000	524.861	80.006	19.994	104.189	20.118	8.299	0.509
924.500	525.079	80.005	19.993	104.190	20.121	8.149	0.533
925.000	525.336	80.006	19.993	104.190	20.119	8.277	0.502
925.500	525.589	80.005	19.993	104.192	20.118	8.309	0.493
926.000	525.882	80.007	19.993	104.194	20.118	8.284	0.528
926.500	526.141	80.005	19.993	104.197	20.121	8.146	0.549
927.000	526.395	80.007	19.991	104.197	20.119	8.268	0.533
927.500	526.606	80.005	19.994	104.199	20.122	8.077	0.489
928.000	526.868	80.004	19.993	104.199	20.120	8.165	0.469
928.500	527.108	80.008	19.990	104.201	20.121	8.140	0.488
929.000	527.392	80.004	19.993	104.203	20.123	7.968	0.513
929.500	527.601	80.006	19.994	104.201	20.118	8.298	0.508
930.000	527.891	80.004	19.995	104.200	20.118	8.315	0.496
930.500	528.150	80.005	19.993	104.195	20.120	8.175	0.524
931.000	528.418	80.006	19.993	104.193	20.121	8.123	0.538
931.500	528.674	80.005	19.994	104.195	20.120	8.169	0.525
932.000	528.932	80.002	19.993	104.199	20.117	8.350	0.519
932.500	529.180	80.006	19.993	104.203	20.117	8.403	0.509
933.000	529.416	80.005	19.993	104.208	20.118	8.332	0.495
933.500	529.664	80.005	19.993	104.212	20.118	8.281	0.485
934.000	529.918	80.006	19.994	104.213	20.117	8.360	0.494
934.500	530.164	80.005	19.993	104.212	20.117	8.380	0.501
935.000	530.448	80.006	19.992	104.207	20.119	8.260	0.515
935.500	530.687	80.005	19.994	104.206	20.117	8.396	0.526
936.000	530.937	80.004	19.993	104.204	20.122	8.020	0.506
936.500	531.189	80.004	19.994	104.197	20.118	8.341	0.495
937.000	531.479	80.004	19.994	104.193	20.117	8.386	0.522
937.500	531.706	80.003	19.994	104.195	20.118	8.304	0.530
938.000	531.944	80.006	19.994	104.193	20.119	8.250	0.491
938.500	532.185	80.005	19.995	104.190	20.117	8.399	0.472
939.000	532.428	80.004	19.994	104.193	20.117	8.385	0.481
939.500	532.689	80.005	19.994	104.193	20.118	8.346	0.494
940.000	532.910	80.005	19.994	104.192	20.116	8.460	0.493
940.500	533.226	80.005	19.994	104.194	20.117	8.374	0.510
941.000	533.474	80.004	19.993	104.199	20.116	8.447	0.550
941.500	533.748	80.005	19.994	104.197	20.114	8.564	0.542
942.000	533.986	80.004	19.993	104.195	20.114	8.584	0.517
942.500	534.237	80.003	19.992	104.196	20.112	8.692	0.500
943.000	534.545	80.004	19.993	104.192	20.116	8.462	0.524
943.500	534.734	80.003	19.994	104.186	20.118	8.326	0.528
944.000	535.030	80.003	19.994	104.185	20.118	8.335	0.491
944.500	535.201	80.003	19.995	104.184	20.115	8.529	0.476
945.001	535.452	80.005	19.993	104.182	20.115	8.481	0.444
945.501	535.727	80.005	19.992	104.182	20.116	8.429	0.474
946.001	535.970	80.006	19.992	104.183	20.116	8.425	0.522
946.500	536.236	80.002	19.994	104.188	20.115	8.479	0.513
947.000	536.451	80.004	19.993	104.189	20.113	8.670	0.495
947.500	536.715	80.006	19.993	104.188	20.117	8.364	0.481
948.000	536.977	80.004	19.993	104.190	20.119	8.251	0.503
948.500	537.251	80.005	19.993	104.198	20.116	8.452	0.531
949.000	537.498	80.007	19.992	104.200	20.114	8.588	0.528
949.500	537.695	80.005	19.992	104.204	20.119	8.237	0.482
950.000	537.974	80.004	19.993	104.205	20.118	8.316	0.460
950.500	538.210	80.005	19.994	104.206	20.119	8.229	0.495
951.000	538.487	80.005	19.992	104.204	20.117	8.375	0.514
951.500	538.771	80.005	19.994	104.199	20.115	8.488	0.537
952.000	538.987	80.006	19.992	104.200	20.117	8.376	0.531
952.500	539.238	80.008	19.992	104.199	20.117	8.399	0.484
953.000	539.484	80.003	19.996	104.202	20.116	8.460	0.482
953.500	539.748	80.007	19.993	104.204	20.117	8.410	0.503
954.000	539.970	80.006	19.994	104.208	20.115	8.490	0.497
954.500	540.200	80.008	19.994	104.208	20.117	8.410	0.469
955.000	540.465	80.007	19.994	104.210	20.117	8.406	0.474
955.500	540.752	80.006	19.993	104.205	20.113	8.621	0.523
956.000	540.940	80.007	19.993	104.198	20.117	8.381	0.514
956.500	541.229	80.006	19.992	104.195	20.112	8.679	0.476
957.000	541.495	80.006	19.994	104.188	20.114	8.557	0.516
957.500	541.760	80.006	19.993	104.185	20.111	8.741	0.543
958.000	541.985	80.007	19.994	104.185	20.114	8.587	0.511
958.500	542.241	80.005	19.992	104.188	20.111	8.769	0.486
959.000	542.491	80.006	19.993	104.188	20.116	8.446	0.493
959.500	542.771	80.006	19.994	104.191	20.112	8.706	0.518
960.000	542.979	80.007	19.993	104.191	20.113	8.639	0.509
960.500	543.239	80.005	19.995	104.195	20.114	8.544	0.478
961.000	543.504	80.005	19.994	104.198	20.115	8.489	0.497
961.500	543.765	80.006	19.993	104.202	20.115	8.480	0.526
962.000	544.006	80.003	19.995	104.207	20.112	8.694	0.514
962.500	544.284	80.002	19.994	104.211	20.113	8.646	0.510
963.000	544.507	80.006	19.994	104.205	20.114	8.592	0.510
963.500	544.716	80.004	19.994	104.202	20.114	8.563	0.467
964.000	544.998	80.003	19.992	104.201	20.114	8.604	0.462
964.500	545.268	80.005	19.995	104.197	20.113	8.611	0.521
965.000	545.499	80.004	19.993	104.198	20.115	8.492	0.526
965.500	545.737	80.003	19.995	104.200	20.115	8.498	0.485
966.000	546.007	80.001	19.994	104.201	20.116	8.422	0.488
966.500	546.208	80.006	19.993	104.197	20.117	8.378	0.490
967.000	546.508	80.004	19.995	104.201	20.117	8.411	0.487
967.500	546.747	80.005	19.994	104.203	20.115	8.483	0.520
968.000	547.021	80.004	19.994	104.208	20.116	8.451	0.525
968.500	547.247	80.002	19.993	104.210	20.114	8.607	0.506
969.000	547.502	80.002	19.994	104.215	20.114	8.601	0.491
969.500	547.745	80.003	19.995	104.212	20.114	8.598	0.489
970.000	547.958	80.003	19.995	104.204	20.114	8.563	0.477
970.500	548.285	80.004	19.996	104.199	20.113	8.622	0.499
971.000	548.512	80.003	19.995	104.197	20.113	8.647	0.547
971.500	548.760	80.004	19.995	104.197	20.112	8.688	0.514
972.000	548.992	80.003	19.995	104.200	20.113	8.649	0.477
972.500	549.258	80.006	19.995	104.208	20.114	8.590	0.489
973.000	549.509	80.002	19.993	104.211	20.111	8.751	0.508
973.500	549.788	80.004	19.995	104.213	20.112	8.699	0.524
974.000	550.040	80.003	19.994	104.212	20.114	8.587	0.531
974.500	550.319	80.005	19.993	104.210	20.114	8.558	0.531
975.000	550.517	80.004	19.994	104.208	20.113	8.662	0.504
975.500	550.769	80.007	19.993	104.203	20.112	8.737	0.463
976.000	551.054	80.004	19.994	104.200	20.114	8.589	0.493
976.500	551.251	80.004	19.994	104.200	20.112	8.738	0.509
977.000	551.520	80.002	19.993	104.201	20.113	8.610	0.474
977.500	551.824	80.006	19.994	104.202	20.112	8.698	0.520
978.000	552.083	80.009	19.994	104.209	20.113	8.652	0.568
978.500	552.300	80.013	19.994	104.212	20.110	8.828	0.519
979.000	552.569	80.004	19.994	104.217	20.111	8.751	0.481
979.500	552.826	80.006	19.994	104.216	20.111	8.780	0.506
980.000	553.058	80.022	19.996	104.215	20.111	8.769	0.507
980.500	553.309	80.007	19.994	104.216	20.116	8.440	0.486
981.000	553.593	80.009	19.995	104.212	20.114	8.584	0.509
981.500	553.850	80.008	19.993	104.206	20.112	8.723	0.538
982.000	554.118	80.005	19.995	104.207	20.111	8.759	0.533
982.500	554.402	80.006	19.994	104.206	20.112	8.697	0.539
983.000	554.646	80.006	19.993	104.204	20.116	8.459	0.540
983.500	554.896	80.005	19.994	104.205	20.112	8.691	0.511
984.000	555.122	80.006	19.995	104.208	20.115	8.510	0.485
984.500	555.389	80.005	19.995	104.209	20.114	8.544	0.485
985.000	555.630	80.002	19.992	104.212	20.113	8.656	0.501
985.500	555.896	80.005	19.994	104.214	20.110	8.860	0.508
986.000	556.200	80.005	19.993	104.213	20.110	8.804	0.539
986.500	556.400	80.003	19.994	104.208	20.114	8.546	0.537
987.000	556.662	80.004	19.993	104.204	20.113	8.654	0.483
987.500	556.910	80.009	19.992	104.196	20.115	8.503	0.486
988.000	557.199	80.006	19.993	104.192	20.115	8.512	0.523
988.500	557.436	80.004	19.994	104.194	20.113	8.615	0.532
989.000	557.714	80.005	19.995	104.199	20.112	8.701	0.520
989.500	557.954	80.003	19.993	104.202	20.112	8.692	0.517
990.000	558.214	80.005	19.994	104.207	20.112	8.688	0.509
990.500	558.478	80.004	19.993	104.209	20.112	8.674	0.512
991.000	558.729	80.003	19.993	104.205	20.112	8.681	0.519
991.500	558.949	80.003	19.993	104.200	20.113	8.667	0.493
992.000	559.224	80.006	19.992	104.199	20.111	8.789	0.483
992.500	559.490	80.001	19.994	104.198	20.111	8.755	0.518
993.000	559.732	80.001	19.993	104.197	20.110	8.857	0.524
993.500	559.989	80.005	19.993	104.201	20.109	8.915	0.503
994.000	560.233	80.002	19.992	104.206	20.111	8.766	0.500
994.500	560.503	80.007	19.993	104.202	20.111	8.759	0.508
995.000	560.760	80.002	19.993	104.199	20.114	8.564	0.521
995.500	561.021	80.002	19.993	104.201	20.110	8.822	0.522
996.000	561.278	80.006	19.994	104.201	20.110	8.823	0.518
996.500	561.559	80.003	19.995	104.199	20.112	8.710	0.528
997.000	561.819	80.002	19.994	104.199	20.112	8.722	0.539
997.500	562.106	80.002	19.993	104.203	20.110	8.834	0.544
998.000	562.331	80.003	19.993	104.201	20.111	8.759	0.530
998.500	562.576	80.005	19.994	104.199	20.112	8.687	0.491
999.000	562.834	80.000	19.995	104.203	20.112	8.720	0.486
999.500	563.111	80.005	19.993	104.206	20.113	8.610	0.519
1000.000	563.354	80.005	19.994	104.204	20.116	8.459	0.527
1000.500	563.629	80.003	19.994	104.206	20.112	8.721	0.519
1001.000	563.871	80.002	19.994	104.209	20.111	8.758	0.518
1001.500	564.161	80.003	19.995	104.208	20.110	8.855	0.525
1002.000	564.401	80.007	19.994	104.211	20.112	8.694	0.531
1002.500	564.649	80.005	19.994	104.212	20.111	8.772	0.509
1003.000	564.901	80.005	19.994	104.214	20.112	8.681	0.494
1003.500	565.191	80.004	19.993	104.215	20.111	8.742	0.521
1004.000	565.421	80.003	19.994	104.215	20.114	8.577	0.531
1004.500	565.667	80.005	19.994	104.214	20.112	8.724	0.498
1005.000	565.947	80.007	19.994	104.217	20.114	8.602	0.501
1005.500	566.222	80.006	19.993	104.219	20.110	8.869	0.540
1006.000	566.477	80.005	19.994	104.218	20.110	8.839	0.542
1006.500	566.721	80.006	19.994	104.216	20.107	9.063	0.515
1007.001	566.962	80.008	19.993	104.213	20.109	8.932	0.492
1007.501	567.258	80.008	19.992	104.209	20.109	8.910	0.510
1008.000	567.504	80.004	19.993	104.208	20.110	8.820	0.539
1008.500	567.754	80.007	19.993	104.209	20.110	8.815	0.519
1009.000	568.042	80.006	19.993	104.211	20.111	8.798	0.517
1009.500	568.276	80.004	19.992	104.215	20.109	8.902	0.530
1010.000	568.543	80.005	19.993	104.217	20.110	8.806	0.511
1010.500	568.782	80.007	19.993	104.217	20.112	8.721	0.503
1011.000	569.087	80.003	19.994	104.214	20.111	8.787	0.525
1011.500	569.337	80.009	19.992	104.211	20.109	8.889	0.550
1012.000	569.639	80.008	19.993	104.207	20.110	8.846	0.553
1012.500	569.917	80.006	19.992	104.207	20.109	8.875	0.565
1013.000	570.178	80.009	19.993	104.207	20.110	8.819	0.559
1013.500	570.390	80.006	19.992	104.205	20.110	8.835	0.506
1014.000	570.676	80.006	19.993	104.203	20.111	8.776	0.486
1014.500	570.930	80.003	19.993	104.207	20.111	8.779	0.519
1015.000	571.210	80.006	19.992	104.204	20.110	8.828	0.536
1015.500	571.426	80.007	19.993	104.201	20.110	8.824	0.515
1016.000	571.715	80.007	19.992	104.199	20.108	8.939	0.501
1016.500	571.969	80.003	19.994	104.204	20.111	8.796	0.524
1017.000	572.228	80.005	19.993	104.205	20.110	8.804	0.528
1017.500	572.491	80.006	19.993	104.208	20.106	9.070	0.517
1018.000	572.807	80.006	19.994	104.211	20.107	9.045	0.550
1018.500	573.079	80.004	19.994	104.217	20.108	8.957	0.584
1019.000	573.320	80.005	19.993	104.218	20.111	8.786	0.551
1019.500	573.591	80.006	19.993	104.219	20.108	8.940	0.512
1020.000	573.877	80.005	19.992	104.214	20.109	8.886	0.535
1020.500	574.137	80.002	19.993	104.210	20.108	8.945	0.552
1021.000	574.417	80.006	19.993	104.203	20.112	8.720	0.543
1021.500	574.702	80.007	19.993	104.196	20.105	9.133	0.552
1022.000	574.978	80.006	19.993	104.189	20.107	9.015	0.563
1022.500	575.234	80.005	19.993	104.187	20.110	8.870	0.547
1023.000	575.504	80.005	19.993	104.188	20.108	9.001	0.529
1023.500	575.749	80.008	19.993	104.188	20.108	8.958	0.521
1024.001	576.023	80.005	19.993	104.189	20.108	8.956	0.517
1024.501	576.291	80.007	19.993	104.188	20.107	9.022	0.530
1025.000	576.585	80.005	19.993	104.186	20.107	9.038	0.551
1025.500	576.845	80.005	19.994	104.183	20.107	9.011	0.558
1026.000	577.123	80.006	19.993	104.181	20.108	8.974	0.546
1026.500	577.380	80.005	19.994	104.179	20.106	9.083	0.536
1027.001	577.582	80.005	19.993	104.182	20.109	8.897	0.497
1027.501	577.901	80.005	19.995	104.186	20.108	8.950	0.490
1028.000	578.161	80.007	19.993	104.193	20.109	8.878	0.550
1028.500	578.457	80.007	19.995	104.200	20.109	8.897	0.567
1029.001	578.674	80.004	19.992	104.205	20.109	8.890	0.535
1029.501	578.983	80.010	19.993	104.203	20.110	8.861	0.520
1030.000	579.252	80.009	19.993	104.200	20.108	8.974	0.552
1030.500	579.512	80.007	19.995	104.194	20.109	8.904	0.553
1031.000	579.781	80.006	19.994	104.190	20.111	8.751	0.529
1031.500	580.032	80.008	19.995	104.191	20.111	8.776	0.525
1032.000	580.286	80.006	19.994	104.196	20.111	8.787	0.513
1032.500	580.566	80.006	19.994	104.203	20.113	8.626	0.520
1033.000	580.838	80.008	19.994	104.209	20.110	8.862	0.543
1033.500	581.108	80.006	19.993	104.213	20.109	8.880	0.546
1034.000	581.375	80.007	19.995	104.213	20.112	8.720	0.539
1034.500	581.659	80.005	19.993	104.214	20.111	8.748	0.544
1035.000	581.898	80.007	19.994	104.211	20.111	8.776	0.537
1035.500	582.180	80.006	19.994	104.210	20.109	8.891	0.522
1036.000	582.492	80.006	19.993	104.209	20.111	8.742	0.558
1036.500	582.707	80.003	19.995	104.210	20.108	8.954	0.560
1037.001	582.984	80.008	19.993	104.210	20.111	8.798	0.509
1037.501	583.221	80.007	19.992	104.213	20.110	8.808	0.503
1038.000	583.484	80.007	19.993	104.211	20.108	8.937	0.507
1038.500	583.775	80.005	19.993	104.211	20.112	8.728	0.527
1039.000	584.000	80.007	19.995	104.207	20.109	8.891	0.535
1039.500	584.263	80.006	19.993	104.199	20.108	8.964	0.502
1040.000	584.596	80.007	19.996	104.194	20.109	8.891	0.542
1040.500	584.811	80.008	19.992	104.192	20.113	8.667	0.573
1041.000	585.129	80.008	19.993	104.193	20.109	8.920	0.541
1041.500	585.327	80.008	19.990	104.196	20.112	8.726	0.524
1042.000	585.608	80.005	19.993	104.203	20.109	8.889	0.497
1042.500	585.857	80.007	19.993	104.208	20.109	8.889	0.505
1043.000	586.134	80.006	19.996	104.213	20.109	8.931	0.528
1043.500	586.416	80.004	19.995	104.210	20.111	8.745	0.542
1044.000	586.709	80.006	19.991	104.208	20.110	8.844	0.567
1044.500	586.926	80.003	19.994	104.205	20.109	8.874	0.543
1045.000	587.222	80.006	19.994	104.201	20.111	8.790	0.512
1045.500	587.501	80.001	19.993	104.197	20.109	8.885	0.544
1046.000	587.743	80.003	19.995	104.201	20.109	8.903	0.548
1046.500	587.950	80.003	19.993	104.204	20.111	8.762	0.485
1047.000	588.219	80.005	19.994	104.207	20.110	8.843	0.462
1047.500	588.523	80.005	19.993	104.210	20.109	8.901	0.524
1048.000	588.741	80.003	19.994	104.211	20.109	8.891	0.547
1048.500	589.024	80.006	19.993	104.204	20.106	9.097	0.512
1049.000	589.305	80.004	19.994	104.198	20.108	8.939	0.533
1049.500	589.527	80.004	19.993	104.191	20.110	8.864	0.533
1050.000	589.800	80.004	19.995	104.185	20.110	8.807	0.499
1050.500	590.046	80.005	19.993	104.181	20.108	8.935	0.507
1051.001	590.322	80.003	19.994	104.186	20.107	9.035	0.520
1051.501	590.515	80.003	19.994	104.187	20.109	8.887	0.495
1052.001	590.828	79.997	19.993	104.186	20.108	8.962	0.487
1052.501	591.098	80.005	19.994	104.185	20.107	9.011	0.544
1053.000	591.396	80.002	19.993	104.184	20.108	8.968	0.575
1053.500	591.552	79.997	19.995	104.180	20.107	9.002	0.511
1054.000	591.859	80.006	19.993	104.176	20.108	8.990	0.459
1054.501	592.152	80.002	19.994	104.178	20.109	8.931	0.532
1055.001	592.389	80.005	19.994	104.178	20.109	8.872	0.565
1055.500	592.630	80.003	19.993	104.178	20.105	9.159	0.504
1056.000	592.869	79.999	19.994	104.178	20.108	8.946	0.479
1056.500	593.167	80.003	19.994	104.180	20.106	9.124	0.509
1057.000	593.419	80.006	19.994	104.182	20.105	9.178	0.543
1057.500	593.666	80.006	19.994	104.189	20.104	9.254	0.525
1058.000	593.947	80.007	19.994	104.193	20.105	9.156	0.513
1058.501	594.141	80.001	19.994	104.200	20.104	9.213	0.501
1059.001	594.459	80.006	19.994	104.208	20.102	9.386	0.494
1059.500	594.734	80.003	19.994	104.210	20.100	9.476	0.553
1060.000	594.922	80.004	19.995	104.207	20.114	8.571	0.528
1060.500	595.227	80.000	19.994	104.209	20.107	9.000	0.478
1061.000	595.447	80.003	19.994	104.207	20.113	8.656	0.509
1061.500	595.749	80.003	19.994	104.199	20.116	8.433	0.523
1062.000	595.969	80.004	19.994	104.200	20.115	8.504	0.521
1062.500	596.241	80.003	19.994	104.202	20.115	8.519	0.507
1063.000	596.558	80.003	19.994	104.203	20.100	9.466	0.541
1063.500	596.840	80.002	19.994	104.205	20.108	8.984	0.594
1064.000	597.024	80.003	19.994	104.213	20.104	9.214	0.533
1064.500	597.310	80.006	19.996	104.212	20.104	9.218	0.468
1065.000	597.508	80.002	19.994	104.211	20.110	8.854	0.476
1065.500	597.816	80.003	19.995	104.210	20.110	8.852	0.494
1066.000	598.035	80.004	19.994	104.213	20.105	9.174	0.517
1066.500	598.362	80.003	19.995	104.217	20.110	8.862	0.537
1067.000	598.488	80.004	19.995	104.224	20.109	8.913	0.500
1067.500	598.835	80.005	19.993	104.228	20.106	9.126	0.463
1068.000	599.096	80.004	19.993	104.227	20.108	8.954	0.540
1068.500	599.263	80.006	19.993	104.217	20.110	8.837	0.518
1069.000	599.739	80.002	19.994	104.206	20.106	9.128	0.536
1069.501	599.791	80.004	19.993	104.195	20.107	9.060	0.586
1070.001	600.129	80.004	19.993	104.186	20.107	9.001	0.459
1070.500	600.387	80.004	19.993	104.179	20.106	9.082	0.493
1071.000	600.516	80.003	19.993	104.179	20.107	9.058	0.491
1071.500	600.749	80.005	19.991	104.178	20.110	8.832	0.374
1072.000	601.225	80.005	19.993	104.180	20.108	8.999	0.536
1072.500	601.051	80.000	19.994	104.181	20.110	8.814	0.506
1073.000	601.706	80.001	19.993	104.188	20.107	9.061	0.392
1073.501	602.069	80.008	19.991	104.195	20.104	9.236	0.749
1074.001	602.619	80.004	19.993	104.202	20.108	8.963	0.965
1074.500	602.196	80.007	19.993	104.206	20.104	9.225	0.520
1075.000	603.109	80.000	19.993	104.212	20.106	9.109	0.309
1075.500	603.099	80.003	19.993	104.211	20.104	9.256	0.697
1076.000	603.305	80.003	19.994	104.211	20.102	9.342	0.549
1076.500	604.022	80.005	19.993	104.209	20.103	9.309	0.559
1077.001	603.618	80.001	19.995	104.205	20.108	8.935	0.618
1077.501	603.858	80.002	19.993	104.199	20.100	9.478	0.075
1078.000	604.029	79.997	19.993	104.194	20.102	9.342	0.124
1078.500	604.395	80.004	19.994	104.187	20.105	9.190	0.474
1079.000	604.635	80.002	19.994	104.185	20.104	9.262	0.571
1079.500	605.033	80.005	19.994	104.185	20.106	9.100	0.622
1080.000	605.107	80.003	19.993	104.190	20.107	9.045	0.555
1080.500	605.430	80.000	19.993	104.194	20.104	9.231	0.434
1081.000	605.648	80.010	19.993	104.196	20.106	9.083	0.469
1081.500	605.775	80.001	19.993	104.196	20.103	9.286	0.443
1082.000	606.340	80.005	19.993	104.195	20.104	9.196	0.518
1082.500	606.498	80.007	19.993	104.191	20.106	9.092	0.708
1083.000	606.663	80.011	19.993	104.189	20.104	9.252	0.523
1083.500	606.934	80.003	19.994	104.189	20.103	9.290	0.379
1084.000	607.246	80.003	19.994	104.188	20.109	8.895	0.510
1084.500	607.446	80.007	19.992	104.191	20.103	9.298	0.548
1085.000	607.732	80.005	19.994	104.195	20.103	9.279	0.499
1085.500	607.973	80.006	19.993	104.199	20.106	9.091	0.506
1086.000	608.286	80.001	19.994	104.198	20.106	9.102	0.541
1086.500	608.611	80.006	19.993	104.198	20.106	9.095	0.596
1087.000	608.688	80.005	19.993	104.196	20.108	8.942	0.520
1087.500	609.001	80.006	19.993	104.196	20.108	8.944	0.396
1088.000	609.249	80.004	19.993	104.194	20.106	9.096	0.475
1088.500	609.465	79.997	19.994	104.193	20.106	9.085	0.513
1089.000	609.769	80.004	19.993	104.196	20.106	9.080	0.492
1089.500	610.028	80.003	19.995	104.202	20.108	8.978	0.542
1090.000	610.289	80.004	19.994	104.201	20.104	9.244	0.542
1090.500	610.457	80.005	19.994	104.204	20.107	9.029	0.474
1091.001	610.777	80.009	19.993	104.207	20.107	9.056	0.458
1091.501	610.985	79.991	19.995	104.202	20.108	8.980	0.508
1092.000	611.233	80.009	19.994	104.195	20.105	9.156	0.492
1092.500	611.489	80.007	19.993	104.194	20.105	9.145	0.480
1093.000	611.786	80.006	19.994	104.193	20.106	9.077	0.528
1093.500	611.973	80.008	19.993	104.195	20.105	9.141	0.518
1094.000	612.339	80.006	19.994	104.197	20.107	9.037	0.518
1094.500	612.505	80.008	19.992	104.197	20.105	9.163	0.543
1095.000	612.826	80.008	19.993	104.192	20.106	9.092	0.510
1095.500	612.967	80.008	19.994	104.186	20.103	9.279	0.475
1096.000	613.244	80.007	19.994	104.181	20.101	9.434	0.440
1096.500	613.524	80.007	19.994	104.179	20.103	9.321	0.488
1097.000	613.777	80.005	19.994	104.178	20.103	9.323	0.545
1097.500	613.962	80.005	19.993	104.178	20.102	9.363	0.485
1098.000	614.287	80.008	19.995	104.177	20.103	9.306	0.474
1098.500	614.550	80.007	19.993	104.177	20.104	9.235	0.549
1099.000	614.779	80.007	19.995	104.177	20.101	9.421	0.540
1099.500	615.031	80.008	19.995	104.177	20.103	9.308	0.487
1100.000	615.279	80.006	19.993	104.178	20.105	9.173	0.490
1100.500	615.545	80.005	19.994	104.181	20.105	9.183	0.507
1101.000	615.790	80.005	19.994	104.185	20.102	9.337	0.513
1101.500	616.002	80.007	19.993	104.185	20.100	9.482	0.484
1102.000	616.316	80.005	19.994	104.185	20.102	9.330	0.492
1102.500	616.540	80.006	19.994	104.185	20.102	9.340	0.532
1103.001	616.759	80.009	19.993	104.182	20.102	9.357	0.490
1103.501	617.067	80.004	19.994	104.179	20.104	9.233	0.485
1104.000	617.276	80.004	19.995	104.179	20.103	9.305	0.522
1104.500	617.540	80.005	19.994	104.179	20.099	9.531	0.495
1105.000	617.737	80.003	19.995	104.181	20.102	9.379	0.467
1105.501	618.021	80.006	19.994	104.185	20.103	9.304	0.471
1106.001	618.252	80.006	19.993	104.188	20.105	9.196	0.498
1106.500	618.480	80.008	19.993	104.195	20.106	9.124	0.487
1107.000	618.797	80.008	19.993	104.202	20.102	9.352	0.502
1107.500	619.036	80.005	19.994	104.207	20.103	9.299	0.551
1108.000	619.236	79.998	19.994	104.211	20.103	9.270	0.497
1108.500	619.533	79.998	19.993	104.215	20.105	9.182	0.468
1109.000	619.733	80.021	19.991	104.218	20.105	9.180	0.498
1109.500	619.998	80.005	19.996	104.222	20.103	9.300	0.482
1110.000	620.207	80.000	19.996	104.222	20.104	9.214	0.469
1110.500	620.454	80.008	19.993	104.217	20.107	9.049	0.464
1111.001	620.714	80.009	19.993	104.214	20.105	9.144	0.481
1111.501	620.945	80.009	19.992	104.208	20.105	9.171	0.499
1112.001	621.208	80.006	19.992	104.203	20.105	9.140	0.493
1112.501	621.479	80.003	19.994	104.202	20.101	9.428	0.514
1113.001	621.690	79.999	19.994	104.203	20.102	9.348	0.508
1113.501	621.978	80.011	19.995	104.202	20.102	9.327	0.491
1114.000	622.207	80.022	19.990	104.204	20.102	9.384	0.508
1114.500	622.437	80.009	19.993	104.205	20.104	9.223	0.487
1115.000	622.694	80.002	19.995	104.204	20.104	9.211	0.473
1115.500	622.918	80.006	19.993	104.205	20.103	9.305	0.485
1116.000	623.212	80.005	19.993	104.208	20.104	9.208	0.500
1116.500	623.405	80.017	19.992	104.211	20.104	9.202	0.502
1117.000	623.650	79.999	19.994	104.212	20.104	9.204	0.462
1117.500	623.912	80.004	19.993	104.212	20.107	9.051	0.472
1118.001	624.170	80.003	19.993	104.211	20.104	9.250	0.514
1118.501	624.404	80.013	19.993	104.204	20.106	9.067	0.507
1119.000	624.661	80.002	19.994	104.196	20.103	9.286	0.491
1119.500	624.938	80.003	19.994	104.189	20.103	9.308	0.512
1120.000	625.150	80.011	19.992	104.186	20.104	9.231	0.512
1120.500	625.415	80.014	19.992	104.188	20.102	9.342	0.483
1121.000	625.627	80.003	19.994	104.197	20.105	9.172	0.477
1121.500	625.862	80.003	19.994	104.194	20.103	9.325	0.462
1122.000	626.136	80.008	19.993	104.193	20.100	9.518	0.478
1122.500	626.360	80.006	19.994	104.191	20.104	9.234	0.504
1123.000	626.632	80.010	19.993	104.186	20.103	9.304	0.497
1123.500	626.863	80.001	19.993	104.179	20.103	9.293	0.500
1124.000	627.120	80.005	19.992	104.181	20.103	9.298	0.496
1124.500	627.350	80.017	19.992	104.190	20.102	9.330	0.487
1125.000	627.659	80.005	19.994	104.191	20.101	9.419	0.513
1125.500	627.896	80.006	19.993	104.190	20.099	9.540	0.542
1126.000	628.109	79.997	19.994	104.192	20.100	9.506	0.498
1126.500	628.355	79.991	19.994	104.189	20.102	9.358	0.455
1127.000	628.632	80.002	19.994	104.181	20.102	9.361	0.491
1127.500	628.849	79.984	19.996	104.179	20.101	9.435	0.508
1128.000	629.103	79.998	19.995	104.176	20.102	9.346	0.483
1128.500	629.403	80.005	19.993	104.173	20.100	9.489	0.513
1129.000	629.581	80.002	19.994	104.176	20.098	9.653	0.516
1129.500	629.869	80.003	19.994	104.175	20.099	9.530	0.472
1130.000	630.115	80.019	19.992	104.176	20.102	9.370	0.500
1130.500	630.346	80.015	19.993	104.184	20.101	9.420	0.506
1131.000	630.583	80.006	19.995	104.184	20.100	9.497	0.473
1131.500	630.863	80.015	19.992	104.182	20.103	9.275	0.492
1132.000	631.143	80.011	19.993	104.186	20.102	9.350	0.538
1132.501	631.374	80.030	19.990	104.185	20.099	9.523	0.535
1133.001	631.642	79.995	19.993	104.188	20.102	9.380	0.505
1133.500	631.873	80.016	19.992	104.190	20.104	9.250	0.500
1134.000	632.071	80.005	19.994	104.193	20.105	9.150	0.464
1134.500	632.362	80.008	19.992	104.190	20.103	9.320	0.459
1135.000	632.624	80.008	19.993	104.190	20.107	9.043	0.521
1135.500	632.863	80.002	19.995	104.185	20.104	9.222	0.527
1136.000	633.139	80.008	19.992	104.183	20.102	9.342	0.508
1136.500	633.384	80.027	19.991	104.184	20.101	9.408	0.518
1137.000	633.640	80.007	19.992	104.192	20.104	9.232	0.511
1137.500	633.852	80.005	19.993	104.192	20.103	9.306	0.485
1138.000	634.133	80.016	19.991	104.192	20.101	9.398	0.480
1138.500	634.413	80.024	19.989	104.197	20.102	9.377	0.527
1139.000	634.658	80.003	19.993	104.199	20.100	9.509	0.543
1139.500	634.891	80.002	19.994	104.194	20.104	9.244	0.501
1140.000	635.150	80.003	19.993	104.192	20.103	9.278	0.485
1140.500	635.371	80.001	19.994	104.196	20.101	9.434	0.486
1141.000	635.662	80.004	19.992	104.195	20.103	9.319	0.496
1141.500	635.926	80.004	19.993	104.192	20.102	9.383	0.534
1142.000	636.151	80.004	19.995	104.191	20.102	9.331	0.522
1142.500	636.402	80.003	19.994	104.190	20.102	9.359	0.482
1143.000	636.672	80.005	19.993	104.186	20.102	9.325	0.499
1143.500	636.927	80.003	19.993	104.183	20.099	9.554	0.523
1144.000	637.152	79.998	19.994	104.180	20.101	9.413	0.502
1144.500	637.431	79.999	19.994	104.178	20.100	9.478	0.493
1145.000	637.687	80.005	19.994	104.178	20.099	9.566	0.520
1145.500	637.925	80.007	19.994	104.178	20.098	9.616	0.514
1146.000	638.210	80.003	19.993	104.179	20.101	9.407	0.508
1146.500	638.392	79.997	19.995	104.178	20.098	9.621	0.495
1147.000	638.696	79.997	19.995	104.178	20.098	9.595	0.476
1147.500	638.916	80.011	19.994	104.176	20.100	9.507	0.505
1148.000	639.194	80.006	19.993	104.176	20.098	9.640	0.511
1148.500	639.514	80.013	19.992	104.177	20.098	9.602	0.548
1149.000	639.729	80.022	19.995	104.182	20.101	9.427	0.567
1149.500	639.929	80.005	19.994	104.184	20.100	9.488	0.476
1150.000	640.198	80.017	19.994	104.185	20.099	9.530	0.442
1150.501	640.475	80.010	19.992	104.185	20.100	9.489	0.507
1151.001	640.733	80.008	19.993	104.185	20.100	9.501	0.540
1151.500	640.958	80.001	19.995	104.181	20.097	9.688	0.509
1152.000	641.203	80.003	19.995	104.179	20.100	9.465	0.477
1152.500	641.434	79.993	19.996	104.178	20.097	9.679	0.473
1153.000	641.679	80.002	19.995	104.173	20.099	9.589	0.476
1153.501	641.980	80.005	19.994	104.172	20.102	9.354	0.511
1154.001	642.223	80.003	19.995	104.170	20.095	9.794	0.545
1154.500	642.465	80.001	19.994	104.170	20.097	9.673	0.514
1155.000	642.696	80.009	19.994	104.169	20.100	9.504	0.479
1155.500	642.970	79.997	19.995	104.174	20.100	9.515	0.489
1156.000	643.246	80.009	19.994	104.175	20.098	9.617	0.528
1156.500	643.443	80.006	19.994	104.181	20.100	9.470	0.512
1157.000	643.734	80.005	19.995	104.188	20.098	9.639	0.480
1157.501	643.968	80.004	19.993	104.194	20.094	9.875	0.506
1158.001	644.228	80.002	19.996	104.197	20.100	9.508	0.510
1158.500	644.480	80.006	19.995	104.199	20.097	9.668	0.503
1159.000	644.689	80.003	19.995	104.202	20.095	9.815	0.486
1159.500	644.936	80.005	19.994	104.203	20.098	9.619	0.459
1160.001	645.219	80.008	19.994	104.207	20.099	9.540	0.493
1160.501	645.459	80.001	19.994	104.209	20.099	9.557	0.527
1161.000	645.734	79.993	19.995	104.214	20.097	9.698	0.519
1161.500	645.941	80.004	19.994	104.215	20.099	9.544	0.498
1162.000	646.201	80.006	19.994	104.216	20.097	9.707	0.474
1162.500	646.492	80.005	19.994	104.216	20.095	9.847	0.509
1163.000	646.712	80.005	19.994	104.215	20.097	9.703	0.531
1163.500	646.986	80.012	19.993	104.214	20.095	9.842	0.503
1164.000	647.230	80.008	19.994	104.213	20.097	9.683	0.506
1164.500	647.489	80.006	19.993	104.209	20.095	9.799	0.511
1165.000	647.687	80.009	19.993	104.203	20.097	9.686	0.480
1165.500	647.995	80.000	19.994	104.197	20.093	9.931	0.481
1166.000	648.207	80.007	19.994	104.191	20.095	9.788	0.513
1166.500	648.482	80.005	19.992	104.189	20.095	9.814	0.503
1167.000	648.737	80.006	19.993	104.192	20.093	9.968	0.509
1167.500	648.953	80.003	19.995	104.193	20.095	9.843	0.501
1168.001	649.199	80.012	19.992	104.190	20.095	9.846	0.467
1168.501	649.440	80.004	19.994	104.191	20.097	9.659	0.474
1169.000	649.688	79.998	19.993	104.187	20.094	9.854	0.488
1169.500	649.960	80.009	19.993	104.181	20.093	9.955	0.505
1170.000	650.232	80.002	19.994	104.180	20.094	9.854	0.532
1170.500	650.512	80.008	19.992	104.186	20.095	9.802	0.548
1171.000	650.711	80.007	19.994	104.189	20.094	9.908	0.516
1171.500	650.964	79.995	19.994	104.193	20.097	9.709	0.466
1172.000	651.207	80.016	19.993	104.193	20.096	9.729	0.474
1172.500	651.493	80.001	19.992	104.192	20.095	9.799	0.512
1173.000	651.700	79.991	19.994	104.196	20.101	9.423	0.511
1173.500	651.987	80.014	19.993	104.188	20.100	9.458	0.493
1174.000	652.185	80.014	19.993	104.188	20.094	9.894	0.490
1174.500	652.465	80.004	19.991	104.194	20.104	9.243	0.481
1175.000	652.715	80.001	19.992	104.203	20.096	9.751	0.504
1175.500	652.967	80.006	19.993	104.202	20.100	9.464	0.517
1176.000	653.228	80.012	19.993	104.213	20.098	9.595	0.508
1176.500	653.465	80.002	19.993	104.213	20.102	9.351	0.506
1177.000	653.706	80.008	19.993	104.210	20.097	9.673	0.488
1177.500	653.964	80.000	19.993	104.206	20.100	9.478	0.488
1178.000	654.203	80.006	19.993	104.207	20.099	9.566	0.498
1178.500	654.460	80.002	19.993	104.207	20.100	9.518	0.496
1179.001	654.701	80.010	19.993	104.202	20.096	9.761	0.497
1179.501	654.943	80.007	19.994	104.199	20.102	9.356	0.491
1180.001	655.194	79.982	19.995	104.192	20.096	9.729	0.488
1180.501	655.437	79.999	19.993	104.181	20.095	9.796	0.494
1181.001	655.746	80.013	19.991	104.173	20.094	9.852	0.523
1181.500	655.958	80.011	19.993	104.173	20.096	9.776	0.537
1182.000	656.186	79.999	19.994	104.170	20.098	9.619	0.480
1182.500	656.521	80.004	19.991	104.172	20.097	9.676	0.501
1183.000	656.695	80.009	19.993	104.179	20.096	9.750	0.536
1183.500	656.981	80.000	19.993	104.180	20.095	9.838	0.484
1184.000	657.219	80.001	19.994	104.178	20.097	9.675	0.492
1184.500	657.493	80.005	19.993	104.178	20.097	9.675	0.518
1185.000	657.617	79.981	19.996	104.180	20.098	9.615	0.455
1185.500	658.035	80.005	19.992	104.171	20.093	9.955	0.470
1186.000	658.124	80.013	19.992	104.179	20.095	9.822	0.525
1186.500	658.554	79.992	19.995	104.185	20.096	9.783	0.513
1187.000	658.978	80.011	19.991	104.184	20.093	9.915	0.687
1187.501	659.340	79.976	19.996	104.185	20.095	9.786	0.820
1188.001	658.956	79.997	19.993	104.187	20.097	9.689	0.382
1188.500	659.749	80.013	19.991	104.178	20.095	9.840	0.193
1189.000	659.579	79.999	19.992	104.177	20.100	9.467	0.516
1189.500	660.047	79.997	19.994	104.180	20.098	9.627	0.460
1190.000	660.152	80.010	19.994	104.178	20.097	9.691	0.435
1190.501	660.451	80.012	19.993	104.177	20.094	9.882	0.489
1191.001	660.771	80.001	19.992	104.173	20.091	10.091	0.512
1191.500	660.944	80.008	19.993	104.168	20.093	9.935	0.556
1192.000	661.218	79.998	19.994	104.167	20.092	10.011	0.470
1192.500	661.457	79.993	19.993	104.164	20.095	9.845	0.480
1193.000	661.586	79.995	19.995	104.166	20.096	9.726	0.440
1193.500	661.996	80.007	19.992	104.167	20.094	9.892	0.454
1194.000	662.198	80.008	19.993	104.169	20.092	10.035	0.576
1194.500	662.435	80.003	19.993	104.172	20.095	9.841	0.525
1195.001	662.705	80.013	19.992	104.173	20.093	9.958	0.473
1195.501	662.906	80.005	19.993	104.176	20.094	9.912	0.489
1196.000	663.217	80.005	19.994	104.181	20.094	9.887	0.491
1196.500	663.423	80.014	19.993	104.179	20.095	9.838	0.514
1197.000	663.662	80.000	19.992	104.174	20.096	9.765	0.481
1197.500	663.922	79.989	19.994	104.177	20.098	9.613	0.472
1198.000	664.147	80.018	19.992	104.170	20.098	9.645	0.492
1198.500	664.444	80.009	19.993	104.170	20.100	9.481	0.503
1199.001	664.646	80.007	19.992	104.171	20.098	9.617	0.511
1199.501	664.896	79.988	19.994	104.175	20.095	9.850	0.475
1200.001	665.186	80.018	19.992	104.170	20.098	9.621	0.496
1200.501	665.404	80.004	19.993	104.178	20.100	9.521	0.524
1201.001	665.649	79.990	19.993	104.178	20.098	9.632	0.486
1201.500	665.889	79.998	19.996	104.179	20.096	9.748	0.474
1202.000	666.156	80.009	19.993	104.173	20.098	9.642	0.496
1202.501	666.415	80.002	19.993	104.180	20.096	9.746	0.516
1203.001	666.666	80.003	19.994	104.184	20.098	9.604	0.518
1203.500	666.935	80.013	19.993	104.187	20.097	9.679	0.515
1204.000	667.196	80.010	19.993	104.189	20.097	9.697	0.525
1204.500	667.388	79.986	19.993	104.197	20.095	9.797	0.492
1205.000	667.640	79.998	19.993	104.193	20.102	9.372	0.449
1205.501	667.904	80.002	19.993	104.189	20.098	9.636	0.480
1206.001	668.151	79.993	19.992	104.193	20.097	9.669	0.513
1206.500	668.367	79.985	19.993	104.199	20.098	9.599	0.487
1207.000	668.635	80.010	19.993	104.202	20.093	9.956	0.474
1207.500	668.890	80.008	19.993	104.211	20.098	9.613	0.504
1208.001	669.130	80.005	19.993	104.221	20.099	9.566	0.509
1208.501	669.379	80.009	19.993	104.219	20.097	9.676	0.491
1209.000	669.655	79.998	19.994	104.217	20.097	9.706	0.507
1209.500	669.882	80.005	19.993	104.214	20.100	9.488	0.514
1210.001	670.138	79.997	19.995	104.212	20.098	9.613	0.493
1210.501	670.420	80.008	19.993	104.206	20.101	9.426	0.511
1211.001	670.598	80.010	19.993	104.209	20.101	9.446	0.499
1211.500	670.848	80.009	19.994	104.213	20.097	9.689	0.444
1212.000	671.155	80.008	19.995	104.213	20.097	9.708	0.492
1212.500	671.371	79.991	19.995	104.208	20.096	9.753	0.540
1213.000	671.646	80.021	19.991	104.205	20.098	9.651	0.507
1213.500	671.902	80.015	19.993	104.206	20.095	9.814	0.511
1214.000	672.155	80.016	19.992	104.198	20.099	9.576	0.520
1214.500	672.376	80.000	19.996	104.200	20.099	9.552	0.491
1215.000	672.638	79.989	19.994	104.197	20.100	9.509	0.479
1215.500	672.893	80.010	19.993	104.197	20.093	9.949	0.500
1216.000	673.142	80.011	19.993	104.195	20.093	9.920	0.510
1216.500	673.353	80.000	19.996	104.198	20.087	10.325	0.482
1217.000	673.629	80.005	19.995	104.189	20.097	9.710	0.474
1217.500	673.885	80.004	19.993	104.191	20.100	9.488	0.510
1218.000	674.150	79.998	19.995	104.188	20.099	9.530	0.527
1218.500	674.363	80.005	19.994	104.180	20.100	9.509	0.499
1219.000	674.644	80.011	19.994	104.175	20.098	9.615	0.485
1219.500	674.895	80.002	19.995	104.182	20.098	9.630	0.513
1220.000	675.222	80.017	19.993	104.184	20.100	9.461	0.555
1220.500	675.392	80.003	19.993	104.192	20.097	9.656	0.538
1221.000	675.663	80.004	19.992	104.197	20.097	9.688	0.469
1221.500	675.917	80.004	19.995	104.198	20.098	9.628	0.483
1222.000	676.165	80.000	19.995	104.195	20.098	9.628	0.513
1222.500	676.437	79.995	19.993	104.193	20.098	9.600	0.511
1223.001	676.680	80.011	19.991	104.185	20.096	9.747	0.518
1223.501	676.984	80.018	19.994	104.181	20.094	9.883	0.531
1224.000	677.207	80.001	19.996	104.183	20.096	9.753	0.537
1224.500	677.479	80.015	19.993	104.184	20.098	9.599	0.511
1225.000	677.744	80.006	19.993	104.192	20.098	9.607	0.516
1225.500	677.974	80.001	19.995	104.200	20.096	9.739	0.516
1226.000	678.236	79.998	19.995	104.198	20.096	9.785	0.494
1226.500	678.496	80.005	19.995	104.194	20.096	9.749	0.507
1227.000	678.759	80.007	19.993	104.192	20.097	9.673	0.523
1227.500	679.047	80.009	19.993	104.184	20.096	9.780	0.537
1228.000	679.282	79.995	19.994	104.182	20.097	9.658	0.537
1228.500	679.519	80.017	19.992	104.188	20.098	9.625	0.498
1229.000	679.816	80.005	19.993	104.195	20.095	9.841	0.503
1229.500	680.006	80.001	19.994	104.198	20.094	9.895	0.510
1230.000	679.760	80.009	19.993	104.200	20.096	9.722	0.215
1230.500	679.923	80.002	19.995	104.196	20.096	9.720	-0.069
1231.000	680.680	79.997	19.994	104.187	20.095	9.815	0.419
1231.500	681.149	80.017	19.994	104.178	20.093	9.917	1.073
1232.000	681.391	79.996	19.993	104.175	20.095	9.837	0.968
1232.500	681.655	80.008	19.992	104.171	20.095	9.843	0.609
1233.000	681.910	80.008	19.993	104.172	20.096	9.746	0.513
1233.500	682.114	80.002	19.993	104.176	20.095	9.832	0.489
1234.000	682.435	80.007	19.994	104.179	20.096	9.771	0.492
1234.500	682.685	80.011	19.993	104.178	20.093	9.928	0.548
1235.000	682.949	80.001	19.994	104.183	20.097	9.702	0.543
1235.500	683.194	80.005	19.992	104.189	20.095	9.806	0.512
1236.000	683.465	80.008	19.994	104.195	20.094	9.865	0.512
1236.500	683.730	80.011	19.993	104.204	20.097	9.684	0.526
1237.000	684.044	80.003	19.995	104.216	20.097	9.707	0.558
1237.500	684.189	80.008	19.994	104.219	20.094	9.893	0.519
1238.000	684.531	80.004	19.994	104.214	20.095	9.814	0.473
1238.500	684.799	80.005	19.995	104.208	20.098	9.636	0.549
1239.000	685.024	80.013	19.993	104.204	20.095	9.848	0.552
1239.500	685.343	80.003	19.995	104.197	20.090	10.143	0.518
1240.000	685.531	80.007	19.994	104.191	20.097	9.701	0.526
1240.500	685.835	80.003	19.995	104.193	20.097	9.680	0.500
1241.000	686.099	80.006	19.995	104.197	20.096	9.764	0.530
1241.501	686.342	80.005	19.994	104.194	20.095	9.840	0.537
1242.001	686.611	80.002	19.995	104.195	20.095	9.847	0.510
1242.500	686.905	80.005	19.994	104.199	20.096	9.759	0.537
1243.000	687.122	80.004	19.994	104.202	20.093	9.931	0.537
1243.500	687.388	80.004	19.994	104.204	20.094	9.883	0.497
1244.000	687.688	80.006	19.994	104.207	20.095	9.825	0.525
1244.500	687.928	80.004	19.994	104.206	20.092	10.029	0.553
1245.000	688.167	80.008	19.993	104.206	20.091	10.077	0.509
1245.500	688.418	80.002	19.995	104.202	20.092	9.984	0.484
1246.000	688.766	79.999	19.995	104.199	20.090	10.134	0.544
1246.500	689.023	80.009	19.994	104.194	20.094	9.903	0.602
1247.000	689.288	80.004	19.994	104.195	20.088	10.276	0.563
1247.500	689.524	80.006	19.995	104.191	20.092	10.029	0.512
1248.000	689.871	80.007	19.994	104.190	20.092	10.026	0.542
1248.500	690.095	80.009	19.994	104.186	20.091	10.108	0.577
1249.000	690.358	80.006	19.993	104.187	20.096	9.782	0.529
1249.500	690.648	80.007	19.993	104.183	20.091	10.073	0.520
1250.000	690.864	80.005	19.995	104.183	20.095	9.835	0.530
1250.500	691.163	80.007	19.994	104.181	20.092	9.981	0.510
1251.000	691.394	80.004	19.994	104.183	20.093	9.916	0.522
1251.500	691.702	80.006	19.994	104.185	20.092	10.029	0.534
1252.000	691.925	80.005	19.993	104.188	20.091	10.064	0.535
1252.500	692.156	80.007	19.994	104.190	20.091	10.063	0.493
1253.000	692.471	80.009	19.994	104.192	20.093	9.971	0.500
1253.500	692.737	80.004	19.993	104.193	20.093	9.935	0.563
1254.000	693.008	79.997	19.994	104.192	20.090	10.122	0.559
1254.500	693.240	80.011	19.993	104.192	20.093	9.957	0.520
1255.000	693.533	80.003	19.993	104.190	20.092	10.030	0.514
1255.500	693.797	79.999	19.995	104.188	20.089	10.215	0.542
1256.000	694.072	80.009	19.993	104.184	20.091	10.106	0.548
1256.500	694.367	80.004	19.993	104.183	20.092	10.042	0.554
1257.000	694.614	80.006	19.993	104.180	20.091	10.078	0.556
1257.500	694.865	80.005	19.993	104.179	20.094	9.856	0.520
1258.000	695.119	80.009	19.992	104.180	20.092	10.012	0.501
1258.500	695.397	80.008	19.993	104.186	20.088	10.248	0.518
1259.000	695.646	80.004	19.993	104.186	20.091	10.097	0.529
1259.500	695.949	80.005	19.992	104.185	20.091	10.054	0.539
1260.000	696.217	80.006	19.992	104.184	20.091	10.093	0.561
1260.500	696.470	80.005	19.994	104.176	20.092	10.002	0.546
1261.000	696.796	80.005	19.993	104.165	20.091	10.106	0.550
1261.501	697.022	80.008	19.992	104.165	20.093	9.966	0.566
1262.001	697.243	80.011	19.992	104.165	20.092	10.016	0.500
1262.500	697.519	80.008	19.992	104.168	20.089	10.186	0.472
1263.000	697.816	80.003	19.994	104.174	20.088	10.290	0.535
1263.500	698.044	80.007	19.992	104.179	20.091	10.061	0.549
1264.001	698.338	80.004	19.993	104.179	20.087	10.337	0.523
1264.501	698.570	80.007	19.993	104.179	20.086	10.383	0.524
1265.001	698.814	80.004	19.993	104.178	20.089	10.204	0.501
1265.501	699.099	80.005	19.992	104.177	20.090	10.165	0.503
1266.000	699.373	80.004	19.994	104.180	20.089	10.238	0.545
1266.500	699.657	80.003	19.993	104.179	20.090	10.153	0.559
1267.000	699.910	80.008	19.991	104.186	20.088	10.254	0.547
1267.500	700.159	80.003	19.993	104.194	20.088	10.270	0.520
1268.001	700.391	79.998	19.994	104.194	20.089	10.205	0.492
1268.501	700.680	80.005	19.992	104.193	20.090	10.163	0.501
1269.000	700.945	80.012	19.991	104.194	20.086	10.399	0.537
1269.500	701.193	80.003	19.994	104.189	20.087	10.370	0.533
1270.000	701.489	80.006	19.992	104.180	20.087	10.358	0.529
1270.500	701.759	80.005	19.993	104.181	20.085	10.472	0.555
1271.000	701.978	80.007	19.993	104.182	20.088	10.268	0.528
1271.501	702.292	80.013	19.992	104.182	20.086	10.398	0.511
1272.001	702.505	80.005	19.993	104.182	20.088	10.307	0.530
1272.500	702.783	80.003	19.992	104.186	20.088	10.299	0.509
1273.000	703.034	80.006	19.993	104.194	20.086	10.394	0.510
1273.500	703.277	80.005	19.993	104.197	20.088	10.258	0.512
1274.000	703.558	80.009	19.992	104.200	20.086	10.388	0.509
1274.501	703.815	80.009	19.993	104.201	20.089	10.236	0.531
1275.001	704.075	80.006	19.992	104.200	20.086	10.399	0.527
1275.500	704.322	80.007	19.993	104.193	20.089	10.181	0.512
1276.000	704.591	80.008	19.993	104.195	20.088	10.265	0.512
1276.500	704.825	80.006	19.993	104.196	20.087	10.317	0.509
1277.000	705.090	80.008	19.992	104.193	20.091	10.072	0.501
1277.500	705.340	80.007	19.992	104.192	20.088	10.242	0.507
1278.000	705.598	80.007	19.993	104.194	20.089	10.190	0.512
1278.500	705.836	80.009	19.993	104.193	20.091	10.110	0.502
1279.000	706.073	80.008	19.992	104.192	20.089	10.204	0.486
1279.500	706.349	80.003	19.993	104.197	20.088	10.270	0.494
1280.000	706.626	80.009	19.993	104.196	20.092	9.986	0.533
1280.500	706.894	80.011	19.992	104.192	20.090	10.162	0.549
1281.000	707.137	80.007	19.992	104.190	20.090	10.164	0.528
1281.500	707.377	80.006	19.993	104.189	20.089	10.224	0.497
1282.000	707.613	80.007	19.993	104.186	20.090	10.172	0.480
1282.500	707.862	80.007	19.992	104.185	20.090	10.156	0.481
1283.000	708.109	80.005	19.993	104.184	20.089	10.181	0.490
1283.500	708.373	80.008	19.992	104.180	20.088	10.303	0.503
1284.000	708.603	80.009	19.992	104.178	20.088	10.298	0.502
1284.500	708.863	80.009	19.992	104.175	20.084	10.537	0.492
1285.000	709.124	80.010	19.993	104.176	20.087	10.368	0.505
1285.500	709.355	80.006	19.993	104.175	20.088	10.252	0.506
1286.000	709.621	80.014	19.992	104.176	20.088	10.308	0.495
1286.500	709.857	80.002	19.993	104.178	20.089	10.215	0.500
1287.000	710.070	80.000	19.992	104.179	20.089	10.237	0.476
1287.500	710.347	80.006	19.992	104.179	20.088	10.260	0.469
1288.000	710.598	80.003	19.992	104.183	20.089	10.186	0.509
1288.500	710.849	80.005	19.993	104.186	20.088	10.255	0.515
1289.000	711.086	80.006	19.992	104.185	20.090	10.128	0.495
1289.500	711.334	80.011	19.992	104.187	20.087	10.308	0.486
1290.001	711.584	80.004	19.993	104.192	20.089	10.237	0.492
1290.501	711.820	80.007	19.993	104.189	20.086	10.374	0.492
1291.000	712.071	80.009	19.992	104.186	20.085	10.452	0.487
1291.500	712.356	80.002	19.992	104.186	20.088	10.296	0.512
1292.000	712.559	80.011	19.992	104.187	20.090	10.175	0.512
1292.500	712.830	80.007	19.993	104.182	20.087	10.308	0.481
1293.000	713.079	80.005	19.992	104.184	20.088	10.281	0.497
1293.500	713.310	80.005	19.994	104.184	20.087	10.308	0.500
1294.000	713.561	80.015	19.992	104.182	20.090	10.127	0.481
1294.501	713.810	80.005	19.994	104.181	20.083	10.591	0.491
1295.001	714.082	80.006	19.992	104.182	20.090	10.175	0.510
1295.501	714.352	80.007	19.993	104.188	20.087	10.338	0.531
1296.000	714.566	79.993	19.994	104.189	20.086	10.413	0.513
1296.500	714.835	80.007	19.993	104.192	20.089	10.180	0.483
1297.000	715.067	80.002	19.994	104.200	20.086	10.387	0.492
1297.500	715.350	79.999	19.993	104.204	20.087	10.353	0.508
1298.001	715.617	80.003	19.993	104.200	20.088	10.283	0.533
1298.501	715.834	80.003	19.994	104.201	20.091	10.051	0.517
1299.000	716.083	80.002	19.994	104.199	20.089	10.205	0.475
1299.500	716.344	80.010	19.993	104.189	20.086	10.407	0.488
1300.000	716.608	80.006	19.993	104.184	20.084	10.505	0.518
1300.500	716.833	80.008	19.994	104.179	20.089	10.177	0.507
1301.001	717.092	80.006	19.993	104.171	20.086	10.394	0.487
1301.501	717.345	80.002	19.993	104.170	20.089	10.182	0.498
1302.000	717.615	80.004	19.992	104.170	20.089	10.198	0.517
1302.500	717.840	80.004	19.994	104.169	20.086	10.436	0.509
1303.000	718.092	80.006	19.993	104.170	20.086	10.400	0.486
1303.500	718.325	80.007	19.992	104.174	20.084	10.527	0.481
1304.000	718.604	80.007	19.993	104.176	20.087	10.323	0.498
1304.500	718.834	80.007	19.993	104.176	20.087	10.344	0.511
1305.000	719.098	80.005	19.993	104.176	20.089	10.188	0.502
1305.500	719.343	80.006	19.994	104.174	20.085	10.449	0.502
1306.000	719.590	80.006	19.994	104.176	20.085	10.477	0.501
1306.500	719.812	80.008	19.994	104.175	20.087	10.323	0.480
1307.000	720.071	80.006	19.994	104.175	20.086	10.422	0.475
1307.500	720.332	80.006	19.994	104.175	20.085	10.499	0.501
1308.000	720.555	80.006	19.993	104.177	20.087	10.361	0.502
1308.500	720.821	80.007	19.994	104.183	20.087	10.314	0.487
1309.000	721.072	80.006	19.994	104.184	20.091	10.108	0.503
1309.500	721.308	80.018	19.992	104.184	20.088	10.300	0.502
1310.000	721.544	80.009	19.992	104.187	20.088	10.266	0.480
1310.501	721.822	80.006	19.994	104.184	20.088	10.298	0.493
1311.001	722.057	80.009	19.993	104.175	20.086	10.407	0.514
1311.500	722.330	80.008	19.993	104.175	20.087	10.349	0.511
1312.001	722.592	80.008	19.993	104.176	20.087	10.364	0.522
1312.501	722.852	80.007	19.993	104.173	20.086	10.409	0.528
1313.001	723.061	80.006	19.994	104.176	20.080	10.778	0.495
1313.501	723.329	80.005	19.994	104.181	20.082	10.684	0.473
1314.001	723.537	80.006	19.993	104.180	20.086	10.436	0.476
1314.501	723.822	80.004	19.993	104.180	20.083	10.576	0.485
1315.001	724.087	80.006	19.993	104.187	20.085	10.467	0.522
1315.501	724.320	80.006	19.994	104.194	20.085	10.479	0.524
1316.001	724.572	80.006	19.993	104.199	20.083	10.596	0.491
1316.500	724.795	80.006	19.993	104.203	20.084	10.546	0.480
1317.000	725.046	80.007	19.992	104.204	20.083	10.574	0.474
1317.500	725.304	80.005	19.993	104.199	20.082	10.645	0.492
1318.000	725.553	80.010	19.993	104.192	20.083	10.593	0.508
1318.500	725.806	79.999	19.993	104.188	20.085	10.466	0.505
1319.000	726.064	80.008	19.993	104.184	20.084	10.569	0.506
1319.500	726.322	80.004	19.992	104.183	20.083	10.607	0.513
1320.000	726.562	80.006	19.993	104.187	20.085	10.473	0.507
1320.500	726.772	80.003	19.994	104.188	20.084	10.561	0.474
1321.000	727.060	80.002	19.993	104.186	20.084	10.512	0.474
1321.500	727.307	80.008	19.992	104.185	20.082	10.648	0.516
1322.000	727.569	80.004	19.994	104.182	20.086	10.397	0.522
1322.500	727.803	80.004	19.993	104.176	20.080	10.785	0.503
1323.000	728.064	80.008	19.993	104.178	20.082	10.656	0.496
1323.501	728.316	80.006	19.992	104.187	20.080	10.806	0.504
1324.001	728.564	80.004	19.994	104.197	20.080	10.814	0.506
1324.501	728.829	80.009	19.993	104.207	20.081	10.754	0.507
1325.002	729.029	80.004	19.993	104.218	20.084	10.511	0.490
1325.501	729.270	80.002	19.994	104.224	20.082	10.636	0.453
1326.000	729.520	80.001	19.994	104.223	20.082	10.700	0.466
1326.500	729.776	80.003	19.993	104.223	20.082	10.638	0.498
1327.000	730.066	80.003	19.995	104.221	20.081	10.714	0.525
1327.500	730.256	79.997	19.994	104.211	20.086	10.433	0.513
1328.000	730.550	80.001	19.994	104.202	20.087	10.349	0.482
1328.500	730.789	80.000	19.994	104.196	20.082	10.645	0.508
1329.000	731.047	80.010	19.991	104.194	20.085	10.478	0.515
1329.500	731.285	80.006	19.994	104.199	20.081	10.709	0.497
1330.000	731.576	80.006	19.994	104.204	20.085	10.506	0.512
1330.500	731.789	80.007	19.993	104.211	20.082	10.690	0.516
1331.001	732.077	80.006	19.993	104.217	20.081	10.718	0.503
1331.501	732.307	80.008	19.993	104.217	20.079	10.877	0.510
1332.001	732.556	80.007	19.994	104.208	20.080	10.776	0.498
1332.501	732.782	80.007	19.993	104.209	20.077	10.964	0.477
1333.000	733.030	80.004	19.994	104.211	20.077	10.995	0.475
1333.500	733.290	80.007	19.993	104.211	20.079	10.857	0.491
1334.000	733.555	80.005	19.993	104.212	20.078	10.912	0.517
1334.500	733.787	80.006	19.994	104.209	20.080	10.798	0.511
1335.000	734.063	80.008	19.993	104.203	20.079	10.841	0.503
1335.500	734.299	80.005	19.993	104.197	20.082	10.674	0.510
1336.000	734.548	80.006	19.993	104.196	20.079	10.888	0.498
1336.500	734.767	80.005	19.993	104.199	20.082	10.696	0.477
1337.000	735.038	80.006	19.995	104.208	20.081	10.722	0.479
1337.500	735.293	80.006	19.993	104.215	20.082	10.652	0.508
1338.000	735.510	80.006	19.995	104.221	20.079	10.865	0.499
1338.500	735.782	80.008	19.994	104.229	20.082	10.644	0.481
1339.000	736.060	80.006	19.994	104.230	20.080	10.798	0.520
1339.500	736.290	80.005	19.994	104.229	20.082	10.669	0.529
1340.000	736.574	80.005	19.994	104.228	20.084	10.525	0.511
1340.500	736.762	80.006	19.994	104.228	20.082	10.667	0.492
1341.000	737.021	80.005	19.994	104.220	20.082	10.669	0.459
1341.500	737.281	80.005	19.994	104.213	20.082	10.638	0.483
1342.000	737.544	80.008	19.994	104.207	20.081	10.715	0.521
1342.500	737.775	80.005	19.994	104.200	20.081	10.758	0.508
1343.000	738.033	80.008	19.994	104.194	20.082	10.634	0.492
1343.500	738.269	80.007	19.994	104.194	20.083	10.575	0.492
1344.000	738.544	80.006	19.994	104.199	20.079	10.840	0.502
1344.500	738.759	80.006	19.994	104.205	20.080	10.767	0.501
1345.000	739.025	80.005	19.994	104.213	20.078	10.948	0.486
1345.500	739.256	80.006	19.993	104.219	20.081	10.742	0.489
1346.001	739.484	80.005	19.993	104.217	20.082	10.664	0.478
1346.501	739.768	80.006	19.992	104.213	20.081	10.750	0.486
1347.001	740.015	80.007	19.992	104.209	20.078	10.905	0.521
1347.500	740.249	80.005	19.994	104.204	20.081	10.707	0.506
1348.000	740.526	80.005	19.993	104.198	20.081	10.722	0.496
1348.500	740.742	80.005	19.993	104.192	20.079	10.849	0.502
1349.000	740.980	80.007	19.993	104.189	20.078	10.924	0.474
1349.500	741.238	80.007	19.992	104.184	20.078	10.946	0.475
1350.000	741.477	80.006	19.994	104.181	20.081	10.732	0.496
1350.500	741.748	80.007	19.993	104.181	20.081	10.698	0.504
1351.000	742.060	80.006	19.992	104.181	20.079	10.870	0.547
1351.500	742.272	80.007	19.994	104.181	20.078	10.924	0.553
1352.000	742.522	80.006	19.993	104.181	20.078	10.920	0.493
1352.500	742.775	80.006	19.992	104.181	20.080	10.827	0.483
1353.000	743.018	80.007	19.993	104.179	20.079	10.836	0.500
1353.500	743.284	80.007	19.993	104.179	20.079	10.832	0.502
1354.000	743.553	80.007	19.992	104.179	20.080	10.818	0.522
1354.500	743.768	80.007	19.992	104.179	20.079	10.849	0.510
