Sample ID:	C:\MCC\MCC Cal\Test\Vinyl_Tile_MCC_30K_min_211103_R1.txt
Sample Weight (mg):	4.81
Heating Rate (C/s):	0.5
Combustor Temp (C):	900
N2 Flow Rate (cc/min):	80
O2 Flow Rate (cc/min):	20
Calibration File:	C:\MCC\MCC Cal\Coeff1 JN10440_30_210304.txt.txt
T Correction Coefficients:	0	1.024463	0
Time Shift (s):	14
*
Time (s)	Temperature (C)	N2 flow rate (cc/min)	O2 flow rate (cc/min)	Flow Rate (cc/min)	Oxygen (%)	HRR (W/g)	Heating rate (C/s)
0.000	105.845	80.008	19.995	103.060	20.148	-0.339	0.008
0.500	105.815	80.007	19.995	103.059	20.143	-0.031	0.015
1.000	105.814	80.009	19.996	103.058	20.146	-0.207	-0.008
1.500	105.813	80.008	19.995	103.059	20.144	-0.063	-0.016
2.000	105.822	80.008	19.995	103.059	20.146	-0.212	0.003
2.500	105.797	80.008	19.995	103.060	20.146	-0.241	-0.004
3.000	105.819	80.008	19.994	103.059	20.145	-0.127	-0.009
3.500	105.814	80.007	19.995	103.060	20.142	0.024	0.007
4.001	105.821	80.008	19.995	103.061	20.144	-0.051	0.010
4.500	105.806	80.008	19.995	103.061	20.147	-0.270	-0.003
5.000	105.784	80.008	19.995	103.061	20.145	-0.178	-0.023
5.500	105.831	80.007	19.995	103.062	20.142	0.076	-0.006
6.000	105.834	80.007	19.994	103.066	20.145	-0.180	0.038
6.500	105.861	80.007	19.994	103.069	20.144	-0.091	0.040
7.000	105.821	80.007	19.994	103.070	20.142	0.031	0.008
7.500	105.866	80.007	19.994	103.073	20.142	0.049	-0.004
8.000	105.842	80.008	19.995	103.076	20.144	-0.067	0.013
8.500	105.821	80.007	19.994	103.073	20.141	0.127	-0.012
9.000	105.839	80.008	19.994	103.071	20.143	0.016	-0.024
9.500	105.845	80.007	19.995	103.074	20.142	0.056	0.011
10.000	105.796	80.006	19.993	103.075	20.141	0.096	-0.009
10.500	105.847	80.006	19.995	103.078	20.141	0.136	-0.021
11.000	105.823	80.007	19.994	103.082	20.142	0.031	0.015
11.500	105.818	80.006	19.996	103.083	20.139	0.241	-0.001
12.000	105.818	80.008	19.994	103.086	20.140	0.212	-0.017
12.500	105.852	80.007	19.995	103.088	20.140	0.207	0.015
13.000	105.841	80.007	19.995	103.088	20.142	0.083	0.028
13.500	105.852	80.006	19.995	103.092	20.138	0.327	0.011
14.000	105.856	80.007	19.994	103.098	20.137	0.419	0.008
14.500	105.828	80.006	19.996	103.099	20.136	0.450	-0.004
15.000	105.836	80.007	19.995	103.103	20.136	0.426	-0.022
15.500	105.860	80.005	19.995	103.106	20.135	0.523	0.006
16.000	105.880	80.007	19.995	103.111	20.137	0.414	0.038
16.500	105.871	80.007	19.995	103.117	20.138	0.347	0.027
17.000	105.891	80.007	19.994	103.124	20.138	0.301	0.011
17.500	105.898	80.007	19.995	103.129	20.130	0.824	0.019
18.000	105.929	80.008	19.995	103.135	20.135	0.546	0.033
18.500	105.944	80.007	19.995	103.137	20.133	0.663	0.042
19.000	105.972	80.007	19.995	103.138	20.132	0.697	0.044
19.500	105.969	80.008	19.995	103.139	20.133	0.645	0.034
20.000	105.976	80.009	19.996	103.139	20.131	0.790	0.015
20.500	106.024	80.008	19.996	103.143	20.126	1.142	0.029
21.000	106.001	80.009	19.995	103.150	20.125	1.173	0.040
21.500	106.040	80.008	19.996	103.156	20.124	1.246	0.021
22.000	106.061	80.008	19.996	103.161	20.130	0.870	0.038
22.500	106.089	80.007	19.995	103.168	20.128	1.022	0.054
23.000	106.118	80.008	19.995	103.170	20.127	1.068	0.053
23.500	106.136	80.008	19.995	103.171	20.121	1.464	0.052
24.000	106.158	80.009	19.996	103.174	20.124	1.271	0.044
24.500	106.193	80.008	19.994	103.175	20.123	1.317	0.049
25.000	106.197	80.008	19.996	103.176	20.122	1.382	0.048
25.500	106.265	80.008	19.995	103.179	20.120	1.507	0.056
26.000	106.280	80.010	19.996	103.185	20.119	1.562	0.078
26.500	106.337	80.009	19.996	103.189	20.119	1.571	0.077
27.000	106.350	80.009	19.995	103.199	20.120	1.511	0.071
27.500	106.365	80.009	19.995	103.211	20.117	1.711	0.049
28.000	106.431	80.008	19.996	103.217	20.119	1.591	0.054
28.500	106.472	80.009	19.995	103.219	20.118	1.687	0.093
29.000	106.464	80.008	19.995	103.225	20.117	1.722	0.070
29.500	106.531	80.009	19.995	103.227	20.114	1.942	0.046
30.000	106.591	80.010	19.996	103.230	20.112	2.060	0.093
30.500	106.676	80.009	19.996	103.236	20.112	2.069	0.136
31.000	106.675	80.009	19.995	103.242	20.110	2.198	0.114
31.500	106.708	80.009	19.994	103.245	20.111	2.143	0.058
32.000	106.768	80.009	19.995	103.249	20.110	2.189	0.063
32.500	106.901	80.009	19.994	103.249	20.109	2.243	0.142
33.000	106.906	80.009	19.994	103.250	20.108	2.321	0.165
33.500	106.986	80.009	19.994	103.256	20.110	2.229	0.112
34.000	106.896	80.009	19.995	103.264	20.110	2.214	0.037
34.500	106.990	80.009	19.995	103.271	20.109	2.280	-0.003
35.000	107.053	80.008	19.994	103.275	20.106	2.480	0.081
35.500	107.224	80.010	19.995	103.275	20.106	2.451	0.195
36.000	107.275	80.008	19.995	103.271	20.105	2.554	0.228
36.500	107.380	80.007	19.994	103.263	20.102	2.748	0.189
37.000	107.391	80.008	19.996	103.258	20.106	2.436	0.136
37.500	107.487	80.009	19.995	103.260	20.104	2.612	0.112
38.000	107.575	80.008	19.994	103.266	20.105	2.516	0.146
38.500	107.684	80.009	19.995	103.272	20.105	2.523	0.190
39.000	107.760	80.009	19.995	103.279	20.103	2.642	0.191
39.500	107.837	80.007	19.995	103.284	20.104	2.631	0.169
40.000	107.891	80.008	19.995	103.285	20.102	2.721	0.142
40.500	107.976	80.010	19.995	103.286	20.100	2.843	0.135
41.000	108.079	80.008	19.995	103.287	20.100	2.850	0.164
41.500	108.193	80.010	19.995	103.287	20.098	3.030	0.203
42.000	108.248	80.010	19.994	103.287	20.097	3.059	0.193
42.500	108.344	80.009	19.994	103.287	20.100	2.854	0.160
43.000	108.449	80.010	19.995	103.287	20.099	2.947	0.177
43.501	108.529	80.009	19.994	103.288	20.098	3.016	0.193
44.001	108.601	80.010	19.994	103.287	20.096	3.166	0.168
44.501	108.698	80.009	19.994	103.288	20.098	2.985	0.160
45.001	108.827	80.010	19.995	103.290	20.096	3.164	0.197
45.501	108.960	80.010	19.994	103.290	20.098	3.024	0.244
46.000	109.041	80.011	19.995	103.291	20.096	3.146	0.239
46.500	109.128	80.009	19.993	103.293	20.100	2.879	0.191
47.000	109.227	80.010	19.994	103.294	20.096	3.159	0.177
47.500	109.418	80.011	19.994	103.294	20.099	2.966	0.237
48.000	109.423	80.010	19.993	103.294	20.099	2.901	0.243
48.500	109.605	80.009	19.994	103.296	20.099	2.945	0.192
49.000	109.719	80.010	19.994	103.299	20.097	3.098	0.241
49.500	109.817	80.011	19.994	103.301	20.095	3.185	0.254
50.000	109.915	80.010	19.994	103.302	20.095	3.190	0.204
50.500	110.023	80.010	19.994	103.303	20.096	3.134	0.201
51.000	110.155	80.011	19.994	103.302	20.098	3.032	0.223
51.500	110.262	80.010	19.995	103.301	20.094	3.255	0.240
52.001	110.445	80.009	19.994	103.299	20.094	3.292	0.264
52.501	110.555	80.010	19.994	103.303	20.095	3.188	0.291
53.001	110.667	80.011	19.994	103.306	20.097	3.055	0.258
53.501	110.766	80.010	19.994	103.305	20.094	3.290	0.216
54.001	110.911	80.010	19.995	103.303	20.097	3.068	0.227
54.500	111.031	80.010	19.994	103.301	20.095	3.212	0.254
55.000	111.151	80.009	19.994	103.294	20.096	3.121	0.253
55.500	111.247	80.010	19.994	103.292	20.095	3.210	0.229
56.000	111.385	80.009	19.994	103.290	20.096	3.141	0.225
56.500	111.521	80.010	19.995	103.289	20.096	3.154	0.253
57.000	111.640	80.009	19.995	103.289	20.095	3.230	0.264
57.500	111.754	80.011	19.994	103.290	20.096	3.129	0.244
58.000	111.909	80.008	19.994	103.290	20.095	3.183	0.251
58.500	112.017	80.008	19.994	103.293	20.096	3.121	0.266
59.000	112.214	80.008	19.994	103.301	20.096	3.154	0.284
59.500	112.317	80.008	19.994	103.304	20.095	3.208	0.302
60.001	112.433	80.009	19.994	103.307	20.095	3.221	0.260
60.501	112.611	80.008	19.995	103.307	20.097	3.099	0.257
61.001	112.736	80.008	19.994	103.304	20.094	3.292	0.298
61.501	112.874	80.008	19.994	103.299	20.096	3.142	0.283
62.001	113.014	80.009	19.994	103.296	20.098	3.018	0.271
62.500	113.173	80.007	19.995	103.295	20.097	3.084	0.289
63.000	113.314	80.008	19.994	103.295	20.098	3.005	0.300
63.500	113.428	80.007	19.994	103.296	20.093	3.336	0.277
64.000	113.597	80.008	19.994	103.294	20.096	3.137	0.269
64.500	113.787	80.007	19.994	103.294	20.094	3.255	0.321
65.001	113.921	80.007	19.994	103.296	20.095	3.185	0.342
65.501	114.094	80.006	19.994	103.296	20.097	3.078	0.316
66.000	114.223	80.008	19.994	103.295	20.099	2.947	0.305
66.501	114.352	80.008	19.994	103.296	20.095	3.185	0.280
67.001	114.568	80.007	19.994	103.297	20.096	3.143	0.301
67.500	114.672	80.007	19.994	103.301	20.100	2.864	0.332
68.000	114.831	80.008	19.994	103.306	20.098	2.985	0.292
68.500	114.990	80.007	19.994	103.314	20.097	3.084	0.291
69.000	115.141	80.008	19.994	103.314	20.092	3.371	0.314
69.500	115.293	80.008	19.994	103.312	20.094	3.253	0.307
70.000	115.457	80.007	19.993	103.308	20.097	3.102	0.309
70.500	115.594	80.008	19.994	103.305	20.095	3.174	0.308
71.000	115.794	80.008	19.994	103.302	20.093	3.305	0.319
71.501	115.968	80.008	19.995	103.308	20.097	3.087	0.356
72.001	116.078	80.008	19.995	103.316	20.095	3.216	0.329
72.500	116.261	80.009	19.994	103.323	20.095	3.169	0.289
73.000	116.405	80.008	19.995	103.326	20.095	3.196	0.310
73.500	116.573	80.010	19.994	103.322	20.096	3.138	0.319
74.001	116.753	80.007	19.995	103.316	20.094	3.287	0.330
74.501	116.930	80.007	19.994	103.308	20.095	3.191	0.352
75.000	117.077	80.009	19.993	103.301	20.094	3.296	0.340
75.500	117.284	80.008	19.995	103.299	20.094	3.249	0.339
76.001	117.448	80.008	19.993	103.303	20.094	3.280	0.363
76.501	117.637	80.008	19.994	103.303	20.091	3.476	0.362
77.000	117.787	80.008	19.994	103.307	20.092	3.424	0.346
77.500	117.981	80.008	19.994	103.313	20.093	3.360	0.342
78.000	118.146	80.008	19.994	103.317	20.093	3.351	0.351
78.500	118.321	80.008	19.993	103.320	20.095	3.225	0.349
79.000	118.527	80.008	19.994	103.324	20.087	3.732	0.360
79.500	118.674	80.008	19.994	103.324	20.091	3.442	0.367
80.000	118.806	80.009	19.994	103.325	20.091	3.485	0.316
80.500	119.048	80.008	19.995	103.325	20.092	3.387	0.326
81.000	119.214	80.008	19.993	103.324	20.090	3.518	0.391
81.500	119.376	80.010	19.994	103.321	20.087	3.734	0.368
82.001	119.533	80.007	19.993	103.325	20.090	3.551	0.323
82.501	119.713	80.008	19.995	103.324	20.093	3.329	0.328
83.000	119.902	80.007	19.994	103.324	20.090	3.542	0.353
83.500	120.075	80.008	19.994	103.325	20.090	3.509	0.365
84.000	120.236	80.009	19.995	103.330	20.092	3.413	0.348
84.500	120.430	80.008	19.994	103.329	20.091	3.451	0.345
85.000	120.622	80.008	19.995	103.329	20.093	3.351	0.370
85.500	120.803	80.008	19.995	103.329	20.092	3.373	0.380
86.000	120.991	80.009	19.994	103.328	20.091	3.480	0.371
86.501	121.167	80.007	19.995	103.328	20.089	3.607	0.366
87.001	121.384	80.008	19.995	103.329	20.089	3.634	0.378
87.501	121.582	80.008	19.995	103.329	20.090	3.518	0.404
88.001	121.746	80.007	19.995	103.328	20.089	3.638	0.389
88.500	121.955	80.008	19.994	103.329	20.092	3.427	0.367
89.000	122.153	80.009	19.995	103.327	20.088	3.658	0.390
89.500	122.363	80.009	19.995	103.327	20.086	3.800	0.408
90.000	122.518	80.008	19.996	103.328	20.091	3.484	0.387
90.500	122.711	80.009	19.995	103.328	20.088	3.703	0.356
91.000	122.861	80.008	19.995	103.328	20.087	3.736	0.346
91.500	123.079	80.007	19.995	103.329	20.089	3.593	0.356
92.000	123.321	80.008	19.995	103.329	20.089	3.573	0.414
92.500	123.492	80.008	19.995	103.328	20.086	3.801	0.436
93.000	123.667	80.008	19.995	103.328	20.088	3.658	0.380
93.501	123.868	80.007	19.995	103.328	20.089	3.605	0.361
94.001	124.077	80.008	19.996	103.329	20.088	3.703	0.393
94.500	124.270	80.007	19.995	103.329	20.091	3.469	0.406
95.000	124.469	80.006	19.995	103.329	20.086	3.831	0.397
95.500	124.638	80.006	19.994	103.329	20.087	3.712	0.380
96.000	124.855	80.007	19.995	103.329	20.087	3.716	0.377
96.500	125.037	80.006	19.995	103.329	20.089	3.625	0.393
97.001	125.284	80.007	19.996	103.329	20.088	3.659	0.414
97.501	125.470	80.007	19.995	103.329	20.085	3.857	0.432
98.000	125.662	80.008	19.996	103.329	20.088	3.659	0.406
98.500	125.855	80.008	19.995	103.332	20.089	3.614	0.381
99.000	126.075	80.007	19.994	103.333	20.088	3.683	0.399
99.500	126.293	80.009	19.995	103.333	20.087	3.769	0.425
100.000	126.488	80.006	19.994	103.332	20.088	3.663	0.426
100.500	126.694	80.009	19.994	103.332	20.090	3.547	0.407
101.000	126.888	80.008	19.995	103.330	20.087	3.725	0.400
101.500	127.144	80.008	19.994	103.328	20.088	3.683	0.425
102.000	127.319	80.008	19.994	103.328	20.086	3.810	0.441
102.500	127.483	80.009	19.995	103.327	20.088	3.692	0.385
103.000	127.688	80.009	19.994	103.327	20.088	3.683	0.354
103.501	127.922	80.009	19.994	103.326	20.084	3.963	0.405
104.001	128.135	80.009	19.996	103.325	20.084	3.972	0.443
104.500	128.346	80.009	19.994	103.324	20.087	3.743	0.435
105.000	128.587	80.010	19.994	103.325	20.087	3.736	0.438
105.500	128.790	80.008	19.994	103.325	20.086	3.814	0.448
106.000	128.991	80.010	19.994	103.326	20.084	3.967	0.424
106.500	129.195	80.009	19.995	103.327	20.088	3.643	0.405
107.000	129.435	80.008	19.994	103.322	20.087	3.712	0.425
107.500	129.608	80.011	19.995	103.319	20.084	3.966	0.429
108.000	129.841	80.010	19.995	103.319	20.086	3.801	0.410
108.500	130.077	80.011	19.995	103.319	20.085	3.890	0.437
109.000	130.259	80.008	19.995	103.320	20.086	3.790	0.443
109.501	130.472	80.010	19.995	103.326	20.083	4.028	0.407
110.001	130.702	80.010	19.994	103.328	20.086	3.779	0.419
110.501	130.928	80.008	19.994	103.326	20.084	3.948	0.450
111.001	131.106	80.010	19.994	103.324	20.086	3.826	0.430
111.501	131.321	80.008	19.995	103.323	20.086	3.774	0.399
112.001	131.545	80.009	19.994	103.323	20.085	3.841	0.416
112.501	131.746	80.009	19.995	103.323	20.082	4.061	0.432
113.000	131.966	80.009	19.995	103.325	20.082	4.076	0.423
113.500	132.210	80.009	19.995	103.327	20.084	3.969	0.442
114.000	132.412	80.011	19.995	103.328	20.083	3.983	0.455
114.500	132.590	80.009	19.995	103.329	20.085	3.863	0.413
115.000	132.816	80.010	19.995	103.329	20.085	3.896	0.392
115.501	133.077	80.008	19.996	103.329	20.085	3.871	0.446
116.001	133.297	80.009	19.995	103.328	20.086	3.832	0.484
116.500	133.469	80.009	19.995	103.326	20.089	3.638	0.437
117.000	133.710	80.008	19.996	103.326	20.084	3.918	0.402
117.501	133.914	80.007	19.995	103.326	20.087	3.749	0.429
118.001	134.141	80.008	19.995	103.323	20.088	3.700	0.438
118.501	134.362	80.009	19.996	103.318	20.084	3.910	0.440
119.001	134.632	80.009	19.996	103.316	20.086	3.776	0.470
119.500	134.792	80.009	19.996	103.313	20.087	3.770	0.461
120.001	135.023	80.008	19.996	103.313	20.086	3.809	0.411
120.501	135.274	80.007	19.995	103.315	20.090	3.542	0.437
121.001	135.479	80.007	19.996	103.316	20.090	3.533	0.469
121.501	135.681	80.008	19.996	103.314	20.088	3.669	0.431
122.001	135.903	80.008	19.995	103.314	20.085	3.884	0.415
122.500	136.169	80.008	19.996	103.312	20.088	3.695	0.456
123.000	136.398	80.008	19.995	103.314	20.086	3.836	0.492
123.500	136.587	80.006	19.995	103.318	20.086	3.791	0.456
124.001	136.847	80.007	19.995	103.322	20.089	3.591	0.433
124.501	137.054	80.008	19.995	103.326	20.088	3.644	0.458
125.000	137.290	80.007	19.996	103.329	20.087	3.729	0.455
125.500	137.503	80.007	19.995	103.329	20.086	3.773	0.446
126.000	137.726	80.006	19.995	103.329	20.088	3.653	0.443
126.500	137.917	80.007	19.996	103.329	20.086	3.818	0.425
127.000	138.167	80.009	19.995	103.328	20.088	3.676	0.428
127.500	138.373	80.009	19.995	103.329	20.086	3.776	0.449
128.000	138.596	80.009	19.995	103.328	20.087	3.760	0.442
128.500	138.833	80.010	19.995	103.328	20.088	3.646	0.444
129.000	139.045	80.009	19.994	103.324	20.087	3.737	0.455
129.500	139.318	80.010	19.995	103.324	20.087	3.757	0.467
130.000	139.521	80.009	19.994	103.324	20.088	3.677	0.480
130.500	139.777	80.009	19.995	103.324	20.089	3.626	0.467
131.000	139.982	80.009	19.994	103.326	20.089	3.622	0.460
131.500	140.229	80.010	19.995	103.330	20.087	3.718	0.457
132.000	140.482	80.009	19.994	103.331	20.084	3.909	0.476
132.500	140.700	80.010	19.994	103.332	20.087	3.763	0.485
133.000	140.917	80.010	19.995	103.336	20.084	3.938	0.453
133.500	141.167	80.009	19.993	103.335	20.091	3.476	0.451
134.001	141.418	80.011	19.994	103.335	20.087	3.727	0.484
134.500	141.635	80.010	19.994	103.337	20.087	3.734	0.485
135.000	141.859	80.008	19.994	103.338	20.084	3.927	0.455
135.500	142.104	80.011	19.994	103.337	20.087	3.715	0.455
136.000	142.331	80.010	19.994	103.336	20.084	3.917	0.471
136.500	142.586	80.009	19.994	103.337	20.089	3.580	0.477
137.000	142.790	80.011	19.994	103.334	20.085	3.858	0.470
137.500	143.056	80.010	19.995	103.331	20.085	3.875	0.464
138.000	143.302	80.011	19.994	103.330	20.086	3.780	0.491
138.500	143.516	80.009	19.994	103.330	20.089	3.605	0.486
139.000	143.740	80.011	19.995	103.333	20.087	3.729	0.450
139.500	143.986	80.008	19.994	103.340	20.089	3.636	0.454
140.000	144.225	80.010	19.994	103.341	20.086	3.791	0.477
140.500	144.439	80.008	19.994	103.341	20.089	3.638	0.469
141.000	144.707	80.010	19.993	103.342	20.085	3.890	0.468
141.500	144.940	80.010	19.994	103.340	20.086	3.792	0.492
142.000	145.191	80.009	19.994	103.333	20.086	3.836	0.493
142.500	145.434	80.009	19.994	103.333	20.083	4.036	0.489
143.000	145.684	80.007	19.995	103.333	20.085	3.843	0.494
143.500	145.889	80.007	19.994	103.332	20.087	3.767	0.474
144.000	146.179	80.008	19.993	103.331	20.086	3.778	0.475
144.500	146.383	80.007	19.994	103.331	20.086	3.838	0.494
145.000	146.665	80.007	19.994	103.331	20.085	3.878	0.490
145.500	146.869	80.007	19.994	103.333	20.086	3.812	0.486
146.000	147.089	80.008	19.994	103.335	20.085	3.860	0.455
146.500	147.355	80.007	19.994	103.336	20.086	3.776	0.455
147.000	147.614	80.008	19.994	103.344	20.084	3.927	0.506
147.500	147.857	80.008	19.994	103.346	20.085	3.900	0.514
148.000	148.084	80.007	19.994	103.345	20.083	3.987	0.486
148.500	148.353	80.007	19.995	103.341	20.087	3.744	0.483
149.000	148.557	80.007	19.994	103.340	20.084	3.964	0.484
149.501	148.786	80.008	19.994	103.333	20.085	3.864	0.453
150.001	149.060	80.007	19.994	103.330	20.088	3.686	0.468
150.500	149.316	80.009	19.994	103.329	20.087	3.756	0.516
151.000	149.569	80.009	19.994	103.326	20.085	3.847	0.520
151.500	149.825	80.007	19.995	103.323	20.082	4.054	0.509
152.000	150.089	80.009	19.994	103.322	20.086	3.782	0.514
152.500	150.343	80.007	19.995	103.321	20.084	3.907	0.519
153.000	150.536	80.009	19.994	103.323	20.086	3.800	0.483
153.500	150.837	80.008	19.994	103.330	20.084	3.956	0.471
154.000	151.028	80.009	19.994	103.332	20.083	4.016	0.493
154.500	151.276	80.008	19.994	103.332	20.083	4.020	0.465
155.000	151.528	80.008	19.995	103.330	20.084	3.936	0.470
155.500	151.796	80.008	19.994	103.328	20.085	3.856	0.510
156.000	152.022	80.009	19.995	103.326	20.084	3.918	0.507
156.500	152.229	80.009	19.995	103.326	20.084	3.947	0.463
157.000	152.500	80.010	19.995	103.328	20.086	3.776	0.455
157.500	152.761	80.009	19.995	103.329	20.084	3.933	0.505
158.000	152.964	80.008	19.995	103.330	20.086	3.794	0.498
158.500	153.268	80.008	19.995	103.333	20.084	3.909	0.486
159.000	153.482	80.008	19.995	103.339	20.083	3.996	0.513
159.500	153.751	80.009	19.994	103.339	20.082	4.107	0.501
160.000	153.993	80.009	19.995	103.339	20.082	4.059	0.497
160.500	154.227	80.009	19.995	103.339	20.082	4.105	0.493
161.000	154.464	80.007	19.996	103.337	20.079	4.274	0.473
161.500	154.684	80.009	19.995	103.330	20.084	3.969	0.464
162.000	154.932	80.009	19.994	103.331	20.079	4.305	0.463
162.501	155.194	80.009	19.994	103.331	20.079	4.279	0.489
163.001	155.469	80.009	19.994	103.332	20.080	4.221	0.523
163.500	155.668	80.009	19.994	103.332	20.080	4.208	0.505
164.000	155.949	80.008	19.995	103.332	20.081	4.165	0.477
164.500	156.194	80.008	19.995	103.330	20.082	4.072	0.503
165.000	156.452	80.008	19.994	103.330	20.083	4.007	0.515
165.500	156.707	80.008	19.994	103.329	20.083	3.999	0.508
166.000	156.966	80.009	19.994	103.330	20.081	4.135	0.513
166.500	157.179	80.009	19.994	103.330	20.079	4.293	0.493
167.000	157.485	80.009	19.994	103.329	20.083	4.008	0.495
167.500	157.724	80.009	19.996	103.329	20.077	4.395	0.532
168.000	157.948	80.010	19.994	103.335	20.082	4.052	0.504
168.500	158.210	80.009	19.994	103.336	20.075	4.524	0.475
169.000	158.495	80.008	19.994	103.334	20.078	4.330	0.516
169.500	158.694	80.008	19.995	103.330	20.081	4.142	0.515
170.000	158.965	80.008	19.994	103.328	20.080	4.175	0.477
170.500	159.236	80.009	19.995	103.322	20.078	4.360	0.506
171.000	159.466	80.009	19.994	103.320	20.080	4.198	0.522
171.500	159.735	80.006	19.994	103.322	20.081	4.155	0.500
172.000	159.970	80.008	19.995	103.326	20.079	4.251	0.502
172.500	160.230	80.008	19.995	103.328	20.082	4.081	0.499
173.000	160.499	80.009	19.995	103.326	20.077	4.406	0.512
173.500	160.694	80.008	19.995	103.325	20.075	4.544	0.497
174.000	160.974	80.008	19.994	103.326	20.078	4.346	0.470
174.500	161.235	80.008	19.995	103.326	20.081	4.167	0.508
175.000	161.513	80.008	19.994	103.326	20.081	4.145	0.540
175.500	161.766	80.008	19.994	103.327	20.076	4.461	0.535
176.000	161.991	80.008	19.995	103.327	20.077	4.437	0.504
176.500	162.259	80.009	19.995	103.324	20.079	4.302	0.485
177.000	162.504	80.007	19.994	103.317	20.082	4.095	0.503
177.500	162.742	80.008	19.994	103.312	20.076	4.475	0.498
178.000	162.975	80.008	19.995	103.311	20.076	4.502	0.477
178.500	163.290	80.009	19.995	103.312	20.077	4.441	0.510
179.000	163.550	80.008	19.996	103.314	20.076	4.451	0.562
179.500	163.804	80.008	19.994	103.319	20.080	4.204	0.545
180.000	164.063	80.009	19.994	103.318	20.077	4.389	0.513
180.500	164.293	80.009	19.996	103.311	20.075	4.524	0.500
181.000	164.550	80.008	19.995	103.311	20.077	4.429	0.488
181.500	164.838	80.008	19.995	103.306	20.073	4.677	0.516
182.000	165.054	80.007	19.995	103.301	20.076	4.464	0.524
182.500	165.449	80.008	19.995	103.302	20.073	4.646	0.558
183.000	165.581	80.007	19.996	103.308	20.076	4.506	0.569
183.500	165.843	80.009	19.995	103.310	20.075	4.540	0.460
184.000	166.100	80.007	19.995	103.315	20.077	4.423	0.456
184.500	166.364	80.009	19.995	103.322	20.075	4.552	0.520
185.000	166.605	80.008	19.995	103.323	20.079	4.250	0.513
185.500	166.984	80.009	19.995	103.324	20.078	4.346	0.563
186.000	167.145	80.009	19.994	103.324	20.075	4.532	0.580
186.500	167.411	80.009	19.996	103.322	20.077	4.439	0.483
187.000	167.721	80.006	19.995	103.315	20.075	4.539	0.501
187.500	167.983	80.008	19.995	103.311	20.077	4.397	0.574
188.000	168.122	80.008	19.995	103.311	20.076	4.495	0.487
188.500	168.459	80.009	19.995	103.312	20.074	4.603	0.439
189.000	168.698	80.010	19.995	103.313	20.075	4.513	0.526
189.500	168.972	80.010	19.995	103.313	20.076	4.462	0.544
190.000	169.248	80.007	19.994	103.313	20.075	4.548	0.531
190.500	169.407	80.011	19.996	103.308	20.077	4.422	0.493
191.000	169.681	80.009	19.997	103.307	20.075	4.520	0.434
191.500	170.012	80.010	19.995	103.306	20.074	4.640	0.519
192.001	170.198	80.010	19.996	103.308	20.076	4.466	0.561
192.501	170.488	80.010	19.996	103.312	20.076	4.468	0.496
193.000	170.748	80.011	19.994	103.312	20.074	4.606	0.513
193.500	170.919	80.009	19.994	103.313	20.078	4.351	0.490
194.000	171.196	80.010	19.995	103.311	20.073	4.651	0.439
194.500	171.435	80.009	19.995	103.314	20.077	4.419	0.482
195.000	171.695	80.009	19.995	103.317	20.076	4.486	0.507
195.500	172.096	80.010	19.995	103.320	20.074	4.607	0.580
196.000	172.239	80.010	19.994	103.320	20.075	4.536	0.603
196.500	172.461	80.010	19.995	103.324	20.075	4.565	0.455
197.000	172.704	80.010	19.996	103.324	20.073	4.656	0.415
197.500	172.897	80.010	19.994	103.324	20.072	4.747	0.450
198.000	173.215	80.010	19.995	103.325	20.072	4.715	0.474
198.500	173.447	80.010	19.995	103.323	20.078	4.357	0.531
199.000	173.771	80.010	19.994	103.324	20.076	4.479	0.553
199.500	173.987	80.010	19.996	103.325	20.069	4.927	0.548
200.000	174.211	80.008	19.994	103.319	20.073	4.676	0.490
200.500	174.507	80.010	19.995	103.315	20.079	4.276	0.481
201.000	174.744	80.009	19.994	103.314	20.075	4.531	0.527
201.500	175.031	80.010	19.995	103.312	20.074	4.625	0.528
202.000	175.224	80.008	19.996	103.309	20.068	5.029	0.502
202.500	175.513	80.008	19.995	103.309	20.067	5.052	0.481
203.000	175.794	80.009	19.995	103.307	20.073	4.665	0.526
203.500	175.993	80.008	19.996	103.310	20.069	4.963	0.525
204.000	176.262	80.008	19.994	103.313	20.073	4.670	0.474
204.500	176.553	80.009	19.996	103.312	20.075	4.541	0.514
205.000	176.761	80.009	19.995	103.313	20.072	4.776	0.530
205.500	177.048	80.008	19.995	103.312	20.072	4.727	0.497
206.000	177.285	80.008	19.995	103.304	20.069	4.952	0.509
206.500	177.532	80.008	19.995	103.297	20.071	4.821	0.504
207.000	177.841	80.009	19.995	103.293	20.072	4.734	0.520
207.500	178.075	80.008	19.995	103.296	20.069	4.945	0.550
208.000	178.373	80.008	19.994	103.303	20.069	4.970	0.537
208.500	178.594	80.009	19.995	103.310	20.069	4.941	0.526
209.000	178.841	80.009	19.995	103.315	20.068	5.037	0.494
209.500	179.094	80.008	19.995	103.318	20.066	5.177	0.484
210.000	179.344	80.008	19.995	103.314	20.067	5.059	0.501
210.500	179.603	80.009	19.995	103.308	20.065	5.233	0.506
211.000	179.831	80.009	19.995	103.303	20.068	4.988	0.498
211.500	180.116	80.008	19.995	103.298	20.065	5.213	0.500
212.000	180.341	80.010	19.994	103.296	20.065	5.213	0.512
212.500	180.603	80.008	19.995	103.301	20.068	4.979	0.499
213.000	180.850	80.009	19.994	103.300	20.064	5.298	0.498
213.500	181.111	80.009	19.995	103.299	20.066	5.170	0.508
214.000	181.429	80.010	19.995	103.301	20.066	5.177	0.543
214.500	181.602	80.009	19.995	103.301	20.064	5.280	0.535
215.000	181.858	80.009	19.995	103.296	20.060	5.549	0.460
215.500	182.181	80.011	19.995	103.296	20.068	4.981	0.504
216.000	182.465	80.008	19.995	103.294	20.066	5.115	0.593
216.500	182.767	80.011	19.995	103.292	20.066	5.122	0.596
217.000	182.912	80.010	19.995	103.293	20.064	5.296	0.517
217.500	183.197	80.010	19.996	103.292	20.061	5.461	0.439
218.000	183.410	80.010	19.996	103.291	20.061	5.470	0.464
218.500	183.653	80.010	19.995	103.294	20.062	5.407	0.477
219.000	183.906	80.010	19.995	103.296	20.062	5.405	0.476
219.500	184.156	80.012	19.995	103.296	20.060	5.523	0.500
220.000	184.430	80.012	19.996	103.296	20.060	5.526	0.514
220.500	184.676	80.011	19.995	103.295	20.060	5.576	0.522
221.000	184.980	80.009	19.996	103.291	20.060	5.525	0.535
221.500	185.234	80.010	19.995	103.288	20.056	5.792	0.554
222.000	185.433	80.010	19.995	103.285	20.062	5.444	0.506
222.500	185.746	80.009	19.995	103.284	20.060	5.524	0.482
223.000	185.950	80.010	19.995	103.285	20.061	5.482	0.514
223.500	186.205	80.010	19.995	103.285	20.063	5.373	0.488
224.000	186.512	80.010	19.995	103.285	20.060	5.524	0.511
224.500	186.745	80.009	19.995	103.286	20.058	5.664	0.551
225.000	187.060	80.009	19.996	103.286	20.057	5.736	0.544
225.500	187.227	80.010	19.996	103.287	20.055	5.876	0.516
226.000	187.453	80.009	19.995	103.285	20.058	5.693	0.438
226.500	187.730	80.009	19.996	103.285	20.057	5.716	0.448
227.000	188.035	80.009	19.996	103.285	20.056	5.825	0.542
227.500	188.223	80.009	19.996	103.284	20.058	5.687	0.537
228.000	188.476	80.009	19.994	103.277	20.062	5.413	0.468
228.500	188.732	80.008	19.995	103.272	20.057	5.714	0.475
229.000	188.984	80.008	19.995	103.271	20.057	5.758	0.508
229.500	189.252	80.009	19.994	103.272	20.059	5.638	0.514
230.001	189.482	80.008	19.995	103.273	20.053	6.018	0.509
230.500	189.706	80.008	19.994	103.279	20.060	5.573	0.476
231.000	189.959	80.009	19.995	103.286	20.060	5.513	0.466
231.500	190.268	80.008	19.994	103.286	20.058	5.658	0.520
232.000	190.397	80.011	19.994	103.283	20.057	5.751	0.500
232.500	190.713	80.008	19.995	103.282	20.057	5.716	0.442
233.000	190.993	80.009	19.994	103.283	20.052	6.058	0.521
233.500	191.189	80.007	19.995	103.283	20.052	6.103	0.536
234.000	191.419	80.009	19.994	103.285	20.053	6.020	0.451
234.500	191.668	80.008	19.995	103.288	20.049	6.279	0.452
235.000	191.964	80.010	19.995	103.288	20.050	6.192	0.512
235.500	192.154	80.008	19.995	103.287	20.054	5.934	0.515
236.000	192.395	80.007	19.994	103.286	20.051	6.146	0.459
236.500	192.658	80.007	19.994	103.286	20.048	6.370	0.468
237.000	192.943	80.008	19.994	103.286	20.050	6.221	0.526
237.500	193.177	80.009	19.995	103.286	20.049	6.303	0.534
238.000	193.418	80.009	19.995	103.287	20.048	6.328	0.497
238.500	193.713	80.010	19.994	103.287	20.045	6.566	0.506
239.000	193.901	80.008	19.995	103.287	20.051	6.157	0.510
239.500	194.147	80.009	19.994	103.285	20.053	6.028	0.458
240.000	194.434	80.010	19.994	103.284	20.053	5.999	0.483
240.500	194.617	80.009	19.995	103.284	20.043	6.664	0.502
241.000	194.935	80.008	19.994	103.285	20.048	6.341	0.486
241.500	195.213	80.009	19.995	103.285	20.045	6.530	0.549
242.000	195.292	80.008	19.995	103.287	20.047	6.416	0.476
242.500	195.614	80.008	19.995	103.288	20.049	6.290	0.379
243.000	195.890	80.010	19.994	103.288	20.045	6.581	0.500
243.500	196.108	80.008	19.994	103.287	20.041	6.815	0.546
244.000	196.393	80.009	19.995	103.286	20.046	6.514	0.499
244.500	196.554	80.011	19.995	103.285	20.041	6.808	0.474
245.000	196.776	80.009	19.994	103.285	20.043	6.680	0.414
245.500	197.098	80.009	19.994	103.284	20.042	6.760	0.463
246.000	197.284	80.009	19.994	103.281	20.045	6.582	0.526
246.500	197.566	80.009	19.995	103.282	20.043	6.691	0.488
247.000	197.769	80.009	19.995	103.281	20.044	6.623	0.476
247.500	198.036	80.010	19.995	103.280	20.041	6.825	0.478
248.000	198.321	80.008	19.994	103.282	20.044	6.649	0.511
248.500	198.513	80.009	19.995	103.286	20.041	6.827	0.514
249.000	198.827	80.007	19.995	103.284	20.039	6.960	0.492
249.500	199.017	80.009	19.994	103.284	20.043	6.694	0.505
250.000	199.261	80.008	19.994	103.282	20.039	6.925	0.469
250.500	199.491	80.008	19.994	103.281	20.040	6.885	0.454
251.000	199.739	80.007	19.994	103.280	20.038	7.023	0.476
251.500	199.946	80.009	19.995	103.280	20.037	7.105	0.467
252.000	200.140	80.007	19.995	103.281	20.043	6.658	0.428
252.500	200.522	80.007	19.995	103.284	20.041	6.816	0.489
253.000	200.640	80.008	19.995	103.285	20.041	6.851	0.538
253.500	200.905	80.008	19.995	103.285	20.035	7.233	0.441
254.000	201.130	80.009	19.995	103.285	20.037	7.097	0.436
254.500	201.371	80.008	19.995	103.283	20.035	7.235	0.478
255.000	201.626	80.008	19.995	103.284	20.034	7.260	0.481
255.500	201.882	80.009	19.994	103.284	20.032	7.389	0.504
256.000	202.112	80.007	19.994	103.279	20.031	7.480	0.499
256.501	202.446	80.008	19.995	103.274	20.037	7.118	0.525
257.001	202.580	80.008	19.994	103.274	20.029	7.606	0.516
257.500	202.824	80.009	19.995	103.271	20.027	7.762	0.423
258.000	203.075	80.007	19.995	103.270	20.028	7.673	0.437
258.500	203.340	80.009	19.994	103.270	20.028	7.717	0.506
259.000	203.566	80.008	19.995	103.274	20.026	7.837	0.503
259.500	203.789	80.009	19.994	103.274	20.029	7.603	0.470
260.000	204.070	80.007	19.995	103.271	20.021	8.182	0.477
260.500	204.313	80.008	19.995	103.271	20.027	7.724	0.514
261.000	204.518	80.007	19.995	103.275	20.020	8.204	0.486
261.500	204.811	80.007	19.995	103.273	20.022	8.062	0.473
262.000	205.031	80.007	19.994	103.270	20.023	8.012	0.505
262.500	205.283	80.006	19.995	103.273	20.025	7.917	0.492
263.000	205.529	80.008	19.994	103.275	20.020	8.242	0.485
263.500	205.777	80.009	19.995	103.276	20.018	8.363	0.497
264.000	206.001	80.008	19.994	103.278	20.019	8.298	0.483
264.500	206.259	80.008	19.995	103.284	20.018	8.365	0.477
265.000	206.530	80.008	19.994	103.287	20.017	8.394	0.505
265.500	206.688	80.007	19.995	103.287	20.020	8.227	0.479
266.000	207.000	80.008	19.996	103.286	20.014	8.640	0.449
266.500	207.211	80.007	19.994	103.286	20.012	8.736	0.497
267.000	207.442	80.008	19.994	103.280	20.012	8.755	0.483
267.500	207.693	80.008	19.994	103.273	20.010	8.889	0.462
268.000	207.941	80.009	19.995	103.269	20.014	8.621	0.490
268.500	208.178	80.009	19.995	103.269	20.012	8.732	0.492
269.000	208.397	80.009	19.994	103.270	20.012	8.761	0.471
269.500	208.604	80.008	19.994	103.276	20.012	8.733	0.441
270.000	208.952	80.010	19.994	103.279	20.012	8.788	0.490
270.500	209.101	80.010	19.995	103.277	20.008	9.049	0.526
271.000	209.302	80.009	19.994	103.274	20.010	8.922	0.423
271.500	209.582	80.008	19.994	103.273	20.011	8.838	0.415
272.000	209.785	80.009	19.994	103.273	20.007	9.103	0.482
272.500	210.089	80.008	19.994	103.276	20.006	9.154	0.495
273.000	210.314	80.010	19.995	103.277	20.005	9.245	0.518
273.500	210.529	80.010	19.993	103.274	20.005	9.209	0.485
274.000	210.836	80.009	19.994	103.271	20.005	9.245	0.481
274.500	210.963	80.011	19.994	103.268	20.001	9.468	0.478
275.000	211.279	80.010	19.994	103.265	19.999	9.614	0.438
275.500	211.506	80.009	19.994	103.269	19.999	9.641	0.493
276.000	211.715	80.010	19.994	103.273	19.998	9.704	0.490
276.500	211.930	80.010	19.994	103.273	19.997	9.791	0.430
277.000	212.232	80.010	19.994	103.274	19.992	10.087	0.470
277.500	212.429	80.009	19.994	103.279	19.993	10.061	0.508
278.000	212.676	80.008	19.994	103.280	19.994	9.979	0.471
278.500	212.909	80.010	19.994	103.284	19.996	9.819	0.462
279.000	213.186	80.010	19.995	103.289	19.988	10.355	0.495
279.500	213.358	80.010	19.995	103.287	19.989	10.301	0.480
280.001	213.708	80.009	19.995	103.285	19.988	10.369	0.486
280.501	214.024	80.009	19.995	103.284	19.985	10.557	0.594
281.000	214.253	80.009	19.994	103.282	19.987	10.432	0.605
281.500	214.482	80.008	19.995	103.278	19.985	10.544	0.502
282.000	214.716	80.009	19.994	103.279	19.984	10.627	0.461
282.500	214.978	80.009	19.995	103.280	19.986	10.471	0.480
283.000	215.186	80.009	19.995	103.276	19.980	10.880	0.483
283.500	215.385	80.009	19.995	103.276	19.979	10.972	0.438
284.000	215.564	80.010	19.995	103.277	19.978	11.009	0.392
284.500	215.818	80.010	19.995	103.280	19.977	11.125	0.405
285.000	216.109	80.008	19.996	103.278	19.978	11.011	0.489
285.500	216.316	80.009	19.995	103.279	19.979	10.981	0.522
286.000	216.558	80.010	19.995	103.278	19.977	11.084	0.474
286.500	216.782	80.009	19.995	103.281	19.976	11.203	0.458
287.000	217.044	80.009	19.995	103.277	19.973	11.371	0.476
287.500	217.286	80.008	19.996	103.277	19.971	11.485	0.495
288.000	217.488	80.008	19.994	103.276	19.976	11.196	0.474
288.500	217.785	80.010	19.995	103.270	19.973	11.358	0.471
289.000	217.989	80.010	19.994	103.265	19.974	11.284	0.500
289.500	218.264	80.009	19.995	103.265	19.974	11.308	0.490
290.000	218.546	80.009	19.995	103.267	19.974	11.292	0.518
290.500	218.824	80.009	19.995	103.271	19.973	11.344	0.558
291.000	219.001	80.010	19.996	103.277	19.971	11.523	0.507
291.500	219.256	80.009	19.995	103.282	19.970	11.552	0.444
292.000	219.469	80.009	19.994	103.284	19.967	11.802	0.450
292.500	219.736	80.010	19.995	103.284	19.971	11.517	0.474
293.000	220.005	80.010	19.995	103.281	19.970	11.584	0.508
293.500	220.211	80.010	19.995	103.276	19.967	11.747	0.506
294.000	220.433	80.010	19.995	103.268	19.965	11.905	0.451
294.500	220.638	80.011	19.995	103.264	19.966	11.835	0.427
295.000	220.898	80.009	19.995	103.262	19.966	11.855	0.446
295.500	221.107	80.010	19.995	103.265	19.966	11.847	0.467
296.000	221.444	80.010	19.994	103.271	19.964	11.983	0.507
296.500	221.592	80.011	19.995	103.278	19.962	12.081	0.516
297.000	221.925	80.011	19.995	103.283	19.957	12.420	0.483
297.500	222.129	80.010	19.995	103.281	19.960	12.229	0.509
298.000	222.415	80.011	19.995	103.275	19.958	12.389	0.513
298.500	222.639	80.010	19.996	103.271	19.956	12.505	0.500
299.000	222.898	80.011	19.994	103.268	19.955	12.582	0.496
299.500	223.057	80.011	19.995	103.268	19.956	12.529	0.450
300.000	223.307	80.011	19.995	103.272	19.952	12.768	0.413
300.500	223.536	80.011	19.995	103.278	19.953	12.700	0.444
301.001	223.808	80.011	19.995	103.282	19.954	12.660	0.490
301.501	224.029	80.012	19.994	103.285	19.953	12.720	0.497
302.000	224.300	80.011	19.994	103.285	19.953	12.737	0.493
302.500	224.561	80.010	19.995	103.282	19.950	12.921	0.512
303.000	224.800	80.009	19.994	103.280	19.948	13.024	0.516
303.500	225.021	80.010	19.995	103.276	19.947	13.093	0.480
304.000	225.321	80.010	19.995	103.273	19.949	12.988	0.490
304.500	225.540	80.010	19.994	103.273	19.947	13.128	0.520
305.000	225.809	80.011	19.995	103.274	19.947	13.089	0.503
305.500	226.036	80.009	19.995	103.275	19.948	13.064	0.492
306.000	226.274	80.009	19.996	103.276	19.949	12.956	0.481
306.500	226.531	80.009	19.995	103.273	19.943	13.362	0.480
307.000	226.764	80.010	19.995	103.272	19.942	13.478	0.493
307.500	227.022	80.009	19.996	103.267	19.941	13.531	0.490
308.000	227.262	80.008	19.995	103.262	19.942	13.476	0.494
308.500	227.525	80.009	19.995	103.259	19.940	13.604	0.501
309.000	227.741	80.008	19.996	103.262	19.937	13.817	0.491
309.500	228.023	80.007	19.996	103.261	19.940	13.603	0.488
310.000	228.210	80.005	19.995	103.264	19.939	13.677	0.483
310.500	228.514	80.007	19.997	103.266	19.936	13.885	0.480
311.000	228.757	80.007	19.997	103.271	19.935	13.912	0.519
311.500	229.005	80.007	19.998	103.271	19.935	13.929	0.519
312.000	229.262	80.006	19.998	103.269	19.930	14.223	0.498
312.500	229.505	80.007	19.999	103.271	19.931	14.155	0.503
313.000	229.748	80.008	19.996	103.276	19.929	14.303	0.493
313.500	229.988	80.007	19.997	103.275	19.931	14.214	0.484
314.000	230.269	80.008	19.996	103.276	19.929	14.296	0.502
314.500	230.505	80.008	19.997	103.276	19.927	14.468	0.519
315.000	230.744	80.007	19.998	103.275	19.925	14.615	0.496
315.500	231.017	80.008	19.997	103.274	19.926	14.543	0.494
316.000	231.219	80.008	19.996	103.274	19.923	14.719	0.493
316.500	231.499	80.009	19.997	103.276	19.922	14.790	0.478
317.001	231.731	80.008	19.996	103.280	19.925	14.591	0.497
317.501	232.016	80.007	19.997	103.277	19.921	14.845	0.515
318.000	232.240	80.008	19.996	103.273	19.920	14.906	0.513
318.500	232.495	80.009	19.995	103.274	19.925	14.609	0.494
319.000	232.727	80.008	19.996	103.274	19.921	14.853	0.483
319.500	232.994	80.007	19.996	103.275	19.918	15.071	0.493
320.000	233.217	80.008	19.995	103.280	19.923	14.711	0.495
320.500	233.473	80.009	19.996	103.284	19.918	15.051	0.484
321.000	233.718	80.008	19.995	103.284	19.915	15.262	0.490
321.500	233.991	80.009	19.995	103.284	19.915	15.255	0.510
322.000	234.195	80.007	19.995	103.283	19.913	15.390	0.498
322.500	234.463	80.007	19.995	103.276	19.913	15.394	0.475
323.000	234.709	80.008	19.995	103.274	19.913	15.421	0.493
323.500	234.925	80.008	19.996	103.271	19.918	15.082	0.488
324.000	235.163	80.008	19.995	103.267	19.911	15.526	0.458
324.500	235.411	80.008	19.994	103.261	19.913	15.415	0.470
325.000	235.674	80.008	19.995	103.267	19.911	15.499	0.498
325.500	235.933	80.008	19.995	103.272	19.905	15.902	0.517
326.000	236.171	80.007	19.995	103.277	19.909	15.677	0.510
326.500	236.396	80.009	19.995	103.281	19.905	15.936	0.480
327.000	236.663	80.008	19.994	103.288	19.908	15.729	0.478
327.500	236.909	80.009	19.994	103.288	19.903	16.050	0.503
328.000	237.197	80.008	19.995	103.285	19.905	15.950	0.523
328.500	237.405	80.007	19.995	103.281	19.906	15.844	0.515
329.000	237.641	80.007	19.994	103.276	19.902	16.131	0.470
329.500	237.905	80.007	19.995	103.272	19.903	16.065	0.472
330.000	238.137	80.008	19.995	103.272	19.905	15.910	0.498
330.500	238.438	80.008	19.994	103.271	19.901	16.227	0.514
331.000	238.664	80.008	19.994	103.274	19.900	16.249	0.530
331.500	238.898	80.009	19.995	103.276	19.900	16.236	0.494
332.000	239.191	80.007	19.994	103.277	19.901	16.230	0.493
332.500	239.414	80.009	19.995	103.277	19.898	16.372	0.522
333.000	239.686	80.008	19.994	103.279	19.895	16.579	0.506
333.500	239.892	80.009	19.994	103.282	19.895	16.596	0.486
334.000	240.138	80.008	19.994	103.285	19.894	16.675	0.465
334.500	240.421	80.008	19.995	103.284	19.894	16.668	0.491
335.000	240.666	80.008	19.995	103.280	19.894	16.654	0.529
335.500	240.869	80.008	19.995	103.281	19.894	16.634	0.488
336.000	241.165	80.008	19.995	103.279	19.892	16.807	0.473
336.500	241.415	80.007	19.995	103.279	19.892	16.820	0.522
337.000	241.630	80.007	19.994	103.283	19.891	16.898	0.505
337.500	241.867	80.009	19.994	103.288	19.892	16.829	0.459
338.000	242.156	80.008	19.994	103.287	19.889	17.027	0.490
338.500	242.417	80.007	19.995	103.287	19.891	16.891	0.538
339.000	242.678	80.007	19.994	103.284	19.890	16.927	0.536
339.500	242.913	80.006	19.994	103.280	19.891	16.901	0.509
340.000	243.164	80.007	19.994	103.279	19.885	17.236	0.491
340.500	243.447	80.007	19.994	103.275	19.888	17.064	0.510
341.000	243.643	80.007	19.995	103.277	19.887	17.132	0.506
341.500	243.944	80.007	19.994	103.278	19.886	17.172	0.488
342.000	244.208	80.005	19.995	103.282	19.886	17.181	0.531
342.500	244.426	80.008	19.995	103.279	19.885	17.236	0.524
343.000	244.689	80.006	19.994	103.278	19.884	17.358	0.482
343.500	244.925	80.008	19.994	103.275	19.880	17.596	0.491
344.000	245.178	80.006	19.995	103.275	19.882	17.442	0.495
344.500	245.381	80.008	19.995	103.271	19.881	17.533	0.472
345.000	245.705	80.006	19.995	103.273	19.882	17.468	0.491
345.500	245.903	80.008	19.995	103.276	19.883	17.422	0.525
346.001	246.164	80.006	19.995	103.279	19.882	17.456	0.491
346.500	246.431	80.007	19.995	103.283	19.881	17.522	0.493
347.000	246.653	80.006	19.994	103.284	19.884	17.313	0.508
347.500	246.916	80.007	19.994	103.285	19.879	17.644	0.487
348.000	247.159	80.007	19.995	103.288	19.879	17.698	0.496
348.500	247.424	80.008	19.995	103.287	19.883	17.430	0.507
349.000	247.700	80.007	19.995	103.284	19.885	17.289	0.525
349.500	247.912	80.007	19.995	103.285	19.874	18.032	0.515
350.000	248.189	80.008	19.995	103.283	19.881	17.550	0.488
350.501	248.421	80.009	19.994	103.278	19.888	17.066	0.498
351.000	248.693	80.009	19.994	103.274	19.888	17.037	0.506
351.500	248.918	80.008	19.995	103.275	19.884	17.303	0.500
352.000	249.190	80.008	19.995	103.274	19.878	17.771	0.497
352.500	249.458	80.008	19.995	103.274	19.879	17.645	0.519
353.000	249.686	80.008	19.994	103.274	19.882	17.444	0.518
353.500	249.968	80.008	19.994	103.276	19.883	17.392	0.503
354.000	250.230	80.008	19.995	103.275	19.881	17.542	0.527
354.500	250.505	80.010	19.995	103.278	19.881	17.566	0.541
355.000	250.717	80.009	19.994	103.280	19.881	17.561	0.512
355.500	250.975	80.008	19.994	103.283	19.880	17.607	0.479
356.000	251.223	80.010	19.994	103.280	19.880	17.630	0.488
356.500	251.493	80.009	19.994	103.278	19.878	17.708	0.512
357.000	251.759	80.009	19.994	103.277	19.881	17.530	0.527
357.500	251.945	80.009	19.993	103.277	19.880	17.632	0.494
358.000	252.226	80.009	19.994	103.279	19.881	17.544	0.459
358.500	252.481	80.008	19.994	103.284	19.884	17.364	0.501
359.000	252.707	80.010	19.995	103.287	19.885	17.285	0.508
359.500	252.962	80.011	19.994	103.282	19.879	17.651	0.481
360.000	253.258	80.010	19.994	103.275	19.887	17.147	0.516
360.500	253.445	80.010	19.995	103.269	19.891	16.838	0.517
361.000	253.733	80.008	19.994	103.266	19.883	17.382	0.479
361.500	254.052	80.010	19.994	103.266	19.879	17.647	0.541
362.000	254.262	80.010	19.994	103.271	19.879	17.699	0.568
362.500	254.491	80.010	19.994	103.276	19.884	17.365	0.484
363.000	254.693	80.009	19.994	103.280	19.881	17.557	0.435
363.500	255.066	80.010	19.993	103.279	19.881	17.557	0.503
364.000	255.225	80.009	19.995	103.278	19.883	17.400	0.553
364.500	255.445	80.009	19.995	103.276	19.883	17.425	0.455
365.000	255.691	80.009	19.994	103.278	19.885	17.301	0.422
365.500	255.959	80.010	19.994	103.280	19.883	17.427	0.490
366.000	256.219	80.009	19.995	103.283	19.888	17.081	0.521
366.500	256.520	80.009	19.994	103.278	19.891	16.836	0.545
367.000	256.740	80.010	19.994	103.274	19.889	17.013	0.541
367.500	256.916	80.009	19.995	103.271	19.890	16.916	0.458
368.000	257.234	80.009	19.994	103.264	19.890	16.955	0.445
368.500	257.513	80.008	19.994	103.266	19.890	16.921	0.546
369.000	257.715	80.009	19.994	103.270	19.891	16.884	0.539
369.500	257.963	80.008	19.995	103.272	19.897	16.485	0.465
370.000	258.227	80.007	19.994	103.275	19.889	17.005	0.481
370.500	258.478	80.007	19.995	103.282	19.889	17.017	0.514
371.000	258.739	80.008	19.995	103.283	19.892	16.791	0.514
371.500	258.955	80.007	19.994	103.285	19.898	16.422	0.494
372.000	259.214	80.009	19.995	103.287	19.898	16.396	0.475
372.500	259.462	80.008	19.996	103.287	19.895	16.577	0.491
373.000	259.683	80.007	19.995	103.288	19.898	16.371	0.488
373.500	260.027	80.008	19.995	103.286	19.900	16.236	0.517
374.000	260.183	80.009	19.994	103.286	19.899	16.333	0.533
374.500	260.404	80.009	19.995	103.286	19.902	16.101	0.439
375.000	260.705	80.009	19.995	103.286	19.903	16.079	0.449
375.500	261.049	80.009	19.995	103.284	19.907	15.814	0.583
376.000	261.265	80.009	19.995	103.285	19.907	15.811	0.603
376.500	261.401	80.009	19.995	103.285	19.907	15.811	0.456
377.000	261.720	80.009	19.995	103.284	19.909	15.639	0.404
377.500	261.945	80.010	19.995	103.284	19.907	15.812	0.500
378.000	262.205	80.008	19.995	103.286	19.908	15.703	0.514
378.500	262.410	80.010	19.996	103.286	19.908	15.721	0.475
379.000	262.687	80.009	19.995	103.287	19.912	15.487	0.473
379.500	263.005	80.009	19.994	103.290	19.910	15.582	0.538
380.000	263.170	80.010	19.995	103.298	19.906	15.827	0.539
380.500	263.361	80.011	19.995	103.290	19.913	15.419	0.419
381.000	263.726	80.009	19.995	103.282	19.916	15.183	0.456
381.500	263.924	80.011	19.995	103.277	19.916	15.216	0.560
382.000	264.132	80.009	19.995	103.274	19.921	14.846	0.485
382.500	264.434	80.010	19.995	103.263	19.920	14.907	0.458
383.000	264.569	80.011	19.995	103.270	19.923	14.730	0.473
383.500	264.847	80.009	19.994	103.278	19.923	14.724	0.425
384.000	265.158	80.011	19.995	103.281	19.929	14.351	0.501
384.500	265.365	80.010	19.996	103.282	19.932	14.131	0.553
385.000	265.514	80.011	19.994	103.286	19.937	13.797	0.436
385.500	265.809	80.010	19.995	103.286	19.931	14.166	0.400
386.000	266.061	80.011	19.995	103.287	19.930	14.238	0.496
386.500	266.283	80.011	19.995	103.289	19.938	13.701	0.510
387.000	266.531	80.010	19.994	103.288	19.935	13.946	0.472
387.500	266.797	80.010	19.995	103.294	19.939	13.683	0.492
388.000	267.030	80.010	19.995	103.292	19.937	13.788	0.506
388.500	267.293	80.009	19.995	103.276	19.939	13.684	0.498
389.000	267.541	80.010	19.994	103.261	19.943	13.411	0.504
389.500	267.742	80.009	19.994	103.252	19.943	13.394	0.480
390.000	268.023	80.009	19.995	103.240	19.949	13.017	0.466
390.500	268.238	80.011	19.994	103.242	19.946	13.157	0.489
391.000	268.456	80.009	19.994	103.264	19.948	13.050	0.464
391.500	268.697	80.008	19.995	103.316	19.952	12.769	0.446
392.000	268.940	80.007	19.995	103.345	19.956	12.540	0.472
392.500	269.178	80.008	19.994	103.359	19.959	12.313	0.482
393.000	269.452	80.007	19.995	103.362	19.958	12.388	0.497
393.500	269.689	80.008	19.995	103.360	19.961	12.193	0.512
394.000	270.039	80.006	19.994	103.329	19.964	11.970	0.549
394.500	270.238	80.008	19.994	103.311	19.963	12.051	0.567
395.000	270.411	80.008	19.995	103.306	19.965	11.948	0.460
395.500	270.659	80.008	19.994	103.309	19.967	11.772	0.396
396.000	270.939	80.009	19.994	103.311	19.970	11.581	0.475
396.500	271.173	80.008	19.995	103.313	19.972	11.457	0.521
397.000	271.423	80.008	19.995	103.319	19.975	11.248	0.499
397.500	271.676	80.008	19.996	103.322	19.981	10.823	0.493
398.001	271.973	80.008	19.995	103.324	19.979	10.965	0.527
398.500	272.200	80.007	19.995	103.323	19.976	11.163	0.537
399.000	272.405	80.009	19.994	103.323	19.981	10.867	0.478
399.500	272.726	80.009	19.994	103.323	19.980	10.878	0.480
400.000	272.982	80.007	19.995	103.319	19.984	10.662	0.552
400.500	273.136	80.008	19.995	103.315	19.985	10.551	0.493
401.000	273.418	80.008	19.995	103.318	19.986	10.522	0.423
401.500	273.640	80.008	19.994	103.318	19.989	10.322	0.470
402.000	273.890	80.007	19.994	103.319	19.990	10.269	0.488
402.500	274.116	80.006	19.994	103.325	19.992	10.104	0.474
403.000	274.382	80.008	19.996	103.329	19.995	9.904	0.484
403.500	274.671	80.007	19.995	103.329	19.998	9.732	0.523
404.000	274.884	80.008	19.996	103.329	19.996	9.839	0.528
404.500	275.113	80.007	19.995	103.329	19.999	9.657	0.472
405.000	275.350	80.008	19.995	103.329	19.999	9.659	0.454
405.500	275.597	80.007	19.995	103.328	20.002	9.468	0.476
406.000	275.868	80.007	19.995	103.329	20.000	9.575	0.501
406.500	276.121	80.007	19.995	103.328	20.002	9.424	0.520
407.000	276.355	80.008	19.995	103.328	20.006	9.199	0.505
407.500	276.629	80.008	19.995	103.328	20.014	8.636	0.497
408.000	276.875	80.008	19.995	103.329	20.004	9.308	0.514
408.500	277.045	80.007	19.996	103.331	20.006	9.201	0.468
409.000	277.296	80.007	19.995	103.332	20.006	9.160	0.419
409.500	277.573	80.009	19.996	103.333	20.012	8.752	0.475
410.000	277.830	80.008	19.996	103.333	20.021	8.163	0.531
410.500	278.042	80.009	19.995	103.333	20.014	8.610	0.501
411.000	278.364	80.006	19.995	103.331	20.015	8.563	0.501
411.500	278.551	80.007	19.995	103.331	20.015	8.595	0.521
412.000	278.828	80.008	19.996	103.332	20.021	8.139	0.486
412.500	279.079	80.008	19.996	103.333	20.020	8.228	0.496
413.000	279.331	80.008	19.995	103.335	20.017	8.415	0.516
413.500	279.577	80.009	19.995	103.337	20.018	8.370	0.501
414.000	279.808	80.008	19.995	103.336	20.017	8.424	0.488
414.500	280.006	80.009	19.994	103.335	20.021	8.139	0.454
415.000	280.221	80.009	19.995	103.334	20.020	8.201	0.421
415.500	280.509	80.008	19.995	103.334	20.024	7.941	0.458
416.000	280.755	80.009	19.996	103.332	20.028	7.672	0.518
416.500	280.969	80.008	19.994	103.332	20.027	7.761	0.497
417.000	281.233	80.007	19.995	103.331	20.034	7.305	0.469
417.500	281.474	80.007	19.994	103.331	20.032	7.439	0.491
418.000	281.703	80.007	19.995	103.334	20.035	7.238	0.487
418.500	281.969	80.009	19.996	103.335	20.030	7.570	0.483
419.000	282.198	80.009	19.995	103.335	20.036	7.181	0.495
419.500	282.417	80.007	19.995	103.338	20.033	7.377	0.471
420.000	282.702	80.007	19.994	103.341	20.030	7.546	0.476
420.500	282.884	80.009	19.995	103.338	20.036	7.131	0.485
421.000	283.150	80.009	19.995	103.336	20.034	7.281	0.458
421.500	283.398	80.008	19.994	103.335	20.035	7.207	0.481
422.000	283.693	80.008	19.994	103.331	20.038	7.004	0.528
422.500	283.861	80.008	19.995	103.327	20.036	7.151	0.503
423.000	284.106	80.008	19.995	103.327	20.039	6.933	0.438
423.500	284.356	80.008	19.994	103.327	20.039	6.975	0.454
424.000	284.611	80.008	19.995	103.327	20.041	6.812	0.500
424.500	284.847	80.008	19.995	103.328	20.040	6.878	0.499
425.000	285.132	80.007	19.995	103.328	20.049	6.251	0.506
425.500	285.370	80.009	19.994	103.328	20.045	6.571	0.522
426.000	285.607	80.008	19.994	103.328	20.046	6.509	0.499
426.500	285.810	80.008	19.995	103.329	20.046	6.476	0.458
427.000	286.086	80.009	19.995	103.328	20.045	6.569	0.459
427.500	286.399	80.009	19.993	103.328	20.046	6.479	0.534
428.000	286.668	80.008	19.994	103.327	20.046	6.512	0.585
428.500	286.878	80.007	19.994	103.326	20.045	6.577	0.531
429.000	287.107	80.007	19.995	103.326	20.048	6.329	0.459
429.500	287.367	80.007	19.994	103.326	20.051	6.178	0.464
430.000	287.608	80.008	19.993	103.323	20.055	5.893	0.495
430.500	287.906	80.008	19.995	103.319	20.055	5.874	0.520
431.000	288.110	80.008	19.995	103.315	20.057	5.778	0.521
431.500	288.379	80.008	19.995	103.307	20.057	5.773	0.487
432.000	288.570	80.008	19.995	103.304	20.058	5.671	0.467
432.500	288.905	80.008	19.995	103.306	20.052	6.074	0.493
433.000	289.061	80.008	19.994	103.307	20.047	6.430	0.508
433.500	289.311	80.008	19.994	103.307	20.055	5.905	0.448
434.000	289.578	80.008	19.994	103.307	20.049	6.263	0.461
434.501	289.836	80.007	19.995	103.305	20.054	5.943	0.521
435.000	290.074	80.008	19.995	103.299	20.055	5.914	0.511
435.500	290.297	80.008	19.994	103.294	20.056	5.788	0.479
436.000	290.537	80.008	19.994	103.293	20.054	5.930	0.462
436.500	290.801	80.009	19.995	103.295	20.056	5.845	0.484
437.000	291.077	80.008	19.995	103.294	20.058	5.690	0.522
437.500	291.272	80.010	19.995	103.293	20.057	5.733	0.506
438.000	291.599	80.010	19.995	103.293	20.058	5.650	0.496
438.500	291.817	80.009	19.995	103.291	20.056	5.815	0.534
439.000	292.031	80.009	19.994	103.289	20.056	5.782	0.488
439.500	292.339	80.011	19.995	103.288	20.061	5.497	0.477
440.000	292.514	80.010	19.995	103.288	20.059	5.596	0.503
440.500	292.791	80.010	19.995	103.287	20.056	5.783	0.468
441.000	293.037	80.011	19.994	103.288	20.060	5.556	0.488
441.500	293.278	80.011	19.994	103.287	20.058	5.680	0.505
442.000	293.517	80.010	19.995	103.287	20.063	5.338	0.483
442.501	293.721	80.010	19.994	103.287	20.059	5.604	0.461
443.000	294.013	80.010	19.995	103.286	20.061	5.480	0.469
443.500	294.264	80.010	19.994	103.286	20.064	5.289	0.520
444.000	294.507	80.011	19.995	103.286	20.063	5.320	0.519
444.500	294.776	80.010	19.994	103.284	20.061	5.466	0.503
445.000	294.994	80.010	19.995	103.282	20.063	5.348	0.499
445.500	295.246	80.010	19.994	103.282	20.062	5.415	0.478
446.000	295.502	80.010	19.995	103.280	20.059	5.582	0.489
446.500	295.868	80.010	19.995	103.277	20.062	5.442	0.565
447.000	296.079	80.010	19.995	103.276	20.060	5.566	0.599
447.500	296.317	80.011	19.995	103.274	20.063	5.320	0.513
448.000	296.563	80.010	19.995	103.270	20.058	5.656	0.467
448.500	296.826	80.010	19.994	103.268	20.066	5.166	0.496
449.000	296.968	80.010	19.994	103.263	20.063	5.373	0.457
449.500	297.277	80.009	19.995	103.260	20.071	4.792	0.428
450.000	297.463	80.010	19.995	103.259	20.063	5.346	0.473
450.500	297.708	80.010	19.994	103.256	20.068	5.006	0.463
451.000	298.024	80.010	19.993	103.253	20.073	4.669	0.496
451.500	298.263	80.009	19.994	103.253	20.075	4.545	0.558
452.000	298.472	80.008	19.995	103.251	20.067	5.064	0.502
452.500	298.711	80.009	19.994	103.250	20.066	5.146	0.448
453.000	298.949	80.007	19.994	103.250	20.069	4.935	0.463
453.500	299.242	80.009	19.994	103.251	20.067	5.061	0.504
454.000	299.446	80.008	19.994	103.251	20.069	4.973	0.513
454.500	299.705	80.009	19.993	103.251	20.072	4.768	0.480
455.000	299.959	80.008	19.995	103.251	20.066	5.128	0.488
455.500	300.187	80.009	19.994	103.252	20.069	4.957	0.497
456.000	300.474	80.009	19.994	103.253	20.071	4.828	0.499
456.500	300.717	80.010	19.993	103.253	20.069	4.961	0.523
457.000	300.932	80.009	19.994	103.252	20.071	4.837	0.494
457.500	301.236	80.009	19.995	103.253	20.071	4.826	0.488
458.000	301.475	80.009	19.995	103.252	20.074	4.614	0.531
458.500	301.712	80.011	19.994	103.251	20.075	4.554	0.510
459.000	301.948	80.011	19.994	103.251	20.073	4.648	0.474
459.500	302.215	80.009	19.994	103.251	20.073	4.670	0.488
460.000	302.474	80.009	19.994	103.251	20.074	4.578	0.515
460.500	302.697	80.011	19.994	103.251	20.071	4.805	0.504
461.000	302.978	80.010	19.994	103.253	20.073	4.652	0.493
461.500	303.339	80.010	19.994	103.253	20.074	4.596	0.574
462.000	303.523	80.010	19.994	103.253	20.073	4.687	0.593
462.500	303.717	80.010	19.994	103.253	20.077	4.431	0.461
463.000	303.999	80.009	19.994	103.253	20.071	4.799	0.427
463.500	304.242	80.010	19.994	103.253	20.077	4.416	0.501
464.000	304.539	80.010	19.994	103.252	20.073	4.663	0.532
464.500	304.776	80.010	19.994	103.252	20.075	4.560	0.537
465.000	304.927	80.010	19.994	103.251	20.074	4.603	0.461
465.500	305.170	80.010	19.994	103.251	20.074	4.578	0.391
466.000	305.549	80.011	19.995	103.251	20.073	4.681	0.508
466.500	305.837	80.010	19.994	103.251	20.075	4.545	0.645
467.000	306.029	80.010	19.994	103.251	20.078	4.349	0.573
467.500	306.208	80.011	19.994	103.251	20.078	4.371	0.425
468.000	306.522	80.011	19.995	103.250	20.079	4.302	0.432
468.500	306.803	80.011	19.994	103.249	20.076	4.462	0.544
469.000	306.969	80.011	19.994	103.246	20.079	4.280	0.521
469.500	307.280	80.011	19.995	103.247	20.075	4.518	0.462
470.000	307.538	80.008	19.994	103.246	20.074	4.583	0.523
470.500	307.731	80.010	19.995	103.247	20.078	4.344	0.510
471.000	308.019	80.008	19.994	103.248	20.071	4.819	0.466
471.500	308.295	80.010	19.994	103.250	20.078	4.314	0.522
472.000	308.568	80.009	19.995	103.250	20.076	4.439	0.557
472.500	308.795	80.008	19.994	103.251	20.077	4.427	0.525
473.000	309.064	80.008	19.994	103.251	20.075	4.512	0.498
473.500	309.286	80.008	19.994	103.251	20.079	4.287	0.494
474.000	309.547	80.008	19.993	103.252	20.076	4.459	0.487
474.500	309.793	80.008	19.995	103.252	20.079	4.254	0.495
475.000	310.058	80.008	19.994	103.252	20.078	4.343	0.509
475.500	310.319	80.007	19.994	103.252	20.078	4.345	0.518
476.000	310.552	80.008	19.995	103.252	20.078	4.343	0.510
476.500	310.782	80.007	19.995	103.253	20.082	4.075	0.479
477.000	311.061	80.008	19.994	103.253	20.081	4.160	0.486
477.500	311.315	80.006	19.995	103.254	20.079	4.240	0.521
478.000	311.611	80.008	19.995	103.254	20.078	4.334	0.541
478.500	311.826	80.006	19.995	103.254	20.080	4.213	0.530
479.000	312.104	80.007	19.995	103.253	20.079	4.265	0.502
479.500	312.364	80.008	19.994	103.253	20.081	4.109	0.516
480.000	312.623	80.008	19.995	103.253	20.077	4.414	0.529
480.500	312.877	80.008	19.994	103.254	20.078	4.345	0.516
481.000	313.169	80.007	19.996	103.254	20.080	4.233	0.529
481.500	313.410	80.008	19.994	103.254	20.079	4.249	0.539
482.000	313.658	80.008	19.996	103.255	20.076	4.469	0.510
482.500	313.939	80.009	19.995	103.253	20.080	4.194	0.509
483.000	314.185	80.008	19.995	103.247	20.079	4.254	0.529
483.500	314.478	80.008	19.995	103.243	20.079	4.247	0.533
484.000	314.672	80.007	19.995	103.242	20.079	4.243	0.512
484.500	314.936	80.008	19.994	103.244	20.082	4.053	0.472
485.000	315.178	80.007	19.994	103.245	20.078	4.325	0.482
485.500	315.440	80.008	19.995	103.249	20.079	4.298	0.505
486.000	315.655	80.008	19.995	103.252	20.080	4.238	0.491
486.500	315.914	80.007	19.995	103.251	20.079	4.296	0.476
487.000	316.195	80.008	19.995	103.250	20.078	4.342	0.507
487.500	316.453	80.009	19.994	103.250	20.078	4.314	0.539
488.000	316.692	80.010	19.994	103.249	20.078	4.342	0.518
488.500	316.943	80.009	19.994	103.249	20.080	4.173	0.494
489.000	317.204	80.009	19.994	103.249	20.078	4.327	0.501
489.500	317.465	80.008	19.995	103.248	20.083	4.016	0.517
490.000	317.646	80.008	19.995	103.248	20.080	4.233	0.482
490.500	317.915	80.009	19.995	103.249	20.082	4.040	0.446
491.000	318.204	80.008	19.994	103.249	20.082	4.073	0.504
491.500	318.491	80.008	19.994	103.249	20.085	3.858	0.567
492.000	318.713	80.009	19.995	103.250	20.083	4.002	0.542
492.500	318.949	80.007	19.995	103.249	20.082	4.058	0.483
493.000	319.251	80.007	19.996	103.249	20.084	3.929	0.498
493.500	319.472	80.008	19.995	103.248	20.079	4.278	0.530
494.000	319.751	80.008	19.995	103.248	20.081	4.105	0.512
494.500	319.950	80.007	19.995	103.248	20.076	4.476	0.490
495.000	320.236	80.009	19.995	103.249	20.079	4.263	0.482
495.500	320.476	80.007	19.994	103.248	20.082	4.071	0.506
496.000	320.798	80.008	19.995	103.249	20.084	3.929	0.544
496.500	321.003	80.008	19.994	103.250	20.082	4.055	0.544
497.000	321.246	80.006	19.996	103.249	20.082	4.096	0.487
497.500	321.518	80.009	19.995	103.249	20.080	4.191	0.481
498.000	321.737	80.007	19.996	103.251	20.082	4.038	0.503
498.500	322.028	80.007	19.995	103.251	20.082	4.102	0.501
499.000	322.310	80.007	19.995	103.251	20.080	4.238	0.542
499.500	322.508	80.007	19.996	103.251	20.080	4.222	0.527
500.000	322.759	80.008	19.995	103.251	20.080	4.214	0.464
500.500	323.038	80.007	19.995	103.249	20.079	4.256	0.489
501.000	323.248	80.008	19.995	103.249	20.082	4.103	0.509
501.500	323.574	80.007	19.996	103.249	20.078	4.320	0.513
502.000	323.825	80.008	19.995	103.248	20.079	4.249	0.557
502.500	324.081	80.007	19.996	103.248	20.079	4.254	0.542
503.000	324.310	80.009	19.995	103.247	20.080	4.182	0.496
503.500	324.543	80.007	19.995	103.247	20.081	4.124	0.474
504.000	324.811	80.006	19.996	103.247	20.080	4.200	0.482
504.500	325.110	80.008	19.996	103.246	20.082	4.047	0.534
505.000	325.343	80.007	19.996	103.246	20.079	4.298	0.549
505.500	325.529	80.006	19.996	103.247	20.077	4.420	0.475
506.000	325.844	80.007	19.996	103.246	20.081	4.167	0.460
506.500	326.092	80.007	19.996	103.246	20.080	4.178	0.532
507.000	326.385	80.008	19.996	103.247	20.080	4.174	0.552
507.500	326.632	80.008	19.995	103.247	20.080	4.193	0.541
508.000	326.867	80.008	19.996	103.246	20.083	3.986	0.511
508.500	327.122	80.006	19.995	103.247	20.081	4.165	0.486
509.000	327.380	80.007	19.996	103.248	20.078	4.343	0.501
509.500	327.631	80.008	19.996	103.248	20.082	4.056	0.510
510.000	327.876	80.008	19.996	103.248	20.079	4.271	0.503
510.500	328.159	80.009	19.995	103.247	20.079	4.267	0.513
511.000	328.384	80.006	19.996	103.247	20.082	4.042	0.518
511.500	328.639	80.008	19.996	103.245	20.077	4.389	0.494
512.000	328.884	80.009	19.996	103.245	20.079	4.280	0.490
512.500	329.140	80.008	19.996	103.245	20.079	4.283	0.500
513.000	329.392	80.007	19.995	103.246	20.076	4.445	0.504
513.500	329.639	80.007	19.996	103.246	20.080	4.222	0.503
514.000	329.859	80.008	19.995	103.248	20.078	4.351	0.483
514.500	330.129	80.008	19.995	103.250	20.079	4.280	0.479
515.000	330.411	80.008	19.996	103.250	20.078	4.347	0.521
515.500	330.646	80.009	19.995	103.250	20.082	4.099	0.534
516.000	330.873	80.008	19.995	103.250	20.073	4.676	0.489
516.500	331.178	80.009	19.994	103.250	20.074	4.609	0.497
517.000	331.400	80.007	19.994	103.249	20.073	4.698	0.530
517.500	331.691	80.008	19.995	103.249	20.078	4.340	0.521
518.000	331.899	80.008	19.995	103.249	20.075	4.534	0.506
518.500	332.181	80.009	19.995	103.249	20.075	4.536	0.494
519.000	332.461	80.009	19.995	103.249	20.080	4.229	0.526
519.500	332.717	80.009	19.993	103.250	20.075	4.543	0.549
520.000	332.986	80.009	19.995	103.249	20.081	4.145	0.530
520.500	333.239	80.009	19.994	103.250	20.079	4.291	0.523
521.000	333.482	80.009	19.994	103.250	20.078	4.365	0.509
521.500	333.743	80.009	19.994	103.250	20.080	4.229	0.500
522.000	333.982	80.009	19.994	103.250	20.083	4.018	0.502
522.500	334.248	80.009	19.994	103.251	20.081	4.109	0.502
523.000	334.502	80.009	19.994	103.251	20.079	4.263	0.512
523.500	334.772	80.007	19.995	103.251	20.083	3.989	0.522
524.000	334.985	80.008	19.994	103.251	20.081	4.133	0.503
524.500	335.268	80.008	19.995	103.251	20.080	4.174	0.489
525.000	335.492	80.009	19.995	103.251	20.078	4.307	0.502
525.500	335.752	80.009	19.994	103.251	20.083	4.004	0.496
526.000	335.964	80.009	19.995	103.254	20.082	4.049	0.478
526.500	336.263	80.009	19.994	103.257	20.084	3.918	0.492
527.000	336.497	80.009	19.994	103.257	20.079	4.264	0.523
527.500	336.775	80.009	19.994	103.258	20.081	4.167	0.522
528.000	337.044	80.010	19.995	103.258	20.082	4.051	0.529
528.500	337.272	80.009	19.994	103.254	20.079	4.293	0.522
529.000	337.517	80.009	19.995	103.251	20.078	4.313	0.485
529.500	337.828	80.009	19.994	103.251	20.083	3.986	0.515
530.000	338.041	80.009	19.994	103.248	20.083	3.984	0.540
530.500	338.296	80.008	19.995	103.248	20.078	4.333	0.496
531.000	338.564	80.009	19.994	103.248	20.078	4.362	0.495
531.500	338.783	80.009	19.994	103.247	20.081	4.136	0.505
532.000	339.016	80.008	19.994	103.247	20.085	3.855	0.470
532.500	339.318	80.008	19.994	103.250	20.082	4.075	0.494
533.000	339.543	80.009	19.995	103.250	20.083	3.988	0.531
533.500	339.839	80.010	19.994	103.250	20.082	4.098	0.524
534.000	340.067	80.009	19.995	103.250	20.078	4.349	0.523
534.500	340.315	80.009	19.994	103.251	20.081	4.122	0.500
535.000	340.626	80.009	19.994	103.251	20.081	4.146	0.517
535.500	340.883	80.008	19.995	103.249	20.081	4.125	0.564
536.000	341.109	80.008	19.995	103.250	20.081	4.111	0.526
536.500	341.362	80.009	19.995	103.249	20.082	4.091	0.482
537.000	341.615	80.008	19.994	103.250	20.082	4.100	0.493
537.500	341.882	80.009	19.994	103.250	20.081	4.162	0.513
538.000	342.056	80.009	19.994	103.252	20.082	4.040	0.480
538.500	342.466	80.010	19.995	103.251	20.082	4.057	0.512
539.000	342.626	80.009	19.995	103.251	20.083	4.029	0.577
539.500	342.846	80.010	19.995	103.252	20.082	4.073	0.475
540.000	343.108	80.008	19.994	103.251	20.079	4.240	0.431
540.500	343.400	80.009	19.994	103.250	20.080	4.175	0.518
541.000	343.646	80.009	19.993	103.250	20.080	4.216	0.546
541.500	343.863	80.009	19.994	103.251	20.082	4.060	0.500
542.000	344.130	80.008	19.994	103.250	20.083	4.006	0.473
542.500	344.414	80.007	19.994	103.251	20.085	3.855	0.517
543.000	344.666	80.010	19.994	103.253	20.083	3.996	0.544
543.500	344.792	80.008	19.994	103.252	20.083	3.987	0.457
544.000	345.099	80.009	19.994	103.252	20.082	4.038	0.405
544.500	345.409	80.010	19.994	103.252	20.079	4.278	0.525
545.000	345.691	80.010	19.994	103.252	20.083	4.029	0.605
545.500	345.915	80.008	19.995	103.252	20.081	4.118	0.549
546.000	346.174	80.011	19.995	103.253	20.082	4.103	0.495
546.500	346.420	80.010	19.995	103.250	20.082	4.084	0.494
547.000	346.672	80.010	19.994	103.247	20.084	3.915	0.501
547.500	346.950	80.011	19.994	103.247	20.080	4.218	0.514
548.000	347.161	80.010	19.994	103.247	20.081	4.147	0.509
548.500	347.458	80.011	19.994	103.246	20.083	4.017	0.498
549.000	347.667	80.010	19.994	103.250	20.078	4.309	0.507
549.500	347.952	80.012	19.994	103.252	20.081	4.116	0.500
550.000	348.173	80.009	19.993	103.252	20.081	4.165	0.500
550.500	348.471	80.011	19.994	103.252	20.081	4.154	0.512
551.000	348.678	80.011	19.995	103.252	20.083	3.973	0.512
551.500	348.941	80.012	19.994	103.251	20.081	4.123	0.487
552.000	349.200	80.012	19.994	103.251	20.083	4.000	0.496
552.500	349.478	80.012	19.995	103.249	20.085	3.856	0.530
553.000	349.697	80.011	19.994	103.247	20.080	4.216	0.517
553.500	349.940	80.011	19.994	103.246	20.082	4.038	0.480
554.000	350.244	80.011	19.994	103.245	20.082	4.069	0.505
554.500	350.457	80.010	19.994	103.246	20.084	3.946	0.532
555.000	350.740	80.010	19.994	103.248	20.081	4.135	0.506
555.500	350.984	80.011	19.995	103.247	20.085	3.844	0.511
556.000	351.272	80.010	19.995	103.247	20.084	3.957	0.530
556.500	351.542	80.011	19.995	103.247	20.084	3.940	0.545
557.000	351.761	80.011	19.995	103.245	20.082	4.085	0.523
557.500	352.030	80.008	19.994	103.245	20.079	4.251	0.488
558.000	352.277	80.011	19.995	103.246	20.081	4.162	0.502
558.500	352.528	80.009	19.994	103.247	20.083	4.018	0.507
559.000	352.806	80.009	19.994	103.247	20.087	3.740	0.513
559.500	353.048	80.008	19.994	103.249	20.080	4.223	0.525
560.000	353.330	80.007	19.994	103.250	20.078	4.328	0.522
560.500	353.574	80.008	19.994	103.250	20.087	3.764	0.525
561.000	353.868	80.008	19.994	103.249	20.079	4.261	0.532
561.500	354.079	80.008	19.994	103.245	20.081	4.112	0.522
562.000	354.375	80.007	19.995	103.243	20.078	4.328	0.506
562.500	354.623	80.008	19.995	103.241	20.082	4.100	0.525
563.000	354.911	80.009	19.995	103.240	20.086	3.791	0.540
563.500	355.091	80.008	19.995	103.240	20.081	4.156	0.502
564.000	355.372	80.009	19.995	103.244	20.079	4.289	0.465
564.500	355.633	80.008	19.995	103.247	20.079	4.271	0.502
565.000	355.853	80.008	19.995	103.248	20.081	4.105	0.511
565.500	356.124	80.008	19.994	103.250	20.082	4.096	0.486
566.000	356.392	80.008	19.995	103.249	20.082	4.080	0.515
566.500	356.648	80.009	19.995	103.249	20.081	4.158	0.531
567.000	357.026	80.008	19.996	103.248	20.079	4.259	0.579
567.500	357.263	80.007	19.995	103.248	20.080	4.203	0.625
568.000	357.495	80.008	19.995	103.248	20.079	4.270	0.542
568.500	357.636	80.008	19.995	103.249	20.080	4.205	0.421
569.000	358.001	80.009	19.995	103.249	20.078	4.352	0.440
569.500	358.198	80.008	19.994	103.249	20.078	4.363	0.534
570.000	358.434	80.008	19.995	103.248	20.081	4.121	0.497
570.500	358.719	80.006	19.995	103.246	20.080	4.192	0.477
571.000	358.976	80.008	19.995	103.242	20.081	4.158	0.532
571.500	359.165	80.008	19.996	103.239	20.080	4.194	0.495
572.000	359.452	80.009	19.995	103.240	20.081	4.107	0.461
572.500	359.766	80.008	19.995	103.240	20.083	3.989	0.538
573.000	359.925	80.008	19.995	103.240	20.082	4.089	0.537
573.500	360.303	80.009	19.995	103.243	20.081	4.167	0.505
574.000	360.567	80.007	19.994	103.246	20.078	4.358	0.589
574.500	360.696	80.008	19.996	103.245	20.081	4.123	0.517
575.001	361.022	80.008	19.996	103.247	20.080	4.238	0.424
575.501	361.324	80.009	19.995	103.248	20.078	4.336	0.541
576.000	361.535	80.009	19.995	103.248	20.080	4.238	0.571
576.500	361.762	80.009	19.995	103.248	20.084	3.938	0.476
577.000	362.030	80.008	19.995	103.247	20.080	4.211	0.467
577.500	362.298	80.010	19.995	103.243	20.078	4.338	0.516
578.000	362.477	80.008	19.995	103.240	20.077	4.405	0.491
578.500	362.738	80.008	19.996	103.239	20.073	4.668	0.444
579.000	363.005	80.009	19.995	103.234	20.076	4.465	0.484
579.500	363.275	80.008	19.995	103.232	20.079	4.280	0.532
580.000	363.480	80.009	19.995	103.234	20.074	4.594	0.506
580.500	363.787	80.008	19.995	103.235	20.076	4.463	0.494
581.000	364.007	80.009	19.995	103.234	20.079	4.244	0.519
581.501	364.263	80.009	19.995	103.238	20.076	4.440	0.502
582.000	364.509	80.010	19.995	103.237	20.075	4.563	0.489
582.500	364.754	80.008	19.995	103.236	20.076	4.469	0.496
583.000	365.026	80.009	19.995	103.238	20.078	4.334	0.504
583.500	365.216	80.009	19.995	103.235	20.076	4.456	0.489
584.000	365.508	80.007	19.995	103.236	20.076	4.467	0.472
584.500	365.753	80.010	19.995	103.240	20.079	4.301	0.510
585.000	366.016	80.009	19.995	103.243	20.077	4.436	0.523
585.500	366.272	80.009	19.995	103.238	20.079	4.254	0.513
586.000	366.513	80.008	19.995	103.242	20.074	4.610	0.508
586.500	366.793	80.009	19.995	103.242	20.078	4.338	0.509
587.000	367.042	80.007	19.995	103.242	20.074	4.581	0.525
587.500	367.283	80.008	19.995	103.243	20.074	4.592	0.510
588.000	367.549	80.009	19.994	103.248	20.074	4.577	0.498
588.500	367.800	80.008	19.995	103.249	20.075	4.517	0.512
589.000	368.057	80.006	19.994	103.250	20.076	4.493	0.513
589.500	368.336	80.008	19.996	103.248	20.076	4.479	0.522
590.000	368.578	80.008	19.996	103.248	20.077	4.429	0.528
590.500	368.811	80.006	19.995	103.249	20.076	4.466	0.498
591.000	369.060	80.006	19.995	103.248	20.078	4.351	0.478
591.500	369.324	80.008	19.996	103.249	20.074	4.633	0.497
592.000	369.534	80.009	19.995	103.251	20.072	4.720	0.494
592.500	369.821	80.007	19.996	103.252	20.076	4.471	0.486
593.000	370.055	80.008	19.996	103.251	20.078	4.342	0.509
593.500	370.282	80.008	19.995	103.253	20.073	4.656	0.491
594.000	370.535	80.008	19.995	103.252	20.074	4.573	0.470
594.500	370.806	80.008	19.995	103.249	20.075	4.541	0.502
595.000	371.048	80.007	19.995	103.245	20.077	4.407	0.519
595.500	371.333	80.007	19.996	103.242	20.073	4.700	0.520
596.000	371.587	80.007	19.996	103.240	20.075	4.570	0.533
596.500	371.804	80.007	19.996	103.237	20.072	4.713	0.505
597.000	372.078	80.007	19.996	103.239	20.073	4.657	0.482
597.500	372.339	80.006	19.995	103.241	20.076	4.464	0.513
598.000	372.579	80.007	19.996	103.243	20.071	4.775	0.518
598.500	372.826	80.008	19.996	103.243	20.072	4.730	0.494
599.000	373.110	80.006	19.995	103.242	20.072	4.745	0.509
599.500	373.373	80.008	19.996	103.240	20.073	4.688	0.539
600.000	373.606	80.008	19.996	103.235	20.071	4.814	0.522
600.500	373.869	80.007	19.996	103.228	20.070	4.875	0.497
601.000	374.120	80.008	19.995	103.225	20.074	4.628	0.505
601.500	374.356	80.007	19.996	103.227	20.072	4.752	0.500
602.000	374.599	80.008	19.995	103.223	20.070	4.853	0.483
602.500	374.860	80.007	19.995	103.224	20.073	4.660	0.492
603.000	375.100	80.009	19.995	103.224	20.073	4.682	0.502
603.500	375.377	80.008	19.995	103.221	20.071	4.775	0.509
604.000	375.653	80.007	19.996	103.221	20.074	4.628	0.535
604.500	375.884	80.008	19.996	103.226	20.071	4.833	0.530
605.000	376.117	80.008	19.996	103.230	20.071	4.792	0.485
605.500	376.380	80.008	19.995	103.236	20.074	4.637	0.480
606.000	376.628	80.008	19.995	103.241	20.074	4.619	0.503
606.500	376.866	80.008	19.995	103.237	20.071	4.799	0.499
607.000	377.145	80.009	19.996	103.234	20.071	4.826	0.502
607.500	377.368	80.008	19.995	103.233	20.069	4.951	0.509
608.000	377.610	80.008	19.995	103.232	20.070	4.882	0.483
608.500	377.885	80.009	19.994	103.235	20.070	4.889	0.491
609.000	378.185	80.008	19.995	103.241	20.071	4.777	0.546
609.500	378.400	80.008	19.994	103.247	20.070	4.873	0.545
610.000	378.617	80.009	19.994	103.249	20.071	4.829	0.473
610.500	378.881	80.008	19.994	103.251	20.072	4.711	0.457
611.000	379.158	80.010	19.995	103.251	20.071	4.777	0.511
611.500	379.387	80.009	19.994	103.250	20.072	4.754	0.523
612.000	379.662	80.009	19.994	103.248	20.070	4.864	0.505
612.500	379.906	80.008	19.995	103.246	20.070	4.854	0.511
613.000	380.163	80.009	19.994	103.241	20.067	5.069	0.510
613.500	380.422	80.008	19.994	103.236	20.067	5.099	0.509
614.000	380.628	80.008	19.994	103.233	20.071	4.788	0.491
614.500	380.905	80.009	19.994	103.234	20.068	4.999	0.474
615.000	381.143	80.008	19.994	103.237	20.069	4.940	0.499
615.500	381.431	80.010	19.994	103.242	20.073	4.706	0.520
616.000	381.681	80.009	19.994	103.247	20.068	4.989	0.532
616.500	381.931	80.009	19.995	103.249	20.064	5.249	0.519
617.000	382.173	80.009	19.994	103.250	20.069	4.949	0.496
617.500	382.430	80.009	19.995	103.248	20.069	4.962	0.495
618.000	382.679	80.008	19.994	103.244	20.067	5.069	0.503
618.500	382.934	80.008	19.994	103.244	20.069	4.911	0.505
619.000	383.180	80.008	19.995	103.240	20.067	5.081	0.502
619.500	383.405	80.008	19.995	103.234	20.068	5.033	0.486
620.000	383.719	80.008	19.994	103.235	20.067	5.049	0.505
620.500	383.954	80.009	19.995	103.237	20.068	4.978	0.544
621.000	384.180	80.010	19.995	103.235	20.067	5.051	0.505
621.500	384.449	80.010	19.996	103.236	20.065	5.196	0.478
622.000	384.683	80.009	19.994	103.240	20.067	5.098	0.499
622.500	384.964	80.008	19.995	103.247	20.066	5.116	0.509
623.000	385.235	80.008	19.994	103.240	20.069	4.971	0.534
623.500	385.456	80.009	19.994	103.219	20.068	5.009	0.522
624.000	385.724	80.009	19.994	103.202	20.065	5.178	0.490
624.500	385.980	80.008	19.995	103.190	20.065	5.196	0.506
625.000	386.187	80.010	19.995	103.176	20.063	5.311	0.494
625.500	386.461	80.009	19.994	103.188	20.065	5.216	0.472
626.000	386.699	80.008	19.994	103.241	20.062	5.439	0.497
626.500	386.970	80.010	19.994	103.268	20.064	5.247	0.510
627.000	387.223	80.009	19.995	103.281	20.065	5.207	0.516
627.500	387.477	80.010	19.994	103.283	20.065	5.225	0.515
628.000	387.712	80.009	19.993	103.274	20.062	5.425	0.498
628.501	387.979	80.011	19.994	103.241	20.062	5.410	0.496
629.000	388.225	80.009	19.994	103.227	20.063	5.319	0.508
629.500	388.457	80.010	19.994	103.226	20.060	5.523	0.495
630.000	388.754	80.009	19.994	103.231	20.063	5.320	0.504
630.500	388.961	80.010	19.994	103.237	20.058	5.666	0.517
631.000	389.265	80.011	19.994	103.234	20.060	5.576	0.508
631.500	389.474	80.010	19.994	103.233	20.060	5.572	0.512
632.000	389.711	80.011	19.994	103.233	20.057	5.754	0.480
632.500	390.005	80.011	19.994	103.230	20.056	5.803	0.488
633.000	390.235	80.012	19.994	103.229	20.056	5.845	0.527
633.500	390.493	80.010	19.995	103.233	20.057	5.744	0.506
634.000	390.755	80.011	19.994	103.238	20.060	5.528	0.504
634.500	391.021	80.010	19.994	103.240	20.059	5.620	0.524
635.000	391.258	80.011	19.994	103.242	20.058	5.667	0.516
635.500	391.482	80.009	19.994	103.240	20.058	5.689	0.482
636.000	391.757	80.010	19.994	103.238	20.059	5.629	0.480
636.500	392.004	80.010	19.995	103.237	20.055	5.901	0.510
637.000	392.293	80.010	19.995	103.237	20.055	5.869	0.529
637.500	392.515	80.010	19.994	103.237	20.056	5.813	0.524
638.000	392.748	80.009	19.994	103.239	20.059	5.631	0.483
638.500	393.030	80.011	19.995	103.241	20.056	5.778	0.485
639.000	393.283	80.010	19.994	103.238	20.058	5.704	0.525
639.500	393.531	80.011	19.995	103.235	20.058	5.706	0.519
640.000	393.785	80.010	19.994	103.234	20.057	5.755	0.502
640.500	394.036	80.009	19.995	103.234	20.056	5.811	0.503
641.000	394.307	80.009	19.994	103.235	20.053	6.013	0.514
641.500	394.544	80.009	19.994	103.238	20.052	6.069	0.515
642.000	394.805	80.008	19.995	103.242	20.055	5.892	0.503
642.500	395.088	80.008	19.994	103.242	20.055	5.874	0.521
643.000	395.313	80.010	19.995	103.240	20.051	6.120	0.526
643.500	395.567	80.007	19.994	103.241	20.056	5.806	0.494
644.000	395.824	80.008	19.994	103.242	20.052	6.102	0.495
644.500	396.057	80.008	19.994	103.236	20.052	6.097	0.501
645.000	396.331	80.008	19.995	103.229	20.052	6.066	0.499
645.500	396.561	80.008	19.994	103.225	20.052	6.106	0.505
646.000	396.841	80.008	19.994	103.218	20.051	6.122	0.507
646.500	397.063	80.007	19.994	103.213	20.049	6.282	0.506
647.000	397.322	80.009	19.995	103.213	20.050	6.220	0.492
647.500	397.586	80.008	19.995	103.215	20.051	6.163	0.502
648.000	397.840	80.007	19.993	103.218	20.051	6.176	0.520
648.500	398.121	80.008	19.994	103.223	20.052	6.079	0.526
649.000	398.336	80.007	19.994	103.225	20.047	6.397	0.515
649.500	398.628	80.008	19.994	103.225	20.052	6.092	0.502
650.000	398.856	80.008	19.993	103.226	20.049	6.259	0.514
650.500	399.104	80.008	19.993	103.225	20.049	6.266	0.498
651.000	399.373	80.008	19.994	103.224	20.046	6.472	0.496
651.500	399.641	80.007	19.995	103.229	20.047	6.426	0.527
652.000	399.886	80.008	19.995	103.233	20.046	6.481	0.525
652.500	400.145	80.007	19.994	103.236	20.046	6.495	0.509
653.000	400.361	80.008	19.995	103.241	20.044	6.602	0.490
653.500	400.648	80.008	19.994	103.241	20.047	6.430	0.489
654.000	400.916	80.008	19.993	103.239	20.045	6.564	0.529
654.500	401.124	80.009	19.994	103.242	20.046	6.504	0.516
655.000	401.371	80.008	19.995	103.242	20.046	6.511	0.465
655.500	401.631	80.007	19.994	103.243	20.045	6.522	0.481
656.000	401.890	80.009	19.994	103.245	20.044	6.613	0.513
656.500	402.147	80.008	19.993	103.242	20.044	6.582	0.517
657.000	402.375	80.008	19.994	103.238	20.043	6.662	0.501
657.500	402.660	80.008	19.994	103.233	20.042	6.749	0.499
658.000	402.926	80.007	19.994	103.228	20.043	6.706	0.532
658.500	403.164	80.009	19.994	103.225	20.041	6.795	0.528
659.000	403.435	80.008	19.995	103.222	20.041	6.791	0.507
659.500	403.660	80.007	19.995	103.221	20.041	6.812	0.502
660.000	403.922	80.008	19.994	103.220	20.043	6.700	0.491
660.500	404.185	80.007	19.995	103.221	20.040	6.885	0.506
661.000	404.423	80.006	19.994	103.220	20.040	6.901	0.513
661.500	404.685	80.008	19.994	103.221	20.041	6.784	0.500
662.000	404.917	80.009	19.994	103.223	20.040	6.898	0.497
662.500	405.203	80.009	19.995	103.224	20.042	6.777	0.506
663.000	405.449	80.007	19.994	103.224	20.041	6.795	0.525
663.500	405.678	80.007	19.994	103.224	20.040	6.859	0.503
664.000	405.933	80.007	19.994	103.223	20.038	6.985	0.479
664.500	406.194	80.007	19.995	103.222	20.038	7.020	0.500
665.000	406.443	80.008	19.995	103.218	20.036	7.143	0.513
665.500	406.710	80.007	19.995	103.218	20.037	7.068	0.513
666.000	406.944	80.008	19.994	103.218	20.035	7.193	0.509
666.500	407.216	80.005	19.996	103.218	20.036	7.169	0.504
667.000	407.438	80.007	19.995	103.218	20.036	7.126	0.500
667.500	407.700	80.008	19.995	103.218	20.037	7.093	0.489
668.000	407.980	80.008	19.995	103.218	20.035	7.212	0.513
668.500	408.196	80.006	19.994	103.217	20.034	7.258	0.519
669.000	408.485	80.007	19.996	103.219	20.033	7.367	0.500
669.500	408.719	80.007	19.995	103.222	20.034	7.280	0.514
670.000	408.956	80.006	19.994	103.227	20.030	7.573	0.497
670.500	409.222	80.006	19.996	103.234	20.029	7.594	0.487
671.000	409.422	80.006	19.995	103.239	20.030	7.579	0.485
671.500	409.692	80.007	19.995	103.239	20.029	7.599	0.468
672.000	409.946	80.007	19.995	103.238	20.027	7.737	0.497
672.500	410.244	80.006	19.995	103.233	20.028	7.669	0.538
673.000	410.468	80.007	19.995	103.227	20.029	7.608	0.537
673.500	410.750	80.006	19.995	103.227	20.029	7.641	0.514
674.000	411.003	80.006	19.996	103.231	20.027	7.725	0.520
674.500	411.235	80.005	19.995	103.234	20.026	7.797	0.510
675.000	411.510	80.007	19.995	103.241	20.025	7.863	0.496
675.500	411.750	80.007	19.996	103.247	20.025	7.899	0.511
676.000	411.990	80.006	19.995	103.245	20.025	7.870	0.498
676.500	412.280	80.007	19.995	103.244	20.025	7.894	0.505
677.000	412.531	80.006	19.995	103.240	20.025	7.888	0.535
677.500	412.744	80.008	19.994	103.234	20.024	7.946	0.503
678.001	413.001	80.007	19.995	103.229	20.023	8.013	0.467
678.500	413.278	80.006	19.995	103.228	20.023	8.025	0.502
679.000	413.509	80.008	19.995	103.222	20.021	8.121	0.521
679.500	413.733	80.007	19.995	103.224	20.018	8.383	0.482
680.000	414.010	80.007	19.995	103.224	20.018	8.334	0.478
680.501	414.266	80.007	19.995	103.225	20.018	8.358	0.517
681.000	414.510	80.007	19.995	103.223	20.017	8.452	0.516
681.500	414.708	80.008	19.995	103.224	20.015	8.523	0.471
682.000	414.995	80.009	19.995	103.222	20.017	8.396	0.464
682.500	415.239	80.008	19.995	103.222	20.018	8.387	0.508
683.000	415.484	80.009	19.995	103.220	20.015	8.581	0.510
683.500	415.755	80.008	19.995	103.218	20.015	8.570	0.502
684.000	415.986	80.008	19.994	103.220	20.012	8.753	0.509
684.500	416.245	80.008	19.994	103.225	20.012	8.733	0.496
685.000	416.483	80.009	19.994	103.228	20.013	8.683	0.493
685.500	416.733	80.009	19.995	103.227	20.009	8.973	0.493
686.000	416.962	80.008	19.994	103.233	20.009	8.957	0.483
686.500	417.249	80.008	19.995	103.234	20.010	8.915	0.497
687.000	417.481	80.010	19.995	103.233	20.008	8.996	0.517
687.500	417.743	80.008	19.994	103.230	20.005	9.209	0.507
688.000	417.983	80.010	19.995	103.230	20.008	9.054	0.498
688.500	418.219	80.009	19.996	103.225	20.006	9.131	0.489
689.000	418.476	80.007	19.995	103.224	20.005	9.221	0.484
689.500	418.778	80.010	19.995	103.218	20.005	9.252	0.526
690.000	418.992	80.009	19.995	103.217	20.004	9.274	0.538
690.500	419.282	80.009	19.996	103.216	20.005	9.203	0.510
691.000	419.520	80.010	19.996	103.217	20.004	9.292	0.516
691.500	419.779	80.010	19.995	103.220	20.003	9.382	0.512
692.000	420.048	80.008	19.995	103.224	20.000	9.575	0.513
692.500	420.285	80.009	19.996	103.228	19.999	9.631	0.517
693.000	420.543	80.010	19.996	103.230	20.000	9.586	0.500
693.500	420.772	80.009	19.995	103.228	19.997	9.742	0.490
694.000	421.023	80.009	19.995	103.225	19.999	9.640	0.483
694.500	421.263	80.008	19.995	103.222	20.000	9.588	0.486
695.000	421.545	80.010	19.996	103.221	19.998	9.719	0.507
695.500	421.765	80.007	19.995	103.221	19.996	9.841	0.512
696.000	422.056	80.009	19.997	103.221	19.994	9.975	0.506
696.501	422.309	80.009	19.995	103.219	19.995	9.868	0.527
697.000	422.564	80.008	19.996	103.220	19.994	9.966	0.526
697.500	422.777	80.009	19.995	103.218	19.991	10.182	0.488
698.000	423.051	80.010	19.996	103.218	19.991	10.176	0.477
698.500	423.321	80.008	19.996	103.217	19.989	10.321	0.515
699.000	423.537	80.009	19.996	103.219	19.989	10.270	0.515
699.500	423.800	80.008	19.996	103.220	19.986	10.474	0.482
700.000	424.044	80.007	19.995	103.219	19.988	10.340	0.493
700.500	424.303	80.008	19.995	103.216	19.986	10.509	0.505
701.000	424.593	80.007	19.995	103.215	19.987	10.437	0.526
701.500	424.837	80.008	19.996	103.214	19.982	10.763	0.541
702.000	425.086	80.008	19.995	103.211	19.980	10.895	0.513
702.500	425.370	80.009	19.996	103.213	19.985	10.598	0.513
703.000	425.602	80.007	19.995	103.214	19.980	10.928	0.525
703.500	425.863	80.008	19.995	103.216	19.980	10.875	0.505
704.000	426.124	80.010	19.995	103.217	19.979	10.957	0.507
704.500	426.395	80.008	19.995	103.216	19.976	11.185	0.526
705.000	426.667	80.010	19.995	103.214	19.975	11.219	0.538
705.500	426.850	80.010	19.995	103.215	19.975	11.206	0.500
706.000	427.138	80.009	19.995	103.219	19.977	11.092	0.463
706.500	427.401	80.008	19.995	103.222	19.972	11.462	0.511
707.000	427.669	80.008	19.995	103.225	19.974	11.300	0.541
707.500	427.912	80.008	19.994	103.227	19.970	11.591	0.521
708.000	428.207	80.010	19.994	103.227	19.969	11.656	0.524
708.500	428.416	80.010	19.995	103.222	19.967	11.745	0.521
709.000	428.692	80.010	19.994	103.218	19.965	11.895	0.495
709.500	428.899	80.009	19.994	103.215	19.964	11.955	0.483
710.000	429.184	80.009	19.993	103.214	19.963	12.060	0.488
710.500	429.446	80.009	19.994	103.218	19.962	12.071	0.520
711.000	429.669	80.009	19.994	103.224	19.960	12.253	0.516
711.500	429.918	80.009	19.995	103.226	19.957	12.420	0.478
712.000	430.157	80.010	19.994	103.228	19.959	12.331	0.480
712.500	430.441	80.009	19.994	103.227	19.956	12.480	0.506
713.000	430.672	80.011	19.995	103.223	19.954	12.647	0.519
713.500	430.924	80.009	19.994	103.221	19.955	12.602	0.499
714.000	431.195	80.012	19.995	103.220	19.952	12.771	0.503
714.500	431.484	80.011	19.994	103.221	19.950	12.938	0.542
715.000	431.686	80.010	19.994	103.224	19.946	13.170	0.525
715.500	431.962	80.010	19.994	103.229	19.948	13.015	0.484
716.000	432.217	80.011	19.994	103.226	19.945	13.269	0.505
716.500	432.480	80.009	19.993	103.227	19.945	13.257	0.525
717.000	432.715	80.010	19.994	103.224	19.944	13.318	0.508
717.500	432.972	80.011	19.994	103.223	19.941	13.512	0.495
718.000	433.210	80.010	19.994	103.220	19.938	13.710	0.493
718.500	433.497	80.009	19.994	103.222	19.938	13.703	0.510
719.000	433.761	80.009	19.994	103.221	19.938	13.721	0.538
719.500	434.047	80.009	19.994	103.222	19.934	13.965	0.551
720.000	434.282	80.009	19.994	103.220	19.935	13.893	0.536
720.500	434.532	80.010	19.994	103.218	19.932	14.123	0.503
721.000	434.773	80.009	19.994	103.215	19.933	14.078	0.488
721.500	435.029	80.008	19.994	103.217	19.935	13.889	0.494
722.000	435.293	80.009	19.994	103.217	19.931	14.154	0.509
722.500	435.547	80.008	19.994	103.217	19.925	14.595	0.519
723.000	435.798	80.008	19.995	103.219	19.927	14.426	0.511
723.500	436.037	80.007	19.994	103.222	19.923	14.724	0.497
724.000	436.299	80.007	19.995	103.222	19.927	14.474	0.496
724.500	436.576	80.007	19.996	103.225	19.924	14.674	0.520
725.000	436.818	80.008	19.994	103.224	19.922	14.808	0.529
725.500	437.033	80.008	19.995	103.223	19.920	14.886	0.488
726.000	437.320	80.008	19.994	103.219	19.918	15.071	0.480
726.500	437.579	80.008	19.994	103.219	19.917	15.106	0.524
727.000	437.816	80.008	19.995	103.217	19.916	15.170	0.521
727.500	438.073	80.007	19.995	103.218	19.912	15.473	0.495
728.000	438.336	80.007	19.994	103.218	19.911	15.547	0.507
728.500	438.597	80.009	19.995	103.217	19.910	15.584	0.523
729.000	438.820	80.007	19.995	103.215	19.907	15.781	0.504
729.500	439.103	80.007	19.995	103.215	19.908	15.727	0.495
730.000	439.328	80.007	19.994	103.215	19.904	15.970	0.507
730.500	439.611	80.008	19.995	103.218	19.907	15.806	0.508
731.000	439.879	80.008	19.995	103.223	19.905	15.935	0.529
731.500	440.088	80.007	19.995	103.225	19.901	16.206	0.514
732.000	440.326	80.008	19.994	103.224	19.900	16.274	0.462
732.500	440.617	80.008	19.995	103.224	19.895	16.620	0.488
733.000	440.856	80.008	19.995	103.222	19.894	16.689	0.529
733.500	441.054	80.008	19.994	103.222	19.892	16.797	0.483
734.000	441.352	80.008	19.994	103.224	19.888	17.042	0.466
734.500	441.640	80.008	19.994	103.226	19.888	17.078	0.541
735.000	441.888	80.008	19.994	103.230	19.886	17.220	0.561
735.500	442.165	80.008	19.995	103.231	19.885	17.241	0.530
736.000	442.396	80.007	19.995	103.226	19.886	17.168	0.517
736.500	442.673	80.007	19.995	103.224	19.881	17.501	0.508
737.000	442.927	80.007	19.994	103.228	19.881	17.536	0.519
737.500	443.178	80.008	19.995	103.229	19.879	17.685	0.518
738.000	443.428	80.008	19.994	103.229	19.875	17.904	0.503
738.500	443.632	80.008	19.993	103.229	19.875	17.937	0.478
739.000	443.916	80.009	19.994	103.227	19.877	17.829	0.471
739.500	444.156	80.008	19.994	103.220	19.870	18.244	0.506
740.000	444.455	80.009	19.994	103.217	19.875	17.913	0.531
740.500	444.683	80.008	19.994	103.215	19.877	17.813	0.533
741.000	444.936	80.009	19.994	103.217	19.872	18.113	0.504
741.500	445.185	80.009	19.994	103.220	19.867	18.477	0.492
742.000	445.418	80.009	19.994	103.226	19.869	18.340	0.492
742.500	445.680	80.008	19.994	103.228	19.871	18.188	0.489
743.000	445.936	80.009	19.994	103.231	19.874	17.973	0.506
743.501	446.186	80.009	19.994	103.230	19.867	18.477	0.512
744.000	446.472	80.008	19.994	103.228	19.861	18.844	0.521
744.500	446.702	80.010	19.994	103.224	19.865	18.594	0.526
745.000	447.003	80.008	19.994	103.222	19.859	19.011	0.524
745.500	447.220	80.008	19.994	103.221	19.859	19.024	0.524
746.000	447.479	80.009	19.994	103.224	19.858	19.045	0.497
746.500	447.708	80.009	19.993	103.226	19.859	18.967	0.482
747.001	447.947	80.008	19.994	103.227	19.856	19.181	0.478
747.500	448.261	80.008	19.994	103.229	19.854	19.317	0.511
748.000	448.489	80.008	19.994	103.233	19.852	19.441	0.548
748.500	448.721	80.009	19.994	103.235	19.852	19.479	0.501
749.000	448.979	80.008	19.994	103.232	19.849	19.679	0.475
749.500	449.212	80.008	19.995	103.231	19.847	19.802	0.491
750.000	449.479	80.008	19.993	103.229	19.850	19.592	0.495
750.500	449.762	80.009	19.995	103.223	19.847	19.828	0.525
751.000	449.969	80.008	19.995	103.218	19.845	19.953	0.520
751.500	450.227	80.009	19.994	103.221	19.849	19.656	0.477
752.000	450.488	80.009	19.995	103.224	19.839	20.309	0.492
752.500	450.747	80.008	19.994	103.224	19.838	20.393	0.520
753.000	451.029	80.008	19.994	103.224	19.838	20.429	0.531
753.500	451.300	80.008	19.994	103.222	19.837	20.476	0.547
754.000	451.531	80.008	19.994	103.221	19.838	20.418	0.527
754.500	451.809	80.009	19.994	103.219	19.837	20.461	0.505
755.000	452.050	80.008	19.995	103.219	19.835	20.613	0.514
755.500	452.348	80.008	19.995	103.220	19.838	20.384	0.529
756.000	452.569	80.007	19.995	103.221	19.828	21.094	0.529
756.500	452.763	80.008	19.994	103.219	19.834	20.682	0.467
757.000	453.008	80.007	19.995	103.218	19.834	20.688	0.427
757.500	453.235	80.007	19.994	103.217	19.832	20.810	0.456
758.000	453.536	80.008	19.995	103.217	19.827	21.167	0.500
758.500	453.795	80.008	19.994	103.216	19.829	20.980	0.544
759.000	454.125	80.008	19.995	103.216	19.829	20.998	0.574
759.500	454.396	80.008	19.996	103.219	19.827	21.149	0.595
760.000	454.596	80.007	19.995	103.218	19.826	21.198	0.536
760.500	454.833	80.008	19.996	103.219	19.829	20.977	0.454
761.000	455.120	80.009	19.995	103.220	19.825	21.276	0.481
761.500	455.377	80.007	19.996	103.220	19.830	20.933	0.534
762.000	455.579	80.007	19.995	103.217	19.823	21.387	0.501
762.500	455.888	80.008	19.995	103.220	19.824	21.324	0.485
763.000	456.133	80.007	19.996	103.220	19.823	21.380	0.533
763.500	456.375	80.007	19.995	103.221	19.825	21.251	0.521
764.000	456.657	80.007	19.995	103.222	19.823	21.418	0.505
764.500	456.896	80.008	19.996	103.221	19.824	21.334	0.522
765.000	457.150	80.008	19.995	103.219	19.822	21.447	0.507
765.500	457.351	80.008	19.995	103.217	19.822	21.480	0.474
766.000	457.634	80.009	19.996	103.214	19.823	21.431	0.470
766.500	458.034	80.009	19.995	103.213	19.822	21.451	0.584
767.000	458.151	80.009	19.995	103.213	19.821	21.547	0.600
767.500	458.408	80.009	19.996	103.217	19.824	21.323	0.445
768.000	458.696	80.010	19.995	103.218	19.822	21.490	0.459
768.500	458.876	80.010	19.994	103.218	19.822	21.450	0.507
769.000	459.132	80.009	19.994	103.218	19.822	21.494	0.452
769.500	459.409	80.009	19.995	103.218	19.822	21.484	0.484
770.000	459.712	80.011	19.996	103.215	19.823	21.382	0.557
770.500	459.877	80.010	19.997	103.216	19.824	21.322	0.524
771.000	460.203	80.010	19.995	103.218	19.822	21.497	0.479
771.500	460.426	80.010	19.995	103.218	19.822	21.506	0.520
772.000	460.704	80.010	19.995	103.217	19.823	21.413	0.525
772.500	460.946	80.010	19.995	103.217	19.825	21.284	0.510
773.000	461.185	80.010	19.995	103.217	19.826	21.241	0.501
773.500	461.540	80.011	19.995	103.219	19.824	21.321	0.538
774.000	461.716	80.011	19.993	103.220	19.824	21.350	0.562
774.500	461.922	80.010	19.995	103.218	19.826	21.219	0.456
775.000	462.171	80.010	19.995	103.217	19.827	21.158	0.418
775.500	462.442	80.011	19.995	103.214	19.826	21.217	0.488
776.000	462.686	80.010	19.995	103.209	19.826	21.217	0.518
776.500	462.937	80.010	19.995	103.209	19.825	21.292	0.505
777.000	463.180	80.010	19.995	103.211	19.825	21.282	0.494
777.500	463.462	80.009	19.995	103.213	19.829	21.013	0.509
778.000	463.682	80.009	19.995	103.218	19.830	20.942	0.514
778.500	463.933	80.009	19.995	103.222	19.827	21.122	0.487
779.000	464.202	80.009	19.995	103.222	19.832	20.822	0.495
779.500	464.425	80.008	19.995	103.225	19.831	20.897	0.506
780.000	464.660	80.009	19.995	103.226	19.830	20.970	0.475
780.500	464.911	80.007	19.995	103.222	19.832	20.803	0.472
781.000	465.156	80.007	19.996	103.219	19.829	21.031	0.491
781.500	465.457	80.007	19.995	103.219	19.832	20.777	0.521
782.000	465.631	80.008	19.995	103.216	19.832	20.827	0.510
782.500	465.912	80.009	19.995	103.213	19.830	20.958	0.465
783.000	466.169	80.008	19.995	103.213	19.836	20.533	0.497
783.501	466.408	80.008	19.995	103.212	19.841	20.219	0.517
784.001	466.677	80.008	19.995	103.212	19.836	20.545	0.502
784.500	466.935	80.008	19.995	103.213	19.838	20.431	0.518
785.000	467.158	80.008	19.995	103.216	19.843	20.063	0.504
785.500	467.430	80.009	19.995	103.221	19.842	20.171	0.488
786.000	467.673	80.008	19.995	103.227	19.840	20.279	0.505
786.500	467.920	80.008	19.995	103.229	19.842	20.131	0.503
787.000	468.156	80.008	19.996	103.228	19.845	19.960	0.487
787.500	468.451	80.008	19.995	103.225	19.845	19.918	0.507
788.000	468.702	80.007	19.995	103.221	19.847	19.802	0.538
788.500	468.915	80.008	19.995	103.218	19.845	19.923	0.505
789.000	469.216	80.009	19.996	103.215	19.846	19.842	0.489
789.500	469.480	80.009	19.996	103.217	19.846	19.882	0.539
790.000	469.697	80.007	19.995	103.218	19.850	19.597	0.523
790.500	469.965	80.009	19.996	103.220	19.852	19.454	0.483
791.000	470.222	80.008	19.995	103.219	19.850	19.610	0.505
791.500	470.447	80.010	19.996	103.221	19.854	19.328	0.504
792.000	470.724	80.008	19.996	103.219	19.855	19.240	0.492
792.500	470.979	80.008	19.995	103.218	19.857	19.107	0.517
793.000	471.283	80.008	19.996	103.215	19.856	19.229	0.545
793.500	471.444	80.009	19.996	103.214	19.855	19.256	0.512
794.000	471.698	80.009	19.995	103.212	19.864	18.640	0.440
794.500	471.968	80.010	19.996	103.216	19.860	18.905	0.470
795.000	472.231	80.011	19.995	103.221	19.861	18.863	0.529
795.501	472.494	80.009	19.995	103.222	19.864	18.693	0.530
796.000	472.742	80.010	19.995	103.224	19.864	18.650	0.519
796.500	472.989	80.011	19.995	103.226	19.866	18.533	0.503
797.000	473.256	80.010	19.995	103.224	19.872	18.150	0.504
797.500	473.513	80.008	19.995	103.218	19.874	18.023	0.519
798.000	473.775	80.010	19.995	103.219	19.874	18.001	0.522
798.500	474.027	80.009	19.994	103.216	19.873	18.073	0.516
799.001	474.257	80.009	19.994	103.214	19.877	17.801	0.498
799.501	474.550	80.010	19.994	103.214	19.878	17.719	0.503
800.001	474.792	80.011	19.995	103.216	19.877	17.824	0.529
800.501	475.048	80.010	19.994	103.218	19.882	17.482	0.517
801.000	475.332	80.009	19.994	103.218	19.887	17.117	0.519
801.500	475.578	80.009	19.995	103.218	19.891	16.863	0.535
802.000	475.802	80.009	19.995	103.218	19.888	17.026	0.500
802.500	476.064	80.010	19.995	103.217	19.889	16.971	0.478
803.000	476.384	80.010	19.994	103.218	19.889	17.012	0.534
803.500	476.583	80.009	19.994	103.219	19.893	16.719	0.550
804.000	476.822	80.009	19.994	103.219	19.894	16.659	0.478
804.500	477.087	80.008	19.994	103.218	19.896	16.519	0.471
805.000	477.297	80.007	19.994	103.217	19.898	16.391	0.489
805.500	477.577	80.007	19.994	103.214	19.897	16.429	0.483
806.000	477.831	80.008	19.994	103.215	19.897	16.462	0.512
806.500	478.053	80.007	19.994	103.218	19.900	16.250	0.505
807.000	478.363	80.008	19.994	103.220	19.903	16.036	0.504
807.500	478.586	80.007	19.994	103.223	19.903	16.077	0.532
808.000	478.784	80.008	19.993	103.226	19.906	15.839	0.477
808.500	479.096	80.007	19.995	103.225	19.904	16.009	0.466
809.001	479.358	80.007	19.995	103.223	19.905	15.935	0.542
809.500	479.659	80.008	19.994	103.222	19.911	15.508	0.569
810.000	479.921	80.008	19.995	103.221	19.913	15.401	0.563
810.500	480.176	80.008	19.995	103.219	19.918	15.037	0.540
811.000	480.361	80.008	19.994	103.221	19.918	15.055	0.478
811.500	480.622	80.008	19.995	103.224	19.918	15.017	0.443
812.000	480.924	80.008	19.995	103.223	19.921	14.872	0.504
812.500	481.198	80.008	19.994	103.224	19.924	14.656	0.570
813.000	481.402	80.008	19.996	103.226	19.924	14.660	0.527
813.500	481.663	80.008	19.994	103.229	19.924	14.677	0.472
814.000	481.960	80.009	19.994	103.229	19.925	14.559	0.512
814.500	482.272	80.008	19.994	103.231	19.927	14.439	0.583
815.000	482.342	80.009	19.995	103.232	19.932	14.109	0.495
815.500	482.683	80.009	19.995	103.232	19.932	14.091	0.397
816.000	482.948	80.009	19.995	103.226	19.933	14.052	0.508
816.500	483.161	80.008	19.995	103.227	19.938	13.736	0.542
817.000	483.405	80.009	19.995	103.225	19.938	13.743	0.468
817.500	483.697	80.009	19.994	103.220	19.940	13.572	0.496
818.000	483.925	80.008	19.994	103.218	19.941	13.530	0.528
818.500	484.156	80.009	19.995	103.218	19.942	13.439	0.490
819.000	484.416	80.008	19.994	103.213	19.942	13.474	0.475
819.500	484.690	80.009	19.995	103.212	19.945	13.261	0.512
820.000	484.916	80.009	19.995	103.212	19.946	13.198	0.517
820.500	485.191	80.008	19.994	103.213	19.947	13.131	0.501
821.000	485.453	80.009	19.994	103.212	19.950	12.886	0.519
821.500	485.688	80.007	19.994	103.213	19.959	12.278	0.517
822.000	486.007	80.007	19.994	103.213	19.959	12.295	0.525
822.500	486.271	80.008	19.995	103.214	19.952	12.786	0.568
823.000	486.506	80.008	19.994	103.214	19.955	12.557	0.541
823.500	486.686	80.009	19.995	103.216	19.964	11.969	0.457
824.000	486.994	80.010	19.996	103.220	19.965	11.882	0.452
824.500	487.273	80.009	19.994	103.224	19.960	12.225	0.538
825.000	487.528	80.009	19.995	103.226	19.962	12.105	0.560
825.500	487.811	80.008	19.994	103.225	19.965	11.870	0.536
826.000	488.019	80.009	19.994	103.227	19.964	11.963	0.515
826.500	488.267	80.007	19.995	103.226	19.966	11.823	0.474
827.000	488.522	80.008	19.995	103.222	19.968	11.709	0.479
827.500	488.757	80.009	19.995	103.220	19.967	11.741	0.496
828.000	489.008	80.008	19.995	103.220	19.971	11.491	0.488
828.500	489.272	80.009	19.994	103.215	19.973	11.340	0.500
829.000	489.532	80.010	19.995	103.213	19.976	11.146	0.520
829.500	489.865	80.009	19.995	103.212	19.979	10.998	0.559
830.000	490.055	80.010	19.995	103.211	19.977	11.125	0.558
830.500	490.318	80.007	19.995	103.212	19.981	10.833	0.488
831.000	490.571	80.008	19.994	103.216	19.982	10.781	0.484
831.500	490.854	80.009	19.995	103.218	19.987	10.439	0.525
832.000	491.174	80.009	19.995	103.219	19.984	10.633	0.569
832.500	491.286	80.008	19.994	103.220	19.985	10.573	0.518
833.000	491.599	80.009	19.995	103.219	19.989	10.296	0.429
833.500	491.841	80.008	19.995	103.216	19.990	10.238	0.490
834.000	492.104	80.008	19.995	103.214	19.989	10.328	0.529
834.500	492.346	80.008	19.995	103.213	19.996	9.861	0.505
835.000	492.621	80.009	19.995	103.213	19.993	10.038	0.511
835.500	492.861	80.008	19.994	103.213	19.996	9.846	0.516
836.000	493.114	80.009	19.995	103.215	19.998	9.705	0.504
836.500	493.397	80.008	19.995	103.217	20.003	9.393	0.514
837.000	493.627	80.009	19.994	103.221	20.002	9.398	0.524
837.501	493.895	80.007	19.995	103.221	20.004	9.285	0.505
838.000	494.233	80.009	19.995	103.221	20.003	9.392	0.552
838.500	494.407	80.007	19.995	103.220	20.004	9.274	0.560
839.000	494.723	80.009	19.996	103.221	20.007	9.060	0.501
839.500	494.976	80.008	19.995	103.219	20.008	9.013	0.529
840.000	495.205	80.007	19.995	103.222	20.009	8.968	0.525
840.500	495.522	80.007	19.994	103.226	20.009	8.944	0.514
841.000	495.702	80.008	19.995	103.230	20.012	8.774	0.522
841.500	495.988	80.009	19.994	103.231	20.014	8.628	0.481
842.000	496.242	80.009	19.995	103.236	20.013	8.663	0.503
842.500	496.570	80.008	19.995	103.233	20.014	8.604	0.561
843.000	496.778	80.007	19.995	103.230	20.015	8.526	0.559
843.500	497.059	80.008	19.995	103.226	20.019	8.290	0.512
844.000	497.316	80.009	19.995	103.223	20.020	8.219	0.513
844.500	497.610	80.007	19.994	103.219	20.019	8.314	0.544
845.000	497.829	80.008	19.995	103.225	20.021	8.148	0.532
845.500	498.106	80.007	19.995	103.228	20.025	7.871	0.505
846.000	498.365	80.008	19.994	103.233	20.024	7.940	0.517
846.500	498.594	80.008	19.994	103.234	20.023	8.045	0.512
847.000	498.860	80.009	19.994	103.232	20.024	7.941	0.491
847.500	499.131	80.008	19.994	103.228	20.025	7.873	0.516
848.000	499.415	80.008	19.994	103.224	20.026	7.833	0.546
848.500	499.648	80.009	19.994	103.219	20.030	7.521	0.536
849.000	499.936	80.008	19.995	103.217	20.028	7.655	0.519
849.501	500.162	80.009	19.994	103.217	20.028	7.707	0.517
850.000	500.437	80.008	19.994	103.219	20.031	7.461	0.507
850.500	500.697	80.008	19.994	103.222	20.031	7.510	0.518
851.000	500.955	80.009	19.994	103.227	20.033	7.379	0.526
851.500	501.210	80.008	19.995	103.227	20.034	7.270	0.516
852.000	501.468	80.009	19.995	103.229	20.034	7.269	0.513
852.500	501.749	80.010	19.995	103.226	20.035	7.249	0.526
853.000	501.970	80.009	19.994	103.222	20.038	7.027	0.520
853.500	502.228	80.009	19.995	103.220	20.038	7.047	0.491
854.000	502.513	80.010	19.995	103.220	20.038	7.015	0.512
854.500	502.777	80.010	19.995	103.219	20.039	6.982	0.546
855.000	502.979	80.008	19.995	103.218	20.041	6.814	0.507
855.500	503.287	80.009	19.995	103.219	20.041	6.838	0.487
856.000	503.543	80.010	19.995	103.217	20.043	6.678	0.537
856.500	503.796	80.008	19.995	103.216	20.042	6.731	0.537
857.000	504.030	80.010	19.995	103.215	20.043	6.704	0.499
857.500	504.292	80.009	19.995	103.216	20.044	6.635	0.492
858.000	504.575	80.009	19.995	103.215	20.048	6.373	0.520
858.500	504.791	80.010	19.996	103.217	20.046	6.499	0.522
859.000	505.105	80.009	19.995	103.219	20.048	6.336	0.515
859.500	505.348	80.008	19.995	103.220	20.048	6.325	0.543
860.000	505.548	80.007	19.995	103.219	20.046	6.452	0.500
860.500	505.821	80.007	19.995	103.218	20.049	6.291	0.458
861.000	506.038	80.008	19.994	103.219	20.052	6.069	0.481
861.500	506.337	80.006	19.996	103.217	20.053	5.983	0.503
862.000	506.616	80.009	19.995	103.218	20.049	6.277	0.548
862.500	506.875	80.007	19.995	103.218	20.051	6.167	0.558
863.000	507.114	80.008	19.995	103.223	20.054	5.942	0.518
863.500	507.384	80.008	19.995	103.223	20.054	5.929	0.503
864.000	507.602	80.008	19.995	103.227	20.055	5.859	0.498
864.500	507.893	80.007	19.995	103.226	20.053	5.988	0.499
865.000	508.154	80.009	19.995	103.227	20.055	5.908	0.531
865.501	508.372	80.008	19.995	103.222	20.052	6.073	0.515
866.000	508.687	80.009	19.995	103.220	20.057	5.726	0.506
866.500	508.925	80.008	19.995	103.217	20.055	5.894	0.543
867.000	509.163	80.008	19.994	103.218	20.057	5.773	0.515
867.500	509.452	80.009	19.995	103.217	20.056	5.838	0.501
868.000	509.729	80.008	19.995	103.216	20.055	5.902	0.546
868.500	509.927	80.008	19.995	103.217	20.056	5.793	0.521
869.000	510.249	80.007	19.995	103.220	20.058	5.681	0.498
869.500	510.492	80.007	19.995	103.226	20.058	5.688	0.542
870.000	510.759	80.007	19.995	103.232	20.055	5.866	0.537
870.500	510.985	80.009	19.994	103.236	20.061	5.502	0.502
871.000	511.302	80.007	19.995	103.235	20.058	5.702	0.518
871.500	511.530	80.008	19.994	103.232	20.058	5.685	0.544
872.000	511.751	80.008	19.995	103.226	20.060	5.520	0.497
872.500	512.030	80.008	19.994	103.223	20.061	5.462	0.474
873.000	512.243	80.008	19.995	103.221	20.059	5.587	0.496
873.500	512.531	80.009	19.995	103.225	20.058	5.698	0.496
874.000	512.804	80.009	19.995	103.224	20.061	5.498	0.531
874.500	513.030	80.010	19.994	103.228	20.060	5.524	0.530
875.000	513.308	80.010	19.995	103.234	20.058	5.655	0.502
875.500	513.534	80.010	19.994	103.234	20.062	5.437	0.504
876.000	513.800	80.011	19.994	103.232	20.063	5.376	0.498
876.500	514.062	80.010	19.994	103.231	20.063	5.374	0.510
877.000	514.330	80.009	19.995	103.228	20.062	5.390	0.529
877.500	514.644	80.010	19.994	103.225	20.064	5.274	0.556
878.000	514.851	80.010	19.994	103.226	20.062	5.437	0.552
878.500	515.112	80.010	19.996	103.230	20.065	5.181	0.495
879.000	515.389	80.009	19.995	103.232	20.066	5.159	0.503
879.500	515.624	80.010	19.995	103.233	20.064	5.272	0.525
880.000	515.899	80.010	19.995	103.232	20.065	5.214	0.511
880.500	516.148	80.011	19.995	103.233	20.068	5.018	0.517
881.000	516.388	80.011	19.995	103.227	20.066	5.145	0.507
881.500	516.664	80.011	19.994	103.225	20.065	5.189	0.502
882.000	516.914	80.010	19.996	103.222	20.061	5.461	0.521
882.500	517.144	80.010	19.995	103.216	20.064	5.289	0.503
883.000	517.413	80.009	19.996	103.211	20.062	5.425	0.490
883.500	517.643	80.009	19.995	103.211	20.066	5.138	0.499
884.000	517.887	80.008	19.996	103.214	20.063	5.315	0.486
884.500	518.145	80.009	19.996	103.216	20.063	5.368	0.488
885.000	518.407	80.008	19.996	103.221	20.064	5.286	0.511
885.500	518.681	80.008	19.996	103.226	20.067	5.078	0.528
886.000	518.961	80.008	19.996	103.232	20.065	5.181	0.545
886.501	519.214	80.008	19.995	103.234	20.064	5.276	0.544
887.001	519.456	80.007	19.996	103.232	20.066	5.165	0.514
887.501	519.702	80.008	19.995	103.231	20.066	5.173	0.492
888.001	519.960	80.006	19.996	103.231	20.070	4.904	0.496
888.501	520.233	80.006	19.996	103.228	20.068	5.018	0.517
889.000	520.491	80.006	19.996	103.228	20.066	5.145	0.531
889.500	520.739	80.006	19.996	103.231	20.071	4.820	0.519
890.000	520.965	80.007	19.996	103.229	20.069	4.955	0.490
890.500	521.248	80.007	19.996	103.231	20.070	4.897	0.491
891.000	521.492	80.007	19.996	103.234	20.072	4.771	0.518
891.500	521.774	80.006	19.996	103.234	20.069	4.968	0.527
892.000	522.011	80.007	19.996	103.232	20.067	5.078	0.523
892.500	522.292	80.007	19.996	103.237	20.066	5.144	0.519
893.000	522.562	80.005	19.996	103.236	20.066	5.123	0.534
893.500	522.789	80.006	19.996	103.233	20.072	4.769	0.524
894.000	523.020	80.007	19.995	103.232	20.068	4.974	0.478
894.500	523.284	80.007	19.996	103.230	20.068	5.009	0.477
895.000	523.550	80.006	19.995	103.224	20.068	5.036	0.512
895.500	523.771	80.006	19.996	103.222	20.066	5.156	0.508
896.000	524.031	80.007	19.995	103.222	20.067	5.106	0.483
896.500	524.288	80.008	19.995	103.225	20.075	4.543	0.499
897.000	524.486	80.007	19.995	103.229	20.078	4.365	0.486
897.500	524.762	80.007	19.995	103.234	20.068	5.019	0.465
898.000	525.043	80.007	19.994	103.235	20.070	4.848	0.516
898.500	525.267	80.007	19.994	103.238	20.073	4.688	0.531
899.000	525.548	80.008	19.994	103.237	20.070	4.864	0.505
899.500	525.821	80.007	19.995	103.238	20.071	4.837	0.529
900.000	526.070	80.007	19.994	103.237	20.075	4.572	0.538
900.500	526.321	80.008	19.995	103.239	20.073	4.657	0.511
901.000	526.559	80.007	19.995	103.237	20.072	4.772	0.495
901.500	526.818	80.008	19.995	103.238	20.078	4.361	0.493
902.000	527.067	80.007	19.994	103.238	20.079	4.301	0.502
902.500	527.364	80.008	19.994	103.242	20.066	5.155	0.527
903.000	527.613	80.007	19.994	103.240	20.069	4.958	0.546
903.500	527.872	80.008	19.994	103.238	20.070	4.888	0.527
904.000	528.127	80.008	19.995	103.235	20.074	4.620	0.511
904.500	528.420	80.007	19.995	103.233	20.070	4.853	0.531
905.000	528.665	80.008	19.995	103.229	20.071	4.780	0.543
905.500	528.914	80.008	19.994	103.231	20.070	4.900	0.516
906.000	529.128	80.008	19.994	103.235	20.071	4.839	0.478
906.500	529.376	80.006	19.995	103.239	20.073	4.641	0.462
907.000	529.648	80.008	19.994	103.241	20.074	4.617	0.491
907.500	529.909	80.008	19.994	103.243	20.069	4.911	0.527
908.000	530.165	80.008	19.995	103.245	20.072	4.722	0.525
908.500	530.416	80.007	19.995	103.245	20.075	4.517	0.512
909.000	530.696	80.008	19.995	103.243	20.070	4.896	0.518
909.500	530.945	80.008	19.994	103.242	20.069	4.912	0.530
910.000	531.240	80.008	19.993	103.243	20.076	4.495	0.537
910.500	531.428	80.006	19.996	103.242	20.071	4.804	0.514
911.000	531.659	80.007	19.994	103.242	20.070	4.844	0.451
911.500	531.953	80.007	19.994	103.243	20.071	4.813	0.472
912.000	532.233	80.007	19.994	103.244	20.073	4.659	0.549
912.500	532.458	80.005	19.995	103.243	20.074	4.586	0.539
913.000	532.704	80.007	19.994	103.242	20.073	4.654	0.488
913.500	532.969	80.006	19.994	103.239	20.072	4.765	0.491
914.000	533.225	80.007	19.996	103.239	20.071	4.785	0.516
914.500	533.426	80.006	19.994	103.237	20.070	4.848	0.489
915.000	533.718	80.007	19.995	103.233	20.073	4.679	0.475
915.500	533.987	80.007	19.994	103.232	20.068	4.988	0.527
916.000	534.213	80.006	19.995	103.235	20.073	4.688	0.528
916.500	534.554	80.007	19.995	103.236	20.070	4.851	0.531
917.000	534.730	80.005	19.995	103.240	20.072	4.762	0.541
917.500	535.072	80.006	19.994	103.242	20.070	4.844	0.517
918.000	535.267	80.007	19.996	103.241	20.071	4.777	0.528
918.500	535.511	80.008	19.995	103.237	20.073	4.706	0.488
919.000	535.777	80.006	19.995	103.230	20.072	4.715	0.475
919.500	536.032	80.007	19.995	103.227	20.074	4.635	0.515
920.000	536.338	80.007	19.995	103.226	20.072	4.726	0.541
920.500	536.561	80.006	19.994	103.227	20.072	4.721	0.545
921.000	536.831	80.006	19.994	103.229	20.070	4.873	0.511
921.500	537.058	80.008	19.995	103.232	20.075	4.536	0.496
922.000	537.316	80.006	19.995	103.234	20.070	4.875	0.491
922.500	537.556	80.006	19.995	103.237	20.071	4.816	0.491
923.000	537.872	80.006	19.995	103.241	20.074	4.623	0.527
923.500	538.085	80.008	19.995	103.243	20.073	4.676	0.542
924.000	538.332	80.007	19.994	103.246	20.072	4.730	0.495
924.500	538.614	80.007	19.995	103.250	20.073	4.687	0.495
925.000	538.865	80.006	19.995	103.251	20.076	4.472	0.531
925.500	539.105	80.006	19.995	103.247	20.073	4.643	0.512
926.000	539.369	80.006	19.995	103.246	20.072	4.719	0.497
926.500	539.625	80.006	19.994	103.242	20.075	4.521	0.512
927.000	539.828	80.008	19.995	103.239	20.076	4.497	0.490
927.500	540.096	80.007	19.995	103.236	20.076	4.465	0.465
928.000	540.370	80.006	19.995	103.238	20.075	4.547	0.506
928.500	540.625	80.007	19.995	103.239	20.077	4.400	0.535
929.000	540.871	80.007	19.995	103.244	20.075	4.569	0.515
929.500	541.093	80.007	19.994	103.246	20.074	4.630	0.485
930.000	541.359	80.007	19.995	103.245	20.074	4.587	0.478
930.500	541.654	80.007	19.994	103.243	20.075	4.563	0.524
931.000	541.892	80.008	19.994	103.243	20.073	4.677	0.547
931.500	542.116	80.009	19.994	103.244	20.076	4.445	0.498
932.000	542.378	80.009	19.994	103.243	20.073	4.657	0.474
932.501	542.622	80.008	19.993	103.248	20.080	4.203	0.496
933.000	542.919	80.009	19.995	103.251	20.075	4.558	0.524
933.500	543.126	80.008	19.995	103.251	20.074	4.639	0.523
934.000	543.382	80.009	19.994	103.252	20.076	4.450	0.483
934.500	543.651	80.010	19.993	103.254	20.078	4.323	0.494
935.001	543.893	80.009	19.994	103.254	20.076	4.476	0.518
935.500	544.152	80.008	19.994	103.254	20.077	4.429	0.506
936.000	544.397	80.010	19.994	103.250	20.077	4.389	0.502
936.500	544.632	80.009	19.993	103.248	20.077	4.416	0.492
937.000	544.872	80.009	19.994	103.243	20.078	4.345	0.478
937.500	545.146	80.009	19.994	103.241	20.076	4.474	0.495
938.000	545.409	80.009	19.994	103.240	20.077	4.428	0.526
938.500	545.650	80.008	19.994	103.243	20.077	4.394	0.520
939.000	545.894	80.008	19.993	103.246	20.077	4.412	0.494
939.500	546.126	80.008	19.994	103.250	20.077	4.419	0.480
940.000	546.423	80.008	19.993	103.252	20.079	4.269	0.503
940.500	546.628	80.009	19.994	103.252	20.080	4.236	0.516
941.000	546.904	80.008	19.994	103.249	20.078	4.325	0.491
941.500	547.160	80.008	19.994	103.244	20.080	4.222	0.507
942.000	547.397	80.008	19.994	103.243	20.079	4.252	0.512
942.500	547.669	80.007	19.993	103.242	20.079	4.294	0.501
943.000	547.924	80.008	19.994	103.243	20.080	4.198	0.518
943.500	548.165	80.007	19.994	103.247	20.077	4.391	0.511
944.000	548.410	80.007	19.994	103.252	20.079	4.271	0.491
944.500	548.680	80.007	19.994	103.250	20.081	4.147	0.501
945.000	548.950	80.007	19.995	103.249	20.075	4.530	0.528
945.500	549.154	80.006	19.995	103.248	20.078	4.307	0.507
946.000	549.372	80.007	19.995	103.248	20.079	4.287	0.448
946.500	549.657	80.006	19.995	103.248	20.080	4.218	0.462
947.001	549.895	80.007	19.995	103.250	20.077	4.394	0.513
947.500	550.166	80.008	19.994	103.247	20.079	4.243	0.516
948.000	550.407	80.007	19.994	103.244	20.076	4.447	0.511
948.500	550.658	80.008	19.995	103.240	20.078	4.365	0.502
949.000	550.937	80.008	19.994	103.238	20.078	4.307	0.510
949.500	551.205	80.008	19.995	103.239	20.078	4.307	0.538
950.000	551.422	80.008	19.996	103.243	20.078	4.305	0.516
950.500	551.688	80.009	19.995	103.246	20.078	4.314	0.485
951.000	551.962	80.007	19.995	103.249	20.078	4.347	0.512
951.500	552.207	80.008	19.995	103.250	20.080	4.200	0.530
952.000	552.437	80.008	19.995	103.249	20.076	4.454	0.497
952.500	552.710	80.009	19.995	103.248	20.083	4.009	0.489
953.000	552.993	80.008	19.995	103.246	20.079	4.262	0.529
953.500	553.217	80.008	19.995	103.246	20.081	4.160	0.531
954.000	553.502	80.008	19.995	103.247	20.080	4.174	0.508
954.500	553.785	80.008	19.996	103.248	20.079	4.247	0.539
955.000	554.026	80.008	19.995	103.249	20.080	4.225	0.546
955.500	554.312	80.008	19.996	103.249	20.078	4.307	0.525
956.000	554.544	80.008	19.994	103.249	20.076	4.454	0.522
956.500	554.831	80.008	19.995	103.248	20.079	4.265	0.519
957.000	555.076	80.009	19.994	103.248	20.080	4.182	0.526
957.500	555.336	80.009	19.995	103.248	20.078	4.352	0.519
958.000	555.588	80.009	19.994	103.248	20.077	4.380	0.508
958.500	555.837	80.010	19.995	103.248	20.080	4.204	0.507
959.000	556.107	80.010	19.995	103.247	20.079	4.269	0.510
959.500	556.379	80.009	19.994	103.247	20.077	4.423	0.530
960.000	556.641	80.010	19.995	103.247	20.079	4.246	0.538
960.500	556.913	80.010	19.994	103.248	20.081	4.168	0.534
961.000	557.173	80.009	19.995	103.248	20.074	4.593	0.533
961.500	557.441	80.010	19.995	103.249	20.077	4.410	0.530
962.000	557.682	80.010	19.994	103.249	20.077	4.424	0.518
962.500	557.971	80.010	19.994	103.249	20.078	4.331	0.519
963.000	558.190	80.010	19.995	103.249	20.078	4.371	0.519
963.500	558.488	80.010	19.995	103.249	20.077	4.415	0.513
964.000	558.739	80.010	19.995	103.249	20.079	4.298	0.533
964.500	559.017	80.009	19.995	103.249	20.078	4.336	0.539
965.000	559.297	80.010	19.994	103.249	20.077	4.383	0.543
965.500	559.539	80.008	19.994	103.249	20.075	4.532	0.540
966.000	559.871	80.009	19.995	103.249	20.079	4.300	0.548
966.500	560.040	80.008	19.995	103.249	20.075	4.538	0.537
967.000	560.342	80.008	19.995	103.249	20.079	4.249	0.486
967.500	560.625	80.007	19.996	103.249	20.082	4.102	0.528
968.000	560.906	80.008	19.995	103.249	20.079	4.240	0.574
968.500	561.160	80.007	19.995	103.249	20.079	4.297	0.549
969.000	561.420	80.007	19.994	103.249	20.077	4.426	0.524
969.500	561.693	80.007	19.995	103.250	20.078	4.348	0.524
970.000	561.940	80.006	19.994	103.251	20.079	4.295	0.527
970.500	562.215	80.006	19.995	103.254	20.076	4.461	0.521
971.000	562.493	80.007	19.996	103.260	20.077	4.399	0.537
971.500	562.753	80.007	19.995	103.263	20.079	4.268	0.546
972.000	562.984	80.007	19.995	103.268	20.077	4.406	0.514
972.500	563.246	80.007	19.995	103.270	20.077	4.424	0.491
973.001	563.526	80.007	19.996	103.268	20.078	4.321	0.518
973.500	563.798	80.007	19.996	103.265	20.077	4.430	0.547
974.000	564.027	80.006	19.995	103.263	20.076	4.472	0.526
974.500	564.315	80.007	19.996	103.258	20.076	4.475	0.509
975.000	564.589	80.006	19.995	103.255	20.076	4.473	0.539
975.500	564.822	80.007	19.995	103.254	20.077	4.421	0.535
976.000	565.140	80.006	19.996	103.253	20.078	4.345	0.529
976.500	565.338	80.007	19.996	103.253	20.079	4.268	0.534
977.000	565.625	80.007	19.995	103.253	20.080	4.188	0.501
977.500	565.918	80.007	19.996	103.253	20.078	4.332	0.532
978.000	566.192	80.008	19.995	103.257	20.079	4.265	0.574
978.500	566.427	80.006	19.996	103.257	20.076	4.472	0.538
979.000	566.706	80.006	19.996	103.259	20.078	4.352	0.512
979.500	566.960	80.005	19.995	103.265	20.075	4.561	0.524
980.000	567.227	80.008	19.996	103.269	20.079	4.278	0.527
980.500	567.486	80.007	19.996	103.267	20.078	4.372	0.523
981.000	567.734	80.006	19.996	103.269	20.080	4.190	0.516
981.500	568.002	80.006	19.995	103.271	20.079	4.252	0.511
982.000	568.299	80.007	19.996	103.271	20.080	4.225	0.540
982.500	568.539	80.008	19.996	103.275	20.081	4.118	0.551
983.000	568.798	80.006	19.996	103.276	20.082	4.069	0.519
983.500	569.072	80.006	19.995	103.277	20.080	4.227	0.516
984.000	569.329	80.007	19.995	103.276	20.082	4.083	0.532
984.500	569.605	80.007	19.996	103.275	20.080	4.218	0.532
985.000	569.836	80.007	19.995	103.274	20.082	4.056	0.520
985.500	570.119	80.006	19.996	103.276	20.079	4.285	0.510
986.000	570.385	80.007	19.996	103.278	20.081	4.171	0.531
986.500	570.622	80.006	19.996	103.275	20.080	4.234	0.526
987.000	570.887	80.007	19.996	103.278	20.080	4.240	0.503
987.500	571.151	80.007	19.995	103.280	20.079	4.243	0.516
988.000	571.397	80.007	19.995	103.281	20.082	4.098	0.519
988.500	571.693	80.007	19.995	103.283	20.082	4.040	0.526
989.000	571.944	80.007	19.995	103.289	20.079	4.302	0.544
989.500	572.187	80.006	19.996	103.289	20.078	4.331	0.521
990.000	572.455	80.006	19.994	103.289	20.083	4.016	0.503
990.500	572.749	80.007	19.995	103.289	20.077	4.378	0.536
991.000	573.000	80.007	19.995	103.289	20.078	4.318	0.553
991.500	573.267	80.006	19.995	103.286	20.080	4.200	0.532
992.000	573.536	80.007	19.995	103.284	20.079	4.252	0.527
992.500	573.810	80.007	19.995	103.281	20.079	4.305	0.539
993.000	574.083	80.006	19.994	103.282	20.077	4.378	0.544
993.500	574.314	80.007	19.994	103.282	20.081	4.133	0.526
994.000	574.598	80.008	19.995	103.280	20.081	4.111	0.510
994.500	574.918	80.008	19.995	103.283	20.079	4.276	0.560
995.000	575.204	80.008	19.995	103.286	20.080	4.176	0.605
995.500	575.428	80.007	19.995	103.285	20.083	3.991	0.558
996.000	575.735	80.008	19.995	103.285	20.082	4.091	0.520
996.500	576.007	80.007	19.993	103.290	20.081	4.118	0.555
997.000	576.238	80.007	19.994	103.290	20.081	4.145	0.541
997.500	576.517	80.007	19.995	103.290	20.077	4.390	0.507
998.001	576.777	80.006	19.995	103.292	20.077	4.383	0.524
998.501	577.032	80.007	19.995	103.291	20.082	4.087	0.527
999.000	577.309	80.008	19.995	103.291	20.084	3.961	0.524
999.500	577.574	80.006	19.994	103.291	20.081	4.121	0.537
1000.000	577.811	80.007	19.994	103.291	20.080	4.190	0.522
1000.500	578.052	80.006	19.994	103.291	20.079	4.292	0.490
1001.000	578.359	80.006	19.994	103.291	20.079	4.263	0.513
1001.500	578.608	80.006	19.994	103.292	20.077	4.423	0.552
1002.000	578.876	80.007	19.995	103.292	20.080	4.201	0.536
1002.500	579.106	80.006	19.994	103.292	20.080	4.176	0.508
1003.000	579.399	80.006	19.995	103.292	20.079	4.292	0.510
1003.500	579.631	80.006	19.994	103.293	20.080	4.190	0.523
1004.000	579.899	80.006	19.995	103.293	20.079	4.297	0.512
1004.500	580.170	80.006	19.994	103.292	20.081	4.153	0.520
1005.000	580.420	80.006	19.994	103.292	20.077	4.411	0.530
1005.500	580.687	80.005	19.994	103.291	20.078	4.327	0.519
1006.000	580.946	80.006	19.995	103.291	20.080	4.200	0.521
1006.500	581.232	80.006	19.994	103.289	20.081	4.142	0.536
1007.000	581.488	80.006	19.995	103.289	20.080	4.229	0.544
1007.500	581.774	80.006	19.995	103.289	20.075	4.536	0.542
1008.000	582.031	80.006	19.995	103.290	20.083	4.004	0.542
1008.500	582.269	80.007	19.995	103.287	20.080	4.195	0.519
1009.000	582.527	80.008	19.995	103.282	20.081	4.129	0.496
1009.500	582.785	80.006	19.995	103.277	20.080	4.180	0.506
1010.000	583.086	80.007	19.996	103.272	20.082	4.096	0.538
1010.500	583.336	80.008	19.995	103.271	20.084	3.965	0.555
1011.000	583.550	80.008	19.995	103.273	20.081	4.167	0.508
1011.500	583.858	80.009	19.995	103.275	20.081	4.127	0.493
1012.000	584.117	80.008	19.995	103.280	20.081	4.113	0.544
1012.500	584.372	80.007	19.995	103.281	20.082	4.044	0.541
1013.000	584.652	80.009	19.996	103.280	20.081	4.147	0.524
1013.500	584.911	80.007	19.995	103.275	20.083	4.004	0.536
1014.000	585.140	80.009	19.995	103.275	20.080	4.192	0.513
1014.500	585.381	80.008	19.995	103.268	20.076	4.452	0.479
1015.000	585.641	80.010	19.995	103.264	20.087	3.742	0.486
1015.500	585.901	80.009	19.995	103.265	20.079	4.250	0.511
1016.000	586.187	80.009	19.995	103.265	20.079	4.277	0.533
1016.500	586.448	80.009	19.994	103.260	20.086	3.785	0.547
1017.000	586.727	80.009	19.995	103.263	20.088	3.692	0.543
1017.500	586.943	80.009	19.995	103.264	20.080	4.186	0.517
1018.000	587.202	80.009	19.995	103.258	20.083	4.026	0.485
1018.500	587.463	80.012	19.994	103.256	20.084	3.930	0.498
1019.000	587.738	80.010	19.995	103.255	20.083	4.006	0.528
1019.500	588.001	80.008	19.995	103.252	20.083	3.995	0.537
1020.001	588.243	80.009	19.995	103.249	20.084	3.903	0.522
1020.500	588.502	80.009	19.995	103.247	20.086	3.814	0.503
1021.000	588.808	80.009	19.995	103.245	20.080	4.230	0.533
1021.500	589.097	80.009	19.996	103.244	20.084	3.906	0.580
1022.000	589.306	80.008	19.995	103.244	20.084	3.930	0.547
1022.500	589.583	80.009	19.995	103.245	20.082	4.048	0.492
1023.000	589.831	80.010	19.995	103.244	20.085	3.894	0.505
1023.500	590.088	80.010	19.995	103.246	20.085	3.850	0.515
1024.001	590.311	80.010	19.995	103.242	20.084	3.919	0.493
1024.501	590.595	80.008	19.994	103.242	20.087	3.716	0.493
1025.000	590.852	80.009	19.994	103.242	20.085	3.863	0.524
1025.500	591.093	80.008	19.995	103.241	20.084	3.964	0.520
1026.000	591.364	80.007	19.995	103.236	20.084	3.919	0.505
1026.500	591.619	80.009	19.995	103.237	20.087	3.763	0.519
1027.000	591.880	80.009	19.995	103.230	20.087	3.763	0.521
1027.500	592.139	80.009	19.995	103.223	20.087	3.752	0.518
1028.000	592.390	80.009	19.995	103.217	20.086	3.777	0.515
1028.500	592.607	80.009	19.995	103.215	20.086	3.808	0.489
1029.000	592.928	80.010	19.994	103.212	20.086	3.774	0.503
1029.500	593.215	80.009	19.995	103.212	20.084	3.937	0.572
1030.001	593.428	80.008	19.995	103.212	20.087	3.745	0.554
1030.501	593.663	80.009	19.996	103.213	20.085	3.855	0.475
1031.001	593.886	80.009	19.995	103.217	20.090	3.532	0.453
1031.500	594.158	80.009	19.995	103.219	20.089	3.581	0.476
1032.000	594.467	80.008	19.995	103.219	20.087	3.723	0.538
1032.500	594.672	80.009	19.994	103.220	20.086	3.790	0.547
1033.000	594.925	80.009	19.995	103.222	20.088	3.685	0.486
1033.500	595.211	80.009	19.994	103.219	20.090	3.547	0.499
1034.000	595.454	80.010	19.995	103.217	20.092	3.391	0.535
1034.500	595.694	80.010	19.994	103.217	20.090	3.512	0.506
1035.000	595.942	80.010	19.994	103.217	20.091	3.490	0.485
1035.500	596.193	80.009	19.995	103.214	20.088	3.674	0.494
1036.000	596.452	80.009	19.994	103.213	20.089	3.576	0.504
1036.500	596.709	80.009	19.994	103.213	20.086	3.792	0.513
1037.000	596.944	80.009	19.994	103.211	20.087	3.759	0.504
1037.500	597.209	80.010	19.995	103.209	20.087	3.723	0.496
1038.000	597.451	80.011	19.995	103.209	20.088	3.658	0.503
1038.501	597.695	80.010	19.995	103.209	20.086	3.772	0.496
1039.001	597.937	80.010	19.995	103.212	20.087	3.761	0.486
1039.500	598.180	80.011	19.995	103.217	20.087	3.767	0.486
1040.000	598.437	80.010	19.994	103.218	20.088	3.696	0.492
1040.500	598.684	80.011	19.995	103.219	20.088	3.667	0.502
1041.001	598.939	80.010	19.995	103.218	20.089	3.612	0.502
1041.501	599.162	80.010	19.995	103.215	20.085	3.861	0.490
1042.000	599.435	80.010	19.995	103.208	20.086	3.805	0.488
1042.500	599.671	80.010	19.996	103.206	20.086	3.808	0.503
1043.000	599.938	80.010	19.995	103.206	20.088	3.697	0.506
1043.500	600.171	80.011	19.995	103.206	20.088	3.649	0.501
1044.000	600.397	80.011	19.996	103.207	20.087	3.736	0.479
1044.500	600.660	80.011	19.995	103.210	20.089	3.578	0.474
1045.000	600.891	80.010	19.995	103.210	20.091	3.496	0.492
1045.500	601.142	80.010	19.996	103.210	20.089	3.614	0.488
1046.000	601.365	80.009	19.995	103.210	20.088	3.665	0.478
1046.500	601.609	80.010	19.995	103.210	20.088	3.643	0.470
1047.000	601.889	80.009	19.995	103.210	20.089	3.594	0.496
1047.500	602.143	80.010	19.995	103.211	20.092	3.397	0.529
1048.000	602.387	80.008	19.996	103.211	20.090	3.520	0.516
1048.500	602.639	80.010	19.995	103.212	20.091	3.435	0.497
1049.000	602.841	80.010	19.995	103.213	20.091	3.460	0.476
1049.501	603.119	80.007	19.995	103.214	20.085	3.852	0.467
1050.001	603.334	80.008	19.995	103.214	20.089	3.585	0.486
1050.501	603.569	80.008	19.995	103.216	20.088	3.656	0.471
1051.000	603.824	80.008	19.995	103.216	20.085	3.836	0.470
1051.500	604.074	80.008	19.995	103.216	20.088	3.687	0.498
1052.000	604.305	80.009	19.995	103.216	20.087	3.727	0.494
1052.500	604.530	80.008	19.995	103.216	20.088	3.692	0.468
1053.000	604.824	80.008	19.996	103.214	20.088	3.678	0.487
1053.500	605.027	80.008	19.996	103.215	20.090	3.529	0.508
1054.000	605.273	80.008	19.996	103.214	20.091	3.486	0.473
1054.500	605.544	80.008	19.994	103.215	20.086	3.796	0.483
1055.000	605.766	80.007	19.995	103.216	20.089	3.625	0.505
1055.500	606.027	80.008	19.995	103.216	20.090	3.535	0.488
1056.000	606.231	80.007	19.995	103.215	20.088	3.681	0.473
1056.500	606.494	80.008	19.995	103.215	20.088	3.640	0.466
1057.000	606.788	80.007	19.995	103.214	20.086	3.769	0.512
1057.500	607.007	80.009	19.995	103.215	20.087	3.709	0.535
1058.000	607.224	80.008	19.994	103.218	20.086	3.798	0.475
1058.500	607.475	80.008	19.995	103.225	20.087	3.709	0.452
1059.001	607.710	80.009	19.995	103.225	20.085	3.842	0.477
1059.501	607.969	80.007	19.995	103.225	20.088	3.667	0.490
1060.000	608.175	80.008	19.995	103.224	20.089	3.634	0.479
1060.500	608.462	80.007	19.994	103.221	20.087	3.732	0.479
1061.000	608.722	80.008	19.995	103.217	20.087	3.722	0.520
1061.500	608.949	80.008	19.995	103.219	20.087	3.731	0.517
1062.001	609.226	80.007	19.995	103.219	20.090	3.559	0.496
1062.501	609.471	80.006	19.995	103.220	20.087	3.704	0.513
1063.000	609.709	80.008	19.995	103.220	20.089	3.617	0.502
1063.500	609.913	80.008	19.995	103.220	20.087	3.748	0.462
1064.000	610.193	80.008	19.995	103.219	20.088	3.691	0.463
1064.500	610.402	80.007	19.996	103.225	20.087	3.731	0.487
1065.000	610.641	80.007	19.995	103.226	20.087	3.764	0.469
1065.500	610.912	80.006	19.995	103.227	20.086	3.780	0.479
1066.000	611.144	80.007	19.995	103.227	20.086	3.777	0.506
1066.500	611.391	80.007	19.995	103.228	20.087	3.747	0.491
1067.001	611.660	80.007	19.996	103.222	20.087	3.765	0.497
1067.501	611.881	80.006	19.995	103.226	20.088	3.665	0.503
1068.000	612.141	80.006	19.995	103.231	20.085	3.876	0.486
1068.500	612.408	80.006	19.995	103.235	20.084	3.925	0.504
1069.000	612.662	80.008	19.995	103.235	20.087	3.756	0.524
1069.500	612.906	80.007	19.995	103.234	20.086	3.787	0.510
1070.000	613.111	80.006	19.995	103.232	20.088	3.693	0.473
1070.500	613.361	80.006	19.995	103.226	20.087	3.729	0.451
1071.000	613.599	80.007	19.996	103.222	20.087	3.718	0.472
1071.500	613.879	80.007	19.995	103.224	20.087	3.765	0.504
1072.000	614.105	80.006	19.995	103.231	20.088	3.653	0.512
1072.500	614.337	80.007	19.996	103.236	20.088	3.702	0.482
1073.000	614.587	80.007	19.995	103.241	20.089	3.604	0.470
1073.500	614.830	80.008	19.995	103.245	20.088	3.646	0.487
1074.000	615.074	80.008	19.996	103.249	20.089	3.620	0.490
1074.500	615.327	80.007	19.996	103.247	20.089	3.629	0.492
1075.000	615.594	80.008	19.996	103.245	20.088	3.682	0.509
1075.500	615.845	80.008	19.996	103.245	20.088	3.646	0.519
1076.000	616.107	80.008	19.996	103.245	20.089	3.606	0.515
1076.500	616.342	80.009	19.997	103.245	20.087	3.720	0.505
1077.000	616.581	80.005	19.997	103.244	20.085	3.840	0.485
1077.500	616.843	80.008	19.996	103.239	20.090	3.512	0.487
1078.000	617.111	80.008	19.996	103.232	20.088	3.668	0.516
1078.501	617.332	80.009	19.996	103.225	20.089	3.610	0.509
1079.001	617.586	80.007	19.995	103.219	20.086	3.824	0.482
1079.500	617.804	80.008	19.997	103.221	20.083	4.004	0.474
1080.000	618.087	80.007	19.997	103.226	20.087	3.733	0.487
1080.500	618.310	80.007	19.995	103.230	20.082	4.057	0.504
1081.000	618.574	80.008	19.996	103.232	20.085	3.839	0.496
1081.501	618.817	80.009	19.996	103.235	20.089	3.614	0.497
1082.001	619.058	80.008	19.996	103.233	20.086	3.815	0.495
1082.500	619.298	80.006	19.995	103.230	20.086	3.822	0.483
1083.000	619.584	80.007	19.995	103.233	20.085	3.873	0.504
1083.500	619.838	80.008	19.996	103.235	20.087	3.715	0.533
1084.000	620.076	80.007	19.996	103.236	20.086	3.771	0.516
1084.501	620.348	80.008	19.996	103.237	20.086	3.801	0.501
1085.001	620.615	80.006	19.996	103.239	20.086	3.777	0.525
1085.500	620.872	80.007	19.995	103.239	20.084	3.931	0.531
1086.000	621.086	80.007	19.995	103.241	20.083	3.986	0.498
1086.501	621.364	80.007	19.995	103.241	20.083	4.031	0.482
1087.001	621.609	80.007	19.995	103.239	20.084	3.955	0.507
1087.500	621.847	80.007	19.995	103.242	20.086	3.806	0.503
1088.000	622.122	80.009	19.995	103.243	20.088	3.681	0.498
1088.500	622.372	80.007	19.995	103.244	20.083	4.013	0.519
1089.000	622.603	80.006	19.994	103.247	20.087	3.739	0.502
1089.500	622.897	80.007	19.995	103.251	20.078	4.322	0.503
1090.000	623.138	80.006	19.994	103.250	20.085	3.899	0.530
1090.500	623.343	80.008	19.994	103.250	20.079	4.276	0.491
1091.000	623.609	80.008	19.995	103.250	20.079	4.291	0.459
1091.500	623.899	80.009	19.996	103.252	20.078	4.305	0.513
1092.001	624.123	80.009	19.995	103.253	20.089	3.592	0.535
1092.501	624.363	80.009	19.995	103.253	20.087	3.737	0.489
1093.000	624.607	80.008	19.994	103.253	20.081	4.109	0.474
1093.500	624.859	80.008	19.995	103.256	20.084	3.906	0.490
1094.000	625.081	80.008	19.994	103.253	20.082	4.082	0.485
1094.500	625.366	80.008	19.994	103.252	20.088	3.697	0.490
1095.000	625.607	80.009	19.994	103.252	20.083	4.031	0.516
1095.501	625.838	80.009	19.995	103.253	20.087	3.724	0.499
1096.001	626.116	80.009	19.995	103.255	20.080	4.207	0.491
1096.501	626.361	80.008	19.994	103.256	20.082	4.076	0.516
1097.000	626.650	80.009	19.995	103.256	20.081	4.131	0.529
1097.500	626.875	80.009	19.995	103.256	20.081	4.129	0.524
1098.000	627.111	80.009	19.995	103.254	20.082	4.084	0.487
1098.501	627.409	80.010	19.995	103.250	20.082	4.047	0.497
1099.001	627.672	80.008	19.995	103.252	20.081	4.151	0.548
1099.500	627.906	80.008	19.995	103.257	20.081	4.106	0.529
1100.000	628.161	80.008	19.994	103.258	20.081	4.126	0.493
1100.500	628.352	80.009	19.995	103.259	20.081	4.154	0.468
1101.000	628.655	80.009	19.994	103.258	20.081	4.114	0.470
1101.500	628.911	80.009	19.995	103.257	20.080	4.179	0.526
1102.000	629.162	80.009	19.996	103.251	20.084	3.961	0.533
1102.500	629.384	80.009	19.995	103.250	20.083	4.021	0.490
1103.001	629.575	80.010	19.994	103.250	20.083	4.016	0.443
1103.501	629.838	80.010	19.994	103.251	20.083	3.981	0.434
1104.000	630.102	80.009	19.994	103.252	20.078	4.328	0.490
1104.500	630.417	80.009	19.994	103.256	20.081	4.116	0.553
1105.001	630.672	80.009	19.995	103.259	20.081	4.156	0.575
1105.501	630.960	80.009	19.995	103.258	20.082	4.041	0.557
1106.001	631.104	80.008	19.994	103.258	20.080	4.225	0.487
1106.501	631.382	80.008	19.995	103.256	20.083	4.000	0.427
1107.000	631.699	80.007	19.995	103.253	20.081	4.120	0.509
1107.500	631.875	80.008	19.995	103.249	20.080	4.201	0.544
1108.000	632.151	80.009	19.994	103.250	20.080	4.183	0.472
1108.501	632.401	80.006	19.995	103.250	20.086	3.836	0.489
1109.001	632.655	80.008	19.995	103.251	20.080	4.221	0.515
1109.500	632.881	80.007	19.995	103.252	20.082	4.061	0.492
1110.000	633.181	80.008	19.995	103.257	20.083	3.993	0.503
1110.500	633.407	80.008	19.996	103.263	20.080	4.201	0.526
1111.000	633.711	80.007	19.995	103.270	20.089	3.615	0.528
1111.500	633.931	80.008	19.994	103.275	20.088	3.640	0.528
1112.000	634.223	80.008	19.994	103.280	20.085	3.845	0.518
1112.501	634.473	80.010	19.995	103.281	20.086	3.827	0.527
1113.001	634.699	80.007	19.995	103.279	20.081	4.143	0.509
1113.501	634.968	80.010	19.995	103.278	20.083	3.974	0.485
1114.000	635.239	80.009	19.994	103.278	20.082	4.085	0.517
1114.500	635.495	80.008	19.995	103.280	20.081	4.141	0.533
1115.000	635.750	80.008	19.995	103.280	20.079	4.281	0.519
1115.500	636.003	80.008	19.994	103.279	20.084	3.969	0.510
1116.000	636.276	80.008	19.995	103.280	20.080	4.236	0.517
1116.500	636.516	80.008	19.994	103.276	20.086	3.793	0.520
1117.000	636.758	80.008	19.994	103.277	20.082	4.058	0.498
1117.501	636.986	80.009	19.995	103.280	20.080	4.189	0.476
1118.001	637.273	80.008	19.994	103.284	20.083	4.011	0.492
1118.501	637.554	80.009	19.994	103.284	20.079	4.300	0.541
1119.001	637.770	80.009	19.994	103.288	20.079	4.250	0.533
1119.500	638.037	80.009	19.996	103.288	20.080	4.216	0.490
1120.000	638.315	80.009	19.994	103.286	20.079	4.276	0.514
1120.500	638.537	80.010	19.993	103.285	20.081	4.109	0.522
1121.000	638.798	80.010	19.994	103.286	20.079	4.256	0.491
1121.500	639.046	80.009	19.995	103.287	20.081	4.158	0.496
1122.001	639.341	80.011	19.994	103.286	20.078	4.314	0.526
1122.501	639.571	80.012	19.994	103.288	20.083	4.018	0.534
1123.000	639.922	80.010	19.994	103.288	20.081	4.118	0.553
1123.501	640.114	80.010	19.993	103.287	20.084	3.969	0.562
1124.001	640.331	80.011	19.994	103.284	20.080	4.220	0.476
1124.501	640.696	80.012	19.994	103.282	20.081	4.142	0.495
1125.001	640.803	80.012	19.994	103.281	20.081	4.154	0.527
1125.501	641.063	80.011	19.993	103.282	20.078	4.318	0.419
1126.001	641.306	80.010	19.994	103.282	20.080	4.222	0.435
1126.500	641.568	80.009	19.993	103.285	20.078	4.307	0.504
1127.000	641.873	80.011	19.994	103.288	20.083	3.993	0.536
1127.500	642.077	80.010	19.993	103.289	20.081	4.118	0.538
1128.001	642.395	80.010	19.994	103.289	20.080	4.240	0.516
1128.501	642.605	80.010	19.994	103.289	20.079	4.274	0.525
1129.000	642.851	80.010	19.994	103.287	20.082	4.071	0.492
1129.500	643.118	80.008	19.994	103.287	20.077	4.416	0.485
1130.000	643.405	80.008	19.995	103.287	20.077	4.440	0.533
1130.500	643.581	80.008	19.995	103.286	20.074	4.639	0.508
1131.000	643.863	80.010	19.994	103.286	20.076	4.489	0.461
1131.500	644.093	80.008	19.995	103.288	20.078	4.347	0.485
1132.000	644.392	80.008	19.995	103.288	20.076	4.503	0.521
1132.500	644.600	80.009	19.994	103.289	20.077	4.383	0.518
1133.001	644.857	80.008	19.995	103.292	20.077	4.429	0.486
1133.501	645.144	80.008	19.995	103.293	20.078	4.356	0.505
1134.000	645.370	80.007	19.994	103.293	20.079	4.249	0.529
1134.500	645.645	80.007	19.995	103.292	20.077	4.413	0.507
1135.000	645.892	80.008	19.995	103.292	20.079	4.282	0.511
1135.500	646.138	80.007	19.994	103.291	20.077	4.412	0.507
1136.000	646.377	80.008	19.995	103.289	20.076	4.442	0.489
1136.500	646.631	80.006	19.995	103.290	20.080	4.222	0.489
1137.000	646.907	80.007	19.995	103.292	20.079	4.293	0.512
1137.501	647.149	80.007	19.996	103.294	20.081	4.113	0.524
1138.001	647.399	80.008	19.995	103.295	20.080	4.220	0.505
1138.500	647.646	80.008	19.995	103.296	20.079	4.245	0.494
1139.000	647.921	80.008	19.995	103.296	20.077	4.398	0.510
1139.500	648.172	80.008	19.995	103.296	20.080	4.216	0.524
1140.001	648.414	80.007	19.995	103.295	20.080	4.178	0.509
1140.501	648.642	80.008	19.995	103.295	20.083	3.989	0.481
1141.001	648.925	80.006	19.996	103.294	20.081	4.171	0.491
1141.501	649.197	80.008	19.996	103.293	20.078	4.363	0.534
1142.001	649.367	80.007	19.995	103.292	20.079	4.249	0.499
1142.501	649.675	80.006	19.996	103.291	20.079	4.242	0.460
1143.001	649.941	80.008	19.996	103.290	20.079	4.264	0.526
1143.500	650.205	80.007	19.995	103.292	20.079	4.275	0.552
1144.000	650.545	80.007	19.996	103.298	20.078	4.344	0.566
1144.500	650.782	80.006	19.995	103.299	20.077	4.409	0.590
1145.000	651.052	80.007	19.996	103.299	20.081	4.169	0.542
1145.500	651.210	80.007	19.995	103.299	20.080	4.211	0.467
1146.000	651.517	80.007	19.995	103.298	20.080	4.193	0.446
1146.500	651.768	80.008	19.995	103.294	20.080	4.222	0.512
1147.000	652.020	80.006	19.995	103.297	20.081	4.156	0.531
1147.500	652.242	80.008	19.995	103.299	20.080	4.224	0.489
1148.000	652.577	80.007	19.995	103.299	20.078	4.338	0.515
1148.500	652.838	80.008	19.995	103.299	20.078	4.309	0.576
1149.000	653.017	80.007	19.995	103.296	20.078	4.326	0.518
1149.500	653.270	80.007	19.995	103.292	20.075	4.519	0.435
1150.000	653.527	80.007	19.993	103.290	20.076	4.504	0.471
1150.500	653.791	80.008	19.996	103.291	20.076	4.444	0.516
1151.001	654.054	80.008	19.995	103.292	20.079	4.284	0.524
1151.501	654.271	80.007	19.996	103.293	20.075	4.512	0.504
1152.000	654.549	80.009	19.995	103.294	20.077	4.439	0.488
1152.500	654.807	80.008	19.996	103.295	20.077	4.430	0.515
1153.000	655.043	80.009	19.996	103.296	20.074	4.603	0.514
1153.500	655.329	80.009	19.996	103.297	20.076	4.474	0.508
1154.000	655.573	80.008	19.995	103.298	20.075	4.514	0.526
1154.500	655.849	80.007	19.996	103.298	20.076	4.495	0.525
1155.000	656.065	80.008	19.995	103.301	20.075	4.552	0.506
1155.500	656.328	80.007	19.996	103.302	20.077	4.423	0.486
1156.000	656.518	80.008	19.995	103.303	20.075	4.525	0.466
1156.500	656.811	80.007	19.995	103.305	20.073	4.654	0.468
1157.000	657.063	80.007	19.996	103.306	20.071	4.843	0.514
1157.500	657.293	80.007	19.995	103.302	20.075	4.539	0.513
1158.000	657.565	80.007	19.995	103.299	20.073	4.694	0.492
1158.500	657.809	80.007	19.996	103.296	20.074	4.610	0.509
1159.000	658.083	80.008	19.995	103.296	20.076	4.470	0.517
1159.500	658.333	80.007	19.996	103.298	20.074	4.594	0.521
1160.000	658.561	80.006	19.995	103.306	20.075	4.576	0.501
1160.500	658.826	80.008	19.996	103.313	20.078	4.338	0.486
1161.000	659.133	80.007	19.996	103.314	20.077	4.414	0.532
1161.500	659.352	80.008	19.996	103.316	20.077	4.401	0.549
1162.000	659.599	80.009	19.995	103.319	20.077	4.412	0.496
1162.500	659.819	80.006	19.995	103.319	20.079	4.267	0.467
1163.000	660.146	80.008	19.995	103.319	20.074	4.588	0.507
1163.501	660.344	80.007	19.995	103.323	20.082	4.061	0.536
1164.001	660.593	80.007	19.995	103.323	20.077	4.400	0.486
1164.500	660.842	80.006	19.996	103.323	20.079	4.254	0.472
1165.000	661.087	80.006	19.996	103.323	20.087	3.715	0.496
1165.500	661.297	80.007	19.996	103.323	20.085	3.889	0.475
1166.000	661.585	80.006	19.996	103.325	20.078	4.313	0.476
1166.501	661.860	80.006	19.996	103.328	20.076	4.451	0.530
1167.001	662.091	80.006	19.996	103.329	20.077	4.408	0.535
1167.500	662.345	80.008	19.996	103.329	20.079	4.248	0.496
1168.000	662.584	80.006	19.996	103.329	20.078	4.340	0.489
1168.500	662.854	80.006	19.997	103.329	20.078	4.324	0.501
1169.000	663.115	80.006	19.997	103.329	20.081	4.166	0.520
1169.500	663.336	80.007	19.996	103.329	20.077	4.404	0.507
1170.000	663.588	80.007	19.997	103.329	20.079	4.265	0.477
1170.500	663.851	80.007	19.996	103.329	20.077	4.377	0.494
1171.000	664.071	80.006	19.996	103.331	20.076	4.475	0.499
1171.500	664.353	80.006	19.996	103.333	20.079	4.308	0.493
1172.000	664.568	80.007	19.997	103.333	20.075	4.563	0.500
1172.500	664.800	80.007	19.996	103.333	20.076	4.494	0.472
1173.000	665.073	80.006	19.996	103.333	20.082	4.090	0.476
1173.500	665.356	80.007	19.996	103.331	20.071	4.803	0.530
1174.000	665.617	80.007	19.997	103.331	20.069	4.967	0.550
1174.500	665.870	80.008	19.996	103.331	20.073	4.678	0.529
1175.000	666.148	80.007	19.995	103.334	20.075	4.563	0.523
1175.500	666.373	80.008	19.995	103.338	20.076	4.480	0.517
1176.000	666.604	80.007	19.995	103.343	20.075	4.538	0.479
1176.500	666.897	80.008	19.996	103.347	20.072	4.738	0.489
1177.000	667.074	80.008	19.995	103.351	20.073	4.682	0.497
1177.500	667.354	80.007	19.995	103.353	20.075	4.553	0.464
1178.000	667.578	80.009	19.996	103.352	20.072	4.742	0.481
1178.501	667.907	80.008	19.994	103.350	20.070	4.875	0.529
1179.001	668.108	80.009	19.996	103.353	20.071	4.795	0.541
1179.500	668.351	80.010	19.996	103.356	20.071	4.834	0.487
1180.000	668.617	80.009	19.995	103.360	20.072	4.726	0.476
1180.500	668.902	80.009	19.994	103.361	20.072	4.756	0.530
1181.000	669.119	80.009	19.994	103.364	20.072	4.751	0.527
1181.500	669.414	80.010	19.994	103.361	20.071	4.804	0.507
1182.001	669.675	80.010	19.994	103.361	20.072	4.766	0.534
1182.501	669.877	80.009	19.994	103.361	20.069	4.919	0.510
1183.000	670.137	80.009	19.994	103.363	20.069	4.939	0.462
1183.500	670.373	80.008	19.995	103.365	20.070	4.910	0.479
1184.000	670.655	80.009	19.994	103.369	20.070	4.883	0.507
1184.500	670.873	80.009	19.994	103.370	20.065	5.236	0.509
1185.000	671.128	80.008	19.995	103.373	20.068	5.001	0.486
1185.500	671.371	80.009	19.994	103.374	20.065	5.216	0.485
1186.000	671.593	80.008	19.995	103.374	20.067	5.072	0.481
1186.500	671.885	80.009	19.995	103.376	20.065	5.216	0.490
1187.000	672.068	80.007	19.995	103.381	20.069	4.972	0.495
1187.500	672.446	80.008	19.994	103.383	20.074	4.583	0.518
1188.000	672.734	80.007	19.995	103.387	20.072	4.763	0.613
1188.500	672.955	80.007	19.995	103.388	20.063	5.346	0.588
1189.000	673.164	80.008	19.994	103.391	20.066	5.171	0.470
1189.501	673.435	80.007	19.995	103.389	20.063	5.361	0.455
1190.001	673.611	80.008	19.995	103.387	20.061	5.515	0.463
1190.500	673.855	80.007	19.995	103.385	20.065	5.251	0.434
1191.000	674.126	80.007	19.994	103.388	20.063	5.353	0.468
1191.500	674.428	80.008	19.995	103.389	20.064	5.291	0.544
1192.000	674.612	80.007	19.994	103.391	20.062	5.387	0.530
1192.500	674.891	80.009	19.995	103.396	20.065	5.204	0.474
1193.000	675.116	80.008	19.995	103.401	20.062	5.441	0.483
1193.500	675.391	80.007	19.995	103.405	20.064	5.259	0.502
1194.000	675.661	80.008	19.994	103.408	20.065	5.188	0.523
1194.500	675.902	80.008	19.994	103.410	20.069	4.957	0.528
1195.000	676.160	80.008	19.994	103.411	20.067	5.094	0.504
1195.500	676.384	80.008	19.994	103.411	20.064	5.292	0.490
1196.000	676.682	80.008	19.994	103.411	20.055	5.894	0.502
1196.500	676.902	80.008	19.995	103.411	20.063	5.349	0.521
1197.000	677.162	80.008	19.995	103.411	20.060	5.545	0.499
1197.501	677.380	80.008	19.994	103.411	20.064	5.294	0.479
1198.001	677.644	80.008	19.995	103.411	20.065	5.245	0.480
1198.500	677.903	80.008	19.994	103.412	20.066	5.127	0.503
1199.000	678.202	80.008	19.995	103.418	20.057	5.740	0.540
1199.500	678.404	80.008	19.994	103.424	20.058	5.701	0.530
1200.000	678.627	80.009	19.994	103.430	20.062	5.399	0.463
1200.500	678.900	80.009	19.995	103.432	20.058	5.658	0.461
1201.000	679.186	80.009	19.994	103.431	20.060	5.549	0.527
1201.500	679.370	80.008	19.994	103.427	20.058	5.712	0.514
1202.000	679.675	80.009	19.994	103.422	20.055	5.898	0.480
1202.500	680.033	80.010	19.994	103.423	20.056	5.843	0.576
1203.000	680.141	80.010	19.994	103.424	20.058	5.718	0.565
1203.500	680.413	80.010	19.994	103.429	20.066	5.172	0.423
1204.000	680.661	80.010	19.994	103.434	20.058	5.705	0.450
1204.500	680.898	80.009	19.994	103.439	20.064	5.271	0.502
1205.000	681.201	80.009	19.994	103.438	20.063	5.342	0.513
1205.500	681.422	80.010	19.994	103.441	20.055	5.920	0.532
1206.001	681.704	80.009	19.994	103.443	20.054	5.966	0.513
1206.501	681.926	80.011	19.994	103.444	20.055	5.878	0.503
1207.000	682.191	80.010	19.994	103.445	20.053	6.024	0.496
1207.500	682.514	80.011	19.994	103.446	20.055	5.902	0.538
1208.000	682.705	80.011	19.994	103.447	20.055	5.919	0.551
1208.500	682.915	80.012	19.994	103.446	20.053	6.034	0.457
1209.000	683.146	80.011	19.994	103.446	20.049	6.265	0.421
1209.500	683.477	80.011	19.994	103.445	20.052	6.112	0.501
1210.000	683.801	80.010	19.993	103.445	20.051	6.143	0.608
1210.500	683.983	80.011	19.994	103.445	20.058	5.675	0.581
1211.000	684.277	80.008	19.995	103.446	20.051	6.191	0.491
1211.500	684.505	80.010	19.995	103.447	20.048	6.384	0.499
1212.000	684.694	80.008	19.995	103.447	20.050	6.257	0.469
1212.501	684.983	80.009	19.994	103.447	20.050	6.248	0.447
1213.001	685.346	80.009	19.994	103.447	20.052	6.105	0.565
1213.500	685.498	80.009	19.994	103.447	20.050	6.214	0.584
1214.000	685.811	80.008	19.994	103.446	20.051	6.130	0.490
1214.500	685.988	80.008	19.994	103.447	20.048	6.378	0.478
1215.000	686.323	80.009	19.994	103.449	20.050	6.216	0.501
1215.500	686.524	80.010	19.994	103.452	20.047	6.436	0.524
1216.000	686.747	80.008	19.995	103.454	20.049	6.300	0.480
1216.500	687.044	80.007	19.994	103.455	20.047	6.438	0.472
1217.000	687.316	80.008	19.994	103.454	20.049	6.324	0.545
1217.500	687.508	80.008	19.994	103.454	20.052	6.076	0.516
1218.000	687.767	80.008	19.993	103.452	20.048	6.389	0.458
1218.500	688.056	80.008	19.994	103.456	20.049	6.293	0.500
1219.000	688.276	80.007	19.994	103.459	20.049	6.269	0.528
1219.500	688.634	80.008	19.994	103.462	20.048	6.393	0.544
1220.000	688.808	80.009	19.995	103.463	20.049	6.288	0.555
1220.500	689.044	80.007	19.995	103.463	20.047	6.435	0.471
1221.000	689.359	80.007	19.995	103.460	20.050	6.237	0.480
1221.500	689.594	80.008	19.994	103.456	20.049	6.324	0.551
1222.000	689.830	80.008	19.995	103.454	20.049	6.317	0.511
1222.500	690.127	80.007	19.994	103.455	20.050	6.244	0.501
1223.000	690.328	80.008	19.995	103.459	20.048	6.337	0.515
1223.500	690.582	80.007	19.994	103.465	20.051	6.135	0.477
1224.000	690.797	80.008	19.994	103.470	20.050	6.248	0.462
1224.500	691.104	80.007	19.994	103.470	20.047	6.406	0.496
1225.000	691.410	80.008	19.994	103.468	20.048	6.366	0.567
1225.500	691.645	80.007	19.995	103.466	20.048	6.343	0.577
1226.000	691.893	80.007	19.995	103.465	20.050	6.250	0.512
1226.501	692.142	80.009	19.994	103.467	20.047	6.455	0.490
1227.001	692.371	80.007	19.995	103.473	20.045	6.568	0.487
1227.500	692.675	80.007	19.995	103.478	20.044	6.650	0.506
1228.000	692.877	80.008	19.995	103.479	20.047	6.412	0.520
1228.500	693.125	80.007	19.994	103.480	20.048	6.392	0.478
1229.001	693.366	80.007	19.995	103.480	20.044	6.610	0.469
1229.501	693.632	80.006	19.996	103.482	20.046	6.523	0.498
1230.000	693.897	80.008	19.995	103.483	20.045	6.548	0.519
1230.501	694.152	80.007	19.994	103.483	20.045	6.594	0.526
1231.001	694.424	80.007	19.996	103.483	20.045	6.561	0.523
1231.500	694.648	80.007	19.996	103.483	20.044	6.609	0.511
1232.000	694.881	80.009	19.995	103.483	20.044	6.651	0.476
1232.500	695.155	80.007	19.995	103.483	20.045	6.591	0.482
1233.000	695.422	80.007	19.995	103.484	20.043	6.676	0.524
1233.500	695.681	80.007	19.995	103.483	20.047	6.430	0.533
1234.000	695.902	80.008	19.995	103.483	20.041	6.834	0.503
1234.500	696.199	80.008	19.995	103.483	20.047	6.423	0.499
1235.000	696.428	80.007	19.995	103.483	20.044	6.647	0.522
1235.500	696.698	80.007	19.996	103.482	20.045	6.547	0.512
1236.000	696.944	80.007	19.994	103.484	20.047	6.443	0.507
1236.500	697.163	80.007	19.996	103.487	20.043	6.684	0.490
1237.000	697.414	80.008	19.995	103.487	20.044	6.664	0.468
1237.500	697.721	80.008	19.995	103.488	20.045	6.543	0.514
1238.000	697.920	80.008	19.995	103.488	20.043	6.721	0.532
1238.500	698.186	80.007	19.995	103.487	20.042	6.751	0.486
1239.000	698.410	80.007	19.995	103.484	20.044	6.658	0.478
1239.500	698.714	80.008	19.995	103.485	20.044	6.662	0.509
1240.000	698.942	80.007	19.995	103.484	20.042	6.769	0.530
1240.500	699.206	80.009	19.996	103.485	20.043	6.670	0.512
1241.001	699.423	80.006	19.995	103.485	20.045	6.592	0.486
1241.501	699.697	80.007	19.995	103.486	20.043	6.699	0.486
1242.000	699.916	80.007	19.995	103.490	20.042	6.790	0.492
1242.500	700.174	80.007	19.995	103.493	20.045	6.543	0.485
1243.000	700.443	80.007	19.995	103.495	20.040	6.873	0.502
1243.500	700.742	80.007	19.995	103.497	20.042	6.794	0.548
1244.000	700.941	80.007	19.995	103.496	20.043	6.671	0.533
1244.500	701.154	80.006	19.995	103.493	20.050	6.199	0.455
1245.001	701.451	80.007	19.994	103.492	20.042	6.793	0.461
1245.501	701.699	80.006	19.994	103.490	20.042	6.742	0.527
1246.000	701.925	80.007	19.995	103.489	20.042	6.778	0.509
1246.500	702.194	80.007	19.994	103.493	20.044	6.650	0.485
1247.001	702.484	80.007	19.995	103.498	20.043	6.667	0.528
1247.501	702.690	80.007	19.995	103.501	20.041	6.854	0.528
1248.001	702.933	80.005	19.994	103.507	20.043	6.720	0.472
1248.500	703.178	80.004	19.994	103.515	20.040	6.878	0.468
1249.000	703.442	80.006	19.995	103.519	20.041	6.860	0.498
1249.500	703.774	80.007	19.995	103.521	20.041	6.847	0.552
1250.000	703.924	80.008	19.995	103.524	20.042	6.793	0.539
1250.500	704.289	80.005	19.994	103.526	20.038	7.028	0.499
1251.000	704.457	80.007	19.995	103.521	20.040	6.875	0.525
1251.500	704.683	80.006	19.995	103.520	20.040	6.869	0.464
1252.000	704.990	80.007	19.995	103.519	20.041	6.835	0.463
1252.500	705.227	80.006	19.995	103.517	20.037	7.131	0.538
1253.000	705.456	80.007	19.994	103.516	20.039	6.962	0.505
1253.500	705.718	80.008	19.995	103.520	20.038	7.055	0.479
1254.001	705.977	80.006	19.996	103.522	20.037	7.102	0.506
1254.501	706.246	80.007	19.995	103.522	20.039	6.984	0.525
1255.000	706.467	80.007	19.996	103.524	20.038	7.059	0.509
1255.500	706.771	80.007	19.995	103.526	20.039	6.980	0.507
1256.000	707.067	80.007	19.995	103.525	20.040	6.909	0.562
1256.500	707.279	80.008	19.995	103.523	20.038	7.028	0.554
1257.000	707.564	80.008	19.994	103.520	20.039	6.977	0.503
1257.500	707.764	80.008	19.995	103.520	20.037	7.115	0.491
1258.000	708.038	80.008	19.996	103.520	20.043	6.676	0.479
1258.500	708.207	80.007	19.995	103.521	20.040	6.918	0.458
1259.000	708.493	80.007	19.996	103.523	20.044	6.644	0.449
1259.500	708.731	80.007	19.996	103.527	20.046	6.505	0.489
1260.000	709.044	80.007	19.995	103.526	20.044	6.627	0.538
1260.500	709.258	80.008	19.996	103.526	20.035	7.252	0.539
1261.000	709.533	80.008	19.995	103.527	20.037	7.102	0.508
1261.501	709.782	80.009	19.995	103.527	20.034	7.275	0.506
1262.001	710.074	80.009	19.996	103.526	20.036	7.140	0.533
1262.501	710.256	80.008	19.995	103.526	20.033	7.380	0.508
1263.001	710.556	80.009	19.995	103.526	20.037	7.122	0.478
1263.500	710.829	80.008	19.996	103.525	20.034	7.275	0.527
1264.000	711.068	80.008	19.996	103.525	20.036	7.142	0.542
1264.500	711.313	80.008	19.995	103.526	20.042	6.771	0.498
1265.000	711.562	80.008	19.995	103.526	20.034	7.304	0.489
1265.501	711.825	80.008	19.995	103.527	20.033	7.352	0.503
1266.001	712.057	80.008	19.995	103.527	20.035	7.204	0.504
1266.500	712.335	80.009	19.996	103.527	20.034	7.288	0.503
1267.000	712.579	80.007	19.995	103.527	20.036	7.197	0.516
1267.500	712.883	80.009	19.995	103.526	20.033	7.393	0.535
1268.000	713.111	80.007	19.996	103.526	20.033	7.363	0.540
1268.500	713.378	80.008	19.997	103.526	20.036	7.182	0.514
1269.000	713.626	80.008	19.996	103.526	20.036	7.191	0.505
1269.500	713.898	80.007	19.995	103.525	20.034	7.317	0.517
1270.000	714.106	80.008	19.995	103.526	20.034	7.295	0.500
1270.500	714.362	80.010	19.996	103.526	20.034	7.300	0.472
1271.000	714.628	80.008	19.995	103.525	20.033	7.355	0.493
1271.500	714.927	80.009	19.995	103.525	20.035	7.255	0.544
1272.001	715.165	80.007	19.996	103.524	20.030	7.587	0.551
1272.501	715.464	80.008	19.996	103.523	20.032	7.436	0.537
1273.000	715.665	80.008	19.996	103.519	20.034	7.326	0.518
1273.500	715.952	80.009	19.996	103.517	20.035	7.246	0.494
1274.000	716.165	80.009	19.995	103.516	20.030	7.589	0.494
1274.500	716.492	80.008	19.994	103.516	20.032	7.408	0.520
1275.000	716.769	80.009	19.995	103.517	20.037	7.117	0.572
1275.500	716.982	80.009	19.994	103.520	20.038	7.037	0.547
1276.000	717.276	80.009	19.995	103.523	20.037	7.105	0.499
1276.500	717.526	80.009	19.995	103.523	20.037	7.120	0.526
1277.000	717.743	80.009	19.995	103.523	20.033	7.364	0.505
1277.500	718.048	80.010	19.994	103.523	20.037	7.123	0.495
1278.000	718.255	80.008	19.995	103.524	20.035	7.229	0.517
1278.500	718.522	80.007	19.995	103.523	20.038	7.029	0.493
1279.000	718.862	80.008	19.994	103.524	20.038	7.049	0.540
1279.500	719.112	80.009	19.994	103.524	20.034	7.283	0.599
1280.000	719.340	80.008	19.994	103.523	20.037	7.112	0.534
1280.501	719.577	80.010	19.995	103.522	20.037	7.101	0.472
1281.001	719.822	80.008	19.994	103.522	20.036	7.165	0.474
1281.500	720.139	80.011	19.993	103.522	20.038	7.054	0.522
1282.000	720.411	80.010	19.994	103.521	20.037	7.116	0.575
1282.500	720.599	80.009	19.994	103.517	20.036	7.175	0.525
1283.000	720.882	80.010	19.995	103.513	20.035	7.224	0.466
1283.500	721.119	80.009	19.994	103.507	20.036	7.193	0.496
1284.000	721.384	80.010	19.994	103.503	20.040	6.868	0.511
1284.500	721.633	80.010	19.994	103.503	20.037	7.074	0.508
1285.000	721.902	80.011	19.995	103.504	20.039	6.992	0.516
1285.500	722.164	80.010	19.993	103.501	20.038	7.064	0.525
1286.000	722.424	80.010	19.994	103.499	20.039	6.950	0.527
1286.500	722.696	80.010	19.994	103.496	20.041	6.831	0.527
1287.000	722.869	80.009	19.994	103.490	20.044	6.642	0.488
1287.500	723.194	80.011	19.994	103.489	20.036	7.173	0.471
1288.000	723.532	80.011	19.994	103.488	20.035	7.242	0.581
1288.500	723.778	80.011	19.994	103.488	20.045	6.585	0.624
1289.000	723.926	80.010	19.995	103.488	20.047	6.401	0.489
1289.500	724.250	80.009	19.995	103.486	20.045	6.530	0.433
1290.000	724.449	80.010	19.995	103.484	20.044	6.632	0.498
1290.500	724.734	80.009	19.995	103.484	20.043	6.723	0.504
1291.000	724.978	80.009	19.994	103.483	20.036	7.154	0.507
1291.501	725.210	80.010	19.995	103.483	20.035	7.230	0.503
1292.001	725.487	80.010	19.995	103.482	20.036	7.135	0.493
1292.501	725.765	80.009	19.994	103.482	20.042	6.753	0.532
1293.001	725.961	80.007	19.995	103.481	20.041	6.849	0.514
1293.500	726.244	80.008	19.994	103.478	20.038	6.996	0.476
1294.001	726.521	80.008	19.994	103.472	20.042	6.740	0.519
1294.501	726.732	80.008	19.995	103.465	20.038	7.051	0.524
1295.000	727.045	80.008	19.994	103.458	20.041	6.798	0.506
1295.500	727.309	80.006	19.995	103.453	20.037	7.114	0.550
1296.000	727.548	80.007	19.995	103.450	20.038	7.025	0.540
1296.500	727.789	80.008	19.994	103.448	20.039	6.963	0.492
1297.000	728.078	80.008	19.995	103.448	20.040	6.899	0.505
1297.500	728.327	80.007	19.995	103.448	20.040	6.921	0.534
1298.000	728.593	80.008	19.995	103.446	20.045	6.588	0.527
1298.500	728.827	80.007	19.994	103.444	20.046	6.518	0.508
1299.000	729.078	80.007	19.995	103.444	20.043	6.723	0.492
1299.501	729.328	80.008	19.995	103.443	20.042	6.781	0.493
1300.001	729.601	80.007	19.995	103.439	20.047	6.421	0.512
1300.500	729.851	80.007	19.995	103.436	20.043	6.702	0.523
1301.001	730.099	80.008	19.994	103.432	20.044	6.627	0.511
1301.501	730.441	80.008	19.995	103.430	20.045	6.542	0.544
1302.000	730.684	80.008	19.995	103.427	20.043	6.692	0.587
1302.500	730.840	80.008	19.995	103.424	20.044	6.611	0.492
1303.000	731.069	80.007	19.995	103.420	20.041	6.806	0.392
1303.500	731.350	80.008	19.995	103.417	20.046	6.519	0.448
1304.000	731.619	80.007	19.994	103.411	20.041	6.803	0.530
1304.500	731.922	80.008	19.995	103.408	20.046	6.489	0.561
1305.000	732.243	80.007	19.995	103.407	20.049	6.309	0.598
1305.500	732.487	80.008	19.995	103.408	20.048	6.371	0.594
1306.000	732.728	80.007	19.995	103.407	20.047	6.401	0.525
1306.500	732.921	80.008	19.995	103.407	20.050	6.224	0.459
1307.001	733.168	80.007	19.994	103.406	20.051	6.149	0.436
1307.501	733.516	80.008	19.994	103.406	20.050	6.223	0.517
1308.000	733.723	80.008	19.995	103.406	20.051	6.167	0.575
1308.500	734.040	80.008	19.994	103.402	20.053	6.040	0.540
1309.000	734.199	80.008	19.996	103.395	20.054	5.960	0.500
1309.500	734.566	80.006	19.995	103.389	20.054	5.976	0.501
1310.000	734.824	80.007	19.994	103.381	20.054	5.929	0.575
1310.500	735.067	80.008	19.994	103.374	20.057	5.725	0.563
1311.000	735.339	80.008	19.994	103.369	20.058	5.671	0.508
1311.500	735.596	80.007	19.994	103.366	20.058	5.650	0.522
1312.001	735.814	80.007	19.994	103.361	20.059	5.614	0.502
1312.501	736.041	80.007	19.994	103.354	20.061	5.472	0.460
1313.000	736.324	80.007	19.995	103.344	20.065	5.207	0.478
1313.500	736.533	80.008	19.994	103.330	20.063	5.350	0.501
1314.000	736.788	80.007	19.995	103.319	20.066	5.158	0.478
1314.500	737.065	80.006	19.994	103.309	20.068	4.976	0.498
1315.000	737.297	80.007	19.994	103.301	20.066	5.112	0.520
1315.500	737.558	80.007	19.994	103.296	20.072	4.738	0.501
1316.000	737.830	80.007	19.995	103.294	20.076	4.485	0.514
1316.500	738.132	80.006	19.994	103.293	20.071	4.817	0.554
1317.000	738.400	80.008	19.994	103.284	20.068	4.990	0.572
1317.500	738.576	80.007	19.994	103.278	20.072	4.719	0.507
1318.000	738.873	80.007	19.994	103.270	20.078	4.324	0.459
1318.500	739.109	80.007	19.994	103.262	20.073	4.703	0.503
1319.000	739.319	80.007	19.995	103.255	20.076	4.492	0.489
1319.500	739.654	80.007	19.995	103.254	20.078	4.311	0.496
1320.000	739.855	80.007	19.995	103.252	20.076	4.442	0.540
1320.500	740.142	80.007	19.995	103.253	20.083	4.030	0.512
1321.000	740.389	80.007	19.995	103.253	20.089	3.612	0.511
1321.500	740.641	80.007	19.994	103.250	20.090	3.561	0.517
1322.000	740.928	80.007	19.995	103.247	20.088	3.690	0.519
1322.500	741.145	80.005	19.994	103.243	20.087	3.703	0.521
1323.000	741.453	80.006	19.994	103.241	20.087	3.704	0.514
1323.500	741.703	80.007	19.995	103.241	20.091	3.434	0.542
1324.000	741.940	80.008	19.995	103.239	20.090	3.530	0.523
1324.500	742.211	80.006	19.994	103.236	20.096	3.122	0.498
1325.000	742.534	80.008	19.995	103.232	20.092	3.385	0.551
1325.500	742.760	80.006	19.994	103.226	20.093	3.347	0.572
1326.000	742.943	80.006	19.995	103.219	20.089	3.624	0.479
1326.500	743.178	80.006	19.996	103.216	20.094	3.278	0.413
1327.001	743.400	80.007	19.994	103.215	20.095	3.192	0.437
