Sample ID:	C:\MCC\MCC Cal\Test\Vinyl_Tile_MCC_30K_min_211103_R2.txt
Sample Weight (mg):	4.87
Heating Rate (C/s):	0.5
Combustor Temp (C):	900
N2 Flow Rate (cc/min):	80
O2 Flow Rate (cc/min):	20
Calibration File:	C:\MCC\MCC Cal\Coeff1 JN10440_30_210304.txt.txt
T Correction Coefficients:	0	1.024463	0
Time Shift (s):	14
*
Time (s)	Temperature (C)	N2 flow rate (cc/min)	O2 flow rate (cc/min)	Flow Rate (cc/min)	Oxygen (%)	HRR (W/g)	Heating rate (C/s)
0.000	107.327	80.008	19.993	103.099	20.228	0.061	0.034
0.500	107.308	80.008	19.994	103.099	20.227	0.081	-0.000
1.000	107.294	80.007	19.993	103.100	20.229	-0.002	-0.031
1.500	107.278	80.007	19.994	103.099	20.229	-0.032	-0.032
2.000	107.291	80.008	19.992	103.100	20.230	-0.093	-0.016
2.500	107.305	80.008	19.993	103.098	20.232	-0.228	0.012
3.000	107.268	80.008	19.993	103.100	20.231	-0.159	0.002
3.500	107.322	80.008	19.993	103.103	20.229	-0.005	-0.003
3.999	107.331	80.008	19.993	103.104	20.229	-0.050	0.040
4.499	107.333	80.008	19.993	103.104	20.229	-0.048	0.037
4.999	107.320	80.008	19.993	103.106	20.227	0.113	0.000
5.499	107.335	80.008	19.992	103.109	20.227	0.075	-0.005
5.999	107.294	80.007	19.993	103.110	20.228	0.048	-0.012
6.500	107.306	80.008	19.994	103.110	20.229	-0.029	-0.028
7.000	107.300	80.008	19.994	103.114	20.229	-0.020	-0.011
7.500	107.284	80.007	19.993	103.119	20.226	0.136	-0.008
7.999	107.312	80.006	19.993	103.124	20.226	0.156	-0.005
8.499	107.328	80.006	19.993	103.130	20.225	0.208	0.028
8.999	107.359	80.007	19.993	103.141	20.224	0.313	0.046
9.499	107.300	80.008	19.994	103.148	20.224	0.330	0.010
9.999	107.310	80.006	19.993	103.154	20.226	0.143	-0.038
10.499	107.326	80.007	19.994	103.156	20.223	0.396	-0.012
10.999	107.318	80.005	19.994	103.154	20.222	0.455	0.016
11.499	107.353	80.006	19.994	103.153	20.229	-0.002	0.018
11.999	107.337	80.004	19.993	103.147	20.227	0.099	0.024
12.499	107.375	80.005	19.994	103.143	20.225	0.265	0.020
13.000	107.404	80.004	19.995	103.139	20.225	0.222	0.044
13.500	107.361	80.006	19.995	103.139	20.226	0.199	0.027
13.999	107.384	80.006	19.996	103.137	20.225	0.258	-0.016
14.500	107.386	80.005	19.995	103.137	20.226	0.167	0.003
15.000	107.387	80.005	19.995	103.137	20.223	0.378	0.014
15.499	107.412	80.003	19.994	103.137	20.224	0.321	0.014
16.000	107.422	80.005	19.996	103.137	20.225	0.258	0.030
16.500	107.454	80.005	19.995	103.138	20.222	0.432	0.039
17.000	107.464	80.005	19.995	103.138	20.220	0.554	0.042
17.500	107.461	80.004	19.995	103.137	20.222	0.401	0.025
18.000	107.468	80.004	19.995	103.137	20.223	0.351	0.005
18.500	107.498	80.003	19.996	103.136	20.223	0.382	0.021
19.000	107.508	80.005	19.994	103.133	20.219	0.599	0.039
19.500	107.506	80.004	19.995	103.132	20.222	0.434	0.024
20.000	107.542	80.006	19.995	103.134	20.223	0.337	0.021
20.500	107.522	80.004	19.995	103.135	20.222	0.457	0.025
21.000	107.587	80.006	19.995	103.137	20.224	0.308	0.031
21.500	107.566	80.005	19.995	103.140	20.224	0.274	0.044
22.000	107.610	80.005	19.995	103.141	20.223	0.340	0.033
22.500	107.612	80.006	19.995	103.144	20.223	0.384	0.035
23.000	107.581	80.004	19.994	103.147	20.221	0.530	0.009
23.500	107.663	80.005	19.994	103.149	20.221	0.498	0.011
24.000	107.669	80.005	19.996	103.153	20.218	0.665	0.069
24.500	107.664	80.006	19.994	103.159	20.217	0.764	0.044
25.000	107.683	80.004	19.995	103.162	20.218	0.687	0.007
25.500	107.692	80.006	19.995	103.165	20.217	0.735	0.021
26.000	107.731	80.007	19.994	103.170	20.218	0.706	0.038
26.500	107.757	80.006	19.995	103.173	20.220	0.536	0.057
27.000	107.807	80.005	19.995	103.175	20.222	0.441	0.071
27.500	107.812	80.005	19.995	103.180	20.220	0.581	0.066
28.000	107.824	80.006	19.995	103.180	20.218	0.710	0.036
28.500	107.863	80.006	19.995	103.179	20.219	0.615	0.033
29.000	107.881	80.005	19.994	103.177	20.219	0.620	0.054
29.500	107.926	80.005	19.996	103.171	20.216	0.832	0.060
30.000	107.949	80.004	19.996	103.167	20.218	0.676	0.066
30.500	107.935	80.006	19.994	103.165	20.217	0.785	0.039
31.000	107.979	80.006	19.994	103.165	20.217	0.794	0.019
31.500	107.984	80.006	19.995	103.165	20.216	0.803	0.039
32.000	108.017	80.006	19.996	103.168	20.218	0.717	0.044
32.499	108.019	80.006	19.995	103.169	20.218	0.667	0.037
32.999	108.057	80.004	19.995	103.173	20.219	0.662	0.037
33.499	108.075	80.006	19.995	103.177	20.214	0.990	0.048
33.999	108.123	80.005	19.995	103.179	20.216	0.836	0.061
34.499	108.171	80.005	19.995	103.187	20.217	0.769	0.081
34.999	108.189	80.006	19.995	103.194	20.213	1.057	0.081
35.499	108.229	80.004	19.996	103.198	20.215	0.874	0.061
35.999	108.277	80.005	19.995	103.203	20.212	1.119	0.073
36.499	108.325	80.004	19.995	103.208	20.211	1.137	0.092
36.999	108.346	80.004	19.995	103.206	20.215	0.888	0.083
37.499	108.363	80.005	19.994	103.205	20.216	0.811	0.054
37.999	108.424	80.007	19.994	103.205	20.215	0.883	0.058
38.499	108.441	80.004	19.995	103.203	20.212	1.100	0.078
38.999	108.429	80.006	19.995	103.203	20.212	1.071	0.042
39.499	108.525	80.005	19.995	103.205	20.212	1.096	0.044
39.999	108.582	80.006	19.995	103.206	20.210	1.223	0.118
40.500	108.605	80.005	19.996	103.209	20.212	1.085	0.117
41.000	108.668	80.004	19.996	103.212	20.209	1.267	0.083
41.499	108.688	80.004	19.995	103.213	20.212	1.102	0.084
41.999	108.729	80.005	19.995	103.213	20.209	1.299	0.072
42.499	108.762	80.003	19.996	103.216	20.207	1.441	0.067
42.999	108.802	80.004	19.996	103.223	20.208	1.385	0.074
43.499	108.848	80.004	19.996	103.229	20.205	1.539	0.079
43.999	108.917	80.004	19.996	103.236	20.207	1.414	0.100
44.500	108.960	80.003	19.996	103.247	20.207	1.413	0.114
45.000	109.068	80.005	19.996	103.256	20.204	1.623	0.132
45.499	109.067	80.003	19.996	103.264	20.205	1.526	0.129
46.000	109.162	80.005	19.995	103.271	20.205	1.566	0.100
46.500	109.220	80.004	19.995	103.278	20.207	1.395	0.124
46.999	109.246	80.004	19.995	103.283	20.201	1.831	0.119
47.499	109.319	80.004	19.995	103.285	20.203	1.693	0.091
47.999	109.384	80.005	19.995	103.279	20.203	1.684	0.118
48.499	109.442	80.004	19.997	103.273	20.202	1.752	0.130
48.999	109.480	80.004	19.996	103.272	20.202	1.779	0.110
49.499	109.567	80.004	19.996	103.272	20.200	1.860	0.111
49.999	109.642	80.003	19.995	103.270	20.201	1.801	0.144
50.499	109.724	80.004	19.994	103.276	20.200	1.916	0.159
50.999	109.833	80.004	19.997	103.282	20.197	2.061	0.174
51.499	109.863	80.004	19.995	103.283	20.198	2.000	0.165
51.999	109.917	80.004	19.995	103.283	20.198	2.025	0.111
52.500	110.027	80.004	19.995	103.283	20.195	2.197	0.124
53.000	110.055	80.005	19.994	103.282	20.198	2.020	0.151
53.499	110.150	80.004	19.995	103.280	20.196	2.127	0.130
53.999	110.218	80.005	19.995	103.276	20.198	2.025	0.143
54.499	110.305	80.005	19.995	103.272	20.198	2.009	0.159
54.999	110.376	80.004	19.994	103.271	20.199	1.956	0.157
55.499	110.479	80.005	19.994	103.267	20.198	1.995	0.167
55.999	110.537	80.006	19.994	103.263	20.197	2.067	0.168
56.499	110.633	80.006	19.994	103.261	20.196	2.155	0.157
56.999	110.703	80.007	19.995	103.259	20.201	1.828	0.160
57.499	110.802	80.007	19.993	103.254	20.197	2.054	0.168
57.999	110.911	80.006	19.994	103.256	20.197	2.062	0.189
58.500	110.958	80.006	19.994	103.257	20.200	1.907	0.182
59.000	111.067	80.007	19.994	103.258	20.195	2.216	0.156
59.499	111.162	80.006	19.994	103.258	20.196	2.127	0.180
59.999	111.226	80.007	19.994	103.259	20.194	2.268	0.181
60.499	111.349	80.007	19.994	103.256	20.196	2.141	0.173
61.000	111.408	80.006	19.995	103.259	20.192	2.398	0.184
61.500	111.507	80.007	19.993	103.260	20.196	2.132	0.170
61.999	111.596	80.006	19.994	103.264	20.198	2.030	0.173
62.499	111.682	80.005	19.995	103.269	20.193	2.348	0.182
62.999	111.744	80.006	19.994	103.270	20.190	2.579	0.161
63.499	111.872	80.006	19.994	103.267	20.192	2.400	0.170
63.999	111.958	80.006	19.994	103.273	20.191	2.489	0.202
64.499	112.056	80.006	19.993	103.272	20.192	2.400	0.198
64.999	112.150	80.007	19.994	103.275	20.190	2.561	0.188
65.499	112.247	80.005	19.994	103.281	20.190	2.527	0.191
65.999	112.353	80.006	19.993	103.287	20.190	2.532	0.197
66.499	112.448	80.007	19.995	103.287	20.187	2.737	0.202
66.999	112.544	80.006	19.994	103.290	20.190	2.549	0.196
67.499	112.643	80.006	19.993	103.292	20.186	2.839	0.193
67.999	112.742	80.006	19.993	103.291	20.190	2.529	0.196
68.499	112.838	80.005	19.993	103.293	20.188	2.699	0.197
68.999	112.984	80.005	19.993	103.296	20.189	2.646	0.219
69.499	113.059	80.005	19.994	103.304	20.189	2.633	0.231
69.999	113.214	80.006	19.994	103.309	20.189	2.619	0.226
70.499	113.293	80.005	19.993	103.317	20.185	2.854	0.232
70.999	113.408	80.005	19.995	103.318	20.186	2.847	0.214
71.499	113.520	80.006	19.995	103.320	20.185	2.852	0.211
71.999	113.623	80.005	19.995	103.321	20.187	2.780	0.221
72.499	113.712	80.004	19.994	103.322	20.187	2.760	0.203
72.999	113.848	80.006	19.994	103.322	20.186	2.809	0.208
73.499	113.973	80.005	19.995	103.328	20.188	2.681	0.243
73.999	114.084	80.005	19.994	103.329	20.184	2.954	0.249
74.499	114.182	80.005	19.994	103.330	20.184	2.934	0.222
74.999	114.296	80.007	19.995	103.331	20.185	2.852	0.210
75.499	114.420	80.004	19.994	103.331	20.184	2.954	0.225
75.999	114.563	80.006	19.993	103.331	20.185	2.890	0.253
76.499	114.651	80.006	19.994	103.331	20.183	3.008	0.249
76.999	114.806	80.006	19.994	103.330	20.185	2.872	0.237
77.499	114.919	80.006	19.994	103.330	20.185	2.850	0.255
78.000	115.072	80.006	19.995	103.330	20.182	3.065	0.267
78.500	115.213	80.005	19.994	103.330	20.182	3.083	0.280
78.999	115.317	80.005	19.994	103.329	20.185	2.873	0.270
79.499	115.434	80.006	19.995	103.329	20.180	3.184	0.233
79.999	115.600	80.007	19.995	103.329	20.182	3.078	0.253
80.499	115.726	80.007	19.994	103.329	20.183	3.007	0.288
80.999	115.833	80.008	19.994	103.332	20.183	2.987	0.262
81.499	115.967	80.006	19.994	103.334	20.187	2.775	0.236
81.999	116.130	80.007	19.994	103.333	20.181	3.141	0.269
82.499	116.298	80.007	19.994	103.334	20.184	2.921	0.314
82.999	116.434	80.010	19.993	103.333	20.182	3.109	0.317
83.499	116.584	80.007	19.994	103.330	20.183	3.038	0.295
83.999	116.758	80.008	19.994	103.328	20.185	2.905	0.305
84.499	116.892	80.007	19.994	103.328	20.184	2.956	0.316
84.999	117.057	80.007	19.994	103.327	20.182	3.100	0.303
85.499	117.163	80.008	19.993	103.327	20.184	2.981	0.285
85.999	117.329	80.006	19.993	103.327	20.181	3.150	0.272
86.499	117.495	80.008	19.994	103.328	20.181	3.138	0.302
86.999	117.607	80.008	19.994	103.329	20.183	3.034	0.305
87.500	117.787	80.009	19.994	103.329	20.182	3.070	0.285
88.000	117.900	80.007	19.994	103.329	20.178	3.316	0.293
88.499	118.050	80.008	19.994	103.328	20.183	3.009	0.278
88.999	118.232	80.006	19.993	103.326	20.181	3.177	0.297
89.499	118.382	80.007	19.995	103.325	20.179	3.267	0.332
89.999	118.518	80.008	19.995	103.328	20.180	3.196	0.309
90.499	118.687	80.008	19.994	103.332	20.176	3.512	0.296
90.999	118.837	80.007	19.994	103.335	20.178	3.373	0.312
91.499	119.038	80.008	19.994	103.340	20.183	3.047	0.335
91.999	119.168	80.006	19.993	103.341	20.181	3.143	0.341
92.499	119.334	80.005	19.993	103.345	20.182	3.071	0.314
92.999	119.517	80.006	19.994	103.349	20.181	3.154	0.322
93.499	119.690	80.005	19.993	103.352	20.182	3.107	0.352
93.999	119.842	80.005	19.993	103.352	20.182	3.055	0.340
94.500	120.023	80.004	19.994	103.354	20.178	3.321	0.329
95.000	120.162	80.006	19.994	103.348	20.182	3.054	0.327
95.499	120.346	80.006	19.994	103.341	20.178	3.364	0.321
95.999	120.508	80.005	19.994	103.337	20.181	3.167	0.334
96.499	120.674	80.005	19.994	103.335	20.181	3.115	0.337
96.999	120.841	80.006	19.994	103.341	20.177	3.416	0.331
97.499	121.019	80.004	19.993	103.346	20.178	3.314	0.339
97.999	121.195	80.006	19.994	103.347	20.177	3.397	0.350
98.499	121.429	80.003	19.994	103.349	20.177	3.418	0.382
98.999	121.519	80.005	19.994	103.349	20.177	3.443	0.367
99.499	121.714	80.005	19.994	103.347	20.178	3.327	0.304
99.999	121.873	80.005	19.995	103.349	20.175	3.538	0.320
100.499	122.058	80.005	19.994	103.355	20.179	3.267	0.349
100.999	122.259	80.004	19.993	103.359	20.178	3.319	0.365
101.499	122.425	80.004	19.996	103.362	20.178	3.361	0.376
101.999	122.606	80.002	19.996	103.361	20.178	3.375	0.357
102.499	122.804	80.005	19.995	103.358	20.181	3.129	0.363
102.999	122.962	80.005	19.995	103.353	20.179	3.284	0.367
103.499	123.132	80.004	19.995	103.348	20.176	3.481	0.341
103.999	123.329	80.005	19.995	103.346	20.178	3.378	0.348
104.500	123.536	80.004	19.994	103.349	20.181	3.136	0.386
105.000	123.696	80.005	19.994	103.350	20.178	3.324	0.385
105.499	123.887	80.004	19.995	103.353	20.179	3.272	0.359
105.999	124.054	80.005	19.994	103.358	20.179	3.276	0.355
106.499	124.281	80.004	19.994	103.358	20.179	3.251	0.376
106.999	124.493	80.006	19.996	103.355	20.180	3.223	0.416
107.499	124.619	80.005	19.995	103.355	20.182	3.097	0.389
107.999	124.795	80.004	19.996	103.355	20.181	3.115	0.320
108.499	125.026	80.005	19.994	103.355	20.178	3.368	0.354
109.000	125.221	80.005	19.995	103.357	20.182	3.095	0.416
109.500	125.418	80.005	19.994	103.360	20.179	3.284	0.409
109.999	125.591	80.004	19.995	103.358	20.182	3.091	0.381
110.499	125.812	80.004	19.994	103.359	20.182	3.111	0.382
110.999	125.979	80.005	19.995	103.355	20.184	2.955	0.391
111.499	126.161	80.005	19.995	103.352	20.180	3.204	0.369
111.999	126.393	80.005	19.994	103.352	20.174	3.625	0.382
112.500	126.562	80.004	19.995	103.355	20.179	3.275	0.407
113.000	126.748	80.005	19.995	103.354	20.179	3.269	0.378
113.499	126.903	80.004	19.995	103.357	20.178	3.361	0.348
113.999	127.124	80.005	19.994	103.359	20.178	3.355	0.359
114.499	127.339	80.005	19.994	103.355	20.176	3.467	0.406
114.999	127.520	80.004	19.995	103.350	20.177	3.420	0.416
115.499	127.705	80.006	19.994	103.347	20.176	3.510	0.381
115.999	127.922	80.003	19.994	103.345	20.179	3.289	0.384
116.500	128.117	80.004	19.994	103.344	20.179	3.302	0.407
117.001	128.339	80.004	19.995	103.348	20.182	3.113	0.415
117.500	128.530	80.003	19.994	103.353	20.181	3.115	0.415
117.999	128.725	80.004	19.994	103.359	20.176	3.501	0.399
118.500	128.964	80.005	19.995	103.362	20.180	3.207	0.410
119.000	129.144	80.005	19.994	103.364	20.180	3.201	0.427
119.499	129.345	80.004	19.994	103.366	20.180	3.214	0.400
119.999	129.551	80.004	19.995	103.362	20.180	3.210	0.394
120.499	129.768	80.004	19.994	103.357	20.181	3.137	0.415
120.999	129.915	80.003	19.996	103.354	20.181	3.122	0.393
121.499	130.146	80.004	19.994	103.350	20.179	3.293	0.371
121.999	130.373	80.005	19.995	103.349	20.181	3.142	0.418
122.499	130.580	80.003	19.994	103.351	20.180	3.237	0.447
123.000	130.774	80.003	19.995	103.354	20.177	3.424	0.417
123.501	130.970	80.004	19.994	103.356	20.177	3.436	0.395
124.001	131.195	80.003	19.994	103.356	20.176	3.456	0.406
124.501	131.400	80.004	19.994	103.356	20.176	3.508	0.426
124.999	131.570	80.005	19.995	103.359	20.180	3.237	0.402
125.499	131.811	80.004	19.994	103.361	20.176	3.449	0.393
125.999	132.014	80.004	19.995	103.360	20.174	3.616	0.428
126.499	132.205	80.004	19.995	103.364	20.175	3.523	0.419
126.999	132.443	80.003	19.995	103.363	20.178	3.325	0.411
127.499	132.630	80.004	19.994	103.360	20.176	3.480	0.427
128.000	132.845	80.004	19.994	103.361	20.179	3.311	0.414
128.500	133.073	80.003	19.995	103.362	20.180	3.185	0.423
129.000	133.268	80.003	19.995	103.363	20.178	3.352	0.433
129.500	133.491	80.002	19.994	103.365	20.182	3.083	0.421
130.000	133.705	80.003	19.994	103.368	20.181	3.151	0.427
130.500	133.937	80.004	19.995	103.366	20.179	3.295	0.441
131.000	134.139	80.003	19.994	103.363	20.178	3.375	0.440
131.500	134.357	80.004	19.996	103.363	20.177	3.388	0.427
132.000	134.574	80.003	19.994	103.363	20.176	3.480	0.428
132.500	134.793	80.004	19.994	103.364	20.175	3.541	0.436
133.000	134.989	80.003	19.995	103.366	20.174	3.621	0.425
133.500	135.199	80.003	19.995	103.368	20.172	3.769	0.410
134.000	135.451	80.004	19.995	103.368	20.177	3.406	0.434
134.500	135.703	80.004	19.995	103.365	20.174	3.591	0.483
135.000	135.869	80.002	19.994	103.364	20.174	3.621	0.462
135.500	136.076	80.004	19.995	103.363	20.176	3.454	0.396
136.000	136.307	80.005	19.995	103.365	20.173	3.673	0.405
136.500	136.546	80.004	19.995	103.365	20.177	3.438	0.454
137.000	136.736	80.004	19.995	103.367	20.172	3.756	0.449
137.500	136.959	80.004	19.994	103.369	20.175	3.531	0.421
138.000	137.153	80.003	19.995	103.369	20.175	3.566	0.415
138.500	137.420	80.005	19.994	103.367	20.174	3.616	0.439
139.000	137.633	80.006	19.995	103.365	20.175	3.560	0.471
139.500	137.831	80.004	19.995	103.364	20.176	3.479	0.445
140.000	138.071	80.005	19.995	103.364	20.171	3.828	0.424
140.500	138.314	80.005	19.996	103.365	20.176	3.490	0.460
141.000	138.502	80.005	19.996	103.364	20.175	3.578	0.457
141.500	138.710	80.005	19.995	103.365	20.178	3.364	0.413
142.000	138.952	80.005	19.995	103.365	20.177	3.427	0.423
142.500	139.190	80.004	19.995	103.365	20.177	3.427	0.465
143.000	139.449	80.005	19.995	103.365	20.174	3.621	0.489
143.500	139.659	80.005	19.995	103.367	20.176	3.483	0.483
144.000	139.902	80.004	19.996	103.367	20.175	3.530	0.461
144.500	140.095	80.006	19.995	103.367	20.176	3.487	0.444
145.000	140.317	80.006	19.995	103.364	20.174	3.614	0.425
145.500	140.564	80.006	19.996	103.361	20.175	3.514	0.442
146.000	140.780	80.005	19.995	103.355	20.175	3.557	0.466
146.500	141.007	80.006	19.995	103.354	20.176	3.449	0.454
147.000	141.207	80.005	19.996	103.353	20.176	3.472	0.435
147.500	141.426	80.005	19.995	103.354	20.175	3.535	0.423
148.000	141.662	80.005	19.995	103.357	20.176	3.483	0.437
148.500	141.912	80.004	19.995	103.362	20.175	3.554	0.470
149.000	142.118	80.006	19.994	103.362	20.174	3.601	0.471
149.500	142.382	80.005	19.996	103.364	20.175	3.534	0.463
150.000	142.619	80.006	19.995	103.364	20.172	3.739	0.486
150.500	142.837	80.005	19.994	103.363	20.174	3.614	0.478
151.000	143.075	80.006	19.994	103.363	20.176	3.502	0.455
151.500	143.286	80.004	19.995	103.363	20.170	3.854	0.452
152.000	143.570	80.004	19.995	103.361	20.175	3.538	0.472
152.500	143.790	80.004	19.994	103.361	20.170	3.850	0.500
153.000	144.043	80.004	19.995	103.362	20.173	3.664	0.489
153.500	144.236	80.005	19.995	103.360	20.175	3.567	0.459
154.000	144.491	80.004	19.995	103.361	20.175	3.565	0.447
154.500	144.715	80.004	19.994	103.362	20.171	3.788	0.464
155.000	144.950	80.005	19.994	103.363	20.173	3.700	0.469
155.500	145.209	80.005	19.994	103.362	20.173	3.677	0.476
156.000	145.413	80.005	19.994	103.364	20.172	3.727	0.479
156.500	145.646	80.005	19.994	103.364	20.172	3.720	0.450
157.000	145.940	80.006	19.994	103.363	20.172	3.721	0.482
157.500	146.156	80.004	19.995	103.360	20.170	3.858	0.518
158.000	146.357	80.007	19.995	103.359	20.175	3.520	0.463
158.500	146.623	80.005	19.994	103.355	20.174	3.630	0.442
159.000	146.825	80.005	19.994	103.352	20.174	3.588	0.468
159.500	147.117	80.004	19.994	103.349	20.173	3.656	0.481
160.000	147.311	80.006	19.994	103.344	20.169	3.915	0.489
160.500	147.562	80.007	19.994	103.342	20.174	3.609	0.466
161.000	147.779	80.007	19.993	103.345	20.175	3.554	0.457
161.500	148.049	80.005	19.995	103.347	20.170	3.843	0.478
162.000	148.245	80.007	19.994	103.349	20.170	3.857	0.476
162.500	148.493	80.007	19.994	103.350	20.171	3.809	0.455
163.000	148.739	80.006	19.994	103.349	20.170	3.895	0.469
163.500	148.991	80.005	19.994	103.343	20.168	3.977	0.496
164.000	149.178	80.006	19.994	103.339	20.171	3.825	0.468
164.500	149.429	80.007	19.995	103.340	20.171	3.825	0.439
165.000	149.695	80.008	19.994	103.344	20.169	3.972	0.478
165.500	149.904	80.006	19.994	103.347	20.171	3.813	0.496
166.000	150.169	80.007	19.994	103.353	20.168	3.996	0.475
166.500	150.378	80.008	19.994	103.351	20.169	3.923	0.474
167.000	150.647	80.009	19.994	103.349	20.170	3.894	0.476
167.500	150.871	80.007	19.994	103.349	20.171	3.824	0.485
168.000	151.136	80.008	19.994	103.353	20.172	3.739	0.491
168.500	151.362	80.008	19.994	103.351	20.169	3.938	0.490
169.000	151.614	80.008	19.994	103.352	20.167	4.091	0.484
169.500	151.844	80.008	19.994	103.348	20.169	3.972	0.480
170.000	152.091	80.006	19.994	103.342	20.171	3.802	0.480
170.500	152.285	80.008	19.994	103.334	20.169	3.951	0.459
171.000	152.561	80.007	19.994	103.331	20.170	3.863	0.455
171.500	152.836	80.007	19.994	103.331	20.171	3.795	0.511
172.000	153.054	80.008	19.994	103.332	20.170	3.903	0.523
172.500	153.280	80.007	19.994	103.335	20.167	4.070	0.469
173.000	153.512	80.008	19.995	103.336	20.166	4.120	0.451
173.500	153.741	80.007	19.995	103.335	20.169	3.945	0.459
174.000	153.984	80.007	19.994	103.332	20.173	3.687	0.466
174.500	154.204	80.007	19.994	103.332	20.170	3.863	0.468
175.000	154.474	80.006	19.994	103.331	20.172	3.721	0.477
175.500	154.650	80.005	19.993	103.336	20.170	3.877	0.468
176.000	154.948	80.006	19.994	103.343	20.171	3.818	0.460
176.500	155.158	80.006	19.995	103.351	20.167	4.093	0.491
177.000	155.392	80.005	19.995	103.356	20.169	3.974	0.476
177.500	155.637	80.004	19.994	103.358	20.164	4.276	0.462
178.000	155.881	80.005	19.995	103.356	20.166	4.137	0.484
178.500	156.125	80.004	19.996	103.349	20.169	3.938	0.488
179.000	156.374	80.004	19.994	103.342	20.172	3.751	0.491
179.500	156.584	80.004	19.994	103.341	20.167	4.048	0.476
180.000	156.847	80.005	19.993	103.342	20.169	3.936	0.466
180.500	157.088	80.004	19.994	103.339	20.169	3.936	0.489
181.000	157.326	80.004	19.995	103.342	20.167	4.093	0.492
181.500	157.583	80.004	19.994	103.348	20.168	4.032	0.487
182.000	157.833	80.004	19.994	103.351	20.168	4.037	0.501
182.500	158.075	80.003	19.994	103.354	20.169	3.924	0.499
183.000	158.292	80.003	19.994	103.355	20.169	3.956	0.475
183.500	158.558	80.004	19.993	103.354	20.167	4.057	0.471
184.000	158.808	80.005	19.994	103.348	20.166	4.159	0.500
184.500	159.037	80.004	19.993	103.342	20.171	3.838	0.497
185.000	159.274	80.004	19.995	103.336	20.168	4.033	0.473
185.500	159.528	80.005	19.994	103.335	20.169	3.933	0.479
186.000	159.739	80.003	19.995	103.336	20.167	4.042	0.477
186.500	159.977	80.005	19.994	103.342	20.169	3.952	0.457
187.000	160.252	80.005	19.994	103.347	20.166	4.157	0.481
187.500	160.492	80.004	19.993	103.348	20.172	3.742	0.514
188.000	160.740	80.005	19.994	103.346	20.170	3.850	0.501
188.500	160.940	80.004	19.993	103.343	20.169	3.916	0.468
189.000	161.234	80.003	19.994	103.338	20.169	3.943	0.471
189.500	161.477	80.005	19.993	103.332	20.167	4.047	0.516
190.000	161.736	80.004	19.993	103.333	20.169	3.942	0.520
190.500	162.029	80.004	19.994	103.337	20.165	4.186	0.527
191.000	162.227	80.005	19.994	103.340	20.166	4.110	0.521
191.500	162.439	80.004	19.994	103.343	20.167	4.078	0.451
192.000	162.728	80.004	19.994	103.343	20.167	4.057	0.456
192.500	162.939	80.005	19.993	103.341	20.167	4.107	0.501
193.000	163.185	80.004	19.994	103.338	20.166	4.132	0.479
193.500	163.462	80.005	19.994	103.341	20.164	4.256	0.490
194.000	163.671	80.004	19.994	103.340	20.164	4.259	0.504
194.500	163.922	80.005	19.994	103.342	20.167	4.087	0.473
195.000	164.170	80.004	19.994	103.342	20.165	4.223	0.479
195.500	164.449	80.004	19.993	103.341	20.166	4.142	0.513
196.000	164.657	80.005	19.995	103.336	20.164	4.279	0.507
196.500	164.938	80.003	19.994	103.334	20.170	3.880	0.488
197.000	165.208	80.006	19.995	103.331	20.167	4.067	0.519
197.500	165.416	80.004	19.994	103.331	20.161	4.480	0.515
198.000	165.686	80.004	19.994	103.331	20.168	3.984	0.479
198.500	165.914	80.004	19.993	103.332	20.166	4.151	0.488
199.000	166.226	80.004	19.994	103.332	20.162	4.388	0.519
199.500	166.438	80.005	19.994	103.332	20.165	4.205	0.532
200.000	166.718	80.004	19.995	103.333	20.166	4.119	0.508
200.500	166.907	80.005	19.994	103.333	20.167	4.071	0.481
201.000	167.176	80.004	19.994	103.333	20.167	4.062	0.463
201.500	167.428	80.006	19.995	103.334	20.167	4.053	0.489
202.000	167.679	80.005	19.995	103.337	20.162	4.404	0.512
202.500	167.924	80.003	19.995	103.337	20.164	4.266	0.499
203.000	168.166	80.004	19.994	103.337	20.163	4.327	0.491
203.500	168.412	80.002	19.995	103.336	20.165	4.200	0.487
204.000	168.670	80.003	19.995	103.335	20.165	4.189	0.496
204.500	168.891	80.002	19.994	103.332	20.165	4.198	0.492
205.000	169.170	80.004	19.994	103.332	20.165	4.205	0.490
205.500	169.406	80.004	19.994	103.331	20.163	4.354	0.507
206.000	169.677	80.005	19.994	103.332	20.164	4.266	0.511
206.500	169.924	80.004	19.995	103.332	20.163	4.351	0.512
207.000	170.169	80.005	19.995	103.331	20.164	4.239	0.505
207.500	170.368	80.004	19.996	103.331	20.165	4.221	0.468
208.000	170.650	80.003	19.995	103.331	20.167	4.101	0.462
208.500	170.877	80.004	19.995	103.330	20.166	4.158	0.495
209.000	171.167	80.003	19.994	103.330	20.166	4.121	0.513
209.500	171.394	80.004	19.996	103.329	20.164	4.261	0.517
210.000	171.612	80.006	19.996	103.329	20.164	4.273	0.481
210.500	171.869	80.003	19.996	103.329	20.161	4.460	0.460
211.000	172.126	80.005	19.996	103.330	20.165	4.214	0.494
211.500	172.364	80.003	19.995	103.330	20.161	4.469	0.504
212.000	172.618	80.003	19.995	103.330	20.163	4.320	0.494
212.500	172.874	80.005	19.996	103.329	20.162	4.429	0.501
213.000	173.128	80.004	19.994	103.329	20.162	4.377	0.510
213.500	173.353	80.002	19.994	103.327	20.162	4.393	0.494
214.000	173.640	80.005	19.994	103.328	20.162	4.399	0.495
214.500	173.865	80.005	19.995	103.327	20.161	4.444	0.512
215.000	174.154	80.002	19.995	103.327	20.161	4.442	0.513
215.500	174.376	80.003	19.994	103.328	20.164	4.280	0.513
216.000	174.605	80.004	19.995	103.328	20.164	4.273	0.481
216.500	174.828	80.004	19.995	103.327	20.163	4.320	0.451
217.000	175.138	80.003	19.995	103.328	20.164	4.302	0.493
217.500	175.367	80.006	19.995	103.328	20.162	4.392	0.536
218.000	175.620	80.006	19.995	103.328	20.160	4.559	0.511
218.500	175.858	80.005	19.994	103.328	20.164	4.255	0.486
219.000	176.159	80.005	19.994	103.326	20.161	4.476	0.514
219.500	176.371	80.005	19.994	103.327	20.161	4.469	0.526
220.000	176.586	80.005	19.995	103.326	20.163	4.361	0.470
220.500	176.876	80.005	19.995	103.327	20.161	4.467	0.466
221.000	177.155	80.006	19.995	103.327	20.164	4.287	0.537
221.500	177.363	80.006	19.995	103.328	20.164	4.296	0.528
222.000	177.587	80.006	19.995	103.327	20.160	4.565	0.460
222.500	177.880	80.005	19.995	103.325	20.162	4.393	0.475
223.000	178.109	80.006	19.994	103.325	20.159	4.576	0.519
223.500	178.359	80.007	19.996	103.324	20.159	4.608	0.500
224.000	178.612	80.006	19.995	103.323	20.158	4.641	0.491
224.500	178.851	80.005	19.995	103.324	20.158	4.698	0.497
225.000	179.076	80.004	19.994	103.325	20.158	4.654	0.478
225.500	179.367	80.006	19.994	103.324	20.159	4.616	0.490
226.000	179.621	80.006	19.994	103.324	20.158	4.657	0.530
226.500	179.845	80.006	19.994	103.325	20.154	4.966	0.512
227.000	180.100	80.005	19.995	103.324	20.153	4.977	0.479
227.500	180.354	80.006	19.994	103.325	20.155	4.880	0.494
228.000	180.606	80.006	19.995	103.325	20.155	4.891	0.507
228.500	180.856	80.007	19.994	103.326	20.155	4.873	0.504
229.000	181.124	80.005	19.995	103.325	20.156	4.793	0.510
229.500	181.373	80.006	19.994	103.325	20.155	4.863	0.518
230.000	181.625	80.006	19.995	103.324	20.150	5.204	0.509
230.500	181.893	80.004	19.995	103.322	20.154	4.906	0.510
231.000	182.107	80.004	19.996	103.322	20.154	4.919	0.501
231.500	182.386	80.005	19.995	103.323	20.155	4.863	0.487
232.000	182.580	80.005	19.996	103.322	20.151	5.106	0.483
232.500	182.850	80.004	19.995	103.318	20.155	4.862	0.469
233.000	183.105	80.005	19.995	103.315	20.152	5.077	0.494
233.500	183.366	80.004	19.995	103.313	20.153	5.023	0.520
234.000	183.624	80.005	19.996	103.312	20.153	5.030	0.518
234.500	183.874	80.005	19.995	103.313	20.151	5.118	0.514
235.000	184.139	80.005	19.996	103.318	20.153	5.021	0.512
235.500	184.353	80.005	19.995	103.322	20.157	4.757	0.496
236.000	184.585	80.004	19.995	103.323	20.151	5.104	0.462
236.500	184.837	80.004	19.995	103.324	20.150	5.226	0.465
237.000	185.101	80.005	19.995	103.325	20.149	5.269	0.501
237.500	185.341	80.004	19.996	103.324	20.147	5.382	0.510
238.000	185.601	80.004	19.996	103.324	20.150	5.222	0.502
238.500	185.835	80.005	19.996	103.325	20.148	5.334	0.497
239.000	186.117	80.004	19.996	103.324	20.148	5.355	0.505
239.500	186.367	80.004	19.996	103.323	20.146	5.491	0.524
240.000	186.625	80.005	19.995	103.318	20.147	5.375	0.520
240.500	186.867	80.004	19.995	103.315	20.148	5.319	0.504
241.000	187.164	80.004	19.995	103.313	20.151	5.158	0.520
241.500	187.370	80.004	19.995	103.314	20.151	5.132	0.521
242.000	187.639	80.006	19.995	103.315	20.151	5.105	0.489
242.500	187.874	80.005	19.995	103.320	20.152	5.057	0.489
243.000	188.127	80.006	19.995	103.323	20.153	4.974	0.496
243.500	188.341	80.005	19.996	103.323	20.150	5.227	0.477
244.000	188.635	80.005	19.994	103.319	20.149	5.271	0.488
244.500	188.854	80.005	19.994	103.318	20.149	5.237	0.511
245.000	189.101	80.006	19.994	103.316	20.147	5.369	0.489
245.500	189.380	80.006	19.994	103.316	20.151	5.114	0.496
246.000	189.630	80.006	19.994	103.314	20.149	5.265	0.527
246.500	189.828	80.006	19.994	103.316	20.148	5.351	0.488
247.000	190.086	80.006	19.994	103.313	20.147	5.416	0.452
247.500	190.339	80.007	19.994	103.315	20.149	5.267	0.484
248.000	190.619	80.006	19.993	103.317	20.150	5.217	0.522
248.500	190.871	80.007	19.993	103.320	20.147	5.405	0.532
249.000	191.125	80.007	19.994	103.318	20.145	5.552	0.518
249.500	191.359	80.006	19.993	103.323	20.145	5.497	0.497
250.000	191.602	80.007	19.994	103.320	20.148	5.339	0.483
250.500	191.886	80.007	19.994	103.318	20.142	5.741	0.502
251.000	192.105	80.007	19.994	103.316	20.145	5.504	0.515
251.500	192.345	80.007	19.993	103.318	20.143	5.671	0.481
252.000	192.584	80.005	19.993	103.317	20.144	5.620	0.469
252.500	192.849	80.007	19.994	103.314	20.144	5.621	0.492
253.000	193.087	80.006	19.993	103.313	20.142	5.728	0.503
253.500	193.333	80.008	19.994	103.314	20.139	5.943	0.494
254.000	193.576	80.007	19.993	103.313	20.138	5.972	0.486
254.500	193.850	80.007	19.994	103.314	20.136	6.112	0.502
255.000	194.128	80.006	19.994	103.319	20.136	6.092	0.535
255.500	194.361	80.005	19.994	103.316	20.140	5.890	0.532
256.000	194.613	80.007	19.994	103.314	20.135	6.164	0.498
256.500	194.854	80.005	19.993	103.315	20.138	5.979	0.488
257.000	195.086	80.007	19.994	103.314	20.135	6.207	0.483
257.500	195.315	80.006	19.994	103.312	20.135	6.182	0.468
258.000	195.587	80.005	19.994	103.312	20.132	6.385	0.481
258.500	195.814	80.003	19.993	103.313	20.136	6.109	0.500
259.000	196.085	80.004	19.994	103.312	20.131	6.452	0.498
259.500	196.346	80.004	19.994	103.313	20.136	6.150	0.515
260.000	196.609	80.004	19.994	103.313	20.136	6.104	0.528
260.500	196.825	80.004	19.994	103.315	20.133	6.307	0.502
261.000	197.084	80.003	19.993	103.314	20.133	6.301	0.477
261.500	197.300	80.004	19.995	103.313	20.132	6.389	0.475
262.000	197.569	80.003	19.994	103.312	20.129	6.558	0.480
262.500	197.795	80.005	19.995	103.312	20.126	6.755	0.490
263.000	198.046	80.003	19.995	103.313	20.131	6.430	0.486
263.500	198.319	80.004	19.994	103.315	20.128	6.653	0.501
264.000	198.521	80.004	19.995	103.313	20.125	6.832	0.499
264.500	198.801	80.004	19.995	103.313	20.128	6.649	0.478
265.000	199.018	80.004	19.995	103.311	20.124	6.919	0.489
265.500	199.291	80.004	19.994	103.311	20.125	6.833	0.494
266.000	199.536	80.005	19.994	103.311	20.125	6.831	0.504
266.500	199.793	80.003	19.994	103.312	20.125	6.831	0.510
267.000	200.017	80.003	19.994	103.310	20.122	7.061	0.492
267.500	200.234	80.003	19.994	103.312	20.123	6.995	0.461
268.000	200.488	80.003	19.994	103.315	20.119	7.242	0.456
268.500	200.773	80.004	19.994	103.316	20.122	7.057	0.505
269.000	201.034	80.003	19.993	103.318	20.119	7.250	0.542
269.500	201.233	80.003	19.995	103.322	20.116	7.481	0.503
270.000	201.512	80.003	19.995	103.325	20.119	7.233	0.469
270.500	201.740	80.004	19.995	103.324	20.115	7.532	0.493
271.000	202.022	80.003	19.995	103.326	20.117	7.408	0.509
271.500	202.266	80.003	19.994	103.325	20.114	7.598	0.518
272.000	202.501	80.004	19.994	103.326	20.114	7.598	0.502
272.500	202.742	80.004	19.995	103.325	20.112	7.703	0.477
273.000	202.938	80.005	19.995	103.325	20.116	7.461	0.457
273.500	203.226	80.004	19.994	103.323	20.113	7.617	0.460
274.000	203.463	80.005	19.994	103.322	20.114	7.606	0.504
274.500	203.767	80.005	19.995	103.318	20.114	7.608	0.533
275.000	203.967	80.006	19.995	103.315	20.107	8.034	0.522
275.500	204.161	80.006	19.995	103.315	20.109	7.898	0.449
276.000	204.478	80.006	19.994	103.309	20.111	7.761	0.453
276.500	204.714	80.004	19.994	103.306	20.109	7.893	0.532
277.000	204.942	80.005	19.994	103.309	20.111	7.784	0.509
277.500	205.216	80.005	19.995	103.308	20.108	8.006	0.483
278.000	205.423	80.004	19.994	103.308	20.105	8.176	0.491
278.500	205.708	80.005	19.995	103.309	20.106	8.121	0.486
279.000	205.946	80.005	19.994	103.307	20.109	7.920	0.508
279.500	206.222	80.005	19.994	103.306	20.105	8.171	0.519
280.000	206.449	80.005	19.994	103.308	20.101	8.443	0.509
280.500	206.683	80.005	19.994	103.306	20.103	8.281	0.482
281.000	206.928	80.004	19.994	103.310	20.101	8.472	0.470
281.500	207.166	80.004	19.994	103.314	20.103	8.334	0.481
282.000	207.428	80.004	19.993	103.312	20.097	8.695	0.491
282.500	207.676	80.005	19.994	103.311	20.099	8.606	0.505
283.000	207.927	80.005	19.995	103.308	20.098	8.648	0.504
283.500	208.182	80.006	19.994	103.305	20.098	8.648	0.502
284.000	208.431	80.005	19.994	103.304	20.096	8.769	0.505
284.500	208.683	80.005	19.994	103.307	20.098	8.622	0.503
285.000	208.850	80.006	19.994	103.306	20.096	8.780	0.460
285.500	209.132	80.006	19.994	103.307	20.092	9.048	0.434
286.000	209.378	80.006	19.994	103.309	20.095	8.850	0.488
286.500	209.619	80.005	19.994	103.312	20.093	8.947	0.507
287.000	209.895	80.005	19.994	103.308	20.093	8.940	0.502
287.500	210.138	80.005	19.995	103.306	20.090	9.171	0.518
288.000	210.391	80.004	19.995	103.306	20.093	8.986	0.508
288.500	210.640	80.005	19.994	103.302	20.093	8.992	0.499
289.000	210.891	80.005	19.993	103.298	20.092	9.053	0.501
289.500	211.138	80.004	19.994	103.301	20.092	9.035	0.499
290.000	211.404	80.004	19.995	103.304	20.091	9.130	0.506
290.500	211.648	80.006	19.995	103.303	20.091	9.125	0.511
291.000	211.868	80.004	19.994	103.306	20.088	9.327	0.487
291.500	212.130	80.004	19.995	103.306	20.089	9.214	0.473
292.000	212.377	80.004	19.995	103.309	20.086	9.423	0.496
292.500	212.650	80.004	19.994	103.313	20.087	9.387	0.514
293.000	212.910	80.004	19.995	103.318	20.086	9.412	0.526
293.500	213.174	80.004	19.994	103.323	20.085	9.502	0.528
294.000	213.380	80.005	19.995	103.321	20.082	9.672	0.497
294.500	213.633	80.004	19.993	103.314	20.081	9.739	0.465
295.000	213.859	80.004	19.995	103.308	20.081	9.769	0.469
295.500	214.158	80.003	19.994	103.307	20.087	9.391	0.502
296.000	214.414	80.004	19.994	103.306	20.083	9.639	0.540
296.500	214.659	80.003	19.995	103.310	20.078	9.994	0.528
297.000	214.913	80.004	19.995	103.309	20.074	10.197	0.500
297.500	215.135	80.005	19.995	103.309	20.076	10.112	0.488
298.000	215.369	80.004	19.994	103.306	20.076	10.102	0.466
298.500	215.648	80.005	19.995	103.302	20.073	10.290	0.485
299.000	215.918	80.003	19.995	103.300	20.070	10.470	0.531
299.500	216.140	80.004	19.994	103.304	20.071	10.418	0.520
300.000	216.383	80.005	19.996	103.307	20.073	10.314	0.478
300.500	216.632	80.005	19.995	103.306	20.067	10.660	0.478
301.000	216.890	80.004	19.995	103.308	20.072	10.339	0.499
301.500	217.180	80.005	19.995	103.308	20.069	10.577	0.528
302.000	217.387	80.006	19.994	103.307	20.069	10.550	0.523
302.500	217.691	80.005	19.995	103.307	20.067	10.680	0.504
303.000	217.904	80.006	19.995	103.308	20.065	10.829	0.514
303.500	218.166	80.006	19.995	103.310	20.068	10.605	0.496
304.000	218.399	80.006	19.995	103.310	20.064	10.879	0.485
304.500	218.657	80.006	19.995	103.309	20.066	10.727	0.493
305.000	218.934	80.005	19.994	103.307	20.065	10.856	0.512
305.500	219.188	80.005	19.995	103.310	20.061	11.098	0.533
306.000	219.434	80.006	19.995	103.305	20.061	11.064	0.516
306.500	219.694	80.007	19.994	103.300	20.058	11.277	0.503
307.000	219.941	80.007	19.995	103.305	20.059	11.190	0.506
307.500	220.198	80.007	19.995	103.303	20.057	11.373	0.505
308.000	220.401	80.007	19.994	103.297	20.057	11.357	0.482
308.500	220.655	80.007	19.994	103.297	20.055	11.501	0.458
309.000	220.898	80.005	19.994	103.301	20.054	11.557	0.477
309.500	221.145	80.007	19.995	103.299	20.055	11.502	0.493
310.000	221.386	80.004	19.995	103.306	20.052	11.691	0.489
310.500	221.652	80.006	19.995	103.308	20.050	11.849	0.497
311.000	221.893	80.008	19.993	103.308	20.046	12.067	0.507
311.500	222.160	80.004	19.994	103.306	20.048	11.925	0.508
312.000	222.396	80.006	19.994	103.303	20.047	11.982	0.506
312.500	222.615	80.005	19.993	103.297	20.049	11.851	0.479
313.000	222.898	80.005	19.994	103.300	20.045	12.124	0.478
313.500	223.146	80.005	19.994	103.300	20.045	12.165	0.516
314.000	223.366	80.006	19.995	103.303	20.046	12.055	0.500
314.500	223.670	80.006	19.993	103.303	20.044	12.235	0.497
315.000	223.908	80.006	19.995	103.304	20.042	12.323	0.533
315.500	224.150	80.006	19.994	103.305	20.043	12.255	0.511
316.000	224.340	80.005	19.995	103.306	20.043	12.297	0.456
316.500	224.637	80.005	19.994	103.303	20.041	12.421	0.459
317.000	224.866	80.005	19.993	103.301	20.042	12.336	0.506
317.500	225.167	80.006	19.994	103.300	20.038	12.584	0.528
318.000	225.351	80.006	19.994	103.295	20.035	12.797	0.507
318.500	225.631	80.005	19.995	103.293	20.037	12.693	0.474
319.000	225.869	80.005	19.995	103.294	20.033	12.928	0.491
319.500	226.135	80.004	19.994	103.300	20.036	12.713	0.511
320.000	226.365	80.005	19.995	103.304	20.032	12.980	0.500
320.500	226.603	80.005	19.994	103.307	20.033	12.910	0.482
321.000	226.911	80.005	19.994	103.309	20.033	12.965	0.507
321.500	227.112	80.005	19.994	103.308	20.031	13.078	0.527
322.000	227.350	80.007	19.995	103.301	20.030	13.137	0.474
322.500	227.632	80.005	19.995	103.298	20.028	13.238	0.480
323.000	227.870	80.005	19.994	103.297	20.028	13.276	0.520
323.500	228.151	80.006	19.995	103.295	20.030	13.153	0.519
324.000	228.382	80.005	19.994	103.297	20.026	13.402	0.516
324.500	228.672	80.005	19.995	103.299	20.029	13.230	0.517
325.000	228.894	80.003	19.993	103.297	20.026	13.427	0.516
325.500	229.174	80.005	19.995	103.298	20.022	13.653	0.507
326.000	229.400	80.005	19.994	103.299	20.022	13.638	0.504
326.500	229.621	80.004	19.995	103.297	20.019	13.879	0.477
327.000	229.919	80.006	19.994	103.295	20.018	13.902	0.483
327.500	230.171	80.005	19.995	103.294	20.018	13.935	0.534
328.000	230.387	80.006	19.994	103.290	20.015	14.120	0.509
328.500	230.639	80.005	19.994	103.289	20.020	13.793	0.469
329.000	230.935	80.005	19.994	103.288	20.015	14.139	0.508
329.500	231.140	80.006	19.996	103.288	20.011	14.390	0.524
330.000	231.410	80.007	19.996	103.289	20.013	14.248	0.488
330.500	231.667	80.006	19.995	103.289	20.014	14.226	0.501
331.000	231.907	80.006	19.995	103.289	20.006	14.714	0.512
331.500	232.131	80.006	19.995	103.285	20.011	14.390	0.481
332.000	232.384	80.006	19.995	103.283	20.009	14.549	0.471
332.500	232.615	80.006	19.995	103.283	20.007	14.682	0.480
333.000	232.898	80.007	19.995	103.283	20.008	14.578	0.498
333.500	233.156	80.005	19.995	103.284	20.005	14.824	0.527
334.000	233.365	80.007	19.995	103.287	20.003	14.905	0.504
334.500	233.619	80.006	19.995	103.289	20.001	15.054	0.465
335.000	233.848	80.007	19.995	103.289	20.005	14.778	0.473
335.500	234.127	80.007	19.995	103.288	20.001	15.067	0.496
336.000	234.363	80.007	19.996	103.287	20.004	14.877	0.511
336.500	234.605	80.007	19.996	103.286	20.000	15.096	0.496
337.000	234.850	80.007	19.995	103.285	19.999	15.209	0.482
337.500	235.130	80.007	19.994	103.286	20.002	15.023	0.506
338.000	235.365	80.007	19.994	103.287	19.998	15.270	0.520
338.500	235.581	80.007	19.996	103.288	19.996	15.407	0.483
339.000	235.844	80.006	19.994	103.290	19.993	15.600	0.465
339.500	236.061	80.007	19.994	103.290	19.993	15.604	0.479
340.000	236.316	80.005	19.994	103.289	19.991	15.702	0.476
340.500	236.559	80.006	19.994	103.287	19.992	15.681	0.485
341.000	236.790	80.006	19.994	103.286	19.987	15.951	0.486
341.500	237.026	80.005	19.995	103.284	19.989	15.822	0.470
342.000	237.268	80.004	19.994	103.284	19.988	15.946	0.472
342.500	237.509	80.005	19.994	103.283	19.985	16.109	0.481
343.000	237.735	80.005	19.994	103.283	19.982	16.285	0.476
343.500	238.029	80.005	19.995	103.284	19.987	16.011	0.494
344.000	238.240	80.004	19.995	103.286	19.988	15.948	0.512
344.500	238.494	80.006	19.994	103.287	19.986	16.018	0.485
345.000	238.743	80.005	19.994	103.288	19.982	16.298	0.484
345.500	238.997	80.005	19.995	103.288	19.983	16.225	0.503
346.000	239.193	80.005	19.995	103.288	19.976	16.699	0.477
346.500	239.438	80.005	19.995	103.289	19.979	16.509	0.445
347.000	239.643	80.006	19.995	103.290	19.977	16.625	0.445
347.500	239.948	80.005	19.995	103.290	19.978	16.571	0.480
348.000	240.150	80.005	19.994	103.293	19.976	16.700	0.509
348.500	240.446	80.005	19.994	103.294	19.974	16.824	0.502
349.000	240.693	80.006	19.995	103.293	19.972	17.001	0.520
349.500	240.917	80.005	19.995	103.295	19.975	16.766	0.507
350.000	241.166	80.005	19.994	103.294	19.972	16.954	0.472
350.500	241.398	80.005	19.994	103.291	19.972	16.951	0.477
351.000	241.644	80.006	19.995	103.291	19.970	17.111	0.480
351.500	241.873	80.005	19.994	103.290	19.969	17.182	0.477
352.000	242.162	80.006	19.995	103.288	19.971	17.055	0.497
352.500	242.363	80.007	19.994	103.288	19.971	17.046	0.504
353.000	242.614	80.005	19.994	103.289	19.970	17.089	0.471
353.500	242.891	80.005	19.994	103.288	19.967	17.321	0.490
354.000	243.112	80.005	19.994	103.289	19.966	17.376	0.513
354.500	243.391	80.005	19.994	103.290	19.967	17.324	0.499
355.000	243.621	80.004	19.995	103.290	19.967	17.330	0.504
355.500	243.873	80.006	19.996	103.292	19.963	17.558	0.495
356.000	244.114	80.004	19.995	103.294	19.964	17.487	0.487
356.500	244.364	80.006	19.994	103.295	19.961	17.728	0.492
357.000	244.615	80.004	19.994	103.295	19.963	17.566	0.496
357.500	244.855	80.005	19.995	103.296	19.959	17.826	0.497
358.000	245.103	80.005	19.994	103.294	19.965	17.442	0.490
358.500	245.377	80.005	19.995	103.292	19.961	17.674	0.504
359.000	245.640	80.005	19.994	103.291	19.957	17.988	0.530
359.500	245.898	80.006	19.996	103.291	19.960	17.793	0.529
360.000	246.137	80.006	19.994	103.289	19.956	18.004	0.508
360.500	246.366	80.006	19.994	103.289	19.960	17.799	0.482
361.000	246.647	80.005	19.995	103.290	19.959	17.868	0.489
361.500	246.893	80.006	19.995	103.290	19.961	17.692	0.519
362.000	247.094	80.004	19.995	103.291	19.957	17.978	0.487
362.500	247.361	80.006	19.994	103.291	19.952	18.288	0.458
363.000	247.619	80.005	19.994	103.291	19.954	18.197	0.496
363.500	247.865	80.006	19.996	103.290	19.957	17.955	0.514
364.000	248.088	80.007	19.995	103.290	19.960	17.803	0.487
364.500	248.381	80.007	19.996	103.291	19.956	18.020	0.492
365.000	248.605	80.005	19.993	103.292	19.955	18.122	0.516
365.500	248.872	80.005	19.994	103.292	19.952	18.319	0.504
366.000	249.122	80.004	19.994	103.294	19.955	18.110	0.504
366.500	249.417	80.004	19.994	103.293	19.952	18.315	0.531
367.000	249.653	80.005	19.994	103.291	19.957	18.001	0.538
367.500	249.893	80.006	19.995	103.292	19.951	18.340	0.503
368.000	250.145	80.005	19.994	103.297	19.950	18.410	0.484
368.500	250.407	80.004	19.995	103.299	19.950	18.436	0.503
369.000	250.664	80.006	19.994	103.301	19.950	18.414	0.516
369.500	250.935	80.006	19.995	103.302	19.953	18.248	0.523
370.000	251.167	80.004	19.994	103.300	19.950	18.441	0.515
370.500	251.411	80.004	19.994	103.296	19.955	18.113	0.490
371.000	251.659	80.005	19.995	103.292	19.953	18.262	0.485
371.500	251.917	80.005	19.994	103.290	19.958	17.885	0.499
372.000	252.160	80.005	19.996	103.290	19.953	18.208	0.504
372.500	252.408	80.005	19.994	103.291	19.955	18.132	0.496
373.000	252.653	80.005	19.993	103.294	19.958	17.903	0.492
373.500	252.908	80.004	19.994	103.296	19.958	17.929	0.497
374.000	253.158	80.004	19.994	103.299	19.953	18.230	0.503
374.500	253.458	80.004	19.994	103.299	19.958	17.918	0.527
375.000	253.699	80.004	19.994	103.300	19.957	17.988	0.545
375.500	253.918	80.003	19.995	103.298	19.953	18.230	0.500
376.000	254.177	80.004	19.994	103.297	19.958	17.873	0.469
376.500	254.440	80.003	19.995	103.295	19.958	17.913	0.500
377.000	254.662	80.004	19.993	103.293	19.959	17.827	0.504
377.500	254.913	80.005	19.994	103.293	19.958	17.874	0.479
378.000	255.203	80.005	19.994	103.293	19.959	17.866	0.507
378.500	255.452	80.005	19.994	103.296	19.960	17.776	0.540
379.000	255.718	80.005	19.993	103.296	19.966	17.406	0.527
379.500	255.982	80.005	19.995	103.297	19.961	17.700	0.522
380.000	256.202	80.004	19.993	103.297	19.965	17.460	0.507
380.500	256.469	80.004	19.994	103.298	19.964	17.498	0.486
381.000	256.712	80.005	19.994	103.298	19.964	17.481	0.499
381.500	256.954	80.005	19.994	103.301	19.969	17.198	0.497
382.000	257.217	80.005	19.994	103.306	19.970	17.121	0.495
382.500	257.466	80.005	19.995	103.307	19.967	17.282	0.509
383.000	257.737	80.007	19.995	103.308	19.969	17.182	0.516
383.500	257.973	80.005	19.994	103.306	19.971	17.058	0.514
384.000	258.267	80.006	19.995	103.305	19.976	16.711	0.519
384.500	258.508	80.007	19.995	103.302	19.970	17.143	0.532
385.000	258.729	80.007	19.994	103.302	19.978	16.582	0.498
385.500	259.023	80.006	19.995	103.301	19.977	16.671	0.489
386.000	259.222	80.007	19.994	103.302	19.978	16.561	0.504
386.500	259.465	80.006	19.994	103.300	19.979	16.531	0.468
387.000	259.757	80.007	19.994	103.300	19.978	16.561	0.489
387.500	260.030	80.006	19.994	103.304	19.980	16.471	0.550
388.000	260.263	80.006	19.993	103.305	19.986	16.060	0.536
388.500	260.536	80.006	19.995	103.304	19.985	16.137	0.506
389.000	260.758	80.006	19.993	103.301	19.991	15.739	0.500
389.500	261.012	80.006	19.995	103.299	19.986	16.066	0.485
390.000	261.227	80.006	19.993	103.295	19.988	15.890	0.473
390.500	261.539	80.007	19.994	103.297	19.993	15.606	0.498
391.000	261.743	80.006	19.994	103.297	19.994	15.532	0.521
391.500	262.011	80.007	19.994	103.301	19.993	15.599	0.493
392.000	262.292	80.008	19.994	103.307	19.994	15.503	0.510
392.500	262.549	80.006	19.994	103.309	19.997	15.312	0.543
393.000	262.773	80.008	19.995	103.308	20.000	15.141	0.510
393.500	263.032	80.006	19.994	103.310	20.003	14.907	0.482
394.000	263.293	80.007	19.995	103.310	20.000	15.128	0.502
394.500	263.508	80.006	19.995	103.309	20.008	14.589	0.498
395.000	263.792	80.005	19.995	103.308	20.011	14.406	0.487
395.500	264.089	80.005	19.995	103.312	20.011	14.413	0.540
396.000	264.290	80.006	19.995	103.318	20.013	14.254	0.540
396.500	264.643	80.005	19.994	103.322	20.024	13.543	0.526
397.000	264.832	80.006	19.995	103.322	20.014	14.200	0.548
397.500	265.042	80.006	19.994	103.321	20.022	13.643	0.470
398.000	265.319	80.006	19.995	103.320	20.017	14.004	0.443
398.500	265.576	80.005	19.994	103.316	20.026	13.391	0.510
399.000	265.839	80.005	19.995	103.316	20.021	13.726	0.527
399.500	266.117	80.006	19.995	103.318	20.028	13.294	0.531
400.000	266.360	80.006	19.994	103.318	20.027	13.357	0.531
400.500	266.576	80.006	19.996	103.320	20.031	13.098	0.490
401.000	266.908	80.006	19.994	103.321	20.033	12.971	0.504
401.500	267.127	80.006	19.995	103.319	20.035	12.789	0.549
402.000	267.279	80.007	19.995	103.315	20.038	12.587	0.461
402.500	267.640	80.005	19.994	103.317	20.040	12.457	0.442
403.000	267.896	80.006	19.996	103.318	20.040	12.511	0.565
403.500	268.102	80.006	19.994	103.320	20.044	12.203	0.539
404.000	268.395	80.006	19.993	103.320	20.047	11.995	0.480
404.500	268.545	80.005	19.995	103.323	20.049	11.914	0.471
405.000	268.858	80.006	19.995	103.325	20.050	11.828	0.453
405.500	269.192	80.007	19.994	103.325	20.056	11.418	0.555
406.000	269.339	80.005	19.994	103.324	20.055	11.460	0.564
406.500	269.599	80.007	19.994	103.325	20.059	11.242	0.444
407.000	269.895	80.007	19.994	103.325	20.061	11.120	0.482
407.500	270.225	80.006	19.994	103.325	20.058	11.271	0.591
408.000	270.265	80.007	19.995	103.325	20.064	10.914	0.498
408.500	270.864	80.006	19.994	103.325	20.064	10.867	0.504
409.000	270.876	80.008	19.994	103.325	20.071	10.411	0.624
409.500	271.139	80.006	19.994	103.326	20.069	10.565	0.443
410.000	271.504	80.007	19.995	103.326	20.076	10.119	0.452
410.500	271.763	80.007	19.996	103.326	20.074	10.254	0.627
411.000	272.076	80.008	19.994	103.327	20.080	9.820	0.598
411.500	272.264	80.007	19.994	103.327	20.083	9.654	0.536
412.000	272.541	80.008	19.996	103.327	20.081	9.738	0.483
412.500	272.813	80.009	19.994	103.327	20.082	9.706	0.507
413.000	272.983	80.007	19.994	103.327	20.088	9.326	0.495
413.500	273.245	80.009	19.994	103.326	20.091	9.130	0.437
414.000	273.498	80.007	19.994	103.327	20.087	9.396	0.474
414.500	273.829	80.007	19.994	103.330	20.090	9.154	0.549
415.000	274.031	80.008	19.994	103.332	20.095	8.874	0.558
415.500	274.295	80.007	19.995	103.333	20.093	8.964	0.499
416.000	274.498	80.008	19.994	103.336	20.092	9.024	0.467
416.500	274.708	80.007	19.994	103.338	20.102	8.359	0.440
417.000	275.011	80.008	19.993	103.336	20.098	8.623	0.463
417.500	275.260	80.007	19.994	103.338	20.102	8.408	0.533
418.000	275.520	80.008	19.995	103.340	20.100	8.485	0.530
418.500	275.775	80.006	19.995	103.340	20.101	8.415	0.512
419.000	276.032	80.006	19.994	103.342	20.105	8.158	0.514
419.500	276.291	80.008	19.995	103.342	20.108	7.993	0.514
420.000	276.522	80.007	19.995	103.338	20.114	7.616	0.503
420.500	276.788	80.007	19.996	103.342	20.114	7.605	0.494
421.000	276.988	80.006	19.995	103.346	20.110	7.848	0.482
421.500	277.283	80.005	19.995	103.348	20.113	7.645	0.481
422.000	277.488	80.006	19.996	103.354	20.112	7.693	0.497
422.500	277.748	80.005	19.995	103.360	20.117	7.399	0.483
423.000	278.078	80.005	19.995	103.360	20.117	7.401	0.528
423.500	278.269	80.005	19.996	103.361	20.115	7.509	0.555
424.000	278.525	80.004	19.996	103.357	20.118	7.299	0.483
424.500	278.803	80.004	19.995	103.351	20.121	7.114	0.490
425.000	279.056	80.005	19.996	103.350	20.126	6.801	0.533
425.500	279.295	80.005	19.995	103.351	20.118	7.347	0.512
426.000	279.539	80.005	19.996	103.352	20.125	6.889	0.487
426.500	279.789	80.004	19.996	103.357	20.123	7.017	0.488
427.000	280.054	80.005	19.996	103.363	20.127	6.702	0.504
427.500	280.279	80.006	19.996	103.364	20.129	6.593	0.503
428.000	280.570	80.003	19.995	103.365	20.126	6.788	0.503
428.500	280.793	80.006	19.995	103.365	20.125	6.840	0.515
429.000	281.051	80.004	19.996	103.365	20.126	6.785	0.497
429.500	281.299	80.006	19.995	103.364	20.126	6.819	0.494
430.000	281.514	80.005	19.995	103.364	20.126	6.802	0.484
430.500	281.784	80.005	19.995	103.364	20.132	6.379	0.474
431.000	282.069	80.005	19.995	103.364	20.128	6.657	0.521
431.500	282.285	80.006	19.996	103.364	20.131	6.433	0.528
432.000	282.559	80.005	19.995	103.364	20.134	6.276	0.495
432.500	282.818	80.004	19.995	103.364	20.135	6.179	0.511
433.000	283.061	80.006	19.995	103.364	20.135	6.165	0.517
433.500	283.302	80.005	19.995	103.365	20.135	6.200	0.493
434.000	283.588	80.006	19.996	103.367	20.135	6.162	0.506
434.500	283.821	80.006	19.995	103.367	20.134	6.248	0.523
435.000	284.070	80.005	19.994	103.367	20.133	6.307	0.501
435.500	284.322	80.005	19.995	103.367	20.138	6.004	0.492
436.000	284.576	80.006	19.993	103.367	20.137	6.063	0.503
436.500	284.814	80.005	19.995	103.365	20.140	5.887	0.499
437.000	285.059	80.005	19.994	103.366	20.139	5.944	0.488
437.500	285.331	80.005	19.994	103.366	20.138	5.960	0.500
438.000	285.528	80.004	19.995	103.366	20.143	5.655	0.493
438.500	285.807	80.006	19.995	103.365	20.148	5.329	0.473
439.000	286.033	80.005	19.995	103.364	20.140	5.847	0.490
439.500	286.270	80.005	19.994	103.362	20.144	5.589	0.484
440.000	286.547	80.006	19.994	103.361	20.148	5.357	0.489
440.500	286.812	80.005	19.994	103.360	20.146	5.447	0.528
441.000	287.038	80.006	19.994	103.359	20.143	5.673	0.517
441.500	287.322	80.004	19.995	103.359	20.144	5.585	0.501
442.000	287.557	80.005	19.994	103.360	20.147	5.370	0.514
442.500	287.798	80.006	19.994	103.360	20.149	5.253	0.497
443.000	288.012	80.006	19.994	103.356	20.149	5.283	0.466
443.500	288.300	80.006	19.994	103.354	20.154	4.961	0.479
444.000	288.526	80.005	19.994	103.349	20.151	5.121	0.508
444.500	288.808	80.006	19.994	103.343	20.153	5.031	0.511
445.000	289.051	80.006	19.994	103.338	20.150	5.185	0.517
445.500	289.303	80.006	19.995	103.336	20.151	5.103	0.510
446.000	289.528	80.006	19.993	103.333	20.151	5.153	0.486
446.500	289.783	80.006	19.993	103.330	20.155	4.837	0.478
447.000	290.043	80.004	19.994	103.328	20.159	4.622	0.498
447.500	290.258	80.006	19.994	103.326	20.150	5.167	0.495
448.000	290.514	80.005	19.993	103.326	20.152	5.034	0.473
448.500	290.752	80.005	19.994	103.326	20.154	4.901	0.483
449.000	291.024	80.005	19.994	103.327	20.154	4.899	0.502
449.500	291.291	80.006	19.994	103.328	20.157	4.738	0.524
450.000	291.539	80.006	19.994	103.329	20.153	4.980	0.527
450.500	291.830	80.005	19.994	103.328	20.160	4.540	0.527
451.000	292.044	80.005	19.994	103.327	20.155	4.841	0.522
451.500	292.299	80.005	19.994	103.327	20.154	4.900	0.487
452.000	292.564	80.006	19.994	103.328	20.157	4.703	0.494
452.500	292.801	80.006	19.995	103.327	20.163	4.330	0.511
453.000	292.992	80.006	19.994	103.326	20.157	4.703	0.465
453.500	293.262	80.006	19.995	103.319	20.162	4.388	0.444
454.000	293.531	80.006	19.995	103.312	20.158	4.644	0.500
454.500	293.759	80.005	19.995	103.304	20.161	4.446	0.518
455.000	294.009	80.003	19.993	103.298	20.157	4.766	0.487
455.500	294.294	80.005	19.995	103.293	20.162	4.403	0.506
456.000	294.521	80.004	19.995	103.293	20.163	4.322	0.524
456.500	294.758	80.004	19.994	103.293	20.164	4.286	0.488
457.000	295.013	80.005	19.994	103.293	20.159	4.609	0.477
457.500	295.256	80.003	19.994	103.293	20.164	4.274	0.495
458.000	295.506	80.003	19.995	103.294	20.168	4.035	0.496
458.500	295.739	80.003	19.994	103.289	20.164	4.268	0.488
459.000	296.007	80.005	19.995	103.287	20.164	4.283	0.492
459.500	296.247	80.004	19.995	103.286	20.162	4.416	0.505
460.000	296.514	80.004	19.995	103.284	20.164	4.249	0.508
460.500	296.750	80.005	19.994	103.277	20.165	4.207	0.505
461.000	296.981	80.004	19.994	103.273	20.168	3.974	0.485
461.500	297.215	80.004	19.995	103.274	20.167	4.064	0.467
462.000	297.462	80.004	19.994	103.270	20.163	4.331	0.474
462.500	297.736	80.004	19.994	103.267	20.167	4.082	0.501
463.000	297.984	80.005	19.995	103.270	20.166	4.109	0.521
463.500	298.192	80.004	19.994	103.275	20.168	4.001	0.489
464.000	298.459	80.004	19.994	103.273	20.169	3.928	0.465
464.500	298.675	80.005	19.995	103.270	20.168	4.035	0.479
465.000	298.927	80.005	19.995	103.268	20.170	3.843	0.476
465.500	299.182	80.005	19.995	103.264	20.171	3.822	0.487
466.000	299.412	80.004	19.994	103.258	20.168	4.021	0.496
466.500	299.650	80.007	19.995	103.254	20.172	3.739	0.477
467.000	299.873	80.005	19.995	103.252	20.170	3.870	0.464
467.500	300.095	80.007	19.996	103.252	20.173	3.680	0.453
468.000	300.386	80.005	19.993	103.252	20.170	3.861	0.479
468.500	300.627	80.007	19.995	103.251	20.173	3.662	0.523
469.000	300.853	80.005	19.994	103.251	20.169	3.908	0.500
469.500	301.079	80.006	19.995	103.251	20.172	3.728	0.460
470.000	301.384	80.007	19.994	103.253	20.174	3.578	0.492
470.500	301.551	80.007	19.994	103.253	20.169	3.929	0.502
471.000	301.809	80.007	19.993	103.252	20.171	3.833	0.448
471.500	302.083	80.007	19.993	103.252	20.171	3.802	0.478
472.000	302.329	80.007	19.994	103.250	20.174	3.630	0.526
472.500	302.541	80.007	19.995	103.249	20.171	3.784	0.489
473.000	302.785	80.007	19.994	103.248	20.170	3.859	0.457
473.500	303.029	80.007	19.994	103.249	20.176	3.483	0.472
474.000	303.272	80.007	19.995	103.249	20.176	3.479	0.487
474.500	303.512	80.006	19.993	103.250	20.173	3.698	0.485
475.000	303.783	80.008	19.994	103.249	20.173	3.700	0.497
475.500	303.994	80.007	19.994	103.248	20.170	3.881	0.497
476.000	304.222	80.006	19.994	103.247	20.177	3.395	0.460
476.500	304.493	80.007	19.993	103.248	20.168	3.976	0.469
477.000	304.748	80.005	19.993	103.247	20.174	3.594	0.512
477.500	304.962	80.007	19.993	103.247	20.176	3.494	0.498
478.000	305.175	80.006	19.994	103.248	20.173	3.675	0.448
478.500	305.462	80.007	19.994	103.248	20.174	3.626	0.463
479.000	305.692	80.006	19.994	103.248	20.175	3.542	0.508
479.500	305.913	80.008	19.994	103.248	20.173	3.693	0.484
480.000	306.178	80.006	19.994	103.248	20.176	3.490	0.468
480.500	306.395	80.006	19.995	103.249	20.177	3.413	0.484
481.000	306.668	80.006	19.994	103.249	20.176	3.454	0.487
481.500	306.912	80.007	19.995	103.249	20.177	3.407	0.504
482.000	307.163	80.006	19.994	103.249	20.178	3.336	0.506
482.500	307.371	80.006	19.995	103.249	20.181	3.174	0.477
483.000	307.604	80.006	19.994	103.249	20.177	3.384	0.450
483.500	307.892	80.006	19.994	103.249	20.179	3.300	0.481
484.000	308.126	80.006	19.995	103.248	20.180	3.230	0.521
484.500	308.369	80.005	19.993	103.246	20.179	3.251	0.500
485.000	308.602	80.005	19.994	103.245	20.177	3.395	0.477
485.500	308.810	80.007	19.994	103.245	20.176	3.449	0.458
486.000	309.063	80.006	19.994	103.245	20.180	3.203	0.451
486.500	309.282	80.007	19.994	103.245	20.181	3.169	0.467
487.000	309.556	80.006	19.995	103.247	20.179	3.266	0.482
487.500	309.808	80.006	19.996	103.249	20.178	3.318	0.510
488.000	310.040	80.005	19.994	103.249	20.177	3.404	0.505
488.500	310.292	80.006	19.995	103.249	20.180	3.212	0.484
489.000	310.531	80.005	19.994	103.249	20.180	3.208	0.487
489.500	310.751	80.005	19.995	103.248	20.180	3.243	0.475
490.000	311.010	80.007	19.995	103.248	20.179	3.280	0.469
490.500	311.234	80.006	19.995	103.248	20.177	3.383	0.481
491.000	311.516	80.007	19.996	103.248	20.178	3.350	0.495
491.500	311.738	80.009	19.995	103.248	20.177	3.426	0.505
492.000	312.002	80.007	19.995	103.248	20.175	3.531	0.495
492.500	312.219	80.006	19.994	103.248	20.182	3.060	0.484
493.000	312.491	80.007	19.995	103.248	20.178	3.338	0.485
493.500	312.722	80.007	19.995	103.248	20.178	3.340	0.495
494.000	312.977	80.008	19.995	103.248	20.178	3.359	0.494
494.500	313.211	80.008	19.995	103.248	20.179	3.306	0.488
495.000	313.453	80.006	19.995	103.248	20.177	3.393	0.483
495.500	313.727	80.007	19.994	103.247	20.182	3.099	0.496
496.000	313.966	80.007	19.994	103.248	20.177	3.422	0.515
496.500	314.217	80.008	19.995	103.250	20.179	3.262	0.502
497.000	314.444	80.009	19.994	103.250	20.176	3.481	0.484
497.500	314.644	80.008	19.995	103.251	20.177	3.428	0.452
498.000	314.931	80.008	19.994	103.253	20.181	3.164	0.457
498.500	315.163	80.007	19.994	103.252	20.177	3.437	0.503
499.000	315.396	80.008	19.994	103.250	20.178	3.347	0.492
499.500	315.648	80.007	19.995	103.252	20.179	3.297	0.475
500.000	315.884	80.007	19.995	103.252	20.184	2.942	0.487
500.500	316.141	80.008	19.994	103.253	20.178	3.315	0.491
501.000	316.410	80.006	19.994	103.255	20.177	3.442	0.509
501.500	316.638	80.007	19.994	103.256	20.181	3.132	0.511
502.000	316.902	80.008	19.994	103.254	20.180	3.233	0.495
502.500	317.117	80.007	19.995	103.253	20.180	3.190	0.486
503.000	317.383	80.007	19.995	103.251	20.181	3.132	0.480
503.500	317.646	80.007	19.994	103.251	20.178	3.331	0.505
504.000	317.854	80.007	19.994	103.253	20.179	3.247	0.500
504.500	318.140	80.005	19.994	103.256	20.181	3.121	0.483
505.000	318.383	80.007	19.994	103.260	20.179	3.270	0.512
505.500	318.640	80.005	19.994	103.260	20.176	3.460	0.514
506.000	318.859	80.006	19.994	103.258	20.181	3.168	0.488
506.500	319.158	80.004	19.995	103.256	20.181	3.132	0.497
507.000	319.360	80.004	19.995	103.254	20.178	3.351	0.510
507.500	319.615	80.003	19.994	103.253	20.181	3.161	0.479
508.000	319.850	80.005	19.994	103.256	20.178	3.366	0.474
508.500	320.101	80.004	19.997	103.259	20.180	3.233	0.488
509.000	320.381	80.004	19.994	103.261	20.181	3.171	0.508
509.500	320.634	80.005	19.996	103.263	20.182	3.058	0.532
510.000	320.891	80.003	19.995	103.267	20.183	3.022	0.522
510.500	321.159	80.004	19.993	103.266	20.181	3.164	0.518
511.000	321.346	80.003	19.997	103.268	20.177	3.381	0.490
511.500	321.640	80.005	19.998	103.272	20.180	3.197	0.468
512.000	321.900	80.004	19.997	103.276	20.182	3.096	0.518
512.500	322.157	80.004	19.997	103.276	20.179	3.297	0.535
513.000	322.398	80.005	19.996	103.281	20.178	3.349	0.507
513.500	322.649	80.004	19.997	103.277	20.177	3.423	0.495
514.000	322.921	80.004	19.996	103.274	20.181	3.137	0.508
514.500	323.168	80.004	19.996	103.269	20.179	3.256	0.521
515.000	323.421	80.005	19.995	103.264	20.179	3.279	0.509
515.500	323.701	80.004	19.995	103.258	20.178	3.335	0.516
516.000	323.922	80.005	19.997	103.256	20.177	3.435	0.517
516.500	324.198	80.004	19.996	103.255	20.176	3.451	0.499
517.000	324.420	80.003	19.995	103.262	20.178	3.367	0.497
517.500	324.680	80.004	19.995	103.269	20.177	3.390	0.489
518.000	324.957	80.003	19.995	103.275	20.178	3.351	0.509
518.500	325.195	80.003	19.996	103.281	20.176	3.455	0.526
519.000	325.470	80.004	19.996	103.284	20.177	3.440	0.514
519.500	325.731	80.003	19.996	103.277	20.177	3.423	0.524
520.000	325.983	80.004	19.996	103.273	20.182	3.078	0.524
520.500	326.245	80.004	19.996	103.270	20.178	3.345	0.514
521.000	326.476	80.003	19.995	103.269	20.178	3.351	0.504
521.500	326.728	80.003	19.995	103.268	20.178	3.320	0.488
522.000	327.039	80.005	19.995	103.271	20.176	3.453	0.523
522.500	327.246	80.003	19.995	103.271	20.179	3.250	0.541
523.000	327.544	80.004	19.996	103.275	20.175	3.545	0.511
523.500	327.764	80.003	19.995	103.277	20.174	3.599	0.512
524.000	328.049	80.003	19.995	103.277	20.178	3.338	0.512
524.500	328.303	80.004	19.995	103.277	20.179	3.250	0.522
525.000	328.565	80.003	19.995	103.273	20.178	3.311	0.527
525.500	328.809	80.004	19.995	103.273	20.177	3.442	0.511
526.000	329.061	80.004	19.995	103.272	20.173	3.682	0.501
526.500	329.319	80.004	19.995	103.269	20.177	3.438	0.503
527.000	329.596	80.003	19.994	103.270	20.177	3.435	0.522
527.500	329.838	80.004	19.994	103.273	20.182	3.082	0.527
528.000	330.093	80.005	19.994	103.267	20.181	3.146	0.508
528.500	330.313	80.005	19.995	103.262	20.181	3.116	0.485
529.000	330.601	80.006	19.994	103.264	20.181	3.157	0.491
529.500	330.842	80.004	19.995	103.265	20.179	3.266	0.519
530.000	331.103	80.006	19.994	103.265	20.179	3.288	0.515
530.500	331.357	80.006	19.995	103.270	20.180	3.194	0.509
531.000	331.628	80.004	19.995	103.271	20.179	3.307	0.520
531.500	331.875	80.004	19.994	103.271	20.180	3.223	0.522
532.000	332.147	80.005	19.994	103.269	20.174	3.618	0.518
532.500	332.397	80.005	19.994	103.271	20.178	3.357	0.520
533.000	332.661	80.004	19.994	103.269	20.180	3.183	0.518
533.500	332.938	80.005	19.995	103.273	20.179	3.244	0.528
534.000	333.186	80.005	19.995	103.275	20.180	3.221	0.533
534.500	333.433	80.006	19.994	103.277	20.179	3.293	0.510
535.000	333.707	80.004	19.994	103.275	20.172	3.721	0.508
535.500	334.008	80.005	19.994	103.271	20.178	3.320	0.548
536.000	334.232	80.004	19.994	103.266	20.183	3.026	0.550
536.500	334.498	80.005	19.994	103.260	20.181	3.176	0.508
537.000	334.717	80.003	19.995	103.254	20.182	3.099	0.488
537.500	335.011	80.005	19.994	103.255	20.178	3.336	0.499
538.000	335.264	80.005	19.995	103.261	20.178	3.354	0.530
538.500	335.499	80.005	19.995	103.266	20.179	3.295	0.518
539.000	335.762	80.005	19.994	103.267	20.182	3.054	0.493
539.500	336.043	80.005	19.995	103.266	20.181	3.114	0.522
540.000	336.294	80.004	19.993	103.264	20.179	3.278	0.538
540.500	336.525	80.005	19.994	103.261	20.181	3.149	0.507
541.000	336.785	80.003	19.995	103.259	20.180	3.226	0.486
541.500	337.061	80.005	19.996	103.258	20.178	3.338	0.514
542.000	337.338	80.005	19.995	103.258	20.182	3.047	0.544
542.500	337.621	80.005	19.994	103.261	20.184	2.970	0.556
543.000	337.864	80.004	19.994	103.257	20.182	3.056	0.543
543.500	338.141	80.004	19.994	103.254	20.183	2.981	0.523
544.000	338.393	80.006	19.994	103.254	20.184	2.947	0.525
544.500	338.606	80.004	19.994	103.253	20.181	3.121	0.497
545.000	338.868	80.003	19.994	103.250	20.181	3.176	0.470
545.500	339.130	80.006	19.995	103.251	20.181	3.124	0.500
546.000	339.370	80.006	19.994	103.252	20.182	3.076	0.513
546.500	339.642	80.005	19.995	103.252	20.177	3.435	0.507
547.000	339.907	80.005	19.995	103.252	20.181	3.159	0.525
547.500	340.189	80.005	19.994	103.256	20.178	3.325	0.542
548.000	340.407	80.006	19.995	103.260	20.180	3.223	0.523
548.500	340.675	80.005	19.994	103.263	20.178	3.343	0.493
549.000	340.920	80.005	19.993	103.263	20.177	3.424	0.500
549.500	341.166	80.006	19.994	103.264	20.182	3.049	0.502
550.000	341.469	80.005	19.996	103.260	20.179	3.277	0.520
550.500	341.698	80.007	19.996	103.255	20.181	3.117	0.541
551.000	341.999	80.006	19.995	103.252	20.178	3.345	0.531
551.500	342.218	80.006	19.994	103.253	20.181	3.153	0.525
552.000	342.460	80.007	19.995	103.253	20.181	3.164	0.490
552.500	342.708	80.006	19.995	103.251	20.176	3.443	0.476
553.000	342.965	80.008	19.994	103.251	20.179	3.264	0.498
553.500	343.229	80.006	19.995	103.251	20.178	3.368	0.513
554.000	343.458	80.008	19.995	103.250	20.176	3.458	0.507
554.500	343.766	80.007	19.995	103.250	20.174	3.590	0.515
555.000	343.994	80.007	19.994	103.250	20.178	3.372	0.536
555.500	344.287	80.006	19.995	103.250	20.175	3.524	0.528
556.000	344.531	80.008	19.995	103.251	20.178	3.320	0.529
556.500	344.810	80.006	19.994	103.255	20.178	3.364	0.530
557.000	345.044	80.006	19.995	103.256	20.178	3.354	0.518
557.500	345.273	80.007	19.994	103.257	20.178	3.352	0.488
558.000	345.525	80.007	19.995	103.260	20.182	3.095	0.473
558.500	345.797	80.008	19.994	103.262	20.182	3.101	0.503
559.000	346.071	80.008	19.994	103.259	20.182	3.088	0.535
559.500	346.297	80.009	19.995	103.258	20.182	3.103	0.523
560.000	346.576	80.008	19.996	103.258	20.179	3.250	0.502
560.500	346.825	80.007	19.993	103.255	20.185	2.913	0.516
561.000	347.077	80.007	19.995	103.253	20.183	3.027	0.515
561.500	347.340	80.007	19.993	103.251	20.180	3.189	0.508
562.000	347.597	80.007	19.995	103.251	20.179	3.309	0.517
562.500	347.861	80.006	19.994	103.251	20.179	3.246	0.521
563.000	348.096	80.006	19.993	103.251	20.182	3.108	0.510
563.500	348.353	80.005	19.995	103.251	20.180	3.241	0.496
564.000	348.585	80.006	19.996	103.252	20.181	3.160	0.490
564.500	348.832	80.006	19.994	103.251	20.181	3.171	0.484
565.000	349.133	80.005	19.994	103.250	20.175	3.519	0.514
565.500	349.358	80.007	19.994	103.249	20.177	3.400	0.537
566.000	349.605	80.006	19.995	103.251	20.176	3.458	0.499
566.500	349.874	80.006	19.993	103.251	20.178	3.370	0.494
567.000	350.120	80.006	19.994	103.251	20.174	3.605	0.515
567.500	350.368	80.006	19.994	103.251	20.176	3.506	0.505
568.000	350.632	80.006	19.994	103.251	20.174	3.580	0.503
568.500	350.870	80.005	19.994	103.250	20.179	3.269	0.507
569.000	351.123	80.006	19.992	103.250	20.179	3.244	0.497
569.500	351.370	80.007	19.994	103.250	20.177	3.386	0.495
570.000	351.643	80.006	19.995	103.253	20.182	3.061	0.510
570.500	351.871	80.004	19.994	103.253	20.180	3.187	0.511
571.000	352.140	80.005	19.994	103.253	20.176	3.482	0.499
571.500	352.363	80.005	19.994	103.255	20.182	3.054	0.494
572.000	352.631	80.006	19.994	103.256	20.180	3.201	0.491
572.500	352.888	80.007	19.994	103.255	20.183	3.018	0.508
573.000	353.174	80.006	19.994	103.255	20.177	3.384	0.534
573.500	353.438	80.006	19.994	103.255	20.177	3.379	0.546
574.000	353.715	80.006	19.994	103.253	20.180	3.219	0.545
574.500	353.910	80.007	19.994	103.252	20.177	3.386	0.507
575.000	354.167	80.008	19.995	103.249	20.182	3.095	0.462
575.500	354.428	80.006	19.994	103.247	20.183	3.036	0.485
576.000	354.636	80.006	19.994	103.248	20.178	3.351	0.494
576.500	354.886	80.007	19.995	103.247	20.177	3.386	0.464
577.000	355.142	80.008	19.994	103.247	20.179	3.267	0.482
577.500	355.415	80.006	19.994	103.249	20.177	3.389	0.517
578.000	355.663	80.006	19.994	103.251	20.180	3.216	0.525
578.500	355.890	80.007	19.994	103.250	20.179	3.269	0.498
579.000	356.115	80.008	19.994	103.250	20.179	3.269	0.464
579.500	356.351	80.006	19.994	103.250	20.176	3.504	0.457
580.000	356.587	80.007	19.994	103.248	20.180	3.205	0.467
580.500	356.841	80.007	19.994	103.247	20.183	3.009	0.481
581.000	357.128	80.006	19.994	103.245	20.182	3.076	0.515
581.500	357.355	80.007	19.994	103.239	20.180	3.183	0.527
582.000	357.615	80.007	19.994	103.238	20.177	3.418	0.501
582.500	357.830	80.008	19.994	103.240	20.180	3.205	0.481
583.000	358.100	80.005	19.994	103.241	20.181	3.173	0.480
583.500	358.353	80.007	19.995	103.242	20.180	3.180	0.504
584.000	358.596	80.007	19.994	103.248	20.179	3.287	0.509
584.500	358.790	80.007	19.995	103.250	20.176	3.464	0.466
585.000	359.072	80.005	19.994	103.247	20.179	3.258	0.456
585.500	359.338	80.006	19.995	103.242	20.178	3.358	0.512
586.000	359.603	80.006	19.994	103.237	20.180	3.183	0.540
586.500	359.826	80.006	19.995	103.236	20.179	3.256	0.510
587.000	360.019	80.006	19.994	103.236	20.180	3.217	0.452
587.500	360.275	80.004	19.994	103.238	20.179	3.266	0.432
588.000	360.557	80.006	19.996	103.243	20.176	3.474	0.493
588.500	360.778	80.003	19.994	103.247	20.180	3.224	0.521
589.000	361.034	80.005	19.994	103.248	20.178	3.327	0.490
589.500	361.250	80.004	19.995	103.248	20.180	3.224	0.474
590.000	361.483	80.004	19.995	103.249	20.180	3.210	0.460
590.500	361.747	80.004	19.997	103.249	20.176	3.443	0.473
591.000	362.037	80.005	19.995	103.250	20.179	3.246	0.525
591.500	362.251	80.004	19.995	103.250	20.178	3.362	0.529
592.000	362.472	80.004	19.996	103.250	20.182	3.050	0.470
592.500	362.723	80.004	19.995	103.249	20.181	3.156	0.453
593.000	362.934	80.006	19.995	103.250	20.179	3.292	0.467
593.500	363.210	80.005	19.995	103.250	20.179	3.276	0.475
594.000	363.461	80.004	19.995	103.251	20.178	3.343	0.507
594.500	363.711	80.004	19.995	103.249	20.179	3.303	0.514
595.000	363.948	80.005	19.994	103.244	20.179	3.257	0.494
595.500	364.125	80.005	19.995	103.238	20.182	3.099	0.450
596.000	364.414	80.004	19.994	103.236	20.179	3.250	0.440
596.500	364.671	80.004	19.994	103.230	20.179	3.296	0.506
597.000	364.886	80.006	19.995	103.230	20.178	3.339	0.508
597.500	365.143	80.004	19.995	103.235	20.183	3.043	0.472
598.000	365.378	80.004	19.995	103.240	20.181	3.149	0.482
598.500	365.586	80.005	19.994	103.241	20.181	3.133	0.467
599.000	365.839	80.004	19.994	103.242	20.181	3.176	0.452
599.500	366.079	80.005	19.995	103.240	20.178	3.343	0.477
600.000	366.336	80.004	19.995	103.241	20.176	3.479	0.495
600.500	366.591	80.004	19.995	103.238	20.176	3.445	0.504
601.000	366.818	80.005	19.994	103.235	20.184	2.929	0.497
601.500	367.037	80.005	19.994	103.234	20.178	3.364	0.464
602.000	367.309	80.006	19.995	103.235	20.182	3.097	0.469
602.500	367.538	80.005	19.995	103.233	20.178	3.325	0.496
603.000	367.807	80.005	19.994	103.235	20.179	3.269	0.500
603.500	368.042	80.005	19.995	103.239	20.177	3.389	0.501
604.000	368.268	80.007	19.994	103.242	20.179	3.267	0.483
604.500	368.523	80.005	19.994	103.243	20.179	3.260	0.471
605.000	368.783	80.004	19.996	103.244	20.177	3.400	0.498
605.500	369.000	80.004	19.996	103.244	20.178	3.364	0.496
606.000	369.289	80.005	19.995	103.244	20.175	3.516	0.491
606.500	369.491	80.005	19.995	103.245	20.179	3.294	0.499
607.000	369.741	80.005	19.995	103.247	20.179	3.255	0.472
607.500	369.986	80.006	19.996	103.248	20.176	3.447	0.473
608.000	370.176	80.005	19.995	103.248	20.174	3.599	0.465
608.500	370.464	80.003	19.995	103.248	20.176	3.464	0.457
609.000	370.721	80.004	19.995	103.244	20.180	3.233	0.511
609.500	370.937	80.005	19.995	103.242	20.176	3.447	0.509
610.000	371.189	80.005	19.994	103.242	20.177	3.418	0.470
610.500	371.448	80.005	19.996	103.242	20.175	3.528	0.489
611.000	371.710	80.005	19.995	103.243	20.177	3.402	0.516
611.500	371.925	80.004	19.995	103.247	20.177	3.395	0.499
612.000	372.155	80.005	19.996	103.249	20.174	3.590	0.462
612.500	372.410	80.004	19.995	103.250	20.177	3.398	0.465
613.000	372.645	80.005	19.995	103.248	20.176	3.497	0.487
613.500	372.877	80.005	19.995	103.248	20.175	3.518	0.478
614.000	373.112	80.004	19.995	103.246	20.176	3.500	0.467
614.500	373.394	80.004	19.996	103.244	20.176	3.495	0.493
615.000	373.635	80.004	19.996	103.238	20.179	3.275	0.520
615.500	373.877	80.004	19.995	103.234	20.177	3.432	0.503
616.000	374.098	80.003	19.996	103.232	20.177	3.389	0.472
616.500	374.378	80.003	19.997	103.234	20.179	3.273	0.482
617.000	374.560	80.004	19.996	103.235	20.175	3.533	0.482
617.500	374.822	80.004	19.995	103.235	20.175	3.513	0.453
618.000	375.077	80.005	19.996	103.235	20.179	3.267	0.481
618.500	375.308	80.004	19.995	103.236	20.176	3.468	0.501
619.000	375.524	80.004	19.995	103.236	20.178	3.319	0.467
619.500	375.787	80.004	19.995	103.237	20.178	3.355	0.463
620.000	376.030	80.004	19.995	103.243	20.176	3.463	0.492
620.500	376.292	80.004	19.996	103.246	20.171	3.786	0.505
621.000	376.515	80.003	19.996	103.246	20.173	3.701	0.495
621.500	376.739	80.004	19.996	103.246	20.176	3.454	0.466
622.000	376.980	80.005	19.996	103.245	20.172	3.766	0.456
622.500	377.226	80.004	19.995	103.244	20.176	3.443	0.476
623.000	377.507	80.004	19.995	103.242	20.175	3.522	0.508
623.500	377.712	80.006	19.995	103.240	20.174	3.599	0.507
624.000	377.960	80.004	19.995	103.238	20.175	3.574	0.469
624.500	378.205	80.006	19.995	103.237	20.174	3.626	0.472
625.000	378.432	80.004	19.995	103.238	20.171	3.832	0.482
625.500	378.718	80.004	19.994	103.241	20.173	3.655	0.493
626.000	378.945	80.005	19.995	103.243	20.172	3.719	0.513
626.500	379.141	80.006	19.995	103.244	20.172	3.766	0.468
627.000	379.389	80.006	19.995	103.244	20.171	3.779	0.433
627.500	379.673	80.005	19.995	103.245	20.174	3.605	0.488
628.000	379.913	80.006	19.994	103.241	20.168	3.981	0.528
628.500	380.135	80.006	19.995	103.241	20.172	3.766	0.493
629.000	380.396	80.006	19.994	103.242	20.170	3.902	0.472
629.500	380.647	80.004	19.996	103.243	20.170	3.893	0.498
630.000	380.858	80.005	19.996	103.243	20.173	3.703	0.487
630.500	381.130	80.006	19.996	103.245	20.173	3.682	0.472
631.000	381.378	80.007	19.995	103.247	20.170	3.845	0.501
631.500	381.591	80.006	19.995	103.248	20.168	4.017	0.491
632.000	381.870	80.006	19.995	103.244	20.166	4.123	0.477
632.500	382.097	80.006	19.995	103.239	20.168	4.015	0.499
633.000	382.340	80.007	19.995	103.240	20.170	3.875	0.488
633.500	382.600	80.006	19.994	103.239	20.167	4.080	0.487
634.000	382.827	80.006	19.994	103.236	20.173	3.700	0.495
634.500	383.045	80.006	19.994	103.238	20.170	3.872	0.466
635.000	383.295	80.007	19.993	103.243	20.166	4.145	0.456
635.500	383.530	80.007	19.995	103.241	20.171	3.788	0.477
636.000	383.779	80.006	19.993	103.243	20.169	3.926	0.485
636.500	384.029	80.008	19.995	103.245	20.171	3.798	0.492
637.000	384.227	80.008	19.995	103.246	20.172	3.753	0.473
637.500	384.505	80.007	19.994	103.247	20.172	3.730	0.462
638.000	384.740	80.007	19.994	103.250	20.171	3.803	0.494
638.500	384.988	80.007	19.994	103.249	20.169	3.913	0.498
639.000	385.206	80.006	19.993	103.246	20.170	3.893	0.475
639.500	385.475	80.008	19.995	103.241	20.171	3.809	0.477
640.000	385.696	80.006	19.994	103.238	20.170	3.892	0.489
640.500	385.942	80.006	19.994	103.238	20.170	3.847	0.478
641.000	386.203	80.005	19.995	103.240	20.170	3.840	0.487
641.500	386.406	80.006	19.994	103.243	20.164	4.268	0.485
642.000	386.658	80.006	19.995	103.247	20.166	4.162	0.459
642.500	386.917	80.005	19.995	103.245	20.168	4.035	0.484
643.000	387.146	80.007	19.994	103.243	20.168	4.033	0.500
643.500	387.397	80.008	19.994	103.242	20.170	3.892	0.483
644.000	387.641	80.006	19.994	103.241	20.166	4.138	0.487
644.500	387.886	80.004	19.995	103.241	20.166	4.159	0.492
645.000	388.113	80.006	19.994	103.246	20.162	4.408	0.480
645.500	388.373	80.005	19.993	103.248	20.165	4.193	0.480
646.000	388.631	80.006	19.995	103.248	20.165	4.229	0.503
646.500	388.853	80.006	19.995	103.248	20.165	4.184	0.499
647.000	389.115	80.006	19.993	103.243	20.168	3.983	0.482
647.500	389.353	80.006	19.995	103.239	20.165	4.205	0.492
648.000	389.638	80.007	19.995	103.236	20.163	4.338	0.512
648.500	389.839	80.007	19.994	103.234	20.164	4.248	0.505
649.000	390.128	80.006	19.994	103.235	20.167	4.061	0.488
649.500	390.341	80.006	19.995	103.240	20.161	4.488	0.496
650.000	390.579	80.006	19.994	103.245	20.164	4.262	0.477
650.500	390.913	80.007	19.995	103.248	20.163	4.336	0.512
651.000	391.097	80.007	19.994	103.250	20.160	4.510	0.545
651.500	391.362	80.005	19.994	103.252	20.164	4.261	0.483
652.000	391.633	80.006	19.994	103.251	20.154	4.935	0.493
652.500	391.881	80.005	19.994	103.248	20.162	4.404	0.528
653.000	392.114	80.005	19.994	103.248	20.161	4.465	0.500
653.500	392.381	80.006	19.994	103.248	20.158	4.641	0.491
654.000	392.604	80.006	19.994	103.247	20.159	4.625	0.495
654.500	392.870	80.005	19.995	103.249	20.160	4.562	0.489
655.000	393.099	80.007	19.994	103.253	20.162	4.420	0.492
655.500	393.345	80.006	19.994	103.253	20.163	4.356	0.485
656.000	393.613	80.005	19.995	103.254	20.160	4.503	0.495
656.500	393.861	80.008	19.995	103.254	20.157	4.759	0.515
657.000	394.112	80.007	19.994	103.254	20.155	4.836	0.507
657.500	394.380	80.008	19.994	103.251	20.160	4.533	0.509
658.000	394.642	80.008	19.994	103.245	20.157	4.707	0.525
658.500	394.883	80.008	19.993	103.237	20.153	4.982	0.516
659.000	395.107	80.008	19.993	103.232	20.153	5.000	0.484
659.500	395.341	80.008	19.994	103.226	20.157	4.729	0.462
660.000	395.621	80.008	19.993	103.227	20.157	4.704	0.486
660.500	395.876	80.007	19.993	103.231	20.159	4.632	0.525
661.000	396.112	80.007	19.994	103.235	20.154	4.944	0.513
661.500	396.389	80.009	19.994	103.235	20.157	4.745	0.502
662.000	396.646	80.009	19.993	103.238	20.151	5.159	0.524
662.500	396.881	80.009	19.993	103.237	20.153	5.014	0.513
663.000	397.116	80.008	19.993	103.238	20.154	4.917	0.481
663.500	397.365	80.008	19.993	103.240	20.161	4.469	0.477
664.000	397.610	80.010	19.994	103.245	20.158	4.675	0.489
664.500	397.864	80.008	19.994	103.246	20.153	5.010	0.496
665.000	398.116	80.008	19.993	103.245	20.154	4.962	0.503
665.500	398.349	80.008	19.995	103.244	20.151	5.157	0.496
666.000	398.626	80.007	19.994	103.241	20.152	5.057	0.498
666.500	398.853	80.009	19.993	103.238	20.157	4.745	0.507
667.000	399.102	80.009	19.994	103.238	20.154	4.919	0.490
667.500	399.389	80.009	19.993	103.239	20.150	5.199	0.506
668.000	399.616	80.007	19.993	103.237	20.147	5.367	0.525
668.500	399.865	80.009	19.994	103.240	20.156	4.792	0.495
669.000	400.140	80.007	19.994	103.243	20.147	5.387	0.500
669.500	400.371	80.008	19.994	103.243	20.151	5.116	0.515
670.000	400.640	80.007	19.994	103.246	20.149	5.238	0.503
670.500	400.855	80.006	19.993	103.246	20.151	5.121	0.492
671.000	401.124	80.006	19.995	103.246	20.146	5.466	0.484
671.500	401.408	80.007	19.994	103.244	20.151	5.134	0.519
672.000	401.664	80.006	19.995	103.240	20.150	5.209	0.546
672.500	401.865	80.006	19.994	103.238	20.146	5.440	0.498
673.000	402.174	80.006	19.994	103.237	20.150	5.209	0.484
673.500	402.437	80.005	19.995	103.237	20.146	5.465	0.541
674.000	402.653	80.006	19.995	103.238	20.148	5.336	0.525
674.500	402.938	80.005	19.996	103.243	20.144	5.602	0.490
675.000	403.165	80.006	19.995	103.241	20.145	5.548	0.506
675.500	403.418	80.005	19.995	103.241	20.146	5.475	0.496
676.000	403.691	80.007	19.994	103.238	20.144	5.575	0.503
676.500	403.953	80.006	19.995	103.233	20.145	5.547	0.531
677.000	404.205	80.004	19.995	103.231	20.141	5.794	0.525
677.500	404.452	80.005	19.996	103.234	20.144	5.563	0.507
678.000	404.698	80.005	19.994	103.236	20.143	5.679	0.496
678.500	404.962	80.005	19.995	103.239	20.140	5.867	0.501
679.000	405.226	80.004	19.995	103.241	20.143	5.662	0.519
679.500	405.474	80.006	19.995	103.239	20.144	5.562	0.520
680.000	405.747	80.004	19.995	103.238	20.140	5.888	0.516
680.500	405.999	80.004	19.995	103.235	20.142	5.754	0.523
681.000	406.241	80.006	19.996	103.232	20.142	5.725	0.510
681.500	406.499	80.006	19.995	103.232	20.141	5.815	0.497
682.000	406.730	80.006	19.994	103.235	20.140	5.874	0.494
682.500	407.011	80.005	19.996	103.233	20.138	5.965	0.500
683.000	407.273	80.004	19.994	103.231	20.136	6.096	0.528
683.500	407.499	80.005	19.995	103.231	20.141	5.786	0.515
684.000	407.806	80.005	19.995	103.228	20.139	5.890	0.511
684.500	408.033	80.006	19.995	103.225	20.140	5.840	0.534
685.000	408.290	80.006	19.994	103.228	20.135	6.157	0.509
685.500	408.532	80.007	19.996	103.230	20.138	6.007	0.491
686.000	408.795	80.005	19.996	103.230	20.137	6.045	0.502
686.500	409.066	80.006	19.995	103.237	20.136	6.111	0.520
687.000	409.338	80.006	19.994	103.241	20.137	6.032	0.538
687.500	409.591	80.006	19.995	103.242	20.132	6.407	0.534
688.000	409.810	80.006	19.995	103.244	20.138	6.020	0.499
688.500	410.093	80.005	19.994	103.243	20.133	6.330	0.487
689.000	410.297	80.005	19.994	103.237	20.134	6.278	0.495
689.500	410.574	80.006	19.995	103.232	20.132	6.382	0.484
690.000	410.882	80.006	19.996	103.229	20.134	6.261	0.533
690.500	411.123	80.005	19.995	103.227	20.133	6.288	0.567
691.000	411.371	80.005	19.994	103.229	20.133	6.335	0.519
691.500	411.621	80.006	19.995	103.234	20.128	6.634	0.493
692.000	411.865	80.006	19.995	103.234	20.136	6.125	0.496
692.500	412.133	80.005	19.994	103.234	20.130	6.522	0.503
693.000	412.422	80.007	19.995	103.231	20.134	6.244	0.535
693.500	412.660	80.006	19.995	103.226	20.124	6.913	0.542
694.000	412.896	80.005	19.995	103.222	20.132	6.379	0.501
694.500	413.176	80.005	19.995	103.221	20.127	6.738	0.495
695.000	413.442	80.004	19.994	103.221	20.132	6.408	0.531
695.500	413.673	80.006	19.995	103.221	20.126	6.775	0.521
696.000	413.933	80.005	19.995	103.226	20.128	6.680	0.494
696.500	414.154	80.005	19.995	103.227	20.126	6.761	0.486
697.000	414.407	80.005	19.995	103.232	20.122	7.057	0.478
697.500	414.708	80.005	19.995	103.236	20.129	6.567	0.514
698.000	414.954	80.005	19.995	103.238	20.127	6.734	0.550
698.500	415.227	80.005	19.995	103.238	20.121	7.094	0.533
699.000	415.464	80.006	19.995	103.236	20.123	6.994	0.514
699.500	415.714	80.006	19.995	103.235	20.121	7.092	0.499
700.000	415.954	80.006	19.995	103.232	20.125	6.870	0.489
700.500	416.215	80.005	19.995	103.231	20.124	6.938	0.496
701.000	416.448	80.005	19.994	103.227	20.118	7.289	0.498
701.500	416.704	80.004	19.994	103.231	20.118	7.337	0.491
702.000	416.965	80.006	19.996	103.231	20.116	7.454	0.502
702.500	417.223	80.004	19.995	103.231	20.115	7.520	0.518
703.000	417.501	80.004	19.995	103.231	20.114	7.596	0.528
703.500	417.725	80.004	19.994	103.238	20.111	7.764	0.519
704.000	418.009	80.004	19.996	103.241	20.113	7.612	0.505
704.500	418.305	80.006	19.995	103.243	20.115	7.537	0.544
705.000	418.542	80.004	19.995	103.245	20.111	7.746	0.557
705.500	418.770	80.003	19.994	103.245	20.107	8.071	0.499
706.000	419.049	80.003	19.996	103.244	20.108	7.961	0.486
706.500	419.301	80.003	19.995	103.244	20.106	8.131	0.519
707.000	419.543	80.003	19.996	103.240	20.108	7.975	0.512
707.500	419.808	80.004	19.996	103.241	20.110	7.816	0.500
708.000	420.063	80.005	19.996	103.244	20.108	7.961	0.514
708.500	420.337	80.003	19.995	103.244	20.104	8.237	0.525
709.000	420.599	80.005	19.996	103.241	20.104	8.244	0.533
709.500	420.835	80.004	19.995	103.244	20.104	8.265	0.517
710.000	421.143	80.004	19.996	103.242	20.105	8.181	0.521
710.500	421.366	80.005	19.995	103.238	20.100	8.523	0.537
711.000	421.650	80.005	19.996	103.238	20.097	8.692	0.519
711.500	421.926	80.006	19.996	103.238	20.099	8.595	0.534
712.000	422.133	80.004	19.996	103.234	20.096	8.734	0.522
712.500	422.375	80.005	19.995	103.232	20.097	8.691	0.466
713.000	422.644	80.005	19.996	103.233	20.098	8.650	0.480
713.500	422.920	80.004	19.996	103.233	20.094	8.930	0.528
714.000	423.156	80.004	19.996	103.231	20.098	8.659	0.529
714.500	423.432	80.005	19.995	103.233	20.095	8.820	0.512
715.000	423.664	80.004	19.995	103.238	20.092	9.029	0.510
715.500	423.915	80.004	19.995	103.236	20.096	8.794	0.495
716.000	424.123	80.003	19.995	103.229	20.090	9.174	0.471
716.500	424.436	80.004	19.993	103.230	20.092	9.031	0.491
717.000	424.661	80.004	19.995	103.227	20.090	9.160	0.530
717.500	424.934	80.004	19.995	103.223	20.093	8.977	0.518
718.000	425.157	80.005	19.994	103.223	20.090	9.141	0.497
718.500	425.430	80.006	19.995	103.226	20.089	9.242	0.496
719.001	425.678	80.007	19.994	103.224	20.090	9.179	0.509
719.500	425.961	80.005	19.994	103.225	20.090	9.158	0.526
720.000	426.209	80.007	19.994	103.222	20.086	9.429	0.531
720.500	426.459	80.006	19.994	103.221	20.088	9.280	0.515
721.000	426.700	80.007	19.994	103.218	20.083	9.607	0.495
721.500	426.955	80.005	19.994	103.218	20.084	9.587	0.494
722.000	427.196	80.006	19.995	103.215	20.083	9.643	0.496
722.500	427.476	80.004	19.993	103.217	20.084	9.566	0.508
723.000	427.696	80.006	19.995	103.224	20.073	10.254	0.510
723.500	427.958	80.006	19.993	103.228	20.079	9.914	0.491
724.000	428.194	80.006	19.994	103.232	20.081	9.771	0.490
724.500	428.428	80.007	19.994	103.235	20.078	9.978	0.484
725.000	428.722	80.004	19.993	103.236	20.076	10.058	0.499
725.500	428.951	80.005	19.994	103.228	20.077	9.994	0.525
726.000	429.211	80.005	19.993	103.225	20.075	10.130	0.506
726.500	429.482	80.006	19.994	103.221	20.071	10.434	0.510
727.000	429.749	80.004	19.993	103.219	20.073	10.285	0.534
727.500	429.968	80.006	19.994	103.218	20.073	10.320	0.513
728.000	430.243	80.005	19.994	103.220	20.071	10.441	0.490
728.500	430.483	80.004	19.994	103.223	20.069	10.531	0.504
729.000	430.742	80.006	19.994	103.226	20.067	10.664	0.506
729.500	431.002	80.006	19.994	103.231	20.067	10.653	0.509
730.000	431.267	80.006	19.994	103.236	20.057	11.320	0.523
730.500	431.502	80.005	19.995	103.239	20.066	10.764	0.513
731.000	431.768	80.005	19.994	103.236	20.063	10.974	0.500
731.500	431.997	80.006	19.994	103.235	20.056	11.438	0.498
732.000	432.301	80.005	19.994	103.230	20.060	11.163	0.514
732.500	432.566	80.006	19.995	103.227	20.059	11.233	0.551
733.000	432.808	80.005	19.994	103.223	20.058	11.294	0.538
733.500	433.035	80.007	19.994	103.224	20.050	11.792	0.488
734.000	433.305	80.005	19.993	103.227	20.050	11.806	0.483
734.500	433.575	80.007	19.995	103.226	20.053	11.599	0.519
735.000	433.816	80.004	19.993	103.222	20.051	11.728	0.525
735.500	434.100	80.006	19.994	103.221	20.053	11.608	0.518
736.000	434.316	80.006	19.996	103.220	20.051	11.771	0.513
736.500	434.581	80.005	19.995	103.221	20.049	11.845	0.491
737.000	434.837	80.004	19.993	103.223	20.045	12.168	0.501
737.500	435.102	80.007	19.995	103.230	20.039	12.510	0.521
738.000	435.370	80.006	19.995	103.233	20.040	12.498	0.527
738.500	435.591	80.007	19.994	103.235	20.043	12.283	0.511
739.000	435.856	80.006	19.995	103.234	20.034	12.852	0.488
739.500	436.065	80.007	19.994	103.235	20.037	12.698	0.480
740.000	436.354	80.007	19.995	103.233	20.038	12.588	0.486
740.500	436.587	80.006	19.994	103.232	20.035	12.785	0.510
741.000	436.884	80.008	19.994	103.232	20.033	12.940	0.526
741.500	437.126	80.008	19.994	103.230	20.031	13.067	0.535
742.000	437.371	80.008	19.995	103.229	20.031	13.063	0.513
742.500	437.630	80.007	19.995	103.228	20.032	13.016	0.495
743.000	437.883	80.008	19.995	103.225	20.030	13.118	0.508
743.500	438.156	80.009	19.995	103.224	20.027	13.301	0.519
744.001	438.362	80.008	19.994	103.220	20.022	13.659	0.502
744.500	438.635	80.008	19.995	103.219	20.021	13.727	0.479
745.000	438.878	80.010	19.995	103.216	20.019	13.837	0.497
745.500	439.172	80.009	19.994	103.215	20.024	13.544	0.526
746.000	439.387	80.009	19.994	103.213	20.023	13.568	0.523
746.500	439.669	80.009	19.994	103.215	20.014	14.212	0.503
747.000	439.914	80.010	19.993	103.213	20.016	14.037	0.512
747.500	440.204	80.008	19.994	103.216	20.020	13.793	0.531
748.000	440.432	80.009	19.993	103.219	20.019	13.825	0.526
748.500	440.686	80.008	19.994	103.226	20.013	14.234	0.500
749.000	440.938	80.007	19.993	103.229	20.010	14.462	0.494
749.500	441.197	80.008	19.995	103.236	20.011	14.384	0.509
750.000	441.441	80.008	19.995	103.235	20.015	14.103	0.506
750.500	441.683	80.007	19.994	103.236	20.007	14.652	0.494
751.000	441.945	80.008	19.995	103.232	20.003	14.929	0.496
751.500	442.159	80.007	19.994	103.230	20.007	14.631	0.490
752.000	442.379	80.006	19.993	103.228	19.999	15.198	0.454
752.500	442.674	80.008	19.993	103.224	19.998	15.221	0.475
753.000	442.935	80.007	19.993	103.221	19.999	15.189	0.536
753.500	443.184	80.007	19.995	103.219	20.001	15.051	0.533
754.000	443.472	80.006	19.994	103.219	19.992	15.652	0.524
754.500	443.719	80.006	19.995	103.217	19.997	15.326	0.536
755.000	443.972	80.005	19.994	103.222	19.991	15.740	0.517
755.500	444.230	80.006	19.994	103.224	19.989	15.864	0.505
756.000	444.452	80.006	19.993	103.226	19.990	15.799	0.496
756.500	444.746	80.007	19.995	103.225	19.989	15.852	0.498
757.000	445.023	80.006	19.993	103.225	19.988	15.920	0.543
757.500	445.262	80.006	19.994	103.221	19.984	16.197	0.543
758.000	445.516	80.005	19.994	103.219	19.983	16.217	0.505
758.500	445.709	80.006	19.994	103.218	19.981	16.385	0.469
759.000	445.997	80.006	19.994	103.220	19.978	16.580	0.464
759.500	446.237	80.008	19.995	103.222	19.977	16.621	0.504
760.000	446.496	80.006	19.995	103.221	19.975	16.768	0.514
760.500	446.742	80.004	19.994	103.220	19.980	16.462	0.502
761.000	447.017	80.005	19.993	103.223	19.970	17.129	0.513
761.500	447.253	80.008	19.995	103.220	19.970	17.125	0.516
762.000	447.484	80.006	19.995	103.217	19.972	16.972	0.489
762.500	447.746	80.006	19.994	103.217	19.968	17.261	0.480
763.000	448.015	80.007	19.994	103.217	19.966	17.372	0.512
763.500	448.245	80.007	19.994	103.214	19.969	17.160	0.515
764.000	448.498	80.005	19.994	103.217	19.970	17.102	0.491
764.500	448.795	80.006	19.993	103.220	19.966	17.387	0.516
765.000	449.026	80.005	19.994	103.220	19.967	17.295	0.539
765.500	449.261	80.006	19.996	103.221	19.961	17.671	0.498
766.000	449.552	80.007	19.995	103.223	19.960	17.730	0.496
766.500	449.808	80.005	19.994	103.220	19.959	17.795	0.536
767.000	450.008	80.006	19.995	103.222	19.960	17.777	0.501
767.500	450.273	80.006	19.995	103.224	19.957	17.957	0.460
768.000	450.544	80.005	19.995	103.227	19.958	17.862	0.500
768.500	450.790	80.004	19.994	103.231	19.954	18.176	0.527
769.000	451.046	80.005	19.995	103.232	19.954	18.164	0.510
769.500	451.316	80.006	19.994	103.228	19.950	18.414	0.514
770.000	451.550	80.004	19.993	103.228	19.954	18.152	0.515
770.500	451.782	80.006	19.994	103.228	19.952	18.265	0.485
771.000	452.014	80.005	19.995	103.227	19.948	18.521	0.464
771.500	452.287	80.005	19.994	103.229	19.945	18.721	0.484
772.000	452.523	80.005	19.994	103.229	19.946	18.698	0.507
772.500	452.774	80.006	19.993	103.227	19.951	18.368	0.499
773.000	453.040	80.005	19.993	103.225	19.944	18.838	0.502
773.500	453.283	80.006	19.994	103.224	19.947	18.624	0.512
774.000	453.516	80.008	19.996	103.222	19.946	18.708	0.492
774.500	453.768	80.007	19.995	103.224	19.943	18.897	0.481
775.000	454.086	80.005	19.994	103.226	19.945	18.769	0.527
775.500	454.298	80.006	19.994	103.225	19.937	19.263	0.550
776.000	454.526	80.006	19.995	103.223	19.938	19.214	0.485
776.500	454.777	80.006	19.995	103.224	19.938	19.222	0.459
777.000	455.059	80.005	19.995	103.221	19.939	19.152	0.505
777.500	455.303	80.006	19.995	103.221	19.940	19.095	0.529
778.000	455.572	80.007	19.996	103.225	19.941	19.032	0.519
778.500	455.827	80.004	19.994	103.226	19.934	19.448	0.519
779.000	456.073	80.007	19.995	103.225	19.932	19.616	0.513
779.500	456.300	80.005	19.995	103.228	19.940	19.067	0.487
780.000	456.530	80.005	19.995	103.230	19.933	19.519	0.465
780.500	456.828	80.006	19.995	103.228	19.941	19.020	0.492
781.000	457.068	80.005	19.995	103.224	19.935	19.392	0.533
781.500	457.278	80.006	19.995	103.224	19.935	19.436	0.495
782.000	457.535	80.006	19.995	103.221	19.937	19.254	0.459
782.500	457.823	80.006	19.995	103.218	19.934	19.513	0.506
783.000	458.059	80.005	19.995	103.218	19.933	19.561	0.535
783.500	458.285	80.006	19.995	103.218	19.930	19.739	0.493
784.000	458.544	80.004	19.995	103.220	19.924	20.119	0.474
784.500	458.799	80.005	19.996	103.224	19.932	19.628	0.500
785.000	459.019	80.005	19.995	103.227	19.928	19.895	0.495
785.500	459.299	80.005	19.995	103.229	19.929	19.804	0.487
786.000	459.571	80.003	19.994	103.233	19.928	19.869	0.526
786.500	459.821	80.005	19.994	103.233	19.929	19.778	0.537
787.000	460.064	80.006	19.993	103.228	19.933	19.569	0.507
787.500	460.334	80.005	19.995	103.224	19.929	19.781	0.503
788.000	460.540	80.004	19.995	103.223	19.932	19.640	0.495
788.500	460.808	80.005	19.995	103.222	19.930	19.716	0.476
789.000	461.069	80.005	19.995	103.220	19.925	20.055	0.502
789.500	461.318	80.005	19.994	103.220	19.933	19.571	0.519
790.000	461.595	80.005	19.994	103.222	19.930	19.715	0.518
790.500	461.801	80.005	19.994	103.220	19.932	19.637	0.505
791.000	462.070	80.005	19.995	103.217	19.932	19.581	0.479
791.500	462.320	80.006	19.995	103.217	19.934	19.489	0.497
792.000	462.586	80.006	19.994	103.220	19.935	19.429	0.517
792.500	462.842	80.007	19.995	103.224	19.929	19.776	0.518
793.000	463.065	80.005	19.995	103.231	19.930	19.755	0.500
793.500	463.335	80.007	19.995	103.237	19.931	19.669	0.486
794.000	463.547	80.007	19.995	103.240	19.932	19.624	0.488
794.500	463.842	80.006	19.995	103.236	19.935	19.391	0.494
795.000	464.078	80.005	19.995	103.231	19.932	19.583	0.519
795.500	464.345	80.006	19.995	103.225	19.933	19.516	0.517
796.000	464.585	80.006	19.996	103.223	19.936	19.369	0.505
796.500	464.842	80.006	19.994	103.220	19.937	19.256	0.502
797.000	465.071	80.005	19.995	103.220	19.938	19.233	0.492
797.500	465.340	80.007	19.995	103.221	19.933	19.552	0.492
798.000	465.622	80.006	19.994	103.218	19.932	19.634	0.525
798.500	465.811	80.007	19.995	103.220	19.942	18.968	0.511
799.000	466.087	80.006	19.995	103.222	19.939	19.136	0.468
799.500	466.362	80.006	19.995	103.224	19.940	19.048	0.508
800.000	466.574	80.006	19.995	103.228	19.936	19.328	0.518
800.500	466.836	80.007	19.995	103.229	19.939	19.124	0.480
801.000	467.096	80.007	19.995	103.229	19.944	18.799	0.498
801.500	467.370	80.006	19.995	103.227	19.939	19.135	0.528
802.000	467.573	80.008	19.996	103.224	19.943	18.892	0.505
802.500	467.867	80.006	19.996	103.222	19.941	19.025	0.487
803.000	468.120	80.006	19.995	103.224	19.947	18.592	0.522
803.500	468.372	80.007	19.995	103.220	19.943	18.863	0.526
804.000	468.606	80.008	19.996	103.222	19.947	18.601	0.496
804.500	468.894	80.008	19.996	103.225	19.952	18.317	0.504
805.000	469.139	80.007	19.996	103.221	19.949	18.498	0.527
805.500	469.386	80.006	19.994	103.217	19.944	18.833	0.513
806.000	469.662	80.006	19.996	103.215	19.950	18.432	0.507
806.500	469.891	80.006	19.995	103.214	19.949	18.504	0.514
807.000	470.148	80.008	19.996	103.211	19.954	18.169	0.495
807.500	470.417	80.008	19.997	103.212	19.949	18.463	0.506
808.000	470.637	80.007	19.996	103.213	19.955	18.112	0.508
808.500	470.915	80.005	19.995	103.212	19.957	17.925	0.494
809.000	471.186	80.006	19.995	103.210	19.954	18.122	0.523
809.500	471.407	80.007	19.996	103.213	19.955	18.074	0.520
810.000	471.692	80.007	19.996	103.212	19.957	17.945	0.499
810.500	471.922	80.006	19.997	103.212	19.957	17.988	0.511
811.000	472.170	80.007	19.997	103.213	19.957	17.943	0.497
811.500	472.406	80.006	19.994	103.216	19.957	17.951	0.481
812.000	472.692	80.006	19.994	103.214	19.958	17.883	0.503
812.500	472.933	80.006	19.995	103.217	19.959	17.829	0.524
813.000	473.190	80.005	19.994	103.220	19.966	17.385	0.513
813.500	473.476	80.007	19.995	103.221	19.961	17.709	0.521
814.000	473.717	80.006	19.994	103.220	19.968	17.226	0.535
814.500	473.993	80.007	19.995	103.220	19.970	17.093	0.522
815.000	474.241	80.007	19.995	103.218	19.965	17.411	0.521
815.500	474.499	80.007	19.995	103.216	19.968	17.199	0.515
816.000	474.798	80.007	19.995	103.215	19.969	17.181	0.532
816.500	475.020	80.008	19.994	103.220	19.970	17.116	0.539
817.000	475.245	80.008	19.996	103.227	19.976	16.696	0.484
817.500	475.523	80.008	19.994	103.229	19.977	16.648	0.474
818.000	475.765	80.008	19.995	103.228	19.977	16.648	0.511
818.500	476.025	80.008	19.995	103.230	19.976	16.691	0.512
819.000	476.311	80.007	19.995	103.223	19.984	16.142	0.524
819.500	476.549	80.007	19.993	103.219	19.979	16.515	0.535
820.000	476.789	80.008	19.995	103.216	19.986	16.040	0.501
820.500	477.015	80.007	19.994	103.216	19.982	16.272	0.472
821.000	477.273	80.007	19.995	103.218	19.989	15.844	0.475
821.500	477.526	80.008	19.994	103.218	19.991	15.718	0.497
822.000	477.790	80.007	19.995	103.218	19.988	15.939	0.513
822.500	478.005	80.008	19.994	103.220	19.995	15.415	0.498
823.000	478.284	80.008	19.994	103.221	19.993	15.553	0.487
823.500	478.550	80.007	19.994	103.223	19.999	15.198	0.520
824.000	478.764	80.007	19.994	103.225	20.000	15.114	0.513
824.500	479.065	80.008	19.995	103.226	20.000	15.099	0.497
825.000	479.288	80.009	19.996	103.227	19.993	15.577	0.519
825.500	479.581	80.009	19.994	103.228	20.005	14.774	0.520
826.000	479.759	80.008	19.994	103.222	19.997	15.297	0.494
826.500	480.068	80.009	19.994	103.219	20.005	14.784	0.479
827.000	480.290	80.008	19.993	103.217	20.005	14.777	0.509
827.500	480.581	80.009	19.993	103.214	20.006	14.719	0.522
828.000	480.852	80.009	19.994	103.212	20.008	14.567	0.538
828.500	481.036	80.009	19.995	103.212	20.012	14.293	0.509
829.000	481.316	80.008	19.993	103.213	20.018	13.952	0.460
829.500	481.575	80.009	19.994	103.215	20.017	13.990	0.502
830.000	481.820	80.008	19.994	103.214	20.016	14.048	0.521
830.500	482.030	80.008	19.993	103.214	20.018	13.947	0.479
831.000	482.328	80.009	19.996	103.214	20.021	13.724	0.482
831.500	482.549	80.008	19.994	103.218	20.020	13.803	0.514
832.000	482.847	80.010	19.994	103.219	20.023	13.586	0.519
832.500	483.076	80.008	19.993	103.220	20.025	13.477	0.523
833.000	483.328	80.009	19.994	103.220	20.023	13.622	0.504
833.500	483.573	80.008	19.993	103.220	20.035	12.817	0.489
834.000	483.819	80.007	19.994	103.216	20.030	13.129	0.494
834.500	484.060	80.007	19.994	103.215	20.032	13.027	0.489
835.000	484.316	80.008	19.996	103.218	20.027	13.334	0.492
835.500	484.558	80.006	19.994	103.225	20.038	12.595	0.497
836.000	484.826	80.006	19.994	103.231	20.034	12.891	0.504
836.500	485.117	80.007	19.994	103.234	20.039	12.538	0.534
837.000	485.370	80.007	19.994	103.233	20.040	12.449	0.551
837.500	485.579	80.006	19.995	103.229	20.034	12.885	0.503
838.000	485.861	80.006	19.996	103.223	20.043	12.302	0.477
838.500	486.060	80.007	19.993	103.218	20.044	12.232	0.486
839.000	486.350	80.005	19.993	103.219	20.048	11.911	0.485
839.500	486.610	80.006	19.994	103.219	20.054	11.568	0.519
840.000	486.875	80.004	19.993	103.220	20.053	11.634	0.538
840.500	487.137	80.005	19.994	103.220	20.050	11.790	0.526
841.000	487.356	80.005	19.994	103.223	20.051	11.763	0.504
841.500	487.645	80.004	19.995	103.221	20.054	11.527	0.494
842.000	487.866	80.006	19.996	103.219	20.059	11.231	0.509
842.500	488.149	80.005	19.995	103.218	20.060	11.168	0.507
843.000	488.341	80.006	19.994	103.217	20.063	10.964	0.490
843.500	488.606	80.006	19.995	103.215	20.062	10.995	0.466
844.000	488.846	80.005	19.994	103.214	20.065	10.785	0.481
844.500	489.115	80.006	19.994	103.216	20.070	10.516	0.507
845.000	489.383	80.006	19.994	103.217	20.073	10.283	0.523
845.500	489.622	80.005	19.993	103.218	20.070	10.454	0.522
846.000	489.915	80.006	19.994	103.218	20.068	10.599	0.519
846.500	490.122	80.006	19.994	103.222	20.072	10.378	0.516
847.000	490.405	80.006	19.994	103.224	20.082	9.715	0.495
847.500	490.612	80.008	19.996	103.226	20.077	10.048	0.490
848.000	490.864	80.004	19.994	103.230	20.083	9.653	0.474
848.500	491.130	80.007	19.996	103.230	20.081	9.763	0.489
849.000	491.379	80.005	19.994	103.228	20.084	9.544	0.516
849.500	491.631	80.007	19.995	103.226	20.085	9.468	0.508
850.000	491.908	80.005	19.994	103.223	20.086	9.445	0.515
850.500	492.104	80.007	19.994	103.218	20.085	9.519	0.501
851.000	492.391	80.007	19.994	103.218	20.090	9.142	0.478
851.500	492.608	80.005	19.993	103.218	20.087	9.340	0.494
852.000	492.892	80.006	19.995	103.218	20.089	9.219	0.502
852.500	493.176	80.005	19.994	103.220	20.092	9.027	0.535
853.000	493.443	80.006	19.994	103.224	20.094	8.869	0.560
853.500	493.662	80.006	19.995	103.224	20.097	8.693	0.518
854.000	493.985	80.008	19.996	103.223	20.097	8.673	0.514
854.500	494.230	80.006	19.994	103.227	20.102	8.374	0.555
855.000	494.485	80.006	19.993	103.231	20.098	8.616	0.534
855.500	494.730	80.006	19.994	103.228	20.102	8.342	0.500
856.000	495.010	80.007	19.994	103.227	20.102	8.388	0.512
856.500	495.236	80.007	19.994	103.231	20.101	8.433	0.515
857.000	495.499	80.006	19.994	103.227	20.107	8.028	0.498
857.500	495.742	80.006	19.993	103.225	20.106	8.127	0.498
858.000	495.969	80.007	19.995	103.227	20.109	7.915	0.488
858.500	496.302	80.008	19.994	103.228	20.112	7.690	0.515
859.000	496.509	80.007	19.995	103.225	20.108	7.948	0.551
859.500	496.720	80.006	19.993	103.227	20.115	7.500	0.479
860.000	497.031	80.006	19.994	103.223	20.112	7.675	0.469
860.500	497.254	80.006	19.994	103.219	20.121	7.129	0.528
861.000	497.521	80.008	19.996	103.222	20.120	7.159	0.512
861.500	497.761	80.006	19.995	103.225	20.121	7.122	0.499
862.000	498.026	80.006	19.996	103.223	20.120	7.210	0.506
862.500	498.267	80.005	19.994	103.223	20.122	7.027	0.505
863.000	498.555	80.007	19.995	103.224	20.117	7.349	0.518
863.500	498.796	80.008	19.995	103.220	20.130	6.544	0.529
864.000	499.018	80.006	19.994	103.215	20.128	6.639	0.496
864.500	499.284	80.006	19.995	103.214	20.127	6.707	0.476
865.000	499.524	80.007	19.995	103.213	20.129	6.549	0.497
865.500	499.799	80.007	19.997	103.212	20.132	6.404	0.510
866.000	500.021	80.006	19.995	103.215	20.132	6.399	0.506
866.500	500.319	80.005	19.995	103.220	20.137	6.038	0.509
867.000	500.559	80.006	19.997	103.228	20.138	5.963	0.529
867.500	500.819	80.005	19.995	103.233	20.134	6.270	0.519
868.000	501.064	80.004	19.995	103.236	20.142	5.739	0.502
868.500	501.312	80.005	19.996	103.239	20.138	5.965	0.499
869.000	501.597	80.004	19.993	103.236	20.140	5.834	0.513
869.500	501.831	80.004	19.995	103.229	20.141	5.804	0.526
870.000	502.087	80.004	19.996	103.225	20.142	5.733	0.505
870.500	502.305	80.006	19.997	103.224	20.143	5.689	0.482
871.000	502.572	80.006	19.996	103.219	20.143	5.637	0.479
871.500	502.802	80.003	19.994	103.220	20.145	5.499	0.492
872.000	503.093	80.003	19.996	103.225	20.142	5.702	0.509
872.500	503.364	80.003	19.995	103.227	20.145	5.492	0.541
873.000	503.529	80.005	19.995	103.224	20.150	5.168	0.499
873.501	503.860	80.005	19.996	103.226	20.145	5.508	0.466
874.000	504.099	80.005	19.995	103.223	20.149	5.259	0.533
874.500	504.336	80.006	19.994	103.222	20.146	5.442	0.523
875.000	504.624	80.005	19.994	103.222	20.143	5.660	0.500
875.500	504.875	80.005	19.995	103.223	20.151	5.128	0.532
876.000	505.117	80.006	19.995	103.221	20.152	5.054	0.516
876.500	505.350	80.004	19.995	103.220	20.152	5.045	0.484
877.000	505.634	80.005	19.995	103.222	20.151	5.142	0.496
877.500	505.893	80.005	19.995	103.220	20.156	4.765	0.530
878.000	506.122	80.006	19.995	103.218	20.153	5.026	0.516
878.500	506.383	80.005	19.995	103.225	20.154	4.947	0.489
879.000	506.655	80.005	19.996	103.228	20.155	4.832	0.511
879.500	506.921	80.007	19.996	103.223	20.153	4.993	0.536
880.000	507.176	80.006	19.995	103.223	20.155	4.851	0.530
880.500	507.402	80.006	19.995	103.222	20.158	4.694	0.501
881.000	507.640	80.007	19.996	103.216	20.161	4.437	0.472
881.500	507.937	80.008	19.995	103.213	20.158	4.654	0.500
882.000	508.180	80.006	19.995	103.217	20.158	4.642	0.538
882.500	508.440	80.007	19.995	103.224	20.158	4.654	0.522
883.000	508.691	80.007	19.995	103.229	20.158	4.696	0.507
883.500	508.936	80.009	19.995	103.234	20.156	4.809	0.503
884.000	509.168	80.006	19.994	103.235	20.159	4.627	0.486
884.500	509.475	80.009	19.995	103.230	20.160	4.557	0.508
885.000	509.707	80.007	19.995	103.227	20.162	4.387	0.540
885.500	509.948	80.007	19.994	103.223	20.162	4.432	0.506
886.000	510.193	80.006	19.993	103.221	20.159	4.597	0.479
886.500	510.464	80.007	19.994	103.222	20.160	4.556	0.501
887.000	510.709	80.007	19.995	103.221	20.163	4.309	0.516
887.500	510.955	80.008	19.995	103.223	20.161	4.470	0.504
888.000	511.222	80.007	19.995	103.222	20.161	4.452	0.502
888.500	511.480	80.007	19.996	103.219	20.165	4.185	0.519
889.000	511.708	80.007	19.994	103.222	20.167	4.038	0.506
889.500	511.973	80.008	19.995	103.223	20.165	4.199	0.490
890.000	512.220	80.006	19.995	103.218	20.167	4.056	0.503
890.500	512.451	80.007	19.995	103.219	20.165	4.199	0.495
891.000	512.697	80.007	19.994	103.217	20.165	4.212	0.477
891.500	512.956	80.007	19.994	103.213	20.165	4.176	0.490
892.000	513.220	80.007	19.995	103.213	20.167	4.059	0.514
892.500	513.457	80.006	19.994	103.216	20.166	4.127	0.513
893.000	513.748	80.005	19.994	103.216	20.167	4.066	0.515
893.500	513.981	80.006	19.995	103.217	20.163	4.362	0.526
894.000	514.211	80.007	19.995	103.220	20.167	4.067	0.493
894.500	514.504	80.006	19.995	103.220	20.166	4.110	0.493
895.000	514.763	80.006	19.994	103.218	20.171	3.794	0.538
895.500	515.021	80.006	19.995	103.217	20.169	3.950	0.535
896.000	515.252	80.006	19.995	103.222	20.168	3.993	0.503
896.500	515.533	80.005	19.995	103.224	20.166	4.169	0.500
897.000	515.767	80.005	19.995	103.224	20.168	4.005	0.514
897.500	516.034	80.004	19.995	103.223	20.164	4.248	0.508
898.000	516.322	80.006	19.995	103.224	20.172	3.768	0.528
898.500	516.535	80.005	19.994	103.224	20.168	4.015	0.528
899.000	516.832	80.004	19.996	103.222	20.168	4.024	0.506
899.500	517.081	80.006	19.995	103.225	20.165	4.198	0.528
900.000	517.296	80.005	19.996	103.225	20.168	3.978	0.505
900.500	517.541	80.006	19.995	103.228	20.170	3.872	0.462
901.000	517.803	80.007	19.996	103.229	20.172	3.755	0.483
901.500	518.098	80.005	19.996	103.227	20.171	3.838	0.532
902.000	518.312	80.007	19.995	103.223	20.168	3.976	0.533
902.500	518.585	80.004	19.995	103.223	20.173	3.682	0.498
903.000	518.859	80.005	19.996	103.222	20.176	3.502	0.517
903.500	519.093	80.006	19.996	103.220	20.176	3.455	0.528
904.000	519.311	80.006	19.994	103.225	20.176	3.454	0.480
904.500	519.569	80.006	19.996	103.227	20.170	3.884	0.464
905.000	519.887	80.006	19.995	103.229	20.175	3.525	0.526
905.500	520.103	80.006	19.996	103.229	20.173	3.679	0.555
906.000	520.345	80.007	19.995	103.228	20.174	3.608	0.496
906.500	520.633	80.006	19.996	103.230	20.172	3.749	0.494
907.000	520.875	80.005	19.995	103.236	20.175	3.538	0.530
907.500	521.139	80.006	19.994	103.241	20.173	3.701	0.518
908.000	521.412	80.006	19.995	103.245	20.176	3.465	0.522
908.500	521.637	80.009	19.995	103.246	20.172	3.726	0.518
909.000	521.910	80.006	19.994	103.244	20.173	3.699	0.498
909.500	522.199	80.008	19.995	103.242	20.175	3.532	0.530
910.000	522.403	80.009	19.995	103.241	20.174	3.613	0.527
910.500	522.705	80.007	19.995	103.242	20.173	3.678	0.499
911.000	522.904	80.007	19.993	103.242	20.173	3.644	0.503
911.500	523.169	80.008	19.994	103.242	20.172	3.712	0.483
912.000	523.462	80.008	19.993	103.242	20.179	3.305	0.511
912.500	523.669	80.009	19.994	103.243	20.177	3.380	0.529
913.000	523.955	80.008	19.993	103.244	20.172	3.715	0.496
913.500	524.183	80.009	19.994	103.242	20.176	3.445	0.503
914.000	524.429	80.008	19.993	103.240	20.176	3.447	0.494
914.500	524.695	80.008	19.994	103.236	20.173	3.698	0.494
915.000	524.967	80.009	19.993	103.232	20.175	3.534	0.525
915.500	525.226	80.007	19.994	103.227	20.169	3.920	0.534
916.000	525.463	80.006	19.993	103.223	20.174	3.597	0.513
916.500	525.704	80.007	19.994	103.227	20.176	3.504	0.486
917.000	525.991	80.007	19.993	103.232	20.181	3.135	0.503
917.500	526.251	80.008	19.993	103.235	20.172	3.721	0.538
918.000	526.462	80.006	19.994	103.240	20.176	3.445	0.509
918.500	526.722	80.006	19.993	103.243	20.176	3.482	0.471
919.000	526.982	80.005	19.994	103.241	20.179	3.307	0.495
919.500	527.246	80.008	19.993	103.236	20.177	3.418	0.522
920.000	527.507	80.007	19.993	103.234	20.177	3.380	0.524
920.500	527.754	80.006	19.992	103.227	20.178	3.366	0.516
921.000	528.031	80.005	19.994	103.228	20.173	3.664	0.516
921.500	528.269	80.005	19.994	103.232	20.177	3.432	0.520
922.000	528.509	80.006	19.994	103.230	20.179	3.271	0.497
922.500	528.774	80.004	19.994	103.227	20.172	3.766	0.492
923.000	528.988	80.005	19.994	103.230	20.175	3.571	0.492
923.500	529.267	80.006	19.995	103.232	20.176	3.454	0.486
924.000	529.513	80.005	19.994	103.232	20.176	3.495	0.509
924.500	529.788	80.005	19.994	103.237	20.171	3.789	0.522
925.000	530.047	80.006	19.994	103.239	20.176	3.447	0.528
925.500	530.277	80.004	19.994	103.239	20.179	3.287	0.512
926.000	530.565	80.005	19.994	103.238	20.176	3.486	0.504
926.500	530.856	80.004	19.994	103.238	20.178	3.326	0.549
927.000	531.073	80.005	19.994	103.237	20.177	3.414	0.544
927.500	531.318	80.005	19.994	103.237	20.179	3.283	0.485
928.000	531.574	80.005	19.995	103.240	20.177	3.393	0.481
928.500	531.844	80.006	19.994	103.239	20.176	3.499	0.513
929.000	532.093	80.005	19.993	103.237	20.180	3.208	0.523
929.500	532.333	80.006	19.995	103.239	20.180	3.217	0.505
930.000	532.621	80.005	19.994	103.241	20.178	3.357	0.508
930.500	532.871	80.006	19.995	103.240	20.178	3.328	0.532
931.000	533.144	80.004	19.994	103.240	20.175	3.553	0.530
931.500	533.377	80.004	19.996	103.243	20.180	3.242	0.514
932.000	533.640	80.006	19.994	103.242	20.176	3.445	0.501
932.500	533.909	80.005	19.994	103.243	20.174	3.580	0.514
933.000	534.159	80.006	19.996	103.244	20.177	3.391	0.526
933.500	534.415	80.006	19.996	103.247	20.174	3.578	0.512
934.000	534.646	80.006	19.995	103.247	20.180	3.208	0.497
934.500	534.928	80.004	19.995	103.249	20.177	3.404	0.500
935.000	535.205	80.006	19.995	103.249	20.177	3.422	0.536
935.500	535.458	80.004	19.994	103.249	20.181	3.133	0.545
936.000	535.713	80.006	19.996	103.247	20.175	3.565	0.519
936.500	535.996	80.005	19.995	103.244	20.175	3.544	0.523
937.000	536.209	80.005	19.995	103.241	20.179	3.262	0.517
937.500	536.499	80.005	19.995	103.240	20.179	3.278	0.499
938.000	536.748	80.005	19.994	103.240	20.179	3.266	0.520
938.500	536.995	80.006	19.994	103.242	20.181	3.124	0.517
939.000	537.233	80.004	19.993	103.242	20.182	3.095	0.491
939.500	537.533	80.006	19.995	103.244	20.178	3.355	0.511
940.000	537.761	80.006	19.995	103.241	20.176	3.492	0.533
940.500	538.015	80.005	19.995	103.240	20.180	3.228	0.505
941.000	538.275	80.005	19.995	103.240	20.184	2.979	0.498
941.500	538.534	80.007	19.995	103.241	20.181	3.171	0.516
942.000	538.793	80.007	19.996	103.243	20.181	3.174	0.519
942.500	539.044	80.005	19.995	103.246	20.180	3.226	0.514
943.000	539.303	80.006	19.995	103.248	20.178	3.318	0.510
943.500	539.592	80.006	19.995	103.248	20.179	3.275	0.529
944.000	539.847	80.007	19.995	103.247	20.177	3.406	0.546
944.500	540.074	80.006	19.994	103.247	20.181	3.149	0.513
945.000	540.382	80.006	19.996	103.248	20.181	3.160	0.509
945.500	540.582	80.007	19.994	103.248	20.182	3.081	0.521
946.000	540.854	80.005	19.995	103.247	20.181	3.165	0.490
946.500	541.109	80.005	19.994	103.248	20.181	3.140	0.499
947.000	541.345	80.005	19.994	103.248	20.186	2.794	0.509
947.500	541.615	80.006	19.995	103.248	20.184	2.947	0.499
948.000	541.894	80.006	19.994	103.248	20.181	3.131	0.527
948.500	542.134	80.006	19.995	103.248	20.176	3.452	0.534
949.000	542.405	80.005	19.996	103.249	20.182	3.052	0.515
949.500	542.645	80.007	19.995	103.249	20.181	3.146	0.511
950.000	542.897	80.006	19.995	103.250	20.176	3.490	0.501
950.500	543.134	80.005	19.996	103.250	20.180	3.216	0.490
951.000	543.427	80.006	19.994	103.250	20.177	3.408	0.510
951.500	543.674	80.006	19.995	103.250	20.179	3.244	0.535
952.000	543.927	80.005	19.995	103.250	20.182	3.079	0.520
952.500	544.157	80.005	19.994	103.249	20.183	3.038	0.492
953.000	544.400	80.007	19.995	103.249	20.179	3.300	0.478
953.500	544.659	80.005	19.995	103.250	20.182	3.081	0.487
954.000	544.912	80.006	19.994	103.249	20.177	3.429	0.507
954.500	545.148	80.005	19.995	103.250	20.179	3.295	0.501
955.000	545.398	80.005	19.994	103.250	20.175	3.524	0.488
955.500	545.676	80.007	19.996	103.250	20.178	3.325	0.507
956.000	545.974	80.005	19.994	103.250	20.187	2.776	0.552
956.500	546.180	80.006	19.995	103.250	20.179	3.305	0.540
957.000	546.465	80.006	19.995	103.248	20.180	3.233	0.498
957.500	546.692	80.006	19.995	103.249	20.177	3.427	0.502
958.000	546.965	80.004	19.994	103.249	20.182	3.088	0.506
958.500	547.198	80.005	19.994	103.249	20.182	3.077	0.503
959.000	547.424	80.004	19.996	103.250	20.184	2.947	0.483
959.500	547.734	80.006	19.995	103.252	20.182	3.090	0.498
960.000	547.995	80.005	19.994	103.252	20.181	3.149	0.553
960.500	548.241	80.004	19.994	103.252	20.178	3.373	0.539
961.000	548.493	80.005	19.995	103.252	20.182	3.067	0.502
961.500	548.761	80.005	19.995	103.253	20.178	3.339	0.509
962.000	549.023	80.005	19.993	103.252	20.183	3.036	0.525
962.500	549.271	80.007	19.995	103.253	20.176	3.447	0.520
963.000	549.480	80.004	19.995	103.252	20.176	3.501	0.483
963.500	549.776	80.007	19.995	103.253	20.185	2.909	0.481
964.000	550.021	80.006	19.995	103.252	20.175	3.517	0.523
964.500	550.287	80.008	19.994	103.252	20.181	3.167	0.526
965.000	550.522	80.006	19.995	103.252	20.176	3.449	0.506
965.500	550.767	80.007	19.995	103.252	20.181	3.133	0.491
966.000	551.059	80.007	19.996	103.250	20.179	3.292	0.508
966.500	551.248	80.007	19.995	103.246	20.183	3.023	0.509
967.000	551.498	80.005	19.995	103.247	20.182	3.072	0.460
967.500	551.777	80.007	19.995	103.247	20.180	3.235	0.484
968.000	551.986	80.006	19.994	103.247	20.179	3.302	0.509
968.500	552.258	80.009	19.996	103.248	20.184	2.929	0.484
969.000	552.498	80.006	19.995	103.250	20.181	3.171	0.496
969.500	552.757	80.007	19.995	103.250	20.179	3.300	0.505
970.000	553.016	80.006	19.995	103.249	20.181	3.128	0.509
970.500	553.258	80.008	19.995	103.249	20.183	3.046	0.510
971.000	553.539	80.007	19.994	103.250	20.182	3.076	0.512
971.500	553.777	80.008	19.995	103.250	20.182	3.080	0.520
972.000	554.046	80.007	19.996	103.250	20.180	3.232	0.513
972.500	554.286	80.006	19.994	103.251	20.179	3.306	0.508
973.000	554.564	80.006	19.995	103.250	20.180	3.218	0.514
973.500	554.774	80.006	19.996	103.251	20.182	3.083	0.503
974.000	555.054	80.007	19.995	103.251	20.179	3.250	0.489
974.500	555.329	80.007	19.995	103.250	20.180	3.216	0.522
975.000	555.556	80.005	19.995	103.250	20.182	3.078	0.529
975.500	555.811	80.007	19.994	103.249	20.184	2.972	0.492
976.000	556.050	80.006	19.995	103.245	20.183	2.987	0.488
976.500	556.293	80.007	19.995	103.242	20.181	3.144	0.488
977.000	556.560	80.006	19.994	103.242	20.182	3.055	0.497
977.500	556.796	80.005	19.995	103.242	20.183	2.994	0.507
978.000	557.036	80.004	19.995	103.246	20.179	3.300	0.489
978.500	557.300	80.007	19.995	103.252	20.181	3.173	0.490
979.000	557.585	80.007	19.994	103.258	20.184	2.947	0.527
979.500	557.782	80.007	19.995	103.262	20.179	3.282	0.516
980.000	558.078	80.006	19.994	103.265	20.182	3.073	0.487
980.500	558.318	80.005	19.995	103.269	20.182	3.051	0.515
981.000	558.588	80.005	19.995	103.270	20.181	3.175	0.524
981.500	558.844	80.005	19.994	103.268	20.178	3.364	0.518
982.000	559.088	80.006	19.995	103.266	20.178	3.349	0.513
982.500	559.417	80.007	19.994	103.264	20.179	3.292	0.536
983.000	559.643	80.005	19.995	103.261	20.185	2.908	0.564
983.500	559.908	80.007	19.994	103.258	20.178	3.327	0.523
984.000	560.161	80.006	19.995	103.261	20.179	3.304	0.505
984.500	560.391	80.006	19.995	103.268	20.180	3.187	0.501
985.000	560.665	80.006	19.995	103.273	20.177	3.390	0.493
985.500	560.968	80.006	19.995	103.272	20.177	3.437	0.540
986.000	561.210	80.006	19.994	103.276	20.181	3.121	0.561
986.500	561.456	80.005	19.994	103.277	20.181	3.146	0.516
987.000	561.759	80.007	19.994	103.273	20.176	3.455	0.519
987.500	562.019	80.007	19.995	103.266	20.181	3.155	0.557
988.000	562.284	80.008	19.995	103.266	20.178	3.321	0.544
988.500	562.563	80.008	19.995	103.263	20.180	3.233	0.534
989.000	562.841	80.005	19.995	103.261	20.181	3.161	0.550
989.500	563.095	80.008	19.995	103.260	20.178	3.362	0.545
990.000	563.361	80.007	19.997	103.263	20.182	3.061	0.526
990.500	563.628	80.008	19.996	103.265	20.182	3.084	0.527
991.000	563.902	80.007	19.996	103.270	20.180	3.217	0.537
991.500	564.169	80.008	19.996	103.273	20.174	3.620	0.541
992.000	564.446	80.008	19.996	103.278	20.175	3.574	0.542
992.500	564.702	80.008	19.996	103.276	20.180	3.207	0.539
993.000	564.954	80.008	19.996	103.273	20.176	3.444	0.521
993.500	565.251	80.008	19.996	103.271	20.180	3.194	0.528
994.000	565.512	80.009	19.995	103.267	20.180	3.178	0.553
994.500	565.807	80.008	19.996	103.262	20.178	3.367	0.557
995.000	566.061	80.008	19.995	103.265	20.179	3.306	0.553
995.500	566.328	80.006	19.994	103.265	20.177	3.399	0.535
996.000	566.608	80.008	19.996	103.262	20.175	3.522	0.534
996.500	566.864	80.008	19.997	103.264	20.178	3.324	0.542
997.000	567.174	80.008	19.996	103.267	20.176	3.457	0.551
997.500	567.430	80.009	19.996	103.270	20.178	3.346	0.566
998.000	567.709	80.008	19.997	103.272	20.173	3.678	0.551
998.500	568.006	80.009	19.995	103.278	20.177	3.391	0.556
999.000	568.252	80.008	19.996	103.282	20.181	3.175	0.559
999.500	568.515	80.008	19.995	103.283	20.176	3.457	0.526
1000.000	568.829	80.007	19.997	103.283	20.178	3.373	0.543
1000.500	569.084	80.007	19.996	103.285	20.180	3.215	0.573
1001.000	569.332	80.007	19.997	103.285	20.179	3.247	0.536
1001.500	569.594	80.005	19.996	103.284	20.182	3.066	0.506
1002.000	569.899	80.006	19.995	103.284	20.175	3.545	0.539
1002.500	570.190	80.007	19.995	103.284	20.177	3.418	0.582
1003.000	570.449	80.005	19.995	103.279	20.179	3.260	0.573
1003.500	570.700	80.006	19.994	103.272	20.180	3.222	0.530
1004.000	571.038	80.006	19.996	103.266	20.179	3.294	0.549
1004.500	571.278	80.005	19.995	103.263	20.176	3.468	0.583
1005.000	571.561	80.006	19.995	103.261	20.177	3.400	0.550
1005.500	571.830	80.006	19.995	103.264	20.182	3.070	0.538
1006.000	572.082	80.007	19.996	103.270	20.178	3.357	0.537
1006.500	572.364	80.006	19.994	103.277	20.173	3.698	0.528
1007.000	572.641	80.006	19.995	103.281	20.176	3.468	0.547
1007.500	572.916	80.007	19.995	103.284	20.179	3.276	0.555
1008.000	573.222	80.005	19.994	103.287	20.175	3.565	0.566
1008.500	573.499	80.008	19.995	103.288	20.182	3.107	0.582
1009.000	573.767	80.006	19.996	103.287	20.175	3.549	0.564
1009.500	574.050	80.007	19.995	103.286	20.172	3.733	0.548
1010.000	574.341	80.005	19.994	103.285	20.176	3.472	0.562
1010.500	574.626	80.005	19.995	103.282	20.174	3.635	0.575
1011.000	574.938	80.005	19.995	103.283	20.174	3.635	0.587
1011.500	575.201	80.006	19.995	103.284	20.173	3.646	0.586
1012.000	575.466	80.007	19.994	103.286	20.178	3.316	0.552
1012.500	575.760	80.006	19.994	103.285	20.176	3.468	0.543
1013.000	576.034	80.005	19.995	103.286	20.178	3.339	0.563
1013.500	576.306	80.007	19.995	103.285	20.175	3.567	0.558
1014.000	576.575	80.005	19.996	103.283	20.174	3.599	0.544
1014.500	576.876	80.006	19.994	103.283	20.174	3.642	0.555
1015.000	577.140	80.006	19.995	103.284	20.175	3.529	0.567
1015.500	577.379	80.006	19.995	103.285	20.173	3.690	0.534
1016.000	577.656	80.006	19.995	103.287	20.175	3.511	0.510
1016.500	577.966	80.006	19.995	103.288	20.170	3.868	0.552
1017.000	578.221	80.006	19.995	103.288	20.175	3.558	0.576
1017.500	578.511	80.006	19.994	103.287	20.170	3.868	0.555
1018.000	578.784	80.006	19.995	103.287	20.172	3.768	0.554
1018.500	579.064	80.007	19.995	103.286	20.174	3.630	0.558
1019.000	579.322	80.006	19.995	103.286	20.173	3.658	0.546
1019.500	579.646	80.007	19.994	103.287	20.172	3.760	0.560
1020.000	579.913	80.007	19.995	103.288	20.173	3.672	0.586
1020.500	580.171	80.007	19.996	103.287	20.175	3.516	0.558
1021.000	580.414	80.006	19.995	103.287	20.174	3.579	0.513
1021.500	580.677	80.005	19.995	103.287	20.176	3.507	0.503
1022.000	580.992	80.006	19.995	103.288	20.179	3.256	0.542
1022.500	581.246	80.005	19.994	103.288	20.176	3.471	0.573
1023.000	581.540	80.005	19.995	103.290	20.180	3.186	0.559
1023.500	581.821	80.007	19.994	103.290	20.176	3.464	0.561
1024.000	582.086	80.007	19.994	103.290	20.178	3.355	0.560
1024.499	582.344	80.006	19.995	103.290	20.176	3.489	0.534
1025.000	582.607	80.006	19.995	103.290	20.174	3.581	0.522
1025.500	582.911	80.008	19.996	103.290	20.179	3.254	0.544
1025.999	583.177	80.006	19.994	103.290	20.173	3.657	0.569
1026.499	583.485	80.006	19.995	103.289	20.174	3.591	0.572
1026.999	583.731	80.005	19.994	103.286	20.176	3.458	0.564
1027.499	584.028	80.005	19.994	103.287	20.177	3.429	0.548
1027.999	584.267	80.006	19.996	103.287	20.174	3.583	0.539
1028.499	584.551	80.005	19.995	103.287	20.173	3.675	0.530
1028.999	584.808	80.006	19.994	103.289	20.180	3.189	0.532
1029.499	585.094	80.006	19.996	103.291	20.175	3.565	0.542
1029.999	585.339	80.006	19.996	103.290	20.175	3.548	0.537
1030.499	585.640	80.005	19.995	103.286	20.181	3.126	0.539
1030.999	585.888	80.005	19.995	103.285	20.180	3.212	0.548
1031.499	586.170	80.006	19.995	103.282	20.175	3.574	0.540
1031.999	586.471	80.005	19.995	103.282	20.176	3.463	0.556
1032.499	586.702	80.006	19.995	103.283	20.178	3.314	0.557
1032.999	587.019	80.006	19.996	103.285	20.178	3.319	0.540
1033.499	587.291	80.005	19.995	103.282	20.177	3.380	0.569
1033.999	587.541	80.005	19.995	103.284	20.173	3.675	0.556
1034.499	587.833	80.005	19.996	103.282	20.177	3.398	0.532
1034.999	588.118	80.006	19.995	103.281	20.174	3.601	0.559
1035.499	588.385	80.005	19.995	103.279	20.179	3.251	0.564
1035.999	588.669	80.006	19.995	103.277	20.176	3.492	0.552
1036.499	588.949	80.007	19.996	103.272	20.179	3.273	0.558
1036.999	589.238	80.006	19.995	103.269	20.178	3.346	0.566
1037.499	589.498	80.006	19.995	103.263	20.178	3.359	0.559
1037.999	589.774	80.005	19.995	103.260	20.179	3.294	0.542
1038.499	590.006	80.006	19.995	103.259	20.179	3.283	0.522
1038.999	590.313	80.006	19.994	103.257	20.183	3.036	0.524
1039.499	590.584	80.005	19.994	103.255	20.182	3.082	0.558
1039.999	590.848	80.006	19.994	103.255	20.178	3.310	0.556
1040.499	591.118	80.005	19.994	103.254	20.178	3.314	0.534
1040.999	591.405	80.004	19.993	103.254	20.177	3.429	0.546
1041.499	591.702	80.007	19.995	103.254	20.179	3.244	0.571
1042.000	591.947	80.006	19.995	103.254	20.178	3.357	0.564
1042.501	592.224	80.006	19.995	103.252	20.180	3.217	0.532
1043.001	592.482	80.006	19.995	103.249	20.178	3.321	0.528
1043.501	592.751	80.006	19.994	103.248	20.181	3.174	0.531
1044.000	593.002	80.007	19.996	103.246	20.182	3.071	0.524
1044.500	593.273	80.006	19.995	103.247	20.180	3.188	0.521
1045.000	593.573	80.006	19.995	103.247	20.183	3.045	0.547
1045.499	593.860	80.007	19.995	103.249	20.181	3.132	0.579
1045.999	594.132	80.007	19.995	103.248	20.183	3.010	0.573
1046.499	594.401	80.006	19.994	103.249	20.179	3.247	0.550
1046.999	594.668	80.007	19.994	103.247	20.177	3.401	0.538
1047.499	594.964	80.007	19.995	103.247	20.176	3.457	0.550
1047.999	595.198	80.007	19.994	103.246	20.179	3.295	0.546
1048.499	595.466	80.009	19.995	103.241	20.186	2.799	0.516
1048.999	595.747	80.007	19.994	103.235	20.182	3.052	0.526
1049.499	596.016	80.006	19.995	103.231	20.185	2.887	0.550
1049.999	596.261	80.007	19.993	103.230	20.188	2.690	0.532
1050.499	596.549	80.007	19.994	103.230	20.183	2.993	0.523
1050.999	596.806	80.008	19.994	103.234	20.188	2.706	0.538
1051.499	597.105	80.008	19.996	103.233	20.185	2.871	0.550
1051.999	597.405	80.009	19.995	103.236	20.185	2.898	0.578
1052.499	597.665	80.008	19.994	103.233	20.185	2.873	0.580
1052.999	597.888	80.008	19.995	103.227	20.186	2.826	0.522
1053.499	598.176	80.008	19.995	103.224	20.186	2.809	0.497
1053.999	598.453	80.008	19.996	103.225	20.184	2.946	0.538
1054.499	598.696	80.008	19.995	103.226	20.181	3.120	0.543
1054.999	598.977	80.008	19.996	103.226	20.186	2.824	0.522
1055.499	599.250	80.007	19.995	103.228	20.179	3.267	0.539
1055.999	599.534	80.008	19.994	103.228	20.182	3.082	0.556
1056.499	599.754	80.007	19.995	103.224	20.184	2.917	0.530
1056.999	600.063	80.007	19.995	103.221	20.184	2.924	0.516
1057.499	600.304	80.009	19.996	103.218	20.181	3.150	0.540
1057.999	600.589	80.008	19.995	103.217	20.186	2.794	0.538
1058.499	600.841	80.006	19.995	103.216	20.184	2.959	0.531
1058.999	601.117	80.007	19.995	103.218	20.187	2.767	0.532
1059.500	601.378	80.007	19.996	103.224	20.191	2.462	0.533
1060.000	601.634	80.007	19.996	103.226	20.188	2.648	0.527
1060.499	601.926	80.005	19.995	103.231	20.184	2.935	0.532
1060.999	602.147	80.008	19.996	103.239	20.185	2.899	0.530
1061.499	602.459	80.007	19.996	103.244	20.186	2.812	0.523
1061.999	602.728	80.007	19.996	103.242	20.189	2.638	0.557
1062.499	602.976	80.007	19.996	103.241	20.186	2.829	0.549
1062.999	603.246	80.007	19.996	103.236	20.188	2.713	0.517
1063.499	603.517	80.006	19.996	103.231	20.192	2.422	0.530
1063.999	603.744	80.007	19.996	103.224	20.185	2.894	0.520
1064.499	604.053	80.007	19.996	103.220	20.185	2.883	0.517
1065.000	604.328	80.005	19.995	103.218	20.187	2.761	0.560
1065.500	604.595	80.007	19.996	103.220	20.184	2.955	0.563
1065.999	604.834	80.007	19.995	103.220	20.185	2.891	0.524
1066.499	605.102	80.007	19.995	103.220	20.189	2.634	0.507
1066.999	605.346	80.008	19.995	103.223	20.187	2.722	0.510
1067.499	605.579	80.007	19.995	103.226	20.188	2.697	0.494
1067.999	605.834	80.008	19.995	103.225	20.183	3.030	0.483
1068.499	606.159	80.007	19.996	103.231	20.187	2.772	0.534
1068.999	606.423	80.006	19.996	103.234	20.187	2.749	0.584
1069.499	606.626	80.007	19.995	103.231	20.189	2.646	0.528
1069.999	606.930	80.007	19.995	103.228	20.190	2.573	0.487
1070.499	607.163	80.009	19.995	103.229	20.189	2.591	0.522
1070.999	607.390	80.008	19.995	103.225	20.186	2.836	0.498
1071.499	607.667	80.008	19.994	103.224	20.188	2.661	0.482
1071.999	607.938	80.007	19.994	103.226	20.185	2.887	0.526
1072.499	608.204	80.008	19.995	103.232	20.189	2.586	0.542
1072.999	608.461	80.007	19.995	103.233	20.184	2.962	0.530
1073.500	608.766	80.008	19.994	103.231	20.189	2.607	0.542
1074.000	608.956	80.009	19.994	103.231	20.186	2.845	0.529
1074.499	609.257	80.008	19.994	103.231	20.185	2.849	0.493
1074.999	609.486	80.008	19.995	103.229	20.184	2.962	0.510
1075.499	609.768	80.008	19.994	103.229	20.183	3.034	0.520
1075.999	610.048	80.009	19.995	103.234	20.183	2.984	0.536
1076.499	610.306	80.009	19.994	103.235	20.188	2.710	0.550
1076.999	610.544	80.010	19.996	103.234	20.191	2.455	0.517
1077.499	610.818	80.009	19.994	103.233	20.187	2.721	0.504
1077.999	611.093	80.009	19.995	103.233	20.184	2.955	0.531
1078.499	611.333	80.009	19.994	103.231	20.188	2.652	0.532
1078.999	611.582	80.008	19.995	103.232	20.186	2.835	0.502
1079.499	611.816	80.009	19.994	103.232	20.189	2.620	0.486
1079.999	612.101	80.008	19.994	103.231	20.186	2.844	0.501
1080.499	612.396	80.011	19.995	103.227	20.189	2.604	0.550
1080.999	612.614	80.007	19.995	103.224	20.188	2.665	0.547
1081.499	612.877	80.008	19.994	103.221	20.185	2.880	0.497
1081.999	613.148	80.008	19.996	103.222	20.186	2.796	0.507
1082.499	613.400	80.009	19.995	103.224	20.186	2.796	0.528
1082.999	613.668	80.007	19.996	103.225	20.184	2.923	0.522
1083.499	613.898	80.007	19.996	103.226	20.183	2.984	0.509
1083.999	614.170	80.007	19.995	103.226	20.185	2.891	0.500
1084.499	614.443	80.006	19.996	103.224	20.184	2.950	0.524
1084.999	614.707	80.006	19.996	103.221	20.184	2.939	0.541
1085.499	614.969	80.005	19.994	103.222	20.188	2.658	0.531
1085.999	615.231	80.007	19.995	103.223	20.188	2.702	0.525
1086.499	615.464	80.007	19.996	103.230	20.188	2.697	0.510
1087.000	615.734	80.005	19.997	103.235	20.190	2.534	0.499
1087.501	615.960	80.005	19.996	103.239	20.190	2.568	0.500
1088.000	616.272	80.005	19.995	103.245	20.184	2.954	0.517
1088.499	616.512	80.005	19.996	103.248	20.192	2.430	0.545
1088.999	616.735	80.007	19.996	103.243	20.187	2.760	0.507
1089.499	617.021	80.005	19.995	103.242	20.187	2.737	0.486
1089.999	617.259	80.004	19.996	103.243	20.192	2.450	0.516
1090.499	617.508	80.005	19.997	103.243	20.189	2.590	0.506
1091.000	617.750	80.006	19.996	103.242	20.186	2.814	0.489
1091.500	618.029	80.004	19.996	103.243	20.187	2.744	0.506
1091.999	618.292	80.005	19.995	103.241	20.184	2.927	0.531
1092.499	618.527	80.005	19.995	103.238	20.190	2.545	0.520
1092.999	618.755	80.005	19.996	103.237	20.189	2.602	0.481
1093.499	619.017	80.005	19.995	103.238	20.188	2.649	0.477
1093.999	619.276	80.006	19.995	103.241	20.183	3.006	0.505
1094.499	619.519	80.005	19.996	103.244	20.186	2.807	0.511
1094.999	619.780	80.005	19.995	103.245	20.189	2.588	0.503
1095.499	620.046	80.005	19.996	103.245	20.186	2.801	0.515
1095.999	620.307	80.005	19.995	103.239	20.187	2.740	0.527
1096.499	620.555	80.006	19.995	103.238	20.187	2.748	0.518
1096.999	620.839	80.005	19.996	103.240	20.182	3.101	0.521
1097.499	621.041	80.006	19.995	103.241	20.186	2.846	0.509
1097.999	621.335	80.006	19.995	103.243	20.183	2.995	0.491
1098.499	621.563	80.005	19.994	103.246	20.183	3.009	0.509
1098.999	621.803	80.006	19.995	103.249	20.189	2.626	0.495
1099.499	622.089	80.006	19.995	103.249	20.184	2.958	0.497
1099.999	622.306	80.005	19.995	103.249	20.182	3.092	0.514
1100.499	622.606	80.007	19.994	103.250	20.178	3.334	0.510
1100.999	622.871	80.007	19.994	103.254	20.182	3.071	0.542
1101.500	623.134	80.007	19.996	103.257	20.185	2.891	0.546
1102.000	623.370	80.007	19.994	103.260	20.187	2.733	0.513
1102.499	623.619	80.007	19.994	103.260	20.182	3.089	0.492
1102.999	623.852	80.007	19.994	103.259	20.183	3.040	0.484
1103.499	624.095	80.007	19.995	103.258	20.185	2.872	0.479
1103.999	624.334	80.006	19.994	103.256	20.178	3.317	0.479
1104.499	624.624	80.005	19.994	103.254	20.185	2.906	0.506
1104.999	624.828	80.007	19.996	103.254	20.181	3.134	0.512
1105.499	625.112	80.006	19.995	103.254	20.181	3.126	0.491
1105.999	625.339	80.007	19.994	103.255	20.182	3.089	0.500
1106.500	625.575	80.006	19.995	103.256	20.180	3.211	0.487
1107.001	625.837	80.006	19.994	103.255	20.181	3.159	0.480
1107.500	626.104	80.006	19.994	103.255	20.180	3.191	0.514
1107.999	626.308	80.007	19.995	103.255	20.181	3.153	0.500
1108.499	626.571	80.007	19.994	103.252	20.180	3.182	0.469
1109.000	626.798	80.006	19.994	103.252	20.183	3.035	0.478
1109.500	627.088	80.007	19.994	103.254	20.180	3.182	0.504
1109.999	627.305	80.006	19.993	103.256	20.180	3.189	0.512
1110.500	627.613	80.005	19.994	103.257	20.181	3.134	0.516
1111.000	627.827	80.006	19.995	103.262	20.181	3.155	0.524
1111.499	628.081	80.006	19.994	103.264	20.180	3.209	0.495
1111.999	628.313	80.006	19.993	103.263	20.174	3.629	0.477
1112.499	628.556	80.005	19.995	103.262	20.183	3.007	0.480
1112.999	628.838	80.006	19.996	103.260	20.182	3.082	0.500
1113.499	629.089	80.006	19.995	103.259	20.182	3.097	0.529
1113.999	629.334	80.006	19.995	103.261	20.178	3.330	0.515
1114.499	629.576	80.006	19.995	103.263	20.182	3.068	0.491
1114.999	629.854	80.007	19.995	103.266	20.179	3.283	0.503
1115.499	630.052	80.006	19.994	103.269	20.181	3.159	0.497
1115.999	630.331	80.005	19.995	103.271	20.182	3.047	0.476
1116.499	630.548	80.005	19.994	103.268	20.177	3.415	0.487
1116.999	630.810	80.006	19.995	103.266	20.178	3.313	0.488
1117.499	631.076	80.007	19.995	103.265	20.182	3.069	0.504
1117.999	631.320	80.006	19.995	103.268	20.183	3.001	0.519
1118.499	631.582	80.005	19.995	103.267	20.178	3.315	0.508
1118.999	631.871	80.005	19.995	103.267	20.182	3.100	0.529
1119.499	632.096	80.005	19.995	103.272	20.177	3.394	0.533
1119.999	632.336	80.005	19.995	103.274	20.178	3.329	0.489
1120.499	632.589	80.005	19.994	103.269	20.176	3.451	0.479
1120.999	632.813	80.004	19.995	103.268	20.176	3.475	0.485
1121.499	633.096	80.006	19.995	103.271	20.177	3.385	0.492
1121.999	633.306	80.006	19.994	103.271	20.181	3.155	0.500
1122.499	633.581	80.004	19.994	103.275	20.181	3.166	0.490
1122.999	633.822	80.005	19.996	103.280	20.179	3.281	0.501
1123.499	634.073	80.006	19.996	103.285	20.179	3.283	0.504
1123.999	634.325	80.006	19.995	103.288	20.180	3.195	0.497
1124.499	634.595	80.005	19.994	103.285	20.178	3.319	0.513
1124.999	634.852	80.006	19.996	103.280	20.179	3.296	0.524
1125.499	635.101	80.006	19.995	103.279	20.178	3.364	0.516
1126.000	635.343	80.007	19.994	103.276	20.176	3.466	0.499
1126.500	635.599	80.007	19.995	103.268	20.174	3.597	0.495
1126.999	635.856	80.006	19.995	103.266	20.180	3.188	0.506
1127.499	636.145	80.007	19.996	103.270	20.178	3.355	0.529
1127.999	636.372	80.007	19.995	103.270	20.178	3.314	0.531
1128.499	636.657	80.007	19.996	103.270	20.176	3.497	0.514
1129.000	636.888	80.006	19.995	103.272	20.176	3.490	0.514
1129.500	637.133	80.007	19.994	103.275	20.179	3.308	0.496
1129.999	637.356	80.007	19.995	103.275	20.175	3.552	0.472
1130.500	637.665	80.008	19.995	103.276	20.175	3.567	0.500
1131.000	637.849	80.005	19.995	103.272	20.175	3.511	0.512
1131.499	638.130	80.008	19.995	103.273	20.175	3.524	0.479
1131.999	638.381	80.007	19.995	103.275	20.172	3.726	0.498
1132.500	638.657	80.007	19.994	103.276	20.177	3.386	0.530
1133.000	638.905	80.007	19.994	103.275	20.177	3.414	0.526
1133.499	639.129	80.006	19.994	103.280	20.175	3.576	0.498
1134.000	639.413	80.008	19.995	103.284	20.180	3.217	0.490
1134.500	639.661	80.009	19.995	103.284	20.177	3.404	0.520
1134.999	639.862	80.007	19.993	103.284	20.178	3.316	0.490
1135.499	640.131	80.008	19.995	103.287	20.179	3.287	0.460
1135.999	640.394	80.008	19.994	103.287	20.174	3.633	0.501
1136.499	640.667	80.007	19.994	103.287	20.175	3.574	0.534
1136.999	640.892	80.008	19.994	103.287	20.176	3.482	0.517
1137.499	641.162	80.009	19.994	103.288	20.175	3.516	0.496
1137.999	641.382	80.007	19.994	103.287	20.177	3.405	0.492
1138.499	641.700	80.008	19.994	103.289	20.180	3.233	0.514
1138.999	641.903	80.007	19.994	103.289	20.173	3.698	0.530
1139.499	642.168	80.007	19.994	103.288	20.176	3.455	0.494
1139.999	642.389	80.005	19.993	103.289	20.174	3.588	0.476
1140.499	642.664	80.007	19.993	103.288	20.176	3.502	0.491
1140.999	642.913	80.006	19.994	103.287	20.174	3.624	0.510
1141.499	643.180	80.007	19.994	103.286	20.172	3.723	0.520
1141.999	643.429	80.007	19.995	103.286	20.177	3.382	0.516
1142.499	643.680	80.007	19.993	103.287	20.174	3.639	0.508
1142.999	643.926	80.007	19.994	103.288	20.174	3.637	0.499
1143.499	644.164	80.006	19.994	103.291	20.178	3.357	0.490
1143.999	644.406	80.007	19.995	103.292	20.179	3.303	0.482
1144.499	644.626	80.007	19.995	103.291	20.167	4.094	0.472
1145.000	644.874	80.006	19.995	103.292	20.172	3.721	0.465
1145.500	645.148	80.007	19.995	103.293	20.174	3.612	0.495
1145.999	645.421	80.007	19.994	103.292	20.170	3.876	0.535
1146.499	645.662	80.006	19.994	103.292	20.169	3.912	0.530
1146.999	645.926	80.006	19.994	103.292	20.178	3.341	0.509
1147.499	646.159	80.006	19.994	103.292	20.179	3.269	0.501
1147.999	646.429	80.006	19.994	103.291	20.171	3.829	0.500
1148.499	646.681	80.006	19.995	103.290	20.173	3.689	0.513
1148.999	646.946	80.007	19.993	103.289	20.175	3.522	0.519
1149.499	647.162	80.005	19.994	103.289	20.175	3.549	0.499
1149.999	647.431	80.007	19.995	103.289	20.173	3.678	0.483
1150.499	647.641	80.007	19.995	103.289	20.178	3.373	0.483
1151.000	647.924	80.006	19.994	103.289	20.177	3.393	0.486
1151.500	648.168	80.007	19.995	103.291	20.174	3.583	0.509
1151.999	648.442	80.006	19.994	103.294	20.171	3.835	0.522
1152.499	648.693	80.007	19.995	103.296	20.171	3.810	0.522
1152.999	648.908	80.006	19.995	103.296	20.174	3.593	0.495
1153.499	649.171	80.007	19.995	103.297	20.173	3.645	0.472
1153.999	649.431	80.006	19.995	103.296	20.176	3.469	0.501
1154.499	649.673	80.007	19.996	103.293	20.173	3.680	0.512
1154.999	649.912	80.008	19.994	103.291	20.174	3.628	0.491
1155.499	650.169	80.007	19.995	103.291	20.174	3.594	0.488
1155.999	650.443	80.008	19.995	103.291	20.174	3.594	0.514
1156.500	650.714	80.008	19.995	103.294	20.172	3.717	0.538
1157.000	650.949	80.008	19.994	103.298	20.173	3.668	0.525
1157.499	651.201	80.008	19.995	103.299	20.173	3.683	0.496
1157.999	651.459	80.007	19.995	103.299	20.174	3.609	0.499
1158.499	651.695	80.009	19.994	103.301	20.173	3.688	0.502
1158.999	651.949	80.008	19.996	103.299	20.166	4.112	0.492
1159.499	652.216	80.009	19.995	103.298	20.169	3.967	0.506
1159.999	652.447	80.009	19.995	103.302	20.173	3.694	0.510
1160.499	652.696	80.009	19.994	103.304	20.172	3.740	0.489
1160.999	652.953	80.008	19.995	103.303	20.168	4.026	0.493
1161.499	653.196	80.010	19.995	103.304	20.168	3.985	0.503
1161.999	653.482	80.010	19.995	103.306	20.168	3.985	0.515
1162.499	653.711	80.008	19.995	103.307	20.168	3.977	0.522
1162.999	653.992	80.009	19.995	103.312	20.168	3.992	0.513
1163.500	654.249	80.007	19.995	103.315	20.165	4.193	0.524
1164.000	654.482	80.009	19.995	103.314	20.166	4.159	0.514
1164.499	654.734	80.008	19.994	103.309	20.167	4.085	0.487
1164.999	654.992	80.008	19.994	103.305	20.168	3.983	0.497
1165.499	655.237	80.008	19.994	103.302	20.169	3.951	0.507
1165.999	655.493	80.008	19.994	103.304	20.167	4.056	0.503
1166.499	655.738	80.007	19.995	103.308	20.171	3.776	0.501
1166.999	656.004	80.006	19.996	103.313	20.171	3.811	0.506
1167.499	656.238	80.005	19.994	103.316	20.165	4.177	0.505
1167.999	656.497	80.006	19.994	103.319	20.166	4.126	0.496
1168.499	656.779	80.006	19.995	103.320	20.166	4.152	0.517
1168.999	657.030	80.005	19.994	103.322	20.168	4.006	0.537
1169.499	657.252	80.007	19.996	103.325	20.168	3.981	0.504
1169.999	657.537	80.006	19.994	103.328	20.166	4.152	0.490
1170.499	657.752	80.006	19.995	103.329	20.165	4.214	0.503
1170.999	658.008	80.007	19.996	103.330	20.166	4.108	0.485
1171.499	658.268	80.006	19.995	103.332	20.167	4.080	0.493
1172.000	658.509	80.006	19.996	103.331	20.164	4.239	0.509
1172.501	658.781	80.006	19.996	103.331	20.164	4.257	0.507
1173.001	659.028	80.005	19.996	103.331	20.163	4.345	0.516
1173.500	659.270	80.004	19.995	103.330	20.163	4.322	0.504
1174.000	659.490	80.005	19.995	103.330	20.165	4.197	0.476
1174.500	659.740	80.005	19.995	103.330	20.166	4.141	0.466
1174.999	660.029	80.005	19.995	103.331	20.163	4.360	0.504
1175.499	660.286	80.007	19.995	103.332	20.165	4.197	0.542
1175.999	660.531	80.005	19.995	103.333	20.164	4.294	0.524
1176.500	660.753	80.005	19.994	103.334	20.162	4.380	0.484
1177.000	661.028	80.006	19.995	103.335	20.163	4.351	0.482
1177.500	661.278	80.005	19.996	103.335	20.164	4.288	0.511
1178.000	661.514	80.005	19.995	103.334	20.166	4.114	0.505
1178.499	661.771	80.004	19.995	103.334	20.167	4.065	0.489
1178.999	662.057	80.006	19.995	103.334	20.162	4.398	0.518
1179.499	662.272	80.006	19.995	103.335	20.163	4.306	0.522
1179.999	662.543	80.004	19.996	103.335	20.165	4.228	0.494
1180.499	662.815	80.005	19.995	103.335	20.166	4.167	0.514
1180.999	663.071	80.003	19.996	103.336	20.165	4.196	0.536
1181.499	663.322	80.006	19.996	103.335	20.164	4.271	0.518
1181.999	663.562	80.005	19.995	103.333	20.161	4.478	0.499
1182.499	663.818	80.005	19.995	103.333	20.163	4.334	0.493
1182.999	664.056	80.005	19.995	103.333	20.165	4.208	0.494
1183.499	664.302	80.005	19.996	103.333	20.163	4.354	0.489
1183.999	664.547	80.005	19.995	103.334	20.163	4.363	0.488
1184.499	664.840	80.005	19.996	103.338	20.162	4.377	0.514
1184.999	665.093	80.006	19.996	103.342	20.162	4.374	0.542
1185.499	665.328	80.005	19.996	103.346	20.162	4.386	0.517
1185.999	665.591	80.005	19.996	103.350	20.159	4.597	0.493
1186.499	665.818	80.006	19.997	103.353	20.161	4.468	0.494
1186.999	666.055	80.005	19.996	103.353	20.155	4.837	0.477
1187.500	666.332	80.006	19.996	103.350	20.161	4.453	0.489
1188.000	666.587	80.005	19.996	103.345	20.160	4.536	0.523
1188.499	666.807	80.005	19.996	103.339	20.157	4.708	0.503
1188.999	667.114	80.006	19.995	103.337	20.155	4.870	0.501
1189.499	667.338	80.006	19.996	103.335	20.154	4.925	0.529
1189.999	667.621	80.006	19.995	103.340	20.154	4.904	0.519
1190.499	667.852	80.006	19.996	103.346	20.156	4.784	0.510
1190.999	668.094	80.006	19.996	103.354	20.155	4.843	0.494
1191.500	668.392	80.005	19.995	103.359	20.155	4.847	0.507
1192.000	668.579	80.006	19.995	103.362	20.156	4.811	0.512
1192.500	668.840	80.006	19.995	103.363	20.155	4.897	0.467
1193.000	669.134	80.007	19.995	103.364	20.153	5.007	0.502
1193.499	669.351	80.006	19.995	103.364	20.153	4.976	0.533
1193.999	669.633	80.006	19.996	103.364	20.156	4.781	0.505
1194.499	669.898	80.005	19.995	103.365	20.155	4.871	0.523
1195.000	670.121	80.006	19.995	103.365	20.157	4.710	0.518
1195.500	670.396	80.005	19.995	103.367	20.154	4.929	0.493
1195.999	670.610	80.005	19.995	103.372	20.150	5.177	0.493
1196.499	670.892	80.006	19.995	103.372	20.153	5.006	0.492
1196.999	671.162	80.007	19.994	103.373	20.151	5.117	0.524
1197.499	671.387	80.005	19.996	103.377	20.152	5.085	0.524
1197.999	671.613	80.005	19.995	103.378	20.154	4.956	0.473
1198.499	671.894	80.005	19.995	103.376	20.155	4.846	0.479
1198.999	672.150	80.004	19.995	103.377	20.152	5.042	0.522
1199.500	672.407	80.005	19.994	103.377	20.150	5.179	0.525
1200.000	672.683	80.006	19.994	103.375	20.153	5.037	0.523
1200.500	672.901	80.006	19.995	103.375	20.155	4.900	0.514
1201.000	673.158	80.006	19.994	103.375	20.151	5.143	0.485
1201.499	673.382	80.006	19.994	103.378	20.148	5.314	0.478
1201.999	673.691	80.004	19.994	103.383	20.151	5.170	0.507
1202.499	673.950	80.005	19.995	103.385	20.153	5.016	0.551
1202.999	674.145	80.007	19.994	103.384	20.151	5.122	0.511
1203.499	674.392	80.006	19.995	103.386	20.151	5.147	0.447
1203.999	674.680	80.006	19.995	103.390	20.150	5.217	0.488
1204.499	674.934	80.006	19.995	103.392	20.148	5.339	0.539
1204.999	675.181	80.005	19.994	103.397	20.149	5.264	0.522
1205.499	675.459	80.006	19.995	103.403	20.151	5.153	0.514
1205.999	675.684	80.006	19.994	103.407	20.151	5.135	0.514
1206.499	675.949	80.007	19.994	103.408	20.149	5.291	0.496
1206.999	676.197	80.006	19.995	103.408	20.144	5.611	0.501
1207.499	676.447	80.005	19.994	103.412	20.146	5.439	0.505
1207.999	676.691	80.007	19.994	103.412	20.149	5.259	0.496
1208.499	676.951	80.006	19.996	103.412	20.147	5.433	0.499
1208.999	677.210	80.006	19.994	103.412	20.149	5.268	0.512
1209.500	677.501	80.007	19.995	103.411	20.148	5.362	0.535
1210.000	677.694	80.008	19.996	103.408	20.149	5.299	0.517
1210.499	677.948	80.006	19.994	103.411	20.147	5.432	0.466
1210.999	678.221	80.007	19.994	103.413	20.143	5.662	0.487
1211.500	678.414	80.007	19.995	103.413	20.144	5.628	0.497
1212.000	678.691	80.007	19.995	103.417	20.141	5.780	0.468
1212.500	678.956	80.008	19.994	103.422	20.139	5.930	0.506
1213.001	679.214	80.009	19.995	103.426	20.146	5.477	0.532
1213.500	679.465	80.008	19.995	103.431	20.147	5.405	0.516
1213.999	679.720	80.007	19.994	103.434	20.142	5.746	0.507
1214.499	679.951	80.008	19.994	103.435	20.143	5.682	0.496
1214.999	680.240	80.007	19.995	103.433	20.141	5.803	0.503
1215.499	680.486	80.007	19.994	103.432	20.140	5.841	0.527
1215.999	680.734	80.007	19.994	103.433	20.143	5.697	0.514
1216.499	680.994	80.008	19.994	103.437	20.142	5.726	0.501
1216.999	681.245	80.008	19.994	103.439	20.141	5.796	0.509
1217.499	681.521	80.008	19.994	103.442	20.142	5.718	0.519
1217.999	681.772	80.007	19.994	103.442	20.143	5.661	0.527
1218.500	682.007	80.008	19.994	103.441	20.142	5.734	0.506
1219.000	682.276	80.008	19.994	103.440	20.139	5.963	0.495
1219.499	682.521	80.009	19.994	103.441	20.140	5.886	0.509
1219.999	682.755	80.008	19.994	103.442	20.138	6.012	0.496
1220.499	682.992	80.008	19.993	103.446	20.141	5.784	0.475
1220.999	683.218	80.007	19.995	103.449	20.142	5.705	0.467
1221.499	683.505	80.007	19.995	103.451	20.141	5.802	0.488
1221.999	683.776	80.007	19.993	103.451	20.138	6.027	0.535
1222.499	684.020	80.007	19.994	103.450	20.139	5.952	0.537
1222.999	684.302	80.008	19.995	103.448	20.138	5.996	0.521
1223.500	684.495	80.007	19.994	103.446	20.138	6.029	0.501
1224.000	684.792	80.006	19.994	103.447	20.139	5.953	0.483
1224.499	685.047	80.007	19.994	103.447	20.139	5.953	0.520
1225.000	685.291	80.007	19.994	103.450	20.136	6.119	0.525
1225.500	685.555	80.006	19.994	103.454	20.134	6.257	0.504
1226.000	685.776	80.007	19.994	103.462	20.137	6.079	0.497
1226.500	686.061	80.007	19.994	103.469	20.138	6.031	0.495
1226.999	686.324	80.006	19.994	103.470	20.136	6.137	0.526
1227.499	686.565	80.006	19.994	103.468	20.137	6.086	0.526
1228.000	686.813	80.008	19.993	103.464	20.141	5.790	0.497
1228.500	687.055	80.007	19.994	103.460	20.132	6.376	0.490
1228.999	687.334	80.005	19.993	103.456	20.137	6.078	0.506
1229.499	687.572	80.008	19.994	103.459	20.138	6.024	0.519
1230.000	687.841	80.007	19.995	103.465	20.136	6.148	0.512
1230.500	688.090	80.007	19.994	103.472	20.134	6.247	0.513
1230.999	688.369	80.008	19.995	103.475	20.136	6.124	0.523
1231.499	688.600	80.008	19.994	103.480	20.136	6.153	0.518
1231.999	688.857	80.006	19.994	103.483	20.135	6.225	0.499
1232.499	689.109	80.006	19.995	103.482	20.139	5.963	0.499
1232.999	689.351	80.007	19.994	103.484	20.134	6.275	0.502
1233.499	689.624	80.006	19.994	103.485	20.136	6.130	0.505
1233.999	689.884	80.008	19.994	103.485	20.140	5.851	0.524
1234.499	690.182	80.006	19.995	103.486	20.135	6.177	0.546
1234.999	690.417	80.008	19.993	103.488	20.136	6.161	0.545
1235.499	690.696	80.007	19.994	103.487	20.137	6.101	0.523
1235.999	690.957	80.008	19.994	103.486	20.133	6.362	0.527
1236.499	691.187	80.007	19.994	103.487	20.137	6.073	0.516
1236.999	691.463	80.009	19.994	103.486	20.130	6.513	0.499
1237.500	691.693	80.009	19.993	103.486	20.137	6.074	0.506
1238.000	691.946	80.008	19.994	103.486	20.134	6.270	0.494
1238.499	692.201	80.008	19.995	103.487	20.130	6.517	0.495
1239.000	692.448	80.009	19.994	103.487	20.131	6.479	0.505
1239.500	692.675	80.008	19.994	103.488	20.134	6.275	0.488
1240.000	692.963	80.009	19.995	103.488	20.132	6.406	0.494
1240.500	693.238	80.008	19.993	103.489	20.134	6.270	0.539
1240.999	693.506	80.009	19.994	103.491	20.133	6.338	0.553
1241.499	693.735	80.009	19.994	103.491	20.131	6.462	0.521
1241.999	693.993	80.008	19.994	103.491	20.129	6.609	0.492
1242.499	694.256	80.009	19.994	103.491	20.130	6.521	0.504
1242.999	694.487	80.009	19.993	103.491	20.131	6.498	0.507
1243.499	694.753	80.007	19.993	103.488	20.131	6.500	0.496
1243.999	694.993	80.008	19.994	103.488	20.129	6.593	0.502
1244.499	695.255	80.007	19.994	103.489	20.132	6.403	0.504
1245.000	695.544	80.008	19.994	103.489	20.133	6.337	0.526
1245.500	695.782	80.008	19.994	103.491	20.133	6.360	0.538
1245.999	696.032	80.007	19.994	103.495	20.125	6.892	0.508
1246.499	696.279	80.006	19.995	103.497	20.129	6.621	0.493
1246.999	696.576	80.009	19.995	103.496	20.129	6.623	0.521
1247.499	696.819	80.007	19.996	103.494	20.129	6.597	0.542
1248.000	697.075	80.008	19.994	103.492	20.124	6.905	0.519
1248.501	697.326	80.009	19.995	103.488	20.129	6.606	0.503
1249.000	697.607	80.007	19.994	103.491	20.126	6.804	0.520
1249.499	697.816	80.005	19.995	103.495	20.126	6.797	0.511
1249.999	698.094	80.008	19.995	103.502	20.124	6.932	0.488
1250.499	698.339	80.006	19.994	103.509	20.124	6.907	0.505
1250.999	698.617	80.006	19.995	103.515	20.124	6.909	0.523
1251.499	698.843	80.008	19.994	103.517	20.129	6.630	0.513
1251.999	699.113	80.007	19.996	103.520	20.124	6.930	0.501
1252.500	699.377	80.008	19.995	103.517	20.127	6.702	0.515
1253.000	699.570	80.006	19.996	103.513	20.128	6.645	0.495
1253.499	699.858	80.006	19.995	103.514	20.124	6.909	0.469
1253.999	700.093	80.008	19.995	103.514	20.126	6.798	0.502
1254.500	700.377	80.006	19.995	103.514	20.125	6.880	0.521
1255.000	700.602	80.006	19.996	103.517	20.127	6.766	0.514
1255.499	700.844	80.006	19.995	103.522	20.129	6.623	0.488
1255.999	701.100	80.006	19.995	103.522	20.128	6.695	0.482
1256.499	701.370	80.006	19.995	103.523	20.125	6.854	0.512
1256.999	701.623	80.007	19.996	103.523	20.122	7.093	0.525
1257.499	701.871	80.007	19.995	103.524	20.123	7.034	0.512
1257.999	702.117	80.006	19.994	103.524	20.122	7.078	0.497
1258.499	702.367	80.006	19.994	103.524	20.119	7.245	0.495
1258.999	702.618	80.007	19.995	103.523	20.122	7.067	0.499
1259.499	702.867	80.005	19.995	103.523	20.121	7.155	0.501
1259.999	703.108	80.005	19.995	103.523	20.120	7.186	0.495
1260.500	703.351	80.005	19.994	103.523	20.119	7.281	0.487
1261.000	703.630	80.006	19.995	103.523	20.119	7.267	0.503
1261.499	703.886	80.006	19.994	103.523	20.122	7.039	0.529
1261.999	704.131	80.006	19.995	103.523	20.116	7.453	0.518
1262.499	704.331	80.006	19.994	103.523	20.117	7.375	0.473
1262.999	704.632	80.006	19.995	103.523	20.119	7.264	0.473
1263.499	704.872	80.006	19.995	103.526	20.119	7.287	0.521
1263.999	705.121	80.006	19.994	103.530	20.119	7.246	0.515
1264.499	705.358	80.006	19.995	103.531	20.118	7.325	0.487
1264.999	705.601	80.006	19.995	103.532	20.117	7.429	0.483
1265.499	705.877	80.005	19.995	103.533	20.119	7.292	0.499
1265.999	706.137	80.006	19.994	103.536	20.117	7.388	0.528
1266.499	706.357	80.005	19.995	103.534	20.115	7.528	0.508
1266.999	706.620	80.006	19.994	103.536	20.115	7.508	0.482
1267.499	706.843	80.006	19.996	103.538	20.115	7.528	0.485
1267.999	707.127	80.007	19.995	103.543	20.115	7.516	0.497
1268.500	707.395	80.006	19.995	103.546	20.111	7.768	0.529
1269.001	707.623	80.007	19.994	103.551	20.116	7.462	0.523
1269.500	707.850	80.007	19.995	103.555	20.112	7.712	0.475
1269.999	708.072	80.005	19.995	103.555	20.117	7.431	0.452
1270.499	708.361	80.005	19.995	103.555	20.114	7.590	0.480
1270.999	708.613	80.006	19.995	103.556	20.116	7.496	0.526
1271.499	708.867	80.006	19.995	103.556	20.116	7.468	0.524
1271.999	709.141	80.006	19.995	103.557	20.111	7.797	0.517
1272.499	709.378	80.007	19.996	103.561	20.111	7.826	0.520
1272.999	709.615	80.006	19.995	103.562	20.114	7.597	0.493
1273.499	709.868	80.007	19.996	103.562	20.115	7.560	0.482
1273.999	710.144	80.005	19.996	103.564	20.114	7.614	0.509
1274.499	710.406	80.007	19.996	103.564	20.114	7.631	0.533
1274.999	710.605	80.007	19.997	103.563	20.112	7.707	0.500
1275.500	710.906	80.006	19.995	103.562	20.113	7.664	0.481
1276.000	711.127	80.005	19.996	103.562	20.113	7.682	0.511
1276.499	711.398	80.006	19.997	103.561	20.111	7.770	0.507
1276.999	711.646	80.006	19.996	103.561	20.111	7.821	0.505
1277.499	711.898	80.008	19.995	103.562	20.113	7.642	0.510
1277.999	712.147	80.005	19.997	103.564	20.113	7.698	0.501
1278.499	712.381	80.005	19.996	103.565	20.114	7.583	0.492
1278.999	712.653	80.005	19.995	103.565	20.112	7.720	0.494
1279.499	712.878	80.006	19.996	103.565	20.110	7.895	0.501
1279.999	713.118	80.004	19.996	103.565	20.111	7.825	0.481
1280.499	713.388	80.005	19.996	103.565	20.113	7.685	0.488
1280.999	713.672	80.005	19.996	103.566	20.112	7.719	0.533
1281.499	713.880	80.005	19.996	103.570	20.112	7.758	0.523
1281.999	714.128	80.006	19.996	103.571	20.112	7.721	0.473
1282.499	714.378	80.005	19.996	103.571	20.106	8.153	0.477
1282.999	714.643	80.005	19.996	103.573	20.107	8.059	0.507
1283.499	714.897	80.004	19.996	103.575	20.111	7.831	0.518
1283.999	715.174	80.004	19.996	103.571	20.109	7.945	0.525
1284.499	715.428	80.003	19.996	103.575	20.109	7.929	0.531
1284.999	715.665	80.004	19.995	103.575	20.112	7.745	0.511
1285.499	715.943	80.004	19.995	103.573	20.110	7.837	0.503
1285.999	716.189	80.005	19.995	103.570	20.110	7.855	0.519
1286.499	716.446	80.005	19.996	103.573	20.106	8.151	0.513
1286.999	716.734	80.004	19.995	103.575	20.109	7.932	0.524
1287.499	716.977	80.006	19.995	103.575	20.109	7.944	0.538
1287.999	717.218	80.007	19.994	103.575	20.107	8.081	0.507
1288.499	717.451	80.005	19.996	103.575	20.106	8.164	0.480
1288.999	717.700	80.005	19.995	103.575	20.109	7.944	0.478
1289.499	717.972	80.006	19.995	103.574	20.106	8.142	0.501
1289.999	718.208	80.005	19.994	103.581	20.109	7.942	0.515
1290.499	718.479	80.007	19.995	103.588	20.111	7.789	0.508
1291.000	718.684	80.006	19.995	103.590	20.108	7.976	0.491
1291.500	718.955	80.006	19.995	103.587	20.108	8.003	0.476
1292.000	719.203	80.007	19.995	103.584	20.107	8.039	0.498
1292.500	719.482	80.006	19.995	103.577	20.105	8.169	0.523
1292.999	719.727	80.007	19.995	103.571	20.107	8.042	0.525
1293.500	719.977	80.007	19.995	103.569	20.107	8.058	0.509
1294.000	720.213	80.007	19.994	103.569	20.107	8.059	0.491
1294.499	720.470	80.007	19.994	103.569	20.107	8.091	0.489
1294.999	720.750	80.007	19.995	103.574	20.107	8.073	0.515
1295.499	721.023	80.008	19.995	103.578	20.107	8.029	0.545
1295.999	721.249	80.006	19.994	103.579	20.105	8.195	0.526
1296.499	721.482	80.007	19.994	103.579	20.111	7.795	0.479
1297.000	721.735	80.007	19.995	103.577	20.111	7.800	0.472
1297.500	722.014	80.008	19.995	103.572	20.108	8.009	0.509
1297.999	722.273	80.007	19.994	103.568	20.108	8.003	0.535
1298.499	722.508	80.008	19.995	103.567	20.105	8.166	0.516
1298.999	722.760	80.006	19.994	103.568	20.109	7.946	0.490
1299.499	723.029	80.008	19.994	103.568	20.108	8.025	0.504
1299.999	723.267	80.009	19.995	103.567	20.107	8.057	0.514
1300.499	723.509	80.007	19.995	103.565	20.109	7.916	0.494
1300.999	723.772	80.008	19.994	103.565	20.105	8.219	0.493
1301.499	724.054	80.007	19.994	103.563	20.108	7.989	0.525
1301.999	724.313	80.008	19.994	103.563	20.109	7.936	0.543
1302.499	724.541	80.006	19.995	103.563	20.108	7.966	0.514
1302.999	724.830	80.007	19.994	103.564	20.109	7.944	0.502
1303.499	725.062	80.007	19.994	103.563	20.111	7.816	0.519
1303.999	725.332	80.006	19.995	103.558	20.109	7.898	0.512
1304.500	725.553	80.006	19.994	103.551	20.110	7.872	0.497
1305.000	725.854	80.006	19.994	103.545	20.108	7.976	0.507
1305.499	726.120	80.006	19.994	103.538	20.112	7.695	0.544
1305.999	726.356	80.007	19.995	103.532	20.110	7.880	0.535
1306.499	726.646	80.007	19.994	103.530	20.114	7.606	0.514
1307.000	726.896	80.006	19.994	103.529	20.115	7.500	0.533
1307.500	727.165	80.006	19.994	103.526	20.113	7.661	0.529
1307.999	727.419	80.006	19.993	103.522	20.114	7.599	0.521
1308.499	727.652	80.006	19.995	103.521	20.115	7.543	0.505
1308.999	727.928	80.007	19.994	103.514	20.116	7.442	0.498
1309.499	728.187	80.005	19.994	103.507	20.118	7.300	0.522
1309.999	728.451	80.006	19.994	103.501	20.118	7.292	0.529
1310.499	728.711	80.006	19.995	103.496	20.119	7.236	0.524
1311.000	728.966	80.007	19.994	103.488	20.123	6.971	0.519
1311.500	729.235	80.006	19.994	103.485	20.122	7.060	0.519
1311.999	729.503	80.007	19.995	103.478	20.123	6.959	0.530
1312.499	729.749	80.006	19.995	103.470	20.129	6.602	0.525
1313.000	729.997	80.007	19.995	103.461	20.124	6.904	0.504
1313.500	730.275	80.006	19.995	103.455	20.124	6.893	0.510
1313.999	730.559	80.006	19.994	103.447	20.129	6.571	0.544
1314.499	730.823	80.008	19.994	103.442	20.128	6.621	0.555
1314.999	731.110	80.006	19.995	103.435	20.129	6.581	0.549
1315.499	731.338	80.006	19.994	103.428	20.132	6.403	0.533
1315.999	731.598	80.008	19.994	103.419	20.131	6.430	0.502
1316.499	731.905	80.007	19.994	103.411	20.135	6.205	0.528
1316.999	732.167	80.009	19.995	103.407	20.137	6.022	0.568
1317.499	732.393	80.008	19.995	103.404	20.136	6.130	0.528
1317.999	732.625	80.009	19.994	103.396	20.137	6.044	0.473
1318.499	732.919	80.009	19.994	103.389	20.139	5.916	0.492
1319.000	733.182	80.008	19.993	103.381	20.138	5.975	0.542
1319.500	733.467	80.008	19.994	103.371	20.144	5.606	0.553
1319.999	733.743	80.008	19.994	103.363	20.144	5.566	0.554
1320.499	733.993	80.009	19.994	103.357	20.144	5.564	0.543
1320.999	734.256	80.008	19.995	103.351	20.145	5.553	0.520
1321.499	734.515	80.009	19.994	103.343	20.146	5.467	0.518
1321.999	734.784	80.009	19.995	103.334	20.148	5.307	0.525
1322.499	735.053	80.010	19.993	103.324	20.151	5.129	0.532
1322.999	735.311	80.008	19.994	103.314	20.153	4.988	0.532
1323.500	735.541	80.009	19.994	103.305	20.152	5.036	0.508
1324.000	735.829	80.009	19.995	103.297	20.154	4.950	0.503
1324.501	736.120	80.009	19.994	103.289	20.156	4.794	0.548
1325.001	736.389	80.009	19.995	103.282	20.159	4.604	0.570
1325.500	736.660	80.008	19.994	103.274	20.157	4.738	0.550
1326.000	736.907	80.009	19.993	103.266	20.158	4.658	0.529
1326.500	737.145	80.009	19.994	103.259	20.163	4.319	0.502
1327.000	737.435	80.008	19.994	103.254	20.161	4.464	0.506
1327.500	737.681	80.008	19.994	103.251	20.162	4.403	0.532
1328.000	737.927	80.009	19.993	103.249	20.163	4.320	0.514
1328.500	738.177	80.007	19.994	103.248	20.165	4.229	0.494
1329.000	738.476	80.008	19.993	103.248	20.163	4.317	0.522
1329.500	738.725	80.007	19.994	103.243	20.166	4.150	0.548
1330.000	738.971	80.008	19.994	103.243	20.167	4.048	0.522
1330.500	739.252	80.007	19.994	103.245	20.172	3.743	0.511
1331.000	739.500	80.007	19.994	103.242	20.168	4.018	0.528
1331.500	739.767	80.006	19.994	103.236	20.172	3.767	0.522
1332.000	740.023	80.007	19.994	103.236	20.174	3.602	0.519
1332.500	740.262	80.007	19.995	103.229	20.174	3.605	0.509
1333.000	740.553	80.008	19.995	103.222	20.175	3.566	0.513
1333.500	740.829	80.006	19.995	103.217	20.172	3.761	0.549
1334.000	741.087	80.007	19.995	103.215	20.174	3.637	0.551
1334.500	741.312	80.007	19.995	103.212	20.173	3.670	0.509
1335.000	741.559	80.005	19.995	103.211	20.173	3.695	0.477
1335.500	741.885	80.006	19.994	103.212	20.173	3.646	0.522
1336.000	742.103	80.007	19.996	103.212	20.176	3.471	0.558
1336.500	742.338	80.007	19.995	103.212	20.177	3.415	0.499
1337.000	742.613	80.007	19.995	103.211	20.175	3.521	0.481
1337.500	742.873	80.007	19.995	103.211	20.176	3.485	0.523
1338.000	743.116	80.004	19.995	103.210	20.172	3.709	0.519
1338.500	743.377	80.007	19.994	103.207	20.176	3.460	0.503
1339.000	743.652	80.006	19.996	103.206	20.179	3.295	0.520
