Sample ID:	C:\MCC\MCC Cal\Test\Nylon_Carpet_HighPile_MCC_30K_min_211028_R3.txt
Sample Weight (mg):	4.37
Heating Rate (C/s):	0.5
Combustor Temp (C):	900
N2 Flow Rate (cc/min):	80
O2 Flow Rate (cc/min):	20
Calibration File:	C:\MCC\MCC Cal\Coeff1 JN10440_30_210304.txt.txt
T Correction Coefficients:	0	1.024463	0
Time Shift (s):	14
*
Time (s)	Temperature (C)	N2 flow rate (cc/min)	O2 flow rate (cc/min)	Flow Rate (cc/min)	Oxygen (%)	HRR (W/g)	Heating rate (C/s)
0.000	107.488	79.997	19.997	102.928	20.061	-0.010	-0.005
0.500	107.490	79.997	19.996	102.926	20.060	0.065	0.047
1.000	107.455	79.997	19.996	102.927	20.061	0.028	0.020
1.500	107.433	79.997	19.995	102.926	20.064	-0.213	-0.045
2.000	107.442	79.997	19.996	102.925	20.063	-0.152	-0.035
2.500	107.449	79.997	19.996	102.925	20.062	-0.099	0.002
3.000	107.489	79.997	19.996	102.924	20.063	-0.164	0.032
3.500	107.461	79.997	19.996	102.924	20.062	-0.049	0.030
4.000	107.436	79.997	19.996	102.925	20.063	-0.144	-0.021
4.500	107.490	79.997	19.997	102.925	20.061	-0.018	-0.012
5.000	107.449	79.996	19.994	102.924	20.064	-0.199	0.021
5.500	107.492	79.997	19.997	102.924	20.067	-0.413	0.007
6.000	107.453	79.997	19.999	102.931	20.063	-0.124	0.003
6.500	107.447	79.998	19.997	102.931	20.062	-0.103	-0.020
7.000	107.432	79.997	19.998	102.931	20.063	-0.140	-0.032
7.500	107.452	79.997	19.997	102.931	20.060	0.045	-0.008
8.000	107.439	79.997	19.995	102.931	20.063	-0.166	0.006
8.500	107.415	79.997	19.997	102.924	20.064	-0.201	-0.015
9.000	107.445	79.998	19.996	102.924	20.063	-0.144	-0.015
9.500	107.476	79.997	19.997	102.925	20.065	-0.298	0.033
10.000	107.451	79.999	19.996	102.925	20.061	-0.014	0.033
10.500	107.490	79.999	19.997	102.928	20.064	-0.227	0.010
11.000	107.496	79.997	19.996	102.928	20.064	-0.243	0.030
11.500	107.445	79.999	19.996	102.928	20.063	-0.148	-0.000
12.000	107.475	79.999	19.995	102.927	20.065	-0.282	-0.033
12.500	107.484	79.997	19.996	102.926	20.066	-0.383	0.009
13.000	107.455	79.998	19.995	102.924	20.066	-0.349	0.010
13.500	107.456	79.998	19.996	102.925	20.067	-0.434	-0.023
14.000	107.471	79.998	19.996	102.925	20.066	-0.363	-0.006
14.500	107.435	79.999	19.996	102.924	20.065	-0.310	-0.003
15.000	107.445	80.001	19.995	102.928	20.062	-0.075	-0.024
15.500	107.450	80.000	19.995	102.931	20.063	-0.160	-0.006
16.000	107.481	79.999	19.995	102.934	20.064	-0.243	0.025
16.500	107.440	79.999	19.996	102.937	20.063	-0.156	0.013
17.000	107.474	79.999	19.996	102.938	20.062	-0.055	-0.008
17.500	107.442	80.000	19.996	102.938	20.063	-0.114	-0.003
18.000	107.449	80.001	19.996	102.938	20.064	-0.183	-0.012
18.500	107.443	80.001	19.996	102.937	20.062	-0.047	-0.012
19.000	107.432	80.000	19.995	102.933	20.058	0.223	-0.008
19.500	107.433	79.999	19.994	102.933	20.061	-0.016	-0.013
20.000	107.455	79.999	19.995	102.934	20.063	-0.177	0.007
20.500	107.442	80.001	19.996	102.937	20.063	-0.118	0.016
21.000	107.476	79.999	19.995	102.942	20.060	0.091	0.014
21.500	107.457	80.001	19.995	102.949	20.060	0.081	0.017
22.000	107.456	80.000	19.995	102.957	20.060	0.073	-0.002
22.500	107.451	79.999	19.995	102.960	20.061	0.010	-0.013
23.000	107.443	80.000	19.996	102.959	20.061	0.014	-0.010
23.500	107.466	79.998	19.995	102.955	20.059	0.158	0.001
24.000	107.454	79.999	19.996	102.955	20.056	0.363	0.013
24.500	107.440	79.999	19.998	102.957	20.058	0.264	-0.008
25.000	107.456	79.998	19.996	102.958	20.058	0.219	-0.012
25.500	107.472	79.999	19.998	102.938	20.055	0.426	0.017
26.000	107.485	79.998	19.997	102.920	20.055	0.479	0.031
26.500	107.435	79.997	19.999	102.907	20.057	0.321	-0.005
27.000	107.473	79.997	19.998	102.900	20.056	0.351	-0.025
27.500	107.510	79.996	19.997	102.900	20.055	0.443	0.032
28.000	107.481	79.996	19.996	102.932	20.054	0.550	0.042
28.500	107.490	79.996	19.997	102.994	20.055	0.477	-0.006
29.000	107.506	79.997	19.996	103.037	20.052	0.690	0.003
29.500	107.498	79.996	19.996	103.059	20.054	0.508	0.016
30.000	107.524	79.996	19.997	103.074	20.052	0.698	0.012
30.500	107.520	79.995	19.997	103.081	20.050	0.843	0.020
31.000	107.549	79.998	19.996	103.060	20.050	0.843	0.024
31.500	107.558	79.996	19.998	103.054	20.045	1.160	0.032
32.000	107.574	79.995	19.997	103.060	20.048	0.928	0.031
32.500	107.585	79.996	19.997	103.066	20.043	1.318	0.026
33.000	107.623	79.998	19.997	103.074	20.042	1.373	0.038
33.500	107.611	79.996	19.998	103.080	20.041	1.452	0.038
34.000	107.636	79.996	19.997	103.086	20.041	1.472	0.020
34.500	107.686	79.997	19.997	103.091	20.042	1.375	0.044
35.000	107.700	79.997	19.997	103.099	20.040	1.570	0.070
35.500	107.739	79.996	19.996	103.105	20.039	1.602	0.058
36.000	107.797	79.996	19.996	103.111	20.037	1.783	0.075
36.500	107.823	79.997	19.996	103.114	20.039	1.641	0.091
37.001	107.847	79.996	19.997	103.117	20.035	1.901	0.067
37.501	107.913	79.996	19.996	103.119	20.035	1.917	0.069
38.000	107.955	79.997	19.997	103.122	20.037	1.806	0.099
38.500	107.984	79.998	19.996	103.123	20.033	2.094	0.090
39.000	108.031	79.997	19.996	103.123	20.031	2.198	0.074
39.500	108.078	79.996	19.996	103.125	20.031	2.179	0.085
40.000	108.108	79.997	19.996	103.125	20.029	2.399	0.085
40.500	108.178	79.999	19.996	103.125	20.031	2.250	0.088
41.000	108.232	79.996	19.997	103.128	20.032	2.159	0.112
41.500	108.291	79.997	19.996	103.133	20.028	2.449	0.119
42.000	108.341	79.997	19.996	103.140	20.026	2.551	0.112
42.500	108.420	79.997	19.995	103.148	20.027	2.537	0.119
43.000	108.463	79.996	19.996	103.153	20.025	2.667	0.125
43.500	108.539	79.997	19.996	103.158	20.025	2.644	0.121
44.000	108.581	79.997	19.996	103.158	20.023	2.817	0.119
44.500	108.660	79.997	19.996	103.158	20.027	2.484	0.119
45.000	108.773	79.999	19.996	103.157	20.025	2.684	0.156
45.500	108.838	79.998	19.995	103.158	20.023	2.775	0.185
46.000	108.940	79.996	19.996	103.159	20.025	2.690	0.172
46.500	108.998	79.997	19.995	103.161	20.023	2.779	0.163
47.000	109.075	79.999	19.995	103.161	20.025	2.631	0.148
47.500	109.151	79.999	19.995	103.159	20.022	2.910	0.144
48.000	109.250	79.999	19.995	103.159	20.022	2.881	0.164
48.500	109.315	79.998	19.995	103.160	20.019	3.115	0.169
49.000	109.414	79.998	19.995	103.160	20.021	2.920	0.164
49.500	109.499	79.999	19.996	103.162	20.021	2.968	0.174
50.001	109.613	79.997	19.995	103.164	20.017	3.241	0.192
50.501	109.701	79.999	19.995	103.164	20.020	3.064	0.200
51.000	109.783	79.999	19.996	103.163	20.022	2.887	0.186
51.500	109.873	79.996	19.995	103.163	20.019	3.092	0.171
52.000	109.981	79.997	19.995	103.162	20.020	2.995	0.185
52.500	110.050	79.997	19.995	103.162	20.017	3.243	0.187
53.000	110.168	79.998	19.995	103.162	20.018	3.188	0.182
53.500	110.261	79.996	19.994	103.163	20.020	3.009	0.199
54.000	110.378	79.999	19.994	103.164	20.020	3.050	0.211
54.500	110.495	79.997	19.995	103.164	20.021	2.924	0.222
55.000	110.563	79.998	19.994	103.169	20.020	3.005	0.210
55.500	110.675	79.997	19.996	103.175	20.021	2.938	0.183
56.000	110.788	79.998	19.996	103.180	20.019	3.096	0.202
56.500	110.925	79.998	19.995	103.186	20.018	3.141	0.237
57.000	111.028	79.997	19.997	103.194	20.018	3.178	0.245
57.500	111.123	79.997	19.996	103.197	20.020	3.025	0.219
58.000	111.272	79.998	19.997	103.197	20.017	3.218	0.221
58.500	111.375	79.997	19.995	103.198	20.019	3.080	0.248
59.000	111.488	79.998	19.995	103.198	20.017	3.218	0.234
59.500	111.636	79.997	19.995	103.197	20.017	3.220	0.239
60.000	111.734	79.997	19.996	103.196	20.017	3.253	0.254
60.500	111.870	79.998	19.997	103.196	20.018	3.200	0.240
61.000	111.986	79.997	19.997	103.196	20.016	3.304	0.243
61.500	112.124	79.999	19.995	103.197	20.015	3.365	0.253
62.000	112.248	79.995	19.996	103.197	20.017	3.273	0.258
62.500	112.412	79.996	19.996	103.198	20.018	3.188	0.275
63.000	112.500	79.997	19.995	103.198	20.017	3.281	0.270
63.500	112.615	79.996	19.996	103.197	20.014	3.442	0.228
64.000	112.786	79.998	19.995	103.197	20.015	3.375	0.244
64.500	112.918	79.997	19.996	103.197	20.016	3.328	0.295
65.000	113.086	79.996	19.996	103.197	20.015	3.381	0.302
65.501	113.245	79.997	19.995	103.197	20.017	3.261	0.313
66.001	113.365	79.997	19.995	103.197	20.015	3.411	0.303
66.500	113.529	79.998	19.996	103.199	20.015	3.393	0.281
67.000	113.688	79.996	19.996	103.199	20.016	3.328	0.304
67.500	113.809	79.999	19.996	103.199	20.016	3.310	0.302
68.001	113.984	79.999	19.995	103.199	20.015	3.379	0.288
68.501	114.188	79.998	19.996	103.199	20.016	3.324	0.337
69.000	114.286	79.997	19.996	103.197	20.015	3.419	0.340
69.500	114.462	79.998	19.995	103.197	20.013	3.507	0.288
70.000	114.620	79.998	19.996	103.197	20.019	3.135	0.304
70.500	114.772	80.000	19.994	103.196	20.019	3.107	0.322
71.000	114.924	79.999	19.996	103.197	20.018	3.178	0.307
71.500	115.103	79.999	19.994	103.197	20.017	3.241	0.318
72.000	115.245	80.001	19.994	103.198	20.021	2.946	0.326
72.500	115.420	79.997	19.995	103.199	20.017	3.226	0.319
73.000	115.590	80.000	19.996	103.200	20.018	3.174	0.331
73.500	115.772	79.999	19.994	103.200	20.018	3.180	0.349
74.000	115.943	79.998	19.995	103.199	20.019	3.080	0.353
74.500	116.095	80.002	19.995	103.197	20.017	3.275	0.338
75.000	116.256	80.000	19.995	103.196	20.018	3.192	0.318
75.500	116.382	80.001	19.996	103.195	20.015	3.403	0.300
76.000	116.578	80.000	19.994	103.195	20.018	3.164	0.305
76.500	116.769	80.001	19.994	103.195	20.018	3.154	0.355
77.000	116.910	80.000	19.995	103.197	20.018	3.204	0.359
77.500	117.084	80.001	19.995	103.197	20.018	3.172	0.323
78.000	117.241	79.999	19.994	103.197	20.017	3.231	0.323
78.500	117.456	79.999	19.995	103.198	20.018	3.190	0.352
79.000	117.598	80.000	19.995	103.198	20.017	3.225	0.365
79.500	117.800	79.999	19.995	103.197	20.015	3.426	0.351
80.000	117.974	79.999	19.994	103.196	20.013	3.522	0.360
80.500	118.128	80.000	19.995	103.196	20.016	3.353	0.352
81.000	118.364	79.998	19.995	103.196	20.016	3.315	0.359
81.500	118.503	80.000	19.995	103.196	20.018	3.146	0.382
82.000	118.703	79.998	19.995	103.196	20.017	3.227	0.357
82.500	118.901	79.999	19.995	103.197	20.014	3.436	0.369
83.000	119.046	79.999	19.995	103.197	20.016	3.292	0.371
83.500	119.255	79.998	19.995	103.197	20.016	3.353	0.348
84.000	119.471	79.998	19.996	103.199	20.014	3.501	0.389
84.500	119.657	79.998	19.995	103.201	20.018	3.149	0.414
85.000	119.851	79.997	19.996	103.201	20.016	3.316	0.391
85.500	120.041	80.000	19.995	103.202	20.014	3.452	0.382
86.000	120.231	80.000	19.995	103.203	20.010	3.743	0.382
86.500	120.399	79.998	19.995	103.204	20.012	3.637	0.369
87.000	120.617	80.000	19.995	103.204	20.009	3.844	0.372
87.500	120.809	79.998	19.996	103.208	20.011	3.694	0.398
88.000	120.993	79.997	19.994	103.209	20.012	3.587	0.393
88.501	121.179	79.999	19.995	103.212	20.010	3.755	0.373
89.001	121.398	79.998	19.995	103.214	20.009	3.875	0.387
89.500	121.576	79.998	19.996	103.215	20.011	3.656	0.401
90.000	121.782	79.998	19.996	103.218	20.008	3.903	0.391
90.500	121.959	79.996	19.996	103.223	20.011	3.655	0.383
91.000	122.183	79.998	19.996	103.225	20.010	3.763	0.392
91.500	122.366	79.998	19.995	103.223	20.011	3.706	0.404
92.000	122.593	79.997	19.997	103.220	20.011	3.674	0.409
92.500	122.813	79.997	19.996	103.215	20.009	3.816	0.429
93.000	122.956	79.999	19.995	103.209	20.009	3.867	0.405
93.500	123.180	79.999	19.995	103.206	20.012	3.647	0.364
94.000	123.395	79.999	19.995	103.207	20.011	3.657	0.403
94.500	123.578	79.999	19.995	103.207	20.010	3.783	0.419
95.000	123.784	79.999	19.996	103.206	20.011	3.688	0.394
95.500	124.026	80.000	19.996	103.205	20.013	3.519	0.418
96.000	124.198	79.998	19.995	103.203	20.010	3.761	0.431
96.500	124.428	79.998	19.996	103.201	20.010	3.775	0.408
97.000	124.620	79.999	19.995	103.200	20.010	3.749	0.412
97.500	124.831	79.999	19.995	103.200	20.014	3.505	0.412
98.000	125.045	80.001	19.996	103.203	20.014	3.491	0.414
98.501	125.281	80.000	19.995	103.207	20.011	3.726	0.438
99.001	125.504	80.001	19.996	103.211	20.014	3.501	0.454
99.500	125.726	80.000	19.995	103.212	20.014	3.440	0.452
100.000	125.909	80.001	19.996	103.212	20.012	3.609	0.425
100.500	126.105	80.000	19.995	103.209	20.012	3.643	0.392
101.000	126.341	79.999	19.995	103.204	20.014	3.470	0.405
101.500	126.544	79.999	19.995	103.201	20.014	3.493	0.435
102.000	126.779	79.999	19.996	103.204	20.013	3.525	0.438
102.500	126.959	80.000	19.996	103.203	20.013	3.517	0.427
103.000	127.172	79.999	19.995	103.205	20.013	3.525	0.404
103.500	127.413	79.999	19.995	103.206	20.013	3.556	0.423
104.000	127.613	79.999	19.995	103.205	20.013	3.570	0.447
104.500	127.854	79.999	19.995	103.201	20.012	3.611	0.441
105.000	128.056	79.999	19.995	103.200	20.013	3.574	0.442
105.500	128.293	79.999	19.994	103.199	20.013	3.550	0.441
106.000	128.510	79.997	19.995	103.199	20.014	3.495	0.446
106.500	128.737	79.997	19.995	103.199	20.013	3.509	0.449
107.000	128.971	79.998	19.995	103.200	20.011	3.696	0.453
107.500	129.222	79.997	19.995	103.201	20.012	3.598	0.473
108.000	129.439	79.998	19.995	103.201	20.010	3.775	0.476
108.500	129.659	79.997	19.995	103.201	20.013	3.523	0.453
109.000	129.861	79.997	19.996	103.201	20.013	3.556	0.430
109.500	130.109	79.999	19.995	103.201	20.013	3.545	0.436
110.000	130.306	79.997	19.995	103.201	20.012	3.635	0.448
110.500	130.547	79.997	19.996	103.201	20.013	3.572	0.441
111.000	130.762	79.996	19.994	103.200	20.011	3.710	0.446
111.500	130.999	79.997	19.996	103.201	20.013	3.513	0.454
112.000	131.248	79.998	19.995	103.201	20.014	3.499	0.469
112.500	131.496	79.997	19.996	103.200	20.015	3.413	0.492
113.000	131.689	79.996	19.995	103.200	20.016	3.314	0.469
113.500	131.960	79.999	19.995	103.200	20.015	3.373	0.452
114.000	132.167	79.995	19.995	103.200	20.016	3.314	0.471
114.500	132.413	79.996	19.996	103.200	20.015	3.371	0.466
115.000	132.630	79.997	19.995	103.200	20.013	3.533	0.458
115.500	132.876	79.996	19.996	103.200	20.012	3.600	0.463
116.000	133.071	79.995	19.996	103.199	20.017	3.222	0.452
116.500	133.316	79.994	19.996	103.198	20.017	3.239	0.440
117.000	133.559	79.995	19.997	103.197	20.016	3.344	0.464
117.500	133.768	79.996	19.996	103.197	20.016	3.298	0.470
118.000	134.012	79.997	19.996	103.197	20.017	3.216	0.453
118.500	134.260	79.997	19.996	103.198	20.015	3.399	0.473
119.000	134.504	79.997	19.996	103.198	20.017	3.224	0.492
119.500	134.690	79.995	19.997	103.198	20.019	3.133	0.461
120.000	134.958	79.997	19.996	103.198	20.019	3.111	0.442
120.500	135.207	79.997	19.996	103.197	20.017	3.212	0.485
121.000	135.402	79.997	19.996	103.196	20.017	3.271	0.480
121.501	135.646	79.996	19.997	103.196	20.015	3.369	0.441
122.001	135.847	79.997	19.996	103.195	20.016	3.306	0.442
122.501	136.083	79.996	19.996	103.195	20.017	3.251	0.441
123.001	136.306	79.998	19.996	103.195	20.020	3.001	0.448
123.500	136.528	79.996	19.997	103.195	20.018	3.163	0.452
124.000	136.782	79.996	19.998	103.195	20.021	2.946	0.461
124.500	137.010	79.997	19.997	103.195	20.021	2.948	0.479
125.000	137.262	79.997	19.996	103.195	20.020	3.023	0.481
125.500	137.496	79.997	19.996	103.195	20.022	2.903	0.483
126.000	137.727	79.996	19.995	103.195	20.019	3.107	0.476
126.500	138.010	79.998	19.996	103.196	20.022	2.885	0.489
127.001	138.283	79.997	19.997	103.196	20.021	2.976	0.535
127.501	138.503	79.997	19.996	103.196	20.018	3.192	0.525
128.000	138.710	79.996	19.997	103.197	20.021	2.972	0.460
128.500	138.985	79.997	19.997	103.197	20.017	3.281	0.455
129.000	139.220	79.997	19.996	103.195	20.019	3.107	0.496
129.500	139.455	79.996	19.996	103.195	20.019	3.088	0.490
130.000	139.715	79.998	19.996	103.195	20.017	3.273	0.482
130.500	139.906	79.998	19.995	103.194	20.017	3.279	0.473
131.000	140.162	79.997	19.995	103.194	20.018	3.170	0.449
131.500	140.410	79.999	19.995	103.193	20.017	3.277	0.476
132.000	140.653	79.997	19.996	103.194	20.018	3.161	0.498
132.501	140.884	79.997	19.995	103.194	20.016	3.310	0.483
133.000	141.143	79.999	19.995	103.194	20.016	3.322	0.482
133.500	141.349	79.997	19.995	103.194	20.014	3.458	0.477
134.000	141.638	79.997	19.996	103.195	20.020	3.029	0.480
134.500	141.844	79.997	19.995	103.195	20.017	3.269	0.495
135.000	142.096	79.998	19.995	103.195	20.018	3.182	0.476
135.500	142.344	79.997	19.995	103.196	20.019	3.135	0.479
136.000	142.577	79.998	19.995	103.196	20.018	3.155	0.491
136.500	142.844	79.998	19.995	103.196	20.017	3.275	0.490
137.000	143.087	79.998	19.995	103.196	20.021	2.936	0.505
137.500	143.335	79.998	19.995	103.196	20.018	3.165	0.501
138.000	143.583	79.996	19.995	103.196	20.018	3.157	0.494
138.500	143.836	79.996	19.995	103.196	20.019	3.068	0.499
139.000	144.081	79.996	19.994	103.196	20.020	3.039	0.500
139.500	144.332	79.997	19.995	103.196	20.017	3.261	0.497
140.000	144.538	79.997	19.995	103.196	20.016	3.291	0.476
140.500	144.798	79.997	19.996	103.195	20.020	3.013	0.461
141.000	145.061	79.997	19.995	103.196	20.021	2.976	0.494
141.500	145.309	79.996	19.996	103.196	20.018	3.143	0.517
142.000	145.546	79.996	19.996	103.196	20.018	3.177	0.498
142.500	145.761	79.998	19.995	103.194	20.022	2.915	0.469
143.000	146.024	79.996	19.996	103.195	20.021	2.964	0.465
143.500	146.244	79.996	19.995	103.194	20.020	3.009	0.480
144.000	146.512	79.997	19.996	103.194	20.021	2.936	0.485
144.500	146.710	79.997	19.995	103.195	20.021	2.952	0.477
145.000	146.975	79.997	19.995	103.197	20.022	2.889	0.464
145.500	147.235	79.997	19.995	103.196	20.021	2.976	0.494
146.000	147.455	79.997	19.996	103.196	20.021	2.956	0.503
146.500	147.729	79.997	19.995	103.195	20.020	3.041	0.487
147.000	147.938	79.998	19.994	103.195	20.018	3.165	0.488
147.500	148.212	79.997	19.995	103.195	20.019	3.102	0.483
148.000	148.475	79.996	19.995	103.194	20.022	2.846	0.510
148.500	148.721	79.997	19.995	103.195	20.023	2.834	0.523
149.000	148.928	79.998	19.995	103.195	20.021	2.952	0.481
149.500	149.195	79.998	19.995	103.196	20.021	2.979	0.464
150.000	149.488	79.997	19.995	103.195	20.018	3.153	0.517
150.500	149.702	79.998	19.996	103.194	20.017	3.281	0.533
151.000	149.979	79.999	19.996	103.192	20.018	3.198	0.499
151.500	150.196	79.998	19.996	103.190	20.017	3.261	0.493
152.000	150.441	79.999	19.995	103.190	20.018	3.180	0.478
152.500	150.684	79.998	19.995	103.190	20.014	3.476	0.475
153.000	150.962	79.998	19.995	103.190	20.018	3.143	0.504
153.500	151.168	79.997	19.995	103.190	20.018	3.172	0.502
154.000	151.422	79.999	19.995	103.192	20.017	3.253	0.472
154.500	151.698	79.999	19.995	103.188	20.020	3.031	0.495
155.000	151.952	79.999	19.995	103.188	20.015	3.421	0.530
155.500	152.165	79.999	19.996	103.186	20.018	3.149	0.499
156.000	152.390	79.999	19.994	103.187	20.017	3.269	0.453
156.500	152.666	79.999	19.995	103.186	20.018	3.183	0.470
157.000	152.937	79.999	19.995	103.189	20.018	3.198	0.524
157.500	153.153	79.998	19.995	103.190	20.021	2.966	0.517
158.000	153.414	80.000	19.995	103.193	20.016	3.289	0.482
158.500	153.665	79.999	19.995	103.194	20.016	3.293	0.495
159.000	153.928	79.999	19.995	103.196	20.017	3.271	0.513
159.500	154.136	79.999	19.995	103.197	20.015	3.374	0.492
160.000	154.353	79.997	19.995	103.198	20.020	3.019	0.448
160.500	154.618	79.999	19.995	103.198	20.016	3.293	0.453
161.000	154.873	79.999	19.995	103.199	20.017	3.265	0.500
161.500	155.155	79.998	19.996	103.199	20.018	3.182	0.529
162.000	155.381	79.999	19.995	103.195	20.020	3.031	0.522
162.500	155.590	79.999	19.994	103.195	20.020	3.013	0.471
163.000	155.828	79.999	19.995	103.194	20.020	3.033	0.441
163.500	156.116	79.998	19.995	103.195	20.022	2.868	0.487
164.000	156.335	79.999	19.994	103.194	20.021	2.933	0.516
164.500	156.572	79.998	19.995	103.197	20.021	2.917	0.482
165.000	156.805	79.999	19.995	103.198	20.021	2.958	0.463
165.500	157.060	80.000	19.995	103.199	20.022	2.903	0.479
166.000	157.310	79.998	19.995	103.197	20.021	2.933	0.496
166.500	157.551	79.998	19.994	103.194	20.020	3.049	0.498
167.000	157.814	79.997	19.995	103.192	20.021	2.929	0.498
167.500	158.072	79.997	19.995	103.188	20.022	2.903	0.513
168.000	158.296	79.998	19.995	103.184	20.023	2.813	0.501
168.500	158.519	80.000	19.995	103.183	20.022	2.862	0.464
169.000	158.784	79.997	19.995	103.181	20.020	2.992	0.468
169.500	159.065	79.997	19.995	103.182	20.023	2.801	0.518
170.000	159.273	79.999	19.994	103.185	20.021	2.945	0.518
170.500	159.548	79.999	19.996	103.187	20.020	3.031	0.486
171.000	159.771	80.000	19.995	103.187	20.023	2.795	0.490
171.500	160.027	79.998	19.995	103.192	20.022	2.894	0.488
172.000	160.282	79.999	19.994	103.193	20.023	2.825	0.495
172.500	160.543	79.999	19.994	103.193	20.022	2.882	0.513
173.000	160.762	79.999	19.995	103.192	20.024	2.716	0.498
173.500	161.056	79.999	19.996	103.190	20.019	3.085	0.497
174.000	161.282	79.998	19.995	103.188	20.022	2.913	0.516
174.500	161.512	79.999	19.994	103.182	20.023	2.803	0.488
175.000	161.772	79.998	19.994	103.180	20.023	2.797	0.473
175.500	162.015	79.999	19.993	103.180	20.022	2.876	0.497
176.000	162.306	79.999	19.994	103.179	20.020	3.055	0.518
176.500	162.528	79.998	19.994	103.174	20.023	2.813	0.524
177.000	162.818	79.998	19.995	103.173	20.018	3.158	0.512
177.500	163.057	79.999	19.995	103.173	20.021	2.969	0.520
178.000	163.306	80.000	19.994	103.174	20.021	2.937	0.509
178.500	163.572	79.999	19.996	103.173	20.022	2.906	0.502
179.000	163.829	79.998	19.994	103.172	20.023	2.795	0.519
179.500	164.042	80.001	19.995	103.172	20.022	2.900	0.496
180.000	164.290	79.999	19.994	103.169	20.025	2.671	0.465
180.500	164.567	80.000	19.996	103.165	20.024	2.713	0.493
181.000	164.817	80.000	19.994	103.166	20.022	2.904	0.526
181.501	165.046	80.000	19.995	103.169	20.023	2.778	0.503
182.000	165.308	80.002	19.995	103.169	20.026	2.561	0.485
182.500	165.540	79.999	19.995	103.167	20.026	2.577	0.492
183.000	165.840	80.001	19.995	103.166	20.027	2.492	0.513
183.500	166.058	80.000	19.995	103.164	20.024	2.713	0.525
184.000	166.295	80.000	19.996	103.161	20.024	2.756	0.486
184.500	166.519	80.001	19.995	103.160	20.024	2.766	0.458
185.000	166.783	79.999	19.996	103.161	20.022	2.872	0.475
185.500	167.028	79.998	19.996	103.161	20.024	2.697	0.499
186.000	167.294	79.998	19.996	103.160	20.022	2.845	0.510
186.500	167.561	80.000	19.996	103.160	20.024	2.711	0.522
187.000	167.813	80.000	19.996	103.158	20.024	2.732	0.525
187.500	168.031	79.999	19.997	103.157	20.025	2.671	0.494
188.000	168.278	79.999	19.997	103.157	20.025	2.638	0.468
188.500	168.517	79.999	19.996	103.158	20.026	2.604	0.475
189.000	168.748	79.998	19.996	103.159	20.024	2.707	0.477
189.500	169.004	79.997	19.997	103.159	20.027	2.504	0.478
190.000	169.206	79.998	19.996	103.160	20.030	2.321	0.473
190.500	169.473	79.998	19.996	103.160	20.025	2.622	0.464
191.000	169.716	79.999	19.996	103.158	20.025	2.626	0.489
191.500	169.994	79.998	19.995	103.158	20.026	2.604	0.516
192.000	170.251	79.997	19.995	103.158	20.024	2.719	0.529
192.500	170.498	79.998	19.996	103.158	20.022	2.862	0.520
193.000	170.717	80.000	19.994	103.158	20.023	2.803	0.485
193.500	170.976	79.997	19.996	103.158	20.023	2.833	0.472
194.000	171.269	79.999	19.995	103.158	20.025	2.632	0.514
194.500	171.484	79.997	19.996	103.157	20.025	2.646	0.530
195.000	171.722	79.998	19.996	103.157	20.025	2.675	0.481
195.500	171.985	80.000	19.995	103.158	20.023	2.770	0.477
196.000	172.195	79.998	19.996	103.158	20.025	2.632	0.487
196.500	172.453	79.997	19.997	103.158	20.023	2.815	0.471
197.000	172.709	80.000	19.995	103.158	20.024	2.705	0.491
197.500	172.981	79.998	19.995	103.159	20.025	2.673	0.521
198.000	173.183	79.997	19.996	103.158	20.026	2.555	0.501
198.500	173.463	79.998	19.995	103.159	20.026	2.606	0.478
199.000	173.694	79.998	19.995	103.159	20.028	2.463	0.496
199.500	173.926	79.998	19.996	103.159	20.025	2.642	0.487
200.000	174.172	79.998	19.995	103.158	20.029	2.360	0.471
200.500	174.404	79.999	19.995	103.159	20.028	2.411	0.478
201.000	174.700	79.998	19.996	103.159	20.026	2.616	0.503
201.500	174.926	79.999	19.996	103.158	20.029	2.346	0.525
202.000	175.180	79.999	19.996	103.158	20.024	2.705	0.501
202.500	175.384	79.997	19.996	103.158	20.028	2.415	0.469
203.000	175.657	79.997	19.995	103.158	20.025	2.679	0.468
203.500	175.921	79.998	19.995	103.159	20.027	2.494	0.507
204.000	176.156	79.999	19.996	103.158	20.027	2.520	0.517
204.500	176.390	79.995	19.996	103.158	20.031	2.224	0.484
205.000	176.626	80.000	19.996	103.158	20.029	2.397	0.470
205.500	176.846	79.998	19.995	103.157	20.029	2.380	0.463
206.000	177.119	79.997	19.995	103.157	20.028	2.437	0.474
206.500	177.323	79.997	19.996	103.158	20.029	2.368	0.485
207.000	177.575	79.999	19.997	103.158	20.030	2.303	0.467
207.500	177.813	79.997	19.996	103.157	20.028	2.433	0.473
208.000	178.099	79.998	19.997	103.155	20.030	2.273	0.507
208.500	178.341	79.997	19.996	103.155	20.028	2.401	0.526
209.000	178.582	79.998	19.996	103.154	20.029	2.362	0.506
209.500	178.814	79.997	19.995	103.154	20.029	2.329	0.478
210.000	179.050	79.998	19.997	103.154	20.028	2.453	0.470
210.500	179.294	79.997	19.995	103.156	20.030	2.325	0.474
211.000	179.519	79.996	19.997	103.156	20.028	2.421	0.474
211.500	179.793	79.998	19.996	103.156	20.028	2.425	0.484
212.000	180.055	79.998	19.997	103.151	20.027	2.522	0.518
212.500	180.271	79.998	19.996	103.150	20.025	2.638	0.507
213.000	180.538	79.996	19.997	103.151	20.029	2.378	0.480
213.500	180.772	79.998	19.997	103.151	20.027	2.521	0.492
214.000	180.996	79.996	19.996	103.151	20.027	2.533	0.480
214.500	181.242	79.998	19.997	103.155	20.027	2.482	0.464
215.000	181.498	79.997	19.997	103.156	20.027	2.524	0.486
215.500	181.760	79.998	19.996	103.156	20.027	2.488	0.510
216.000	181.961	79.996	19.998	103.157	20.028	2.465	0.491
216.500	182.243	79.998	19.997	103.156	20.029	2.340	0.473
217.000	182.460	79.996	19.997	103.156	20.026	2.563	0.491
217.500	182.689	79.997	19.996	103.157	20.029	2.380	0.473
218.000	182.951	79.996	19.997	103.156	20.024	2.719	0.468
218.500	183.193	79.997	19.997	103.156	20.026	2.587	0.497
219.000	183.453	79.996	19.996	103.156	20.026	2.567	0.503
219.500	183.708	79.997	19.996	103.156	20.028	2.411	0.508
220.000	183.944	79.997	19.996	103.153	20.030	2.325	0.503
220.500	184.166	79.998	19.996	103.153	20.029	2.354	0.474
221.000	184.406	79.996	19.996	103.153	20.027	2.518	0.461
221.500	184.636	79.997	19.996	103.154	20.026	2.575	0.466
222.000	184.850	79.997	19.996	103.154	20.027	2.496	0.457
222.500	185.149	79.998	19.996	103.157	20.026	2.600	0.478
223.000	185.401	79.996	19.995	103.159	20.025	2.669	0.532
223.500	185.633	79.997	19.994	103.159	20.027	2.502	0.517
224.000	185.850	79.995	19.995	103.159	20.026	2.571	0.467
224.500	186.110	79.998	19.995	103.160	20.026	2.616	0.464
225.000	186.370	79.996	19.995	103.158	20.029	2.380	0.498
225.500	186.631	79.998	19.994	103.154	20.026	2.553	0.520
226.000	186.849	79.996	19.995	103.153	20.027	2.490	0.500
226.500	187.101	79.998	19.995	103.151	20.030	2.287	0.474
227.000	187.347	79.997	19.994	103.151	20.027	2.506	0.484
227.500	187.573	79.996	19.995	103.151	20.028	2.445	0.485
228.001	187.833	79.997	19.994	103.154	20.031	2.252	0.479
228.500	188.081	79.998	19.996	103.156	20.029	2.338	0.497
229.000	188.289	79.997	19.995	103.158	20.031	2.210	0.482
229.500	188.537	79.999	19.995	103.156	20.027	2.484	0.456
230.000	188.759	79.997	19.995	103.158	20.031	2.248	0.463
230.500	189.033	79.999	19.995	103.154	20.032	2.171	0.483
231.000	189.256	79.998	19.995	103.151	20.032	2.120	0.497
231.500	189.491	79.998	19.995	103.150	20.031	2.225	0.477
232.000	189.741	79.998	19.995	103.151	20.029	2.355	0.472
232.500	189.955	79.999	19.995	103.150	20.028	2.420	0.474
233.000	190.222	79.997	19.994	103.155	20.029	2.347	0.472
233.500	190.450	79.999	19.995	103.156	20.030	2.272	0.488
234.000	190.747	79.999	19.995	103.156	20.028	2.465	0.510
234.500	190.964	80.000	19.995	103.155	20.032	2.153	0.520
235.000	191.190	79.999	19.995	103.155	20.031	2.216	0.479
235.500	191.425	79.998	19.995	103.156	20.031	2.197	0.452
236.000	191.647	80.000	19.995	103.153	20.031	2.203	0.459
236.500	191.895	80.000	19.995	103.153	20.031	2.203	0.463
237.000	192.175	80.000	19.995	103.154	20.031	2.183	0.499
237.500	192.386	80.001	19.995	103.154	20.031	2.181	0.509
238.000	192.643	79.998	19.995	103.154	20.032	2.148	0.479
238.500	192.888	79.999	19.994	103.155	20.033	2.043	0.485
239.000	193.121	79.999	19.995	103.157	20.031	2.195	0.491
239.500	193.373	79.997	19.995	103.157	20.033	2.067	0.482
240.000	193.639	80.000	19.995	103.155	20.033	2.043	0.501
240.500	193.816	80.001	19.994	103.151	20.029	2.378	0.480
241.000	194.056	80.000	19.996	103.145	20.031	2.191	0.430
241.500	194.350	79.999	19.994	103.137	20.028	2.469	0.476
242.000	194.569	79.999	19.995	103.135	20.029	2.331	0.524
242.500	194.802	79.999	19.995	103.134	20.028	2.408	0.483
243.000	195.068	79.999	19.995	103.133	20.029	2.345	0.476
243.500	195.300	79.999	19.996	103.136	20.031	2.236	0.498
244.000	195.544	79.999	19.994	103.140	20.034	2.010	0.487
244.500	195.749	79.997	19.995	103.139	20.031	2.236	0.463
245.000	196.018	79.999	19.996	103.138	20.030	2.297	0.461
245.500	196.270	79.997	19.995	103.143	20.029	2.335	0.497
246.000	196.457	79.998	19.995	103.146	20.028	2.429	0.480
246.500	196.699	79.997	19.995	103.146	20.031	2.220	0.434
247.000	196.932	79.998	19.995	103.145	20.032	2.148	0.452
247.500	197.214	79.998	19.995	103.147	20.027	2.494	0.496
248.000	197.440	80.000	19.995	103.146	20.030	2.293	0.512
248.500	197.705	79.999	19.995	103.140	20.030	2.262	0.499
249.000	197.924	80.000	19.996	103.142	20.030	2.319	0.487
249.501	198.127	79.998	19.995	103.145	20.030	2.260	0.453
250.000	198.382	79.999	19.995	103.147	20.031	2.220	0.440
250.500	198.642	79.997	19.995	103.144	20.030	2.283	0.486
251.000	198.881	79.999	19.995	103.146	20.029	2.396	0.507
251.500	199.129	79.998	19.995	103.147	20.034	2.014	0.493
252.000	199.376	79.998	19.994	103.145	20.030	2.278	0.491
252.500	199.609	80.000	19.995	103.144	20.030	2.299	0.488
253.000	199.807	79.998	19.995	103.146	20.033	2.098	0.456
253.500	200.065	79.999	19.995	103.144	20.030	2.258	0.443
254.000	200.321	79.999	19.995	103.142	20.032	2.116	0.485
254.500	200.527	80.000	19.995	103.142	20.030	2.287	0.488
255.000	200.780	80.000	19.996	103.141	20.031	2.214	0.460
255.500	200.977	79.999	19.995	103.140	20.031	2.220	0.454
256.000	201.257	79.999	19.995	103.141	20.029	2.344	0.463
256.500	201.479	80.000	19.994	103.143	20.034	2.000	0.490
257.000	201.733	79.999	19.995	103.145	20.030	2.289	0.489
257.500	201.960	79.998	19.994	103.146	20.030	2.297	0.479
258.000	202.225	80.001	19.994	103.143	20.032	2.108	0.487
258.500	202.437	79.999	19.995	103.143	20.032	2.149	0.485
259.000	202.642	80.001	19.994	103.142	20.030	2.266	0.447
259.500	202.887	80.000	19.995	103.139	20.034	2.011	0.433
260.000	203.176	80.000	19.994	103.139	20.034	1.986	0.492
260.500	203.406	80.000	19.994	103.144	20.034	2.021	0.526
261.000	203.603	79.999	19.994	103.147	20.034	2.025	0.473
261.500	203.866	80.000	19.995	103.148	20.034	1.972	0.444
262.000	204.104	80.000	19.994	103.149	20.032	2.112	0.481
262.500	204.350	79.999	19.994	103.145	20.034	2.006	0.492
263.000	204.603	79.999	19.995	103.144	20.035	1.947	0.492
263.500	204.834	79.999	19.994	103.137	20.033	2.073	0.491
264.000	205.100	79.998	19.995	103.137	20.035	1.958	0.490
264.500	205.322	80.000	19.994	103.138	20.033	2.096	0.492
265.000	205.557	79.999	19.995	103.140	20.031	2.207	0.472
265.500	205.797	80.000	19.994	103.141	20.032	2.163	0.466
266.000	206.035	79.999	19.995	103.148	20.033	2.069	0.477
266.500	206.304	79.998	19.995	103.149	20.034	1.966	0.492
267.000	206.565	79.997	19.995	103.150	20.034	2.027	0.519
267.500	206.815	79.998	19.994	103.153	20.033	2.037	0.521
268.000	207.076	79.999	19.995	103.154	20.032	2.142	0.511
268.500	207.289	79.997	19.995	103.153	20.033	2.065	0.492
269.000	207.531	79.997	19.996	103.153	20.034	2.021	0.465
269.500	207.800	79.999	19.995	103.153	20.032	2.165	0.483
270.000	207.987	79.997	19.994	103.153	20.032	2.106	0.483
270.500	208.289	79.997	19.995	103.150	20.031	2.201	0.472
271.000	208.535	79.998	19.996	103.146	20.038	1.683	0.518
271.500	208.769	79.997	19.996	103.143	20.036	1.813	0.514
272.000	209.039	79.996	19.996	103.140	20.034	1.996	0.492
272.500	209.237	79.998	19.996	103.140	20.035	1.953	0.486
273.000	209.500	79.997	19.995	103.141	20.033	2.039	0.465
273.500	209.728	79.996	19.997	103.143	20.034	2.016	0.476
274.000	210.045	79.998	19.996	103.146	20.032	2.124	0.518
274.500	210.250	79.997	19.994	103.149	20.034	1.990	0.534
275.000	210.525	79.996	19.997	103.145	20.037	1.801	0.501
275.500	210.769	79.997	19.997	103.145	20.033	2.051	0.499
276.000	211.024	79.997	19.996	103.144	20.034	2.018	0.509
276.500	211.259	79.998	19.995	103.141	20.035	1.929	0.495
277.000	211.529	79.998	19.995	103.140	20.033	2.043	0.498
277.500	211.780	79.996	19.997	103.140	20.033	2.087	0.512
278.000	211.992	79.997	19.996	103.138	20.033	2.067	0.492
278.500	212.242	79.998	19.996	103.139	20.033	2.075	0.463
279.000	212.509	79.995	19.996	103.142	20.033	2.092	0.490
279.500	212.774	79.997	19.997	103.143	20.034	1.978	0.525
280.000	212.985	80.000	19.996	103.142	20.033	2.094	0.504
280.500	213.247	79.997	19.995	103.142	20.033	2.065	0.475
281.000	213.513	79.997	19.996	103.140	20.031	2.191	0.501
281.500	213.739	79.995	19.996	103.132	20.032	2.159	0.510
282.000	213.977	79.998	19.996	103.125	20.031	2.224	0.478
282.500	214.247	79.998	19.996	103.124	20.034	1.976	0.486
283.000	214.466	79.997	19.995	103.124	20.031	2.179	0.499
283.500	214.712	79.996	19.996	103.125	20.032	2.169	0.477
284.000	215.015	79.996	19.995	103.128	20.031	2.224	0.507
284.500	215.251	79.997	19.995	103.133	20.030	2.274	0.544
285.000	215.541	79.999	19.996	103.132	20.032	2.132	0.532
285.500	215.732	79.998	19.996	103.132	20.032	2.140	0.504
286.000	215.999	79.998	19.996	103.134	20.031	2.209	0.470
286.500	216.221	79.998	19.996	103.135	20.032	2.124	0.473
287.000	216.479	79.997	19.995	103.132	20.035	1.925	0.484
287.500	216.733	79.999	19.996	103.134	20.033	2.065	0.497
288.000	217.025	79.999	19.996	103.135	20.032	2.173	0.529
288.500	217.279	79.999	19.995	103.132	20.034	1.996	0.545
289.000	217.516	79.998	19.995	103.133	20.037	1.752	0.518
289.500	217.759	79.996	19.996	103.137	20.032	2.114	0.486
290.000	217.985	79.999	19.995	103.140	20.033	2.075	0.475
290.500	218.262	79.999	19.995	103.141	20.032	2.112	0.487
291.000	218.506	79.997	19.995	103.146	20.035	1.931	0.512
291.500	218.750	79.998	19.994	103.144	20.034	2.028	0.504
292.000	219.011	79.998	19.995	103.145	20.033	2.097	0.496
292.500	219.255	79.998	19.995	103.143	20.032	2.162	0.505
293.000	219.494	79.998	19.996	103.144	20.033	2.045	0.494
293.500	219.713	79.997	19.995	103.139	20.032	2.173	0.470
294.000	219.983	79.997	19.996	103.140	20.036	1.844	0.474
294.500	220.211	79.999	19.995	103.139	20.033	2.089	0.494
295.000	220.491	79.995	19.996	103.139	20.036	1.860	0.503
295.500	220.755	79.998	19.995	103.137	20.034	1.994	0.526
296.000	220.969	79.997	19.995	103.138	20.034	1.992	0.511
296.500	221.259	79.996	19.995	103.138	20.034	1.986	0.492
297.000	221.475	79.998	19.996	103.136	20.036	1.827	0.505
297.500	221.741	79.999	19.996	103.136	20.036	1.866	0.494
298.000	221.984	79.997	19.996	103.135	20.036	1.850	0.495
298.500	222.252	79.996	19.996	103.136	20.034	1.998	0.510
299.000	222.533	79.997	19.997	103.134	20.038	1.695	0.531
299.500	222.744	79.997	19.996	103.132	20.035	1.925	0.521
300.000	222.963	79.996	19.996	103.131	20.033	2.036	0.461
300.500	223.247	79.997	19.996	103.129	20.038	1.705	0.466
301.000	223.517	79.996	19.997	103.128	20.035	1.929	0.528
301.500	223.734	79.997	19.996	103.127	20.035	1.890	0.521
302.000	224.033	79.994	19.997	103.129	20.037	1.777	0.501
302.500	224.230	79.995	19.996	103.132	20.035	1.892	0.506
303.000	224.494	79.994	19.997	103.132	20.038	1.703	0.479
303.500	224.729	79.995	19.997	103.130	20.033	2.067	0.481
304.000	224.989	79.996	19.997	103.133	20.035	1.929	0.497
304.500	225.221	79.995	19.995	103.131	20.039	1.612	0.493
305.000	225.480	79.995	19.996	103.128	20.037	1.768	0.491
305.500	225.718	79.995	19.997	103.128	20.035	1.902	0.494
306.000	225.981	79.996	19.997	103.129	20.039	1.594	0.499
306.500	226.260	79.994	19.997	103.126	20.037	1.768	0.522
307.000	226.513	79.995	19.996	103.126	20.038	1.724	0.537
307.500	226.721	79.995	19.997	103.128	20.037	1.746	0.497
308.000	227.018	79.998	19.996	103.129	20.037	1.793	0.483
308.500	227.239	79.996	19.996	103.129	20.040	1.535	0.511
309.000	227.501	79.995	19.995	103.129	20.035	1.902	0.501
309.500	227.741	79.997	19.996	103.128	20.037	1.768	0.493
310.000	228.005	79.995	19.996	103.129	20.040	1.584	0.503
310.500	228.251	79.998	19.996	103.127	20.039	1.653	0.506
311.001	228.490	79.997	19.996	103.126	20.039	1.620	0.497
311.500	228.760	79.998	19.996	103.124	20.038	1.689	0.497
312.000	229.001	79.999	19.995	103.124	20.038	1.720	0.510
312.500	229.275	79.997	19.996	103.123	20.036	1.835	0.513
313.000	229.544	79.998	19.995	103.125	20.040	1.582	0.529
313.500	229.778	79.999	19.996	103.124	20.036	1.852	0.523
314.000	230.020	79.998	19.994	103.124	20.036	1.868	0.489
314.500	230.261	79.999	19.995	103.124	20.039	1.661	0.479
315.000	230.507	79.998	19.995	103.121	20.037	1.766	0.485
315.500	230.788	80.000	19.995	103.120	20.038	1.681	0.507
316.000	231.024	80.000	19.995	103.121	20.039	1.642	0.523
316.500	231.252	79.999	19.995	103.121	20.039	1.622	0.491
317.000	231.511	80.000	19.995	103.123	20.037	1.738	0.475
317.500	231.782	79.999	19.995	103.123	20.039	1.592	0.508
318.000	232.012	79.997	19.997	103.122	20.037	1.793	0.516
318.500	232.251	79.998	19.996	103.120	20.036	1.868	0.485
319.000	232.516	79.998	19.996	103.119	20.040	1.555	0.487
319.500	232.752	79.999	19.996	103.117	20.038	1.720	0.503
320.000	233.019	79.999	19.995	103.118	20.039	1.622	0.502
320.500	233.268	80.000	19.995	103.118	20.035	1.898	0.509
321.000	233.523	80.000	19.996	103.119	20.034	1.975	0.509
321.500	233.784	79.998	19.994	103.118	20.033	2.091	0.510
322.000	234.008	80.000	19.995	103.119	20.034	1.988	0.501
322.500	234.254	79.999	19.995	103.118	20.033	2.091	0.478
323.000	234.506	79.999	19.995	103.119	20.034	1.981	0.484
323.500	234.772	79.998	19.995	103.119	20.038	1.732	0.508
324.000	235.017	79.999	19.994	103.119	20.036	1.860	0.514
324.500	235.285	79.998	19.995	103.119	20.036	1.870	0.512
325.000	235.490	79.998	19.994	103.118	20.036	1.815	0.493
325.500	235.773	79.998	19.995	103.118	20.036	1.841	0.481
326.000	235.977	79.999	19.996	103.117	20.034	1.983	0.488
326.500	236.237	79.999	19.996	103.117	20.032	2.144	0.476
327.000	236.477	79.999	19.995	103.117	20.035	1.941	0.482
327.500	236.733	79.998	19.995	103.117	20.035	1.951	0.498
328.000	237.000	80.000	19.995	103.118	20.035	1.921	0.510
328.500	237.234	79.998	19.995	103.120	20.038	1.732	0.512
329.000	237.449	79.998	19.994	103.125	20.036	1.825	0.474
329.500	237.718	79.999	19.995	103.127	20.032	2.113	0.466
330.000	237.977	79.997	19.996	103.127	20.034	2.006	0.506
330.500	238.246	79.999	19.996	103.128	20.033	2.055	0.528
331.000	238.461	79.999	19.996	103.125	20.034	1.998	0.506
331.500	238.741	79.999	19.996	103.120	20.033	2.103	0.489
332.000	238.947	79.997	19.995	103.119	20.034	1.967	0.491
332.500	239.182	79.999	19.996	103.118	20.037	1.809	0.464
333.000	239.416	79.998	19.996	103.118	20.036	1.845	0.455
333.500	239.685	79.997	19.996	103.118	20.036	1.815	0.486
334.000	239.895	79.999	19.996	103.118	20.036	1.829	0.491
334.500	240.161	79.999	19.995	103.118	20.037	1.801	0.478
335.000	240.379	79.998	19.996	103.118	20.036	1.831	0.481
335.500	240.640	79.999	19.995	103.118	20.038	1.707	0.482
336.000	240.851	79.998	19.996	103.117	20.037	1.778	0.475
336.500	241.140	79.999	19.995	103.117	20.037	1.750	0.485
337.000	241.368	80.001	19.995	103.116	20.039	1.655	0.508
337.500	241.620	79.999	19.994	103.117	20.036	1.878	0.499
338.000	241.868	80.001	19.995	103.117	20.036	1.864	0.490
338.500	242.087	80.000	19.995	103.118	20.035	1.931	0.483
339.000	242.358	79.997	19.996	103.118	20.037	1.754	0.479
339.500	242.568	80.001	19.996	103.118	20.034	1.963	0.485
340.000	242.828	80.001	19.996	103.118	20.035	1.888	0.475
340.500	243.101	79.999	19.995	103.117	20.034	1.979	0.502
341.000	243.366	80.002	19.995	103.117	20.036	1.843	0.536
341.500	243.615	80.000	19.994	103.119	20.040	1.541	0.526
342.000	243.830	80.001	19.995	103.119	20.040	1.553	0.489
342.500	244.102	80.001	19.995	103.118	20.037	1.783	0.476
343.000	244.332	80.002	19.995	103.119	20.037	1.795	0.495
343.500	244.549	80.001	19.996	103.118	20.037	1.799	0.475
344.000	244.791	80.001	19.995	103.117	20.035	1.939	0.453
344.500	245.045	79.999	19.995	103.117	20.036	1.831	0.477
345.000	245.302	80.000	19.994	103.117	20.034	1.994	0.503
345.500	245.564	80.000	19.995	103.117	20.034	1.984	0.515
346.000	245.821	80.000	19.996	103.117	20.034	1.961	0.519
346.500	246.059	80.000	19.995	103.117	20.033	2.101	0.507
347.000	246.285	80.000	19.995	103.117	20.034	1.967	0.480
347.500	246.570	80.000	19.994	103.118	20.038	1.695	0.488
348.000	246.854	80.001	19.995	103.118	20.037	1.787	0.540
348.500	247.069	79.999	19.994	103.118	20.036	1.835	0.534
349.000	247.293	80.000	19.994	103.119	20.033	2.036	0.468
349.500	247.559	80.001	19.994	103.119	20.032	2.144	0.464
350.000	247.818	79.998	19.995	103.118	20.032	2.140	0.508
350.500	248.057	79.998	19.995	103.117	20.034	1.996	0.511
351.000	248.304	79.997	19.995	103.118	20.034	1.959	0.492
351.500	248.557	79.996	19.995	103.118	20.035	1.929	0.493
352.000	248.810	79.998	19.996	103.118	20.032	2.174	0.504
352.500	249.044	79.998	19.995	103.120	20.034	1.980	0.497
353.000	249.326	79.998	19.994	103.121	20.037	1.787	0.501
353.500	249.564	79.997	19.995	103.121	20.035	1.955	0.518
354.000	249.852	80.000	19.995	103.122	20.035	1.900	0.523
354.500	250.086	79.997	19.995	103.123	20.038	1.689	0.524
355.000	250.312	79.999	19.996	103.123	20.036	1.835	0.491
355.500	250.588	79.996	19.994	103.124	20.038	1.730	0.481
356.000	250.840	79.999	19.994	103.124	20.035	1.910	0.515
356.500	251.109	79.998	19.995	103.123	20.034	1.992	0.525
357.000	251.354	79.997	19.995	103.123	20.037	1.809	0.518
357.500	251.590	79.999	19.995	103.123	20.038	1.724	0.498
358.000	251.825	79.997	19.995	103.121	20.038	1.669	0.476
358.500	252.092	79.997	19.996	103.122	20.037	1.748	0.487
359.000	252.286	79.997	19.995	103.121	20.036	1.843	0.482
359.500	252.553	79.997	19.995	103.121	20.037	1.797	0.461
360.000	252.812	79.998	19.995	103.121	20.035	1.902	0.493
360.500	253.072	79.998	19.995	103.120	20.036	1.870	0.523
361.000	253.325	79.997	19.996	103.119	20.038	1.718	0.516
361.500	253.581	79.997	19.994	103.119	20.036	1.864	0.511
362.000	253.808	79.997	19.994	103.119	20.034	1.965	0.496
362.500	254.039	79.998	19.996	103.119	20.035	1.951	0.470
363.000	254.319	79.998	19.995	103.120	20.033	2.048	0.484
363.500	254.531	79.999	19.995	103.121	20.034	2.010	0.501
364.000	254.783	79.997	19.995	103.121	20.034	2.012	0.478
364.500	255.016	79.997	19.996	103.121	20.034	1.992	0.475
365.000	255.308	79.998	19.995	103.121	20.033	2.053	0.505
365.500	255.544	79.995	19.995	103.121	20.033	2.053	0.526
366.000	255.806	79.996	19.996	103.121	20.034	2.022	0.513
366.500	256.034	79.996	19.995	103.121	20.029	2.341	0.494
367.000	256.274	79.997	19.997	103.122	20.034	2.030	0.479
367.500	256.563	79.997	19.997	103.122	20.034	2.012	0.498
368.000	256.800	79.997	19.995	103.121	20.031	2.217	0.528
368.500	257.048	79.997	19.995	103.121	20.032	2.130	0.506
369.000	257.302	79.997	19.995	103.121	20.032	2.122	0.493
369.500	257.547	79.999	19.995	103.120	20.031	2.249	0.500
370.000	257.771	79.997	19.996	103.120	20.031	2.239	0.484
370.500	258.054	79.998	19.994	103.121	20.032	2.168	0.488
371.000	258.279	79.995	19.995	103.121	20.032	2.144	0.508
371.500	258.571	79.997	19.996	103.121	20.033	2.097	0.512
372.000	258.821	79.996	19.996	103.121	20.031	2.185	0.529
372.500	259.066	79.997	19.996	103.120	20.030	2.294	0.518
373.000	259.308	79.998	19.996	103.120	20.029	2.396	0.491
373.500	259.571	79.997	19.995	103.119	20.031	2.247	0.496
374.000	259.815	79.998	19.995	103.119	20.034	2.000	0.506
374.500	260.060	79.997	19.995	103.119	20.029	2.396	0.498
375.000	260.291	79.996	19.996	103.120	20.031	2.235	0.482
375.500	260.548	79.997	19.995	103.120	20.032	2.140	0.482
376.000	260.808	79.998	19.996	103.121	20.029	2.365	0.503
376.500	261.048	79.997	19.996	103.121	20.030	2.296	0.508
377.000	261.331	79.998	19.995	103.121	20.031	2.231	0.511
377.500	261.545	79.997	19.996	103.121	20.026	2.578	0.510
378.000	261.808	79.998	19.996	103.121	20.031	2.221	0.487
378.500	262.035	79.997	19.995	103.121	20.029	2.343	0.484
379.000	262.290	79.997	19.997	103.121	20.026	2.552	0.486
379.500	262.530	79.997	19.996	103.120	20.030	2.304	0.488
380.000	262.811	79.999	19.995	103.120	20.026	2.572	0.508
380.500	263.038	79.998	19.996	103.119	20.028	2.426	0.515
381.000	263.321	79.999	19.995	103.119	20.030	2.253	0.509
381.500	263.560	79.997	19.995	103.119	20.028	2.444	0.516
382.000	263.808	79.997	19.996	103.119	20.028	2.404	0.505
382.500	264.086	79.996	19.996	103.119	20.030	2.325	0.507
383.000	264.292	79.997	19.995	103.119	20.025	2.641	0.505
383.500	264.557	79.996	19.997	103.118	20.028	2.458	0.477
384.000	264.840	79.997	19.995	103.119	20.026	2.554	0.509
384.500	265.062	79.996	19.997	103.119	20.028	2.420	0.527
385.000	265.332	79.997	19.996	103.119	20.025	2.684	0.499
385.500	265.597	79.997	19.997	103.119	20.026	2.588	0.513
386.000	265.827	79.996	19.996	103.119	20.023	2.838	0.515
386.500	266.080	79.996	19.996	103.119	20.028	2.418	0.489
387.000	266.331	79.997	19.997	103.118	20.027	2.517	0.493
387.500	266.567	79.997	19.996	103.114	20.028	2.456	0.495
388.000	266.844	79.997	19.997	103.111	20.026	2.590	0.501
388.500	267.120	79.997	19.997	103.107	20.026	2.597	0.533
389.000	267.386	79.996	19.997	103.106	20.028	2.424	0.547
389.500	267.635	79.998	19.996	103.107	20.027	2.523	0.528
390.000	267.892	79.997	19.995	103.111	20.023	2.801	0.511
390.500	268.123	79.997	19.995	103.112	20.023	2.814	0.497
391.000	268.404	79.996	19.996	103.116	20.027	2.495	0.500
391.500	268.619	79.997	19.996	103.117	20.027	2.523	0.504
392.000	268.892	79.996	19.996	103.117	20.026	2.614	0.492
392.500	269.170	79.998	19.995	103.117	20.026	2.618	0.519
393.000	269.386	79.998	19.996	103.118	20.026	2.586	0.522
393.500	269.676	79.996	19.996	103.117	20.029	2.381	0.500
394.000	269.917	79.997	19.997	103.116	20.025	2.655	0.519
394.500	270.180	79.996	19.997	103.114	20.027	2.532	0.517
395.000	270.453	79.997	19.997	103.111	20.026	2.576	0.520
395.500	270.698	79.996	19.997	103.110	20.023	2.828	0.528
396.000	270.962	79.997	19.996	103.110	20.026	2.566	0.514
396.500	271.237	79.998	19.996	103.110	20.026	2.556	0.524
397.000	271.503	79.998	19.997	103.110	20.027	2.540	0.539
397.500	271.740	79.998	19.997	103.113	20.026	2.548	0.522
398.000	272.006	79.999	19.997	103.113	20.028	2.470	0.503
398.500	272.253	79.998	19.996	103.113	20.026	2.592	0.508
399.000	272.488	79.999	19.996	103.114	20.024	2.716	0.498
399.500	272.760	79.999	19.996	103.115	20.026	2.618	0.495
400.000	273.015	79.999	19.995	103.115	20.025	2.620	0.517
400.500	273.293	79.997	19.997	103.112	20.027	2.541	0.530
401.000	273.555	79.998	19.996	103.111	20.024	2.757	0.536
401.500	273.778	79.999	19.996	103.107	20.026	2.617	0.513
402.000	274.031	79.999	19.995	103.102	20.023	2.810	0.481
402.500	274.324	79.998	19.996	103.097	20.024	2.708	0.511
403.000	274.562	79.999	19.996	103.097	20.025	2.669	0.538
403.500	274.836	79.999	19.996	103.098	20.023	2.775	0.522
404.000	275.065	79.999	19.996	103.102	20.023	2.840	0.508
404.500	275.298	79.999	19.996	103.106	20.024	2.694	0.483
405.000	275.577	79.997	19.995	103.112	20.021	2.919	0.487
405.500	275.820	79.998	19.995	103.114	20.024	2.700	0.517
406.000	276.076	79.998	19.997	103.115	20.025	2.623	0.510
406.500	276.334	79.999	19.996	103.115	20.023	2.797	0.507
407.000	276.600	79.998	19.995	103.115	20.022	2.872	0.519
407.500	276.879	80.000	19.996	103.114	20.025	2.678	0.534
408.000	277.118	79.997	19.996	103.113	20.022	2.905	0.531
408.500	277.383	79.999	19.995	103.109	20.024	2.712	0.511
409.000	277.634	79.998	19.995	103.103	20.025	2.649	0.510
409.500	277.916	79.998	19.995	103.097	20.023	2.807	0.525
410.000	278.143	79.997	19.995	103.095	20.025	2.676	0.521
410.500	278.377	79.997	19.996	103.091	20.025	2.645	0.485
411.000	278.679	79.998	19.995	103.096	20.025	2.645	0.499
411.500	278.895	79.998	19.994	103.101	20.026	2.586	0.527
412.000	279.158	79.997	19.995	103.103	20.026	2.598	0.499
412.500	279.433	79.998	19.995	103.105	20.024	2.696	0.509
413.000	279.641	79.997	19.995	103.110	20.027	2.474	0.510
413.500	279.909	79.997	19.995	103.109	20.027	2.480	0.479
414.000	280.164	79.999	19.995	103.108	20.025	2.653	0.500
414.500	280.406	79.996	19.995	103.112	20.026	2.610	0.510
415.001	280.670	79.998	19.995	103.114	20.023	2.807	0.501
415.500	280.947	79.997	19.994	103.109	20.021	2.921	0.523
416.000	281.188	79.996	19.995	103.106	20.025	2.679	0.529
416.500	281.431	79.998	19.995	103.106	20.024	2.703	0.501
417.000	281.690	79.997	19.997	103.106	20.025	2.671	0.493
417.500	281.930	79.998	19.996	103.106	20.024	2.728	0.500
418.000	282.200	79.999	19.996	103.108	20.024	2.754	0.504
418.500	282.471	80.000	19.995	103.108	20.022	2.884	0.526
419.000	282.740	79.999	19.995	103.107	20.023	2.805	0.541
419.500	282.946	79.999	19.995	103.107	20.021	2.943	0.507
420.000	283.231	80.000	19.994	103.105	20.022	2.860	0.483
420.500	283.501	79.999	19.994	103.104	20.022	2.848	0.523
421.000	283.741	79.999	19.995	103.107	20.023	2.807	0.532
421.500	284.006	79.999	19.996	103.109	20.025	2.669	0.507
422.000	284.248	79.999	19.995	103.104	20.021	2.970	0.506
422.500	284.530	80.000	19.994	103.100	20.021	2.949	0.516
423.000	284.763	80.001	19.995	103.101	20.021	2.974	0.520
423.500	284.990	79.999	19.995	103.097	20.020	3.030	0.488
424.000	285.276	79.999	19.995	103.091	20.021	2.941	0.487
424.500	285.529	79.999	19.995	103.090	20.022	2.870	0.526
425.000	285.748	79.999	19.996	103.090	20.021	2.917	0.505
425.500	286.020	79.998	19.994	103.088	20.017	3.280	0.481
426.000	286.304	79.999	19.995	103.086	20.022	2.884	0.523
426.500	286.550	79.999	19.995	103.086	20.019	3.103	0.543
427.000	286.760	80.000	19.995	103.086	20.018	3.179	0.493
427.500	287.017	79.999	19.994	103.089	20.017	3.219	0.461
428.000	287.304	79.998	19.995	103.092	20.022	2.901	0.505
428.500	287.534	79.999	19.995	103.093	20.020	3.024	0.531
429.000	287.802	79.999	19.995	103.093	20.017	3.244	0.508
429.500	288.057	79.998	19.996	103.095	20.016	3.345	0.511
430.000	288.288	79.997	19.995	103.094	20.018	3.189	0.505
430.500	288.531	79.998	19.995	103.090	20.017	3.274	0.480
431.000	288.798	79.998	19.995	103.089	20.019	3.130	0.492
431.500	289.033	79.996	19.995	103.093	20.016	3.322	0.506
432.000	289.290	79.997	19.995	103.095	20.017	3.256	0.497
432.500	289.529	79.996	19.995	103.097	20.020	3.020	0.494
433.000	289.803	79.997	19.995	103.098	20.018	3.148	0.505
433.500	290.050	79.996	19.995	103.099	20.016	3.286	0.517
434.000	290.303	79.997	19.995	103.095	20.017	3.262	0.511
434.500	290.529	79.996	19.996	103.091	20.018	3.189	0.490
435.000	290.789	79.997	19.996	103.087	20.015	3.396	0.482
435.500	291.071	79.995	19.994	103.089	20.016	3.355	0.514
436.000	291.330	79.996	19.995	103.088	20.018	3.193	0.542
436.500	291.561	79.997	19.996	103.091	20.015	3.357	0.516
437.000	291.823	79.997	19.995	103.094	20.015	3.387	0.492
437.500	292.036	79.996	19.995	103.094	20.017	3.243	0.484
438.000	292.314	79.997	19.995	103.094	20.017	3.217	0.483
438.500	292.556	79.999	19.995	103.095	20.015	3.412	0.505
439.000	292.772	79.997	19.995	103.097	20.018	3.158	0.489
439.500	293.073	79.996	19.995	103.099	20.018	3.193	0.488
440.000	293.305	79.996	19.996	103.099	20.014	3.458	0.525
440.500	293.550	79.998	19.996	103.097	20.015	3.383	0.505
441.000	293.795	79.996	19.995	103.095	20.014	3.432	0.484
441.500	294.061	79.999	19.995	103.092	20.016	3.335	0.500
442.000	294.291	79.998	19.994	103.089	20.012	3.580	0.503
442.500	294.561	79.998	19.996	103.089	20.011	3.706	0.498
443.000	294.792	79.999	19.995	103.089	20.012	3.590	0.501
443.500	295.034	79.998	19.997	103.087	20.013	3.519	0.488
444.000	295.312	79.999	19.994	103.087	20.014	3.460	0.496
444.500	295.567	79.998	19.994	103.086	20.011	3.714	0.526
445.000	295.826	79.998	19.995	103.088	20.011	3.651	0.524
445.500	296.069	79.997	19.996	103.093	20.011	3.663	0.509
446.000	296.293	79.998	19.996	103.094	20.010	3.728	0.485
446.500	296.559	79.998	19.995	103.095	20.010	3.736	0.478
447.000	296.823	79.998	19.996	103.097	20.011	3.720	0.510
447.500	297.030	80.000	19.995	103.095	20.011	3.690	0.501
448.000	297.304	79.998	19.995	103.090	20.011	3.692	0.476
448.500	297.576	79.997	19.996	103.092	20.004	4.171	0.514
449.000	297.798	79.998	19.995	103.088	20.006	4.037	0.520
449.500	298.093	79.997	19.995	103.085	20.006	4.033	0.505
450.000	298.298	79.998	19.996	103.085	20.005	4.156	0.509
450.500	298.561	79.998	19.996	103.087	20.004	4.201	0.484
451.000	298.829	79.997	19.996	103.088	20.007	3.968	0.500
451.500	299.072	79.999	19.996	103.089	20.002	4.353	0.521
452.000	299.322	79.996	19.997	103.091	20.005	4.146	0.502
452.500	299.569	79.998	19.996	103.092	20.000	4.485	0.495
453.000	299.790	79.997	19.995	103.090	20.003	4.276	0.482
453.500	300.091	79.995	19.996	103.087	20.002	4.374	0.495
454.000	300.311	79.999	19.996	103.085	20.003	4.276	0.522
454.500	300.568	79.997	19.996	103.084	19.999	4.558	0.499
455.000	300.833	79.998	19.996	103.084	20.001	4.440	0.499
455.500	301.045	79.998	19.996	103.084	19.996	4.808	0.500
456.000	301.291	79.998	19.995	103.085	19.997	4.737	0.468
456.500	301.521	79.996	19.996	103.086	19.998	4.629	0.467
457.000	301.802	79.998	19.994	103.086	19.994	4.938	0.493
457.500	302.033	79.997	19.994	103.083	19.997	4.682	0.511
458.000	302.287	79.997	19.997	103.083	19.997	4.717	0.498
458.500	302.526	79.999	19.995	103.084	19.995	4.877	0.488
459.000	302.754	79.997	19.996	103.083	19.995	4.875	0.480
459.500	303.033	79.997	19.997	103.083	19.994	4.926	0.488
460.000	303.253	80.000	19.996	103.085	19.991	5.124	0.503
460.500	303.523	79.998	19.995	103.085	19.990	5.230	0.494
461.000	303.765	79.998	19.997	103.083	19.989	5.319	0.501
461.500	304.015	79.998	19.996	103.084	19.986	5.494	0.502
462.000	304.221	79.995	19.996	103.084	19.989	5.299	0.474
462.500	304.474	79.997	19.996	103.083	19.990	5.238	0.457
463.000	304.721	79.997	19.996	103.081	19.988	5.407	0.479
463.500	304.964	79.998	19.995	103.084	19.984	5.699	0.495
464.000	305.180	79.997	19.996	103.083	19.985	5.634	0.475
464.500	305.451	79.996	19.995	103.082	19.984	5.692	0.473
465.000	305.689	79.996	19.996	103.083	19.979	6.020	0.498
465.500	305.949	79.996	19.995	103.083	19.981	5.929	0.503
466.000	306.235	79.998	19.996	103.081	19.982	5.797	0.522
466.500	306.439	79.997	19.996	103.081	19.979	6.061	0.518
467.000	306.726	79.996	19.996	103.084	19.979	6.034	0.490
467.501	306.938	79.996	19.995	103.084	19.975	6.351	0.494
468.000	307.182	79.998	19.996	103.083	19.974	6.408	0.477
468.500	307.448	79.997	19.995	103.083	19.976	6.279	0.483
469.000	307.653	79.997	19.997	103.084	19.974	6.439	0.491
469.500	307.918	79.997	19.996	103.080	19.975	6.356	0.471
470.000	308.152	79.997	19.995	103.080	19.970	6.722	0.484
470.500	308.366	79.996	19.995	103.081	19.972	6.582	0.474
471.000	308.626	79.996	19.997	103.081	19.970	6.701	0.461
471.500	308.890	79.996	19.995	103.083	19.968	6.841	0.498
472.000	309.137	79.998	19.996	103.084	19.965	7.039	0.517
472.500	309.402	79.997	19.996	103.084	19.965	7.094	0.512
473.000	309.616	79.998	19.996	103.084	19.967	6.925	0.496
473.500	309.853	79.997	19.996	103.084	19.964	7.141	0.464
474.000	310.117	79.999	19.995	103.084	19.964	7.163	0.476
474.500	310.346	79.997	19.996	103.088	19.966	7.013	0.498
475.000	310.618	79.997	19.995	103.093	19.960	7.405	0.497
475.500	310.843	79.998	19.995	103.097	19.961	7.391	0.499
476.000	311.130	79.999	19.995	103.099	19.960	7.437	0.504
476.500	311.372	79.998	19.994	103.098	19.959	7.550	0.520
477.000	311.571	79.997	19.996	103.094	19.959	7.490	0.485
477.500	311.859	79.999	19.997	103.091	19.957	7.654	0.464
478.000	312.089	79.998	19.996	103.093	19.954	7.906	0.503
478.500	312.334	79.999	19.995	103.093	19.954	7.898	0.497
479.000	312.579	79.998	19.997	103.100	19.955	7.781	0.483
479.500	312.872	79.999	19.995	103.106	19.951	8.124	0.514
480.000	313.116	79.998	19.996	103.110	19.955	7.795	0.537
480.500	313.342	79.999	19.995	103.111	19.952	8.050	0.504
481.000	313.544	79.998	19.995	103.116	19.950	8.186	0.449
481.500	313.828	79.999	19.996	103.113	19.946	8.496	0.457
482.000	314.083	79.998	19.996	103.109	19.948	8.310	0.513
482.500	314.352	79.997	19.994	103.104	19.947	8.379	0.532
483.000	314.584	79.998	19.996	103.097	19.941	8.828	0.513
483.500	314.848	79.999	19.995	103.090	19.942	8.773	0.498
484.000	315.076	79.997	19.994	103.090	19.939	8.957	0.494
484.500	315.289	79.997	19.996	103.094	19.941	8.860	0.467
485.000	315.559	79.997	19.996	103.096	19.939	8.998	0.462
485.500	315.825	79.996	19.995	103.096	19.937	9.122	0.509
486.000	316.100	79.998	19.995	103.098	19.937	9.122	0.538
486.500	316.317	79.997	19.996	103.098	19.936	9.193	0.516
487.000	316.576	79.996	19.996	103.094	19.934	9.329	0.484
487.500	316.847	79.996	19.996	103.091	19.931	9.587	0.503
488.000	317.096	79.995	19.996	103.095	19.930	9.678	0.525
488.500	317.363	79.996	19.995	103.099	19.925	10.031	0.518
489.000	317.591	79.997	19.996	103.101	19.925	9.990	0.506
489.500	317.859	79.996	19.996	103.100	19.927	9.879	0.496
490.000	318.085	79.997	19.996	103.105	19.924	10.095	0.495
490.500	318.322	79.996	19.996	103.105	19.923	10.139	0.478
491.000	318.614	79.997	19.996	103.099	19.920	10.354	0.496
491.500	318.839	79.996	19.997	103.093	19.919	10.495	0.523
492.000	319.080	79.997	19.996	103.095	19.918	10.511	0.492
492.500	319.339	79.996	19.997	103.094	19.918	10.561	0.483
493.000	319.627	79.996	19.996	103.094	19.914	10.829	0.523
493.500	319.839	79.995	19.996	103.097	19.913	10.894	0.523
494.000	320.115	79.997	19.996	103.100	19.913	10.906	0.494
494.500	320.383	79.997	19.996	103.101	19.908	11.297	0.516
495.000	320.574	79.997	19.996	103.096	19.909	11.212	0.501
495.500	320.888	79.998	19.996	103.093	19.905	11.486	0.482
496.000	321.100	79.998	19.995	103.095	19.904	11.532	0.515
496.500	321.369	79.996	19.996	103.097	19.902	11.698	0.503
497.000	321.645	79.998	19.995	103.098	19.902	11.745	0.513
497.500	321.885	79.999	19.995	103.102	19.900	11.861	0.530
498.000	322.159	79.997	19.995	103.104	19.901	11.787	0.515
498.500	322.418	79.998	19.995	103.102	19.896	12.122	0.524
499.000	322.612	79.999	19.994	103.097	19.900	11.850	0.493
499.500	322.871	79.999	19.994	103.096	19.896	12.137	0.453
500.000	323.137	79.999	19.993	103.093	19.893	12.335	0.489
500.500	323.358	79.998	19.995	103.098	19.892	12.454	0.506
501.000	323.633	79.999	19.993	103.102	19.890	12.600	0.492
501.501	323.890	79.999	19.994	103.102	19.887	12.848	0.514
502.000	324.122	80.000	19.994	103.102	19.885	12.946	0.510
502.500	324.375	79.999	19.994	103.102	19.881	13.232	0.487
503.000	324.618	79.999	19.995	103.100	19.879	13.410	0.491
503.500	324.888	79.999	19.994	103.099	19.879	13.427	0.505
504.000	325.131	79.999	19.994	103.099	19.877	13.527	0.513
504.500	325.400	79.998	19.995	103.098	19.876	13.619	0.513
505.000	325.651	80.000	19.995	103.097	19.873	13.865	0.516
505.500	325.874	79.999	19.996	103.094	19.872	13.910	0.497
506.000	326.131	80.000	19.996	103.091	19.871	14.001	0.477
506.500	326.363	79.999	19.995	103.089	19.867	14.282	0.484
507.000	326.642	80.000	19.995	103.086	19.865	14.423	0.500
507.500	326.880	79.999	19.995	103.084	19.864	14.542	0.514
508.000	327.148	79.999	19.994	103.084	19.863	14.583	0.511
508.500	327.396	79.999	19.994	103.084	19.862	14.619	0.511
509.000	327.605	80.000	19.994	103.083	19.859	14.866	0.487
509.500	327.896	80.000	19.996	103.083	19.858	14.976	0.478
510.000	328.113	79.999	19.996	103.083	19.857	15.000	0.504
510.500	328.350	79.999	19.995	103.084	19.854	15.211	0.481
511.000	328.631	79.998	19.995	103.084	19.851	15.489	0.486
511.500	328.888	79.998	19.995	103.087	19.854	15.238	0.528
512.000	329.133	79.997	19.995	103.090	19.849	15.630	0.520
512.500	329.396	79.996	19.995	103.094	19.845	15.906	0.505
513.000	329.637	79.997	19.995	103.096	19.844	15.988	0.506
513.500	329.891	79.997	19.995	103.093	19.841	16.173	0.500
514.000	330.145	79.996	19.995	103.092	19.838	16.410	0.501
514.500	330.399	79.996	19.995	103.096	19.835	16.633	0.508
515.000	330.614	79.997	19.995	103.099	19.834	16.681	0.488
515.500	330.878	79.998	19.996	103.102	19.833	16.771	0.474
516.000	331.123	79.997	19.995	103.108	19.831	16.952	0.494
516.500	331.337	79.998	19.995	103.109	19.829	17.122	0.484
517.000	331.640	79.998	19.995	103.108	19.827	17.212	0.488
517.500	331.847	79.997	19.997	103.103	19.827	17.256	0.513
518.000	332.118	79.996	19.996	103.104	19.823	17.507	0.494
518.500	332.382	79.997	19.995	103.102	19.817	17.990	0.506
519.000	332.643	79.999	19.995	103.101	19.818	17.921	0.530
519.500	332.869	79.997	19.996	103.100	19.812	18.311	0.506
520.000	333.146	79.997	19.995	103.099	19.812	18.341	0.495
520.500	333.394	79.997	19.995	103.095	19.807	18.687	0.514
521.000	333.649	79.997	19.995	103.094	19.806	18.808	0.514
521.500	333.903	79.997	19.996	103.098	19.801	19.139	0.506
522.000	334.167	79.997	19.996	103.097	19.803	19.017	0.513
522.500	334.428	79.999	19.996	103.100	19.799	19.280	0.521
523.000	334.711	79.996	19.994	103.102	19.797	19.459	0.535
523.500	334.924	79.997	19.995	103.101	19.793	19.768	0.520
524.000	335.204	79.997	19.996	103.096	19.790	19.921	0.494
524.500	335.458	79.997	19.996	103.096	19.791	19.912	0.513
525.000	335.680	79.997	19.996	103.094	19.785	20.356	0.505
525.500	335.957	79.999	19.995	103.091	19.783	20.503	0.488
526.000	336.203	79.997	19.995	103.097	19.776	20.997	0.511
526.500	336.443	79.999	19.995	103.104	19.775	21.094	0.504
527.000	336.718	79.997	19.996	103.106	19.772	21.282	0.501
527.500	336.927	79.999	19.995	103.111	19.774	21.141	0.500
528.000	337.214	79.999	19.994	103.117	19.771	21.389	0.490
528.500	337.448	79.998	19.995	103.113	19.767	21.666	0.509
529.000	337.703	79.998	19.995	103.109	19.762	21.981	0.505
529.500	337.979	79.997	19.994	103.110	19.759	22.272	0.509
530.000	338.204	79.997	19.996	103.110	19.754	22.622	0.516
530.500	338.434	79.997	19.994	103.109	19.753	22.667	0.478
531.000	338.744	79.998	19.995	103.106	19.751	22.806	0.498
531.500	338.967	79.997	19.995	103.103	19.748	23.074	0.536
532.000	339.252	79.998	19.995	103.095	19.741	23.535	0.521
532.500	339.503	79.998	19.995	103.088	19.740	23.608	0.523
533.000	339.718	79.998	19.996	103.086	19.736	23.964	0.501
533.500	340.001	79.997	19.995	103.093	19.734	24.102	0.481
534.000	340.223	79.997	19.994	103.094	19.734	24.116	0.501
534.500	340.469	79.997	19.995	103.096	19.728	24.489	0.487
535.000	340.728	79.997	19.994	103.101	19.722	24.963	0.486
535.500	340.975	79.998	19.994	103.097	19.717	25.333	0.505
536.000	341.264	79.997	19.995	103.093	19.715	25.490	0.521
536.500	341.500	79.996	19.995	103.097	19.714	25.585	0.530
537.000	341.755	79.999	19.997	103.099	19.706	26.125	0.509
537.500	341.974	79.997	19.996	103.099	19.705	26.215	0.483
538.000	342.212	79.999	19.995	103.103	19.700	26.588	0.465
538.500	342.474	79.997	19.994	103.102	19.699	26.684	0.478
539.000	342.721	79.997	19.994	103.103	19.694	27.014	0.504
539.500	342.966	79.997	19.995	103.105	19.692	27.191	0.500
540.000	343.236	79.999	19.993	103.109	19.690	27.325	0.504
540.500	343.471	79.997	19.995	103.111	19.684	27.743	0.510
541.000	343.705	79.997	19.996	103.114	19.679	28.128	0.487
541.500	343.979	79.996	19.995	103.109	19.674	28.516	0.489
542.000	344.250	79.996	19.995	103.103	19.671	28.744	0.526
542.500	344.459	79.997	19.994	103.103	19.671	28.748	0.512
543.000	344.695	79.996	19.993	103.103	19.666	29.122	0.463
543.500	344.981	79.996	19.994	103.102	19.659	29.605	0.483
544.000	345.202	79.995	19.996	103.109	19.656	29.830	0.515
544.500	345.444	79.997	19.995	103.114	19.651	30.177	0.485
545.000	345.713	79.995	19.995	103.114	19.648	30.408	0.487
545.500	345.965	79.998	19.995	103.115	19.644	30.678	0.516
546.000	346.163	79.997	19.995	103.118	19.637	31.186	0.485
546.500	346.475	79.996	19.996	103.118	19.632	31.566	0.480
547.000	346.714	79.996	19.996	103.120	19.627	31.933	0.531
547.500	346.968	79.998	19.995	103.120	19.626	32.002	0.521
548.000	347.224	79.996	19.996	103.121	19.621	32.428	0.501
548.500	347.485	79.997	19.996	103.121	19.617	32.699	0.514
549.000	347.738	79.996	19.996	103.121	19.612	33.096	0.516
549.500	347.958	79.996	19.995	103.121	19.609	33.317	0.493
550.000	348.203	79.995	19.996	103.120	19.603	33.733	0.469
550.500	348.453	79.997	19.996	103.120	19.598	34.075	0.480
551.000	348.695	79.996	19.996	103.120	19.595	34.294	0.494
551.500	348.964	79.995	19.996	103.118	19.590	34.681	0.501
552.000	349.211	79.995	19.996	103.118	19.586	34.948	0.514
552.500	349.485	79.994	19.996	103.118	19.581	35.325	0.518
553.000	349.776	79.995	19.995	103.119	19.579	35.506	0.543
553.500	350.015	79.998	19.996	103.119	19.573	35.958	0.548
554.000	350.269	79.997	19.996	103.121	19.569	36.253	0.512
554.500	350.514	79.996	19.996	103.119	19.563	36.642	0.496
555.000	350.823	79.998	19.995	103.119	19.560	36.855	0.526
555.500	351.028	79.998	19.996	103.118	19.553	37.438	0.534
556.000	351.310	79.996	19.996	103.118	19.550	37.617	0.501
556.500	351.575	79.997	19.996	103.117	19.546	37.925	0.517
557.000	351.790	79.998	19.995	103.118	19.538	38.524	0.513
557.500	352.042	79.997	19.996	103.118	19.537	38.574	0.474
558.000	352.310	79.998	19.995	103.118	19.528	39.210	0.494
558.500	352.569	79.996	19.995	103.118	19.523	39.624	0.523
559.000	352.811	79.997	19.996	103.117	19.519	39.906	0.514
559.500	353.073	79.996	19.995	103.115	19.515	40.208	0.503
560.000	353.334	79.997	19.996	103.116	19.513	40.328	0.513
560.500	353.570	79.998	19.996	103.115	19.503	41.092	0.510
561.000	353.837	79.998	19.995	103.115	19.498	41.451	0.500
561.500	354.077	79.999	19.996	103.118	19.491	41.953	0.505
562.000	354.352	79.997	19.995	103.116	19.486	42.348	0.511
562.500	354.577	79.997	19.996	103.116	19.484	42.481	0.508
563.000	354.816	79.997	19.995	103.118	19.478	42.951	0.482
563.500	355.078	79.996	19.995	103.118	19.473	43.255	0.482
564.000	355.317	79.997	19.996	103.118	19.466	43.824	0.501
564.500	355.611	79.998	19.996	103.121	19.459	44.293	0.517
565.000	355.871	79.997	19.994	103.122	19.454	44.673	0.543
565.500	356.087	79.997	19.994	103.121	19.454	44.679	0.515
566.000	356.368	79.997	19.994	103.121	19.443	45.481	0.487
566.500	356.640	79.997	19.995	103.122	19.441	45.652	0.526
567.000	356.915	79.996	19.995	103.121	19.432	46.330	0.550
567.500	357.122	79.998	19.995	103.121	19.431	46.388	0.514
568.000	357.376	79.997	19.995	103.120	19.422	47.021	0.471
568.500	357.635	79.997	19.996	103.118	19.416	47.502	0.487
569.000	357.870	79.996	19.995	103.116	19.411	47.868	0.504
569.500	358.161	79.996	19.996	103.115	19.408	48.070	0.510
570.000	358.383	79.999	19.995	103.113	19.397	48.872	0.520
570.500	358.649	79.996	19.995	103.112	19.392	49.261	0.500
571.000	358.858	79.997	19.995	103.113	19.389	49.492	0.481
571.500	359.125	79.997	19.996	103.114	19.382	49.999	0.475
572.000	359.337	79.997	19.997	103.114	19.376	50.442	0.477
572.500	359.635	79.996	19.996	103.110	19.368	51.056	0.494
573.000	359.865	79.998	19.995	103.109	19.361	51.509	0.519
573.500	360.128	79.997	19.997	103.106	19.355	51.986	0.511
574.000	360.391	79.998	19.996	103.103	19.348	52.491	0.510
574.500	360.640	79.998	19.996	103.103	19.342	52.916	0.519
575.000	360.889	79.997	19.996	103.108	19.337	53.324	0.505
575.500	361.136	79.998	19.996	103.110	19.332	53.695	0.498
576.000	361.382	79.999	19.996	103.114	19.324	54.231	0.495
576.500	361.622	79.995	19.997	103.113	19.318	54.701	0.489
577.000	361.867	79.997	19.996	103.111	19.310	55.310	0.485
577.500	362.120	79.997	19.996	103.111	19.306	55.609	0.491
578.000	362.362	79.997	19.997	103.110	19.300	56.009	0.496
578.500	362.611	79.997	19.997	103.106	19.293	56.517	0.493
579.000	362.842	79.998	19.997	103.104	19.288	56.916	0.486
579.500	363.120	79.998	19.997	103.104	19.279	57.592	0.495
580.000	363.356	79.996	19.996	103.100	19.276	57.807	0.512
580.500	363.602	79.998	19.996	103.099	19.267	58.487	0.498
581.000	363.838	79.998	19.996	103.103	19.261	58.881	0.482
581.500	364.080	80.000	19.996	103.106	19.251	59.608	0.479
582.000	364.298	79.995	19.997	103.109	19.246	60.000	0.469
582.500	364.586	79.998	19.996	103.112	19.237	60.642	0.483
583.000	364.839	80.000	19.996	103.114	19.231	61.087	0.524
583.500	365.045	80.002	19.995	103.115	19.223	61.696	0.500
584.000	365.267	79.999	19.996	103.116	19.215	62.282	0.444
584.500	365.545	80.000	19.996	103.115	19.208	62.812	0.464
585.000	365.758	79.999	19.997	103.115	19.201	63.300	0.495
585.500	366.037	79.999	19.996	103.115	19.196	63.706	0.492
586.000	366.265	79.997	19.997	103.115	19.187	64.338	0.500
586.500	366.453	80.000	19.996	103.115	19.175	65.238	0.461
587.000	366.717	79.997	19.996	103.115	19.172	65.465	0.434
587.500	366.935	79.997	19.995	103.117	19.162	66.191	0.467
588.000	367.239	79.999	19.995	103.117	19.158	66.528	0.502
588.500	367.471	80.000	19.995	103.118	19.151	67.043	0.529
589.000	367.699	79.999	19.995	103.118	19.142	67.646	0.498
589.500	367.902	79.999	19.995	103.119	19.135	68.197	0.445
590.000	368.149	79.998	19.996	103.117	19.130	68.570	0.441
590.500	368.421	79.998	19.995	103.117	19.116	69.580	0.484
591.000	368.656	79.998	19.996	103.117	19.112	69.886	0.513
591.500	368.887	79.998	19.996	103.117	19.100	70.765	0.487
592.001	369.159	79.998	19.995	103.117	19.097	70.984	0.485
592.500	369.419	79.998	19.995	103.118	19.087	71.754	0.517
593.000	369.656	79.998	19.994	103.118	19.080	72.262	0.514
593.500	369.898	79.998	19.995	103.118	19.072	72.839	0.488
594.000	370.115	79.998	19.996	103.119	19.065	73.359	0.469
594.500	370.384	79.996	19.995	103.118	19.054	74.188	0.473
595.000	370.612	79.997	19.994	103.118	19.045	74.790	0.492
595.500	370.843	79.997	19.995	103.118	19.040	75.210	0.478
596.000	371.093	79.997	19.995	103.118	19.033	75.731	0.469
596.500	371.324	79.997	19.996	103.119	19.022	76.540	0.480
597.000	371.579	79.997	19.994	103.122	19.015	77.007	0.483
597.501	371.823	79.998	19.995	103.130	19.007	77.595	0.493
598.000	372.039	79.999	19.996	103.136	18.999	78.196	0.480
598.500	372.327	79.996	19.994	103.137	18.988	78.992	0.482
599.000	372.555	79.997	19.996	103.137	18.985	79.250	0.510
599.500	372.814	79.996	19.995	103.136	18.971	80.248	0.502
600.000	373.078	79.999	19.994	103.136	18.963	80.878	0.505
600.500	373.315	79.996	19.996	103.132	18.953	81.595	0.512
601.000	373.594	79.997	19.996	103.131	18.942	82.375	0.509
601.500	373.844	79.996	19.995	103.132	18.936	82.860	0.522
602.000	374.078	79.995	19.994	103.134	18.927	83.481	0.506
602.500	374.339	79.997	19.995	103.131	18.917	84.248	0.489
603.000	374.607	79.996	19.994	103.133	18.910	84.753	0.513
603.500	374.866	79.997	19.994	103.133	18.898	85.633	0.529
604.000	375.076	79.995	19.996	103.132	18.889	86.294	0.498
604.500	375.320	79.996	19.995	103.129	18.880	86.984	0.461
605.000	375.598	79.996	19.996	103.127	18.869	87.762	0.488
605.500	375.839	79.994	19.995	103.130	18.861	88.382	0.520
606.000	376.084	79.997	19.995	103.135	18.851	89.090	0.502
606.500	376.369	79.997	19.997	103.137	18.840	89.890	0.508
607.000	376.628	79.995	19.996	103.137	18.834	90.369	0.537
607.500	376.824	79.996	19.995	103.137	18.821	91.288	0.499
608.000	377.085	79.997	19.995	103.134	18.813	91.871	0.456
608.500	377.335	79.996	19.996	103.135	18.800	92.833	0.484
609.000	377.616	79.996	19.995	103.137	18.794	93.316	0.521
609.500	377.839	79.997	19.995	103.141	18.782	94.187	0.517
610.000	378.128	79.997	19.994	103.146	18.772	94.877	0.508
610.500	378.355	79.998	19.995	103.144	18.762	95.616	0.514
611.000	378.617	79.996	19.994	103.139	18.753	96.276	0.503
611.500	378.904	79.998	19.995	103.135	18.745	96.902	0.519
612.000	379.144	79.996	19.995	103.133	18.735	97.661	0.538
612.500	379.385	79.997	19.994	103.133	18.719	98.795	0.504
613.000	379.661	79.997	19.995	103.135	18.708	99.634	0.499
613.500	379.893	79.997	19.995	103.134	18.698	100.389	0.513
614.000	380.119	79.996	19.995	103.138	18.689	100.997	0.484
614.500	380.418	79.997	19.994	103.136	18.676	101.957	0.492
615.000	380.654	79.996	19.996	103.130	18.666	102.748	0.530
615.500	380.907	79.996	19.996	103.126	18.657	103.407	0.511
616.000	381.152	79.997	19.995	103.128	18.647	104.136	0.493
616.500	381.432	79.996	19.995	103.124	18.635	104.984	0.512
617.000	381.672	79.999	19.995	103.124	18.628	105.534	0.523
617.500	381.917	79.998	19.996	103.129	18.616	106.410	0.503
618.000	382.158	79.998	19.995	103.130	18.605	107.229	0.485
618.500	382.393	79.997	19.994	103.130	18.594	107.994	0.481
619.000	382.701	79.997	19.995	103.130	18.586	108.642	0.510
619.500	382.945	79.995	19.995	103.130	18.572	109.666	0.547
620.000	383.217	79.997	19.994	103.127	18.569	109.891	0.534
620.500	383.473	79.996	19.996	103.127	18.555	110.907	0.522
621.000	383.691	79.996	19.996	103.126	18.543	111.774	0.501
621.500	383.973	79.998	19.994	103.127	18.534	112.431	0.487
622.000	384.238	79.995	19.995	103.127	18.522	113.311	0.524
622.500	384.490	79.996	19.994	103.125	18.515	113.857	0.532
623.000	384.733	79.996	19.995	103.125	18.504	114.665	0.506
623.500	384.973	79.998	19.995	103.124	18.494	115.392	0.490
624.000	385.248	79.996	19.996	103.122	18.482	116.244	0.499
624.500	385.486	79.996	19.995	103.122	18.473	116.938	0.514
625.000	385.817	79.996	19.995	103.123	18.462	117.735	0.541
625.500	386.033	79.998	19.995	103.125	18.457	118.085	0.558
626.000	386.289	79.995	19.995	103.128	18.446	118.909	0.509
626.500	386.518	79.997	19.996	103.131	18.434	119.755	0.478
627.000	386.790	79.997	19.995	103.131	18.425	120.429	0.493
627.500	387.016	79.996	19.995	103.130	18.417	121.035	0.500
628.000	387.309	79.997	19.995	103.128	18.404	121.990	0.509
628.500	387.553	79.998	19.994	103.127	18.393	122.802	0.528
629.000	387.795	79.995	19.996	103.125	18.382	123.554	0.511
629.500	388.031	79.997	19.995	103.127	18.376	124.005	0.482
630.000	388.361	79.995	19.994	103.129	18.366	124.750	0.522
630.500	388.602	79.996	19.995	103.130	18.355	125.580	0.568
631.000	388.834	79.996	19.995	103.128	18.344	126.365	0.522
631.500	389.081	79.996	19.994	103.127	18.334	127.094	0.476
632.000	389.360	79.997	19.995	103.123	18.325	127.766	0.503
632.500	389.615	79.997	19.995	103.120	18.317	128.332	0.530
633.000	389.890	79.996	19.994	103.119	18.309	128.957	0.531
633.500	390.125	79.997	19.995	103.119	18.302	129.438	0.520
634.000	390.407	79.999	19.994	103.119	18.292	130.216	0.514
634.500	390.639	79.998	19.996	103.120	18.284	130.752	0.516
635.000	390.923	80.000	19.996	103.119	18.277	131.314	0.515
635.500	391.152	79.997	19.995	103.115	18.266	132.114	0.514
636.000	391.395	79.997	19.995	103.111	18.261	132.455	0.492
636.500	391.686	79.999	19.996	103.110	18.253	133.034	0.503
637.000	391.935	79.996	19.995	103.109	18.246	133.593	0.537
637.500	392.180	79.997	19.995	103.109	18.236	134.299	0.517
638.000	392.442	79.998	19.995	103.111	18.231	134.645	0.500
638.500	392.700	79.999	19.995	103.110	18.224	135.147	0.513
639.000	392.989	79.998	19.995	103.106	18.217	135.669	0.533
639.500	393.248	79.998	19.996	103.100	18.208	136.376	0.548
640.000	393.472	79.999	19.996	103.092	18.202	136.829	0.516
640.500	393.755	79.999	19.995	103.088	18.195	137.336	0.495
641.000	394.017	80.001	19.995	103.089	18.187	137.882	0.526
641.500	394.292	80.000	19.997	103.088	18.183	138.167	0.542
642.000	394.550	79.998	19.996	103.087	18.178	138.572	0.535
642.500	394.788	79.998	19.995	103.088	18.171	139.047	0.514
643.000	395.077	80.000	19.995	103.087	18.166	139.429	0.512
643.500	395.298	79.999	19.997	103.083	18.157	140.089	0.519
644.000	395.566	80.000	19.996	103.081	18.152	140.425	0.499
644.500	395.837	79.997	19.996	103.081	18.147	140.814	0.514
645.000	396.062	79.998	19.996	103.080	18.142	141.158	0.518
645.500	396.304	79.998	19.995	103.079	18.140	141.339	0.482
646.000	396.603	80.000	19.995	103.079	18.136	141.591	0.504
646.500	396.838	79.999	19.996	103.079	18.133	141.842	0.538
647.000	397.111	79.999	19.995	103.079	18.128	142.192	0.521
647.500	397.356	79.999	19.995	103.078	18.125	142.451	0.513
648.000	397.612	79.998	19.996	103.077	18.121	142.703	0.509
648.500	397.885	79.998	19.996	103.070	18.116	143.081	0.515
649.000	398.106	79.999	19.996	103.066	18.117	142.988	0.512
649.500	398.383	79.999	19.995	103.063	18.114	143.231	0.496
650.000	398.644	79.998	19.996	103.063	18.114	143.209	0.518
650.500	398.901	79.998	19.995	103.064	18.112	143.330	0.528
651.000	399.146	79.998	19.995	103.069	18.110	143.510	0.510
651.500	399.405	79.998	19.995	103.069	18.108	143.652	0.503
652.000	399.686	79.997	19.996	103.064	18.109	143.589	0.522
652.500	399.914	79.997	19.996	103.057	18.109	143.610	0.525
653.000	400.146	79.998	19.996	103.049	18.108	143.664	0.485
653.500	400.406	79.997	19.996	103.044	18.109	143.569	0.476
654.000	400.674	79.996	19.996	103.042	18.108	143.637	0.510
654.500	400.903	79.998	19.995	103.042	18.108	143.620	0.512
655.000	401.118	79.997	19.995	103.042	18.112	143.312	0.470
655.500	401.438	79.999	19.995	103.042	18.115	143.123	0.489
656.000	401.665	79.999	19.996	103.042	18.116	143.037	0.541
656.500	401.928	79.999	19.994	103.040	18.119	142.810	0.519
657.000	402.206	79.998	19.994	103.040	18.124	142.423	0.515
657.500	402.439	79.997	19.997	103.040	18.126	142.279	0.526
658.000	402.679	79.999	19.995	103.039	18.130	141.981	0.493
658.500	402.956	79.999	19.996	103.039	18.138	141.404	0.495
659.000	403.187	80.000	19.996	103.039	18.142	141.091	0.512
659.500	403.450	79.999	19.996	103.035	18.146	140.818	0.501
660.000	403.712	79.998	19.996	103.032	18.152	140.380	0.510
660.501	403.967	79.999	19.995	103.025	18.160	139.773	0.521
661.001	404.185	80.000	19.996	103.018	18.171	139.002	0.494
661.501	404.411	79.999	19.996	103.016	18.175	138.658	0.458
662.000	404.697	79.999	19.995	103.012	18.183	138.069	0.478
662.500	404.934	79.999	19.994	103.011	18.191	137.499	0.518
663.000	405.201	80.000	19.996	103.015	18.200	136.862	0.514
663.500	405.462	79.999	19.996	103.018	18.207	136.338	0.516
664.000	405.702	80.000	19.996	103.015	18.216	135.655	0.514
664.500	405.983	80.000	19.996	103.017	18.229	134.731	0.511
665.000	406.266	79.999	19.995	103.014	18.236	134.216	0.543
665.500	406.478	79.998	19.996	103.010	18.246	133.480	0.529
666.000	406.703	79.999	19.996	103.006	18.254	132.847	0.466
666.500	406.940	79.999	19.996	103.004	18.270	131.674	0.449
667.000	407.230	79.999	19.997	103.005	18.281	130.867	0.494
667.500	407.499	79.999	19.996	103.005	18.294	129.952	0.543
668.000	407.709	79.998	19.995	103.005	18.307	128.997	0.519
668.500	407.963	79.997	19.996	103.005	18.321	127.970	0.472
669.000	408.233	79.998	19.997	103.002	18.331	127.206	0.494
669.500	408.448	79.998	19.995	103.000	18.345	126.197	0.505
670.000	408.677	79.997	19.996	102.998	18.360	125.051	0.464
670.500	408.935	79.996	19.996	102.994	18.376	123.923	0.465
671.000	409.197	79.997	19.996	102.992	18.389	122.958	0.503
671.500	409.463	79.997	19.996	102.992	18.405	121.795	0.524
672.000	409.731	79.997	19.996	102.992	18.422	120.498	0.531
672.500	409.967	79.997	19.997	102.993	18.438	119.356	0.519
673.000	410.243	79.997	19.996	102.997	18.459	117.827	0.508
673.500	410.480	79.996	19.996	102.999	18.476	116.572	0.512
674.000	410.712	79.997	19.996	102.999	18.491	115.482	0.491
674.500	410.982	79.994	19.996	102.999	18.508	114.217	0.486
675.000	411.245	79.996	19.997	102.997	18.527	112.814	0.517
675.500	411.500	79.997	19.996	102.996	18.544	111.516	0.525
676.000	411.752	79.997	19.996	102.993	18.561	110.332	0.512
676.500	412.005	79.995	19.996	102.993	18.579	108.964	0.506
677.000	412.257	79.996	19.995	102.993	18.597	107.653	0.505
677.500	412.495	79.996	19.996	102.991	18.618	106.092	0.498
678.000	412.743	79.996	19.996	102.989	18.636	104.770	0.488
678.500	413.007	79.997	19.996	102.991	18.662	102.896	0.499
679.000	413.204	79.997	19.996	102.994	18.678	101.734	0.486
679.500	413.521	79.996	19.997	102.991	18.700	100.098	0.487
680.000	413.717	79.996	19.995	102.994	18.723	98.420	0.514
680.500	413.983	79.995	19.996	102.997	18.743	96.962	0.488
681.000	414.221	79.997	19.995	102.995	18.762	95.520	0.483
681.500	414.433	79.997	19.995	102.991	18.782	94.089	0.477
682.000	414.718	79.996	19.995	102.991	18.805	92.419	0.473
682.500	414.975	79.997	19.995	102.992	18.824	90.976	0.519
683.000	415.232	79.997	19.995	102.991	18.848	89.209	0.528
683.500	415.470	79.995	19.995	102.994	18.873	87.377	0.505
684.000	415.689	79.996	19.995	102.994	18.890	86.107	0.476
684.500	415.979	79.996	19.995	102.993	18.912	84.505	0.483
685.000	416.202	79.995	19.995	102.990	18.934	82.872	0.511
685.500	416.470	79.997	19.996	102.985	18.956	81.280	0.502
686.000	416.709	79.997	19.996	102.982	18.976	79.787	0.499
686.500	416.975	79.998	19.995	102.985	18.996	78.356	0.506
687.000	417.224	79.996	19.995	102.984	19.013	77.105	0.510
687.500	417.451	79.998	19.995	102.989	19.035	75.495	0.495
688.000	417.709	79.996	19.995	102.995	19.055	74.007	0.480
688.500	417.978	79.996	19.995	102.998	19.075	72.522	0.506
689.000	418.244	79.998	19.995	103.000	19.092	71.317	0.531
689.500	418.507	79.996	19.994	103.003	19.111	69.911	0.532
690.000	418.743	79.996	19.996	103.003	19.131	68.436	0.514
690.500	418.968	79.997	19.996	103.004	19.145	67.399	0.480
691.000	419.230	79.996	19.995	103.012	19.164	66.000	0.474
691.500	419.461	79.997	19.995	103.016	19.183	64.613	0.490
692.000	419.689	79.996	19.995	103.016	19.200	63.357	0.476
692.500	419.941	79.996	19.995	103.017	19.218	62.045	0.470
693.000	420.195	79.998	19.995	103.017	19.234	60.842	0.493
693.500	420.450	79.997	19.994	103.009	19.251	59.599	0.507
694.000	420.759	79.996	19.994	103.006	19.264	58.626	0.536
694.500	420.948	79.996	19.995	103.007	19.280	57.430	0.531
695.000	421.212	79.996	19.995	103.006	19.295	56.343	0.476
695.500	421.477	79.997	19.995	103.007	19.306	55.568	0.491
696.000	421.739	79.998	19.994	103.014	19.322	54.356	0.528
696.500	421.960	79.998	19.995	103.016	19.330	53.754	0.505
697.000	422.229	79.996	19.994	103.019	19.347	52.538	0.487
697.500	422.488	79.998	19.996	103.023	19.359	51.625	0.509
698.000	422.727	79.996	19.995	103.026	19.371	50.751	0.513
698.500	422.991	79.996	19.996	103.024	19.382	49.922	0.500
699.000	423.258	79.997	19.995	103.028	19.395	48.972	0.517
699.500	423.531	79.997	19.995	103.031	19.411	47.832	0.536
700.000	423.762	79.998	19.996	103.033	19.415	47.542	0.522
700.500	424.005	79.998	19.996	103.036	19.425	46.780	0.489
701.000	424.235	79.997	19.996	103.039	19.432	46.292	0.474
701.500	424.516	79.997	19.995	103.038	19.437	45.892	0.492
702.000	424.754	79.997	19.995	103.039	19.447	45.155	0.515
702.500	424.989	79.996	19.996	103.039	19.459	44.294	0.496
703.000	425.248	79.997	19.995	103.040	19.468	43.609	0.483
703.500	425.535	79.995	19.996	103.040	19.469	43.556	0.519
704.000	425.788	79.997	19.995	103.040	19.481	42.687	0.543
704.500	426.023	79.996	19.996	103.041	19.485	42.398	0.514
705.000	426.309	79.997	19.995	103.040	19.493	41.818	0.505
705.500	426.563	79.997	19.996	103.038	19.500	41.244	0.531
706.000	426.797	79.996	19.996	103.037	19.507	40.755	0.514
706.500	427.032	79.996	19.995	103.037	19.511	40.477	0.479
707.000	427.337	79.996	19.996	103.037	19.517	40.038	0.504
707.500	427.563	79.996	19.997	103.038	19.527	39.307	0.535
708.000	427.843	79.996	19.995	103.040	19.530	39.104	0.519
708.500	428.083	79.998	19.995	103.040	19.536	38.612	0.513
709.000	428.336	79.997	19.995	103.040	19.544	38.068	0.506
709.500	428.581	79.996	19.996	103.040	19.548	37.760	0.496
710.000	428.868	79.996	19.996	103.041	19.552	37.473	0.515
710.500	429.125	79.998	19.995	103.040	19.554	37.268	0.538
711.000	429.383	79.998	19.995	103.037	19.559	36.920	0.530
711.500	429.634	79.997	19.994	103.034	19.561	36.787	0.512
712.000	429.892	79.998	19.995	103.031	19.565	36.467	0.509
712.500	430.140	79.999	19.996	103.031	19.568	36.253	0.508
713.000	430.406	79.997	19.996	103.028	19.574	35.861	0.510
713.500	430.640	79.997	19.995	103.030	19.580	35.420	0.508
714.000	430.918	79.997	19.996	103.033	19.581	35.337	0.506
714.500	431.123	79.997	19.995	103.036	19.586	34.968	0.497
715.000	431.376	79.997	19.995	103.035	19.587	34.883	0.470
715.500	431.613	79.998	19.995	103.038	19.590	34.629	0.474
716.000	431.832	79.997	19.995	103.039	19.592	34.493	0.473
716.500	432.186	79.998	19.996	103.038	19.596	34.196	0.514
717.000	432.376	79.998	19.995	103.038	19.596	34.205	0.558
717.500	432.632	79.997	19.996	103.039	19.598	34.035	0.495
718.000	432.863	80.000	19.997	103.036	19.601	33.834	0.467
718.500	433.134	79.998	19.995	103.033	19.603	33.717	0.494
719.000	433.365	79.999	19.995	103.033	19.604	33.656	0.502
719.500	433.646	80.000	19.996	103.031	19.607	33.386	0.507
720.000	433.889	79.999	19.996	103.029	19.608	33.319	0.518
720.500	434.159	79.999	19.996	103.031	19.612	33.039	0.518
721.000	434.384	79.999	19.995	103.033	19.612	33.067	0.504
721.500	434.662	80.000	19.995	103.034	19.615	32.815	0.499
722.000	434.912	80.000	19.994	103.036	19.614	32.879	0.516
722.500	435.171	79.999	19.995	103.038	19.614	32.920	0.519
723.000	435.432	79.999	19.996	103.038	19.619	32.510	0.514
723.500	435.671	79.999	19.995	103.037	19.621	32.341	0.510
724.000	435.934	79.998	19.996	103.036	19.622	32.278	0.501
724.500	436.150	80.000	19.996	103.034	19.625	32.075	0.491
725.000	436.406	80.000	19.995	103.033	19.624	32.186	0.475
725.500	436.629	79.999	19.996	103.033	19.625	32.103	0.475
726.000	436.892	79.997	19.996	103.034	19.626	32.015	0.482
726.500	437.140	79.998	19.996	103.034	19.627	31.965	0.499
727.000	437.396	80.000	19.995	103.034	19.628	31.865	0.508
727.500	437.663	80.000	19.995	103.030	19.630	31.738	0.514
728.000	437.895	79.999	19.996	103.028	19.626	32.026	0.511
728.500	438.159	79.997	19.995	103.028	19.628	31.869	0.498
729.000	438.376	79.998	19.996	103.027	19.631	31.649	0.488
729.500	438.611	79.998	19.996	103.030	19.629	31.805	0.466
730.000	438.866	79.999	19.995	103.034	19.629	31.821	0.471
730.500	439.118	79.998	19.996	103.036	19.627	31.960	0.499
731.000	439.378	79.998	19.995	103.034	19.632	31.588	0.509
731.500	439.638	79.998	19.996	103.036	19.630	31.740	0.516
732.000	439.845	79.998	19.996	103.038	19.630	31.704	0.494
732.500	440.141	79.996	19.995	103.039	19.631	31.642	0.485
733.000	440.364	79.998	19.995	103.040	19.633	31.523	0.511
733.500	440.575	79.996	19.996	103.043	19.633	31.501	0.477
734.000	440.867	79.996	19.996	103.043	19.630	31.684	0.469
734.500	441.149	79.998	19.996	103.040	19.630	31.684	0.539
735.000	441.353	79.996	19.997	103.039	19.634	31.404	0.530
735.500	441.602	79.997	19.996	103.039	19.635	31.377	0.469
736.000	441.864	79.997	19.996	103.038	19.635	31.373	0.482
736.500	442.109	79.997	19.997	103.037	19.634	31.402	0.509
737.000	442.351	79.997	19.996	103.036	19.636	31.256	0.497
737.500	442.610	79.998	19.995	103.037	19.636	31.254	0.494
738.000	442.875	79.998	19.996	103.037	19.635	31.349	0.512
738.500	443.127	79.998	19.995	103.038	19.636	31.284	0.521
739.000	443.378	79.998	19.996	103.040	19.635	31.310	0.510
739.500	443.648	79.996	19.995	103.041	19.635	31.358	0.512
740.000	443.892	79.998	19.996	103.041	19.633	31.510	0.518
740.500	444.140	79.996	19.996	103.040	19.633	31.517	0.503
741.001	444.366	79.998	19.995	103.038	19.631	31.661	0.483
741.500	444.631	79.999	19.995	103.034	19.633	31.482	0.482
742.000	444.897	79.997	19.995	103.033	19.633	31.470	0.511
742.500	445.085	79.999	19.995	103.033	19.635	31.378	0.493
743.000	445.402	79.999	19.995	103.033	19.634	31.414	0.479
743.500	445.643	79.999	19.996	103.035	19.635	31.324	0.531
744.000	445.852	79.999	19.995	103.039	19.634	31.444	0.504
744.500	446.132	80.000	19.994	103.040	19.632	31.589	0.470
745.000	446.384	79.999	19.995	103.040	19.628	31.831	0.510
745.500	446.633	80.000	19.996	103.040	19.629	31.790	0.517
746.000	446.896	79.999	19.995	103.040	19.631	31.666	0.507
746.500	447.155	79.999	19.995	103.040	19.630	31.704	0.517
747.000	447.365	80.000	19.995	103.040	19.629	31.795	0.496
747.500	447.642	79.998	19.995	103.040	19.630	31.694	0.478
748.000	447.879	80.000	19.994	103.041	19.628	31.847	0.500
748.500	448.143	80.000	19.995	103.041	19.628	31.834	0.507
749.000	448.443	80.000	19.995	103.040	19.628	31.893	0.532
749.500	448.638	79.999	19.995	103.039	19.629	31.812	0.529
750.000	448.926	80.000	19.995	103.038	19.623	32.212	0.489
750.500	449.196	79.999	19.995	103.037	19.625	32.068	0.520
751.000	449.429	79.998	19.996	103.038	19.626	31.983	0.531
751.500	449.712	79.998	19.995	103.038	19.626	32.037	0.510
752.000	449.965	79.998	19.994	103.039	19.623	32.253	0.526
752.500	450.198	79.999	19.995	103.038	19.622	32.273	0.511
753.000	450.471	79.997	19.996	103.038	19.623	32.251	0.496
753.500	450.709	79.997	19.996	103.036	19.622	32.298	0.508
754.000	450.977	79.997	19.994	103.033	19.623	32.210	0.508
754.500	451.175	79.997	19.996	103.032	19.620	32.451	0.486
755.000	451.469	79.997	19.997	103.034	19.616	32.724	0.479
755.500	451.753	79.997	19.995	103.036	19.615	32.826	0.535
756.000	452.003	79.996	19.996	103.037	19.619	32.506	0.556
756.500	452.226	79.997	19.995	103.036	19.618	32.569	0.503
757.000	452.484	79.997	19.996	103.035	19.616	32.719	0.477
757.500	452.776	79.998	19.994	103.033	19.615	32.842	0.515
758.000	452.990	79.996	19.995	103.033	19.613	32.984	0.528
758.500	453.296	79.997	19.996	103.029	19.615	32.842	0.513
759.000	453.508	79.996	19.997	103.031	19.612	33.012	0.519
759.500	453.802	79.996	19.995	103.028	19.614	32.857	0.511
760.000	454.021	79.997	19.995	103.027	19.612	33.039	0.509
760.500	454.315	79.996	19.996	103.027	19.611	33.119	0.513
761.000	454.584	79.995	19.996	103.028	19.614	32.892	0.538
761.500	454.781	79.995	19.997	103.023	19.610	33.189	0.514
762.000	455.054	79.995	19.996	103.024	19.607	33.366	0.468
762.500	455.331	79.997	19.996	103.022	19.609	33.245	0.511
763.000	455.583	79.996	19.996	103.018	19.605	33.509	0.540
763.500	455.807	79.997	19.996	103.017	19.605	33.545	0.502
764.000	456.063	79.995	19.996	103.019	19.608	33.318	0.478
764.500	456.299	79.996	19.996	103.018	19.605	33.519	0.486
765.000	456.595	79.998	19.996	103.017	19.602	33.759	0.512
765.500	456.834	79.996	19.997	103.016	19.603	33.660	0.533
766.000	457.106	79.996	19.995	103.020	19.598	34.069	0.523
766.500	457.319	79.997	19.995	103.022	19.599	33.957	0.498
767.000	457.630	79.997	19.996	103.023	19.597	34.125	0.505
767.500	457.851	79.996	19.996	103.024	19.595	34.302	0.529
768.000	458.137	79.997	19.996	103.022	19.594	34.339	0.519
768.501	458.390	79.998	19.996	103.016	19.593	34.407	0.523
769.000	458.615	79.996	19.996	103.013	19.594	34.326	0.508
769.500	458.864	79.996	19.996	103.016	19.593	34.425	0.476
770.000	459.120	79.996	19.995	103.020	19.593	34.450	0.490
770.500	459.378	79.995	19.996	103.023	19.591	34.594	0.510
771.000	459.644	79.996	19.995	103.028	19.589	34.684	0.519
771.500	459.903	79.998	19.995	103.026	19.589	34.716	0.524
772.000	460.137	79.996	19.996	103.019	19.588	34.769	0.509
772.501	460.446	79.997	19.995	103.015	19.583	35.162	0.519
773.000	460.667	79.996	19.994	103.012	19.583	35.146	0.537
773.500	460.931	79.997	19.995	103.011	19.579	35.417	0.507
774.000	461.200	79.998	19.995	103.014	19.580	35.352	0.509
774.500	461.455	79.996	19.995	103.020	19.579	35.484	0.529
775.000	461.697	79.997	19.995	103.026	19.579	35.434	0.511
775.500	461.959	79.996	19.995	103.025	19.577	35.594	0.500
776.000	462.272	79.997	19.994	103.021	19.572	35.936	0.539
776.500	462.478	79.997	19.994	103.016	19.576	35.648	0.547
777.000	462.723	79.998	19.996	103.013	19.573	35.871	0.485
777.500	463.057	79.998	19.995	103.012	19.567	36.311	0.515
778.000	463.245	79.996	19.995	103.011	19.569	36.206	0.551
778.500	463.531	79.997	19.995	103.013	19.568	36.288	0.498
779.000	463.758	79.998	19.995	103.015	19.566	36.385	0.493
779.500	464.041	79.997	19.995	103.017	19.569	36.190	0.511
780.000	464.296	79.998	19.995	103.013	19.557	37.089	0.524
780.500	464.498	79.998	19.995	103.011	19.570	36.093	0.498
781.000	464.765	79.997	19.994	103.009	19.565	36.477	0.463
781.500	464.994	79.998	19.995	103.007	19.550	37.550	0.483
782.000	465.304	79.997	19.996	103.003	19.546	37.864	0.518
782.500	465.523	79.997	19.994	103.002	19.545	37.919	0.534
783.000	465.784	79.997	19.994	103.002	19.544	38.050	0.504
783.500	466.098	79.996	19.995	103.002	19.549	37.622	0.527
784.000	466.324	79.997	19.995	103.002	19.557	37.089	0.558
784.500	466.629	79.996	19.994	103.002	19.545	37.926	0.535
785.000	466.838	79.997	19.995	103.001	19.540	38.323	0.523
785.500	467.120	79.998	19.994	103.002	19.539	38.356	0.503
786.000	467.408	79.997	19.995	103.001	19.549	37.642	0.531
786.500	467.568	79.998	19.995	103.001	19.553	37.332	0.509
787.000	467.943	79.995	19.995	103.001	19.536	38.607	0.492
787.500	468.106	79.997	19.995	103.001	19.547	37.776	0.536
788.000	468.318	79.997	19.996	103.001	19.540	38.299	0.456
788.500	468.652	79.997	19.995	103.000	19.546	37.855	0.461
789.000	468.966	79.997	19.996	103.000	19.545	37.950	0.597
789.500	469.195	79.997	19.995	102.998	19.538	38.500	0.596
790.000	469.408	79.997	19.995	102.996	19.543	38.067	0.493
790.500	469.724	79.998	19.995	102.996	19.542	38.179	0.486
791.000	469.968	79.998	19.994	102.997	19.540	38.323	0.544
791.500	470.184	79.997	19.994	102.997	19.539	38.377	0.510
792.000	470.456	79.998	19.994	103.000	19.541	38.204	0.474
792.501	470.698	79.998	19.996	103.004	19.539	38.350	0.501
793.001	471.000	79.998	19.995	103.004	19.540	38.321	0.529
793.500	471.236	79.998	19.996	103.004	19.541	38.242	0.541
794.000	471.606	79.997	19.995	103.003	19.540	38.314	0.572
794.500	472.150	79.999	19.995	103.002	19.542	38.181	0.760
795.000	471.780	79.996	19.996	102.997	19.540	38.349	0.544
795.500	471.789	79.997	19.996	102.991	19.537	38.526	-0.093
796.000	472.063	79.997	19.995	102.990	19.543	38.085	-0.039
796.500	472.411	79.999	19.995	102.991	19.542	38.190	0.453
797.000	472.554	79.997	19.996	102.991	19.539	38.360	0.556
797.500	473.377	79.999	19.994	102.992	19.545	37.931	0.728
798.000	474.133	79.998	19.994	102.997	19.548	37.742	1.273
798.500	474.022	79.998	19.995	102.996	19.547	37.820	1.112
799.000	474.170	79.998	19.994	102.995	19.551	37.538	0.341
799.500	474.381	79.999	19.994	102.991	19.551	37.532	0.198
800.000	474.287	79.997	19.995	102.994	19.552	37.449	0.237
800.500	475.255	80.000	19.996	102.996	19.555	37.203	0.495
801.000	475.018	79.999	19.996	102.994	19.554	37.293	0.803
801.500	475.192	79.998	19.996	102.990	19.556	37.097	0.334
802.000	475.764	79.999	19.994	102.989	19.558	36.974	0.342
802.500	476.052	79.998	19.994	102.983	19.563	36.633	0.803
803.000	476.145	79.999	19.995	102.975	19.566	36.408	0.621
803.500	476.311	79.998	19.995	102.970	19.568	36.262	0.320
804.000	476.760	79.999	19.996	102.972	19.572	36.007	0.437
804.500	477.009	79.998	19.995	102.973	19.576	35.705	0.657
805.000	477.204	80.000	19.994	102.977	19.579	35.452	0.571
805.500	477.515	79.998	19.995	102.984	19.581	35.303	0.475
806.000	477.720	80.000	19.994	102.988	19.586	34.968	0.511
806.500	478.028	79.999	19.995	102.991	19.591	34.587	0.515
807.000	478.229	79.999	19.995	102.993	19.594	34.348	0.511
807.500	478.575	79.998	19.995	102.991	19.599	33.999	0.527
808.000	478.754	79.998	19.995	102.992	19.602	33.768	0.536
808.500	479.038	79.997	19.994	102.995	19.610	33.163	0.494
809.000	479.253	79.998	19.995	102.992	19.612	33.034	0.481
809.500	479.467	79.998	19.995	102.988	19.618	32.551	0.464
810.000	479.777	79.998	19.994	102.988	19.626	32.013	0.477
810.500	480.053	79.998	19.994	102.990	19.633	31.502	0.555
811.000	480.325	79.999	19.996	102.979	19.634	31.405	0.567
811.500	480.565	79.999	19.996	102.959	19.641	30.885	0.530
812.000	480.801	79.998	19.996	102.944	19.649	30.295	0.494
812.500	481.014	79.999	19.994	102.935	19.657	29.736	0.462
813.000	481.329	79.997	19.995	102.926	19.663	29.284	0.489
813.500	481.549	79.999	19.996	102.931	19.672	28.637	0.532
814.000	481.791	79.999	19.995	102.963	19.679	28.088	0.498
814.500	482.098	79.997	19.995	103.012	19.687	27.543	0.505
815.000	482.284	79.998	19.995	103.034	19.694	27.002	0.521
815.500	482.610	79.998	19.995	103.043	19.703	26.316	0.503
816.000	482.801	79.998	19.996	103.050	19.707	26.071	0.514
816.500	483.064	79.998	19.996	103.040	19.717	25.338	0.485
817.000	483.331	79.999	19.996	103.009	19.724	24.778	0.492
817.500	483.586	79.998	19.995	102.994	19.734	24.067	0.526
818.000	483.790	79.998	19.994	102.986	19.743	23.416	0.490
818.500	484.063	79.997	19.994	102.982	19.751	22.834	0.468
819.000	484.283	79.997	19.995	102.982	19.759	22.239	0.485
819.500	484.532	79.998	19.995	102.986	19.766	21.713	0.481
820.000	484.798	79.998	19.995	102.993	19.776	20.998	0.491
820.500	485.052	79.998	19.995	102.999	19.782	20.497	0.517
821.000	485.293	79.998	19.995	103.003	19.792	19.800	0.507
821.500	485.514	79.998	19.996	103.004	19.801	19.153	0.479
822.000	485.778	79.998	19.996	103.005	19.808	18.617	0.474
822.500	486.030	79.998	19.996	103.008	19.814	18.142	0.501
823.000	486.294	79.999	19.994	103.015	19.827	17.213	0.516
823.500	486.535	79.999	19.996	103.013	19.833	16.748	0.510
824.000	486.802	79.997	19.995	103.011	19.842	16.087	0.507
824.500	487.017	79.998	19.996	103.011	19.850	15.548	0.495
825.000	487.294	79.998	19.995	103.006	19.859	14.854	0.487
825.500	487.550	79.999	19.995	103.001	19.868	14.203	0.512
826.000	487.799	80.000	19.994	103.003	19.878	13.454	0.519
826.500	488.030	79.999	19.996	103.008	19.882	13.199	0.492
827.000	488.263	80.000	19.995	103.012	19.887	12.773	0.472
827.500	488.490	80.000	19.995	103.017	19.896	12.158	0.462
828.000	488.747	79.999	19.996	103.023	19.902	11.710	0.472
828.500	488.985	80.000	19.996	103.025	19.909	11.225	0.490
829.000	489.261	79.999	19.996	103.027	19.916	10.681	0.505
829.500	489.494	80.000	19.996	103.026	19.919	10.425	0.512
830.000	489.726	80.000	19.996	103.025	19.927	9.833	0.487
830.500	490.026	80.001	19.996	103.022	19.934	9.326	0.498
831.000	490.240	80.000	19.996	103.026	19.940	8.918	0.523
831.500	490.472	80.000	19.995	103.027	19.944	8.618	0.480
832.000	490.762	80.000	19.996	103.031	19.950	8.157	0.484
832.500	490.984	79.998	19.995	103.034	19.954	7.855	0.517
833.000	491.237	79.998	19.996	103.038	19.958	7.583	0.493
833.500	491.478	79.998	19.995	103.038	19.965	7.104	0.484
834.000	491.721	79.999	19.996	103.039	19.970	6.699	0.489
834.500	492.024	79.998	19.995	103.039	19.975	6.368	0.515
835.000	492.193	79.998	19.996	103.039	19.977	6.192	0.509
835.500	492.501	79.998	19.995	103.039	19.980	5.954	0.474
836.000	492.730	79.999	19.995	103.039	19.984	5.684	0.507
836.500	492.986	79.997	19.995	103.039	19.988	5.344	0.511
837.000	493.243	79.998	19.997	103.042	19.991	5.163	0.499
837.500	493.518	79.997	19.996	103.044	19.995	4.881	0.522
838.000	493.789	79.997	19.996	103.044	19.996	4.792	0.539
838.500	494.028	79.997	19.995	103.044	19.999	4.579	0.528
839.000	494.300	79.997	19.995	103.044	20.001	4.449	0.510
839.500	494.498	79.998	19.996	103.041	20.002	4.311	0.490
840.000	494.843	79.998	19.996	103.040	20.005	4.163	0.506
840.500	495.071	79.998	19.995	103.041	20.009	3.858	0.558
841.000	495.300	79.997	19.995	103.041	20.014	3.441	0.515
841.500	495.607	79.998	19.995	103.042	20.014	3.495	0.497
842.000	495.826	79.997	19.996	103.042	20.016	3.305	0.531
842.500	496.081	79.997	19.996	103.042	20.018	3.179	0.500
843.000	496.347	79.998	19.996	103.041	20.021	2.933	0.498
843.500	496.572	79.997	19.996	103.042	20.022	2.858	0.506
844.000	496.840	79.997	19.996	103.041	20.024	2.739	0.492
844.500	497.107	79.999	19.996	103.042	20.025	2.657	0.514
845.000	497.355	79.997	19.995	103.041	20.025	2.684	0.525
845.500	497.584	79.997	19.996	103.041	20.027	2.483	0.496
846.000	497.828	79.995	19.995	103.041	20.027	2.493	0.475
846.500	498.109	79.997	19.997	103.041	20.029	2.347	0.499
847.000	498.347	79.996	19.996	103.041	20.033	2.035	0.522
847.500	498.644	79.997	19.996	103.040	20.028	2.398	0.527
848.000	498.884	79.997	19.996	103.040	20.031	2.213	0.536
848.500	499.155	79.997	19.996	103.041	20.032	2.138	0.524
849.000	499.378	79.996	19.996	103.040	20.032	2.122	0.502
849.500	499.625	79.996	19.996	103.040	20.034	2.002	0.482
850.000	499.905	79.997	19.997	103.040	20.034	2.021	0.499
850.500	500.152	79.997	19.996	103.040	20.037	1.751	0.527
851.000	500.441	79.996	19.996	103.040	20.036	1.854	0.532
851.500	500.703	79.997	19.997	103.039	20.034	1.968	0.544
852.000	500.964	79.996	19.996	103.040	20.036	1.832	0.537
852.500	501.217	79.995	19.997	103.040	20.036	1.850	0.518
853.000	501.475	79.996	19.997	103.041	20.037	1.804	0.513
853.500	501.709	79.996	19.997	103.041	20.034	2.002	0.502
854.000	501.998	79.997	19.997	103.040	20.038	1.682	0.507
854.500	502.259	79.995	19.997	103.039	20.041	1.493	0.536
855.000	502.523	79.997	19.996	103.038	20.040	1.546	0.538
855.500	502.768	79.997	19.996	103.037	20.041	1.457	0.517
856.000	503.011	79.997	19.996	103.037	20.039	1.611	0.499
856.500	503.281	79.996	19.997	103.037	20.038	1.684	0.501
857.000	503.538	79.997	19.996	103.037	20.040	1.578	0.520
857.500	503.803	79.996	19.996	103.037	20.039	1.635	0.524
858.000	504.027	79.996	19.997	103.038	20.039	1.595	0.505
858.500	504.285	79.996	19.996	103.037	20.040	1.558	0.485
859.000	504.577	79.997	19.995	103.037	20.038	1.664	0.516
859.500	504.809	79.995	19.996	103.042	20.041	1.509	0.537
860.000	505.057	79.996	19.997	103.044	20.039	1.601	0.502
860.500	505.332	79.996	19.996	103.041	20.043	1.327	0.501
861.000	505.607	79.997	19.996	103.041	20.041	1.446	0.537
861.500	505.831	79.998	19.996	103.041	20.041	1.489	0.525
862.000	506.069	79.997	19.996	103.037	20.045	1.201	0.480
862.500	506.367	79.998	19.995	103.036	20.044	1.284	0.499
863.000	506.574	79.997	19.995	103.040	20.041	1.501	0.521
863.500	506.847	79.997	19.995	103.042	20.043	1.331	0.493
864.000	507.117	79.995	19.995	103.042	20.047	1.053	0.511
864.500	507.352	79.997	19.995	103.042	20.042	1.432	0.524
865.000	507.603	79.995	19.995	103.042	20.045	1.215	0.495
865.500	507.854	79.995	19.995	103.042	20.044	1.256	0.494
866.000	508.149	79.995	19.996	103.041	20.045	1.197	0.524
866.500	508.350	79.998	19.995	103.041	20.041	1.453	0.521
867.000	508.620	79.995	19.996	103.041	20.043	1.355	0.484
867.500	508.852	79.996	19.995	103.042	20.044	1.238	0.487
868.000	509.141	79.996	19.994	103.042	20.043	1.309	0.511
868.500	509.404	79.996	19.995	103.042	20.043	1.306	0.536
869.000	509.660	79.997	19.995	103.043	20.045	1.185	0.536
869.500	509.888	79.997	19.995	103.043	20.044	1.282	0.502
870.000	510.184	79.996	19.995	103.043	20.047	1.063	0.504
870.500	510.395	79.997	19.996	103.042	20.048	0.984	0.516
871.000	510.655	79.997	19.995	103.042	20.043	1.317	0.489
871.500	510.907	79.997	19.995	103.042	20.045	1.213	0.491
872.000	511.173	79.997	19.995	103.042	20.049	0.917	0.515
872.500	511.432	79.995	19.996	103.042	20.045	1.177	0.521
873.000	511.666	79.998	19.995	103.043	20.047	1.022	0.509
873.500	511.914	79.996	19.995	103.043	20.044	1.221	0.487
874.000	512.183	79.996	19.996	103.043	20.045	1.215	0.499
874.500	512.405	79.997	19.995	103.043	20.046	1.134	0.504
875.000	512.648	79.998	19.995	103.044	20.047	1.063	0.478
875.500	512.943	79.995	19.995	103.044	20.045	1.148	0.502
876.000	513.181	79.998	19.994	103.044	20.048	0.972	0.536
876.500	513.449	79.997	19.996	103.044	20.046	1.138	0.519
877.000	513.651	79.998	19.996	103.044	20.043	1.363	0.488
877.500	513.921	79.997	19.995	103.044	20.047	1.041	0.471
878.000	514.160	79.997	19.994	103.043	20.045	1.167	0.490
878.500	514.392	79.997	19.995	103.043	20.046	1.140	0.490
879.000	514.690	79.998	19.994	103.043	20.043	1.313	0.500
879.500	514.965	79.997	19.995	103.043	20.044	1.248	0.552
880.000	515.212	79.997	19.996	103.043	20.046	1.088	0.548
880.500	515.480	79.998	19.994	103.044	20.046	1.124	0.518
881.000	515.712	79.998	19.993	103.043	20.042	1.398	0.507
881.500	515.941	79.998	19.995	103.043	20.045	1.154	0.480
882.001	516.204	79.999	19.994	103.043	20.041	1.453	0.477
882.500	516.441	79.997	19.995	103.043	20.044	1.266	0.497
883.000	516.700	79.998	19.994	103.043	20.045	1.209	0.498
883.500	516.955	79.999	19.994	103.044	20.045	1.163	0.504
884.000	517.165	79.998	19.994	103.044	20.045	1.148	0.489
884.500	517.447	80.000	19.995	103.045	20.047	1.015	0.479
885.000	517.686	79.998	19.994	103.045	20.045	1.211	0.507
885.500	517.955	79.999	19.993	103.045	20.046	1.079	0.514
886.000	518.240	79.998	19.994	103.045	20.043	1.331	0.531
886.500	518.462	79.997	19.995	103.045	20.045	1.177	0.531
887.000	518.725	79.997	19.995	103.044	20.044	1.262	0.496
887.500	518.945	79.998	19.994	103.044	20.045	1.219	0.484
888.000	519.198	79.998	19.995	103.044	20.045	1.175	0.478
888.500	519.462	79.998	19.996	103.044	20.043	1.300	0.495
889.000	519.718	79.999	19.994	103.044	20.043	1.343	0.519
889.500	519.959	79.998	19.995	103.044	20.043	1.294	0.509
890.000	520.240	79.998	19.995	103.050	20.043	1.307	0.509
890.500	520.506	79.999	19.995	103.054	20.045	1.165	0.535
891.000	520.752	79.997	19.996	103.058	20.043	1.339	0.530
891.500	520.992	79.999	19.995	103.058	20.044	1.276	0.498
892.000	521.225	79.997	19.995	103.062	20.044	1.250	0.479
892.500	521.510	79.998	19.995	103.057	20.042	1.386	0.496
893.000	521.776	79.999	19.994	103.053	20.041	1.469	0.535
893.500	522.010	79.998	19.995	103.050	20.042	1.376	0.525
894.000	522.277	79.997	19.995	103.051	20.042	1.375	0.500
894.500	522.519	79.996	19.996	103.050	20.040	1.558	0.505
895.000	522.795	79.998	19.995	103.054	20.045	1.187	0.514
895.500	523.024	79.999	19.996	103.058	20.041	1.481	0.511
896.000	523.321	79.998	19.995	103.058	20.044	1.292	0.515
896.500	523.606	79.998	19.995	103.058	20.041	1.497	0.554
897.000	523.821	79.998	19.995	103.055	20.041	1.469	0.541
897.500	524.124	79.998	19.995	103.053	20.041	1.446	0.509
898.000	524.372	79.998	19.995	103.047	20.040	1.542	0.534
898.500	524.632	79.998	19.995	103.045	20.043	1.309	0.530
899.000	524.924	79.997	19.995	103.044	20.041	1.467	0.530
899.500	525.204	80.000	19.995	103.043	20.045	1.150	0.562
900.000	525.463	79.998	19.996	103.042	20.042	1.371	0.556
900.500	525.732	79.999	19.996	103.044	20.046	1.126	0.534
901.000	526.001	79.999	19.995	103.044	20.044	1.258	0.533
901.500	526.234	79.999	19.994	103.049	20.044	1.225	0.520
902.000	526.551	79.998	19.995	103.057	20.041	1.461	0.526
902.500	526.823	79.999	19.994	103.062	20.047	1.059	0.569
903.000	527.066	79.998	19.994	103.063	20.042	1.412	0.552
903.500	527.328	79.999	19.994	103.063	20.045	1.193	0.510
904.000	527.607	79.999	19.995	103.058	20.041	1.453	0.523
904.500	527.905	80.000	19.995	103.050	20.042	1.376	0.559
905.000	528.154	80.001	19.995	103.044	20.045	1.181	0.562
905.500	528.440	79.999	19.994	103.042	20.046	1.130	0.541
906.000	528.683	80.000	19.994	103.043	20.043	1.323	0.532
906.500	528.965	80.001	19.995	103.043	20.044	1.233	0.527
907.000	529.239	79.999	19.995	103.043	20.047	1.039	0.540
907.500	529.549	79.999	19.995	103.044	20.045	1.156	0.570
908.000	529.818	80.001	19.996	103.044	20.043	1.321	0.581
908.500	530.055	80.000	19.996	103.042	20.045	1.162	0.542
909.000	530.320	80.000	19.996	103.044	20.047	1.018	0.504
909.500	530.577	80.001	19.994	103.045	20.047	1.067	0.512
910.000	530.908	80.000	19.995	103.044	20.047	1.053	0.555
910.500	531.164	79.999	19.994	103.045	20.045	1.185	0.588
911.000	531.454	79.998	19.996	103.047	20.043	1.298	0.567
911.500	531.721	79.999	19.994	103.048	20.045	1.205	0.551
912.000	531.966	79.998	19.994	103.047	20.043	1.345	0.534
912.500	532.264	79.998	19.996	103.048	20.043	1.353	0.528
913.000	532.575	79.999	19.995	103.046	20.042	1.440	0.576
913.500	532.800	79.999	19.995	103.044	20.044	1.262	0.572
914.000	533.096	79.998	19.995	103.043	20.044	1.252	0.528
914.500	533.405	79.998	19.995	103.045	20.041	1.499	0.563
915.000	533.652	79.997	19.995	103.045	20.045	1.207	0.580
915.500	533.965	79.997	19.996	103.045	20.044	1.232	0.558
916.000	534.201	79.997	19.995	103.044	20.044	1.292	0.555
916.500	534.495	79.999	19.995	103.045	20.044	1.233	0.540
917.000	534.752	79.996	19.996	103.042	20.047	1.069	0.541
917.500	535.050	79.998	19.996	103.042	20.042	1.434	0.553
918.000	535.342	79.996	19.995	103.041	20.047	1.006	0.573
918.500	535.601	79.997	19.996	103.041	20.044	1.270	0.571
919.000	535.880	79.998	19.995	103.043	20.044	1.258	0.544
919.500	536.170	79.997	19.997	103.044	20.044	1.228	0.553
920.000	536.426	79.998	19.995	103.045	20.043	1.315	0.557
920.500	536.758	79.998	19.996	103.046	20.044	1.232	0.567
921.000	537.041	79.997	19.995	103.046	20.045	1.203	0.602
921.500	537.326	79.998	19.995	103.043	20.047	1.027	0.592
922.000	537.572	79.998	19.996	103.042	20.046	1.112	0.550
922.500	537.851	79.996	19.996	103.041	20.044	1.282	0.528
923.000	538.110	79.998	19.995	103.040	20.043	1.301	0.531
923.500	538.398	79.996	19.996	103.039	20.044	1.248	0.543
924.000	538.658	79.998	19.995	103.039	20.045	1.193	0.548
924.500	538.956	79.999	19.995	103.043	20.043	1.333	0.553
925.000	539.199	79.997	19.995	103.048	20.045	1.152	0.549
925.500	539.481	79.998	19.995	103.049	20.045	1.189	0.533
926.000	539.779	79.997	19.996	103.049	20.049	0.901	0.553
926.500	540.047	79.996	19.995	103.050	20.046	1.110	0.573
927.000	540.327	79.998	19.996	103.046	20.046	1.104	0.557
927.501	540.619	79.996	19.995	103.042	20.047	1.043	0.560
928.000	540.909	79.998	19.996	103.043	20.045	1.211	0.577
928.500	541.157	79.998	19.995	103.048	20.044	1.292	0.560
929.000	541.428	79.996	19.995	103.054	20.048	0.988	0.528
929.500	541.697	79.998	19.996	103.054	20.047	1.065	0.530
930.000	541.976	79.997	19.996	103.054	20.049	0.872	0.544
930.500	542.234	79.997	19.995	103.055	20.047	1.010	0.542
931.000	542.522	79.997	19.996	103.056	20.047	1.041	0.541
931.500	542.773	79.996	19.995	103.055	20.049	0.921	0.543
932.000	543.072	79.997	19.995	103.058	20.047	1.065	0.545
932.500	543.332	79.997	19.995	103.058	20.048	0.998	0.554
933.000	543.644	79.998	19.996	103.057	20.047	1.004	0.565
933.500	543.902	79.998	19.995	103.055	20.050	0.848	0.571
934.000	544.195	79.998	19.995	103.050	20.048	0.943	0.560
934.500	544.451	79.997	19.996	103.049	20.046	1.087	0.550
935.000	544.720	79.997	19.996	103.052	20.049	0.893	0.537
935.500	545.015	79.999	19.996	103.053	20.047	1.049	0.544
936.000	545.264	79.996	19.996	103.050	20.048	0.945	0.554
936.500	545.566	79.997	19.995	103.049	20.046	1.091	0.548
937.000	545.848	79.998	19.996	103.050	20.045	1.213	0.568
937.500	546.141	79.997	19.995	103.048	20.048	0.982	0.579
938.000	546.361	79.997	19.996	103.047	20.049	0.909	0.544
938.500	546.676	79.997	19.996	103.049	20.049	0.923	0.524
939.000	546.971	79.996	19.996	103.051	20.044	1.256	0.573
939.500	547.186	79.997	19.996	103.049	20.048	0.941	0.560
940.000	547.498	79.995	19.996	103.050	20.048	0.978	0.518
940.500	547.803	79.996	19.995	103.049	20.044	1.292	0.572
941.000	548.077	79.996	19.995	103.047	20.046	1.128	0.598
941.500	548.359	79.995	19.996	103.046	20.046	1.114	0.568
942.000	548.625	79.995	19.996	103.046	20.046	1.104	0.552
942.500	548.886	79.996	19.996	103.045	20.048	0.958	0.538
943.000	549.183	79.997	19.996	103.045	20.047	1.047	0.542
943.500	549.448	79.996	19.996	103.046	20.046	1.104	0.560
944.000	549.727	79.996	19.997	103.046	20.047	1.053	0.553
944.500	549.997	79.996	19.997	103.045	20.047	1.035	0.547
945.000	550.256	79.997	19.996	103.046	20.045	1.213	0.539
945.500	550.549	79.997	19.996	103.046	20.046	1.144	0.540
946.000	550.826	79.995	19.996	103.044	20.048	0.974	0.561
946.500	551.111	79.995	19.996	103.043	20.045	1.160	0.566
947.000	551.376	79.996	19.995	103.043	20.046	1.075	0.556
947.500	551.679	79.996	19.996	103.042	20.045	1.213	0.559
948.000	551.937	79.996	19.996	103.043	20.046	1.102	0.564
948.500	552.184	79.995	19.996	103.044	20.046	1.102	0.533
949.000	552.460	79.995	19.996	103.043	20.047	1.057	0.514
949.500	552.732	79.995	19.995	103.044	20.043	1.296	0.536
950.000	552.992	79.996	19.996	103.046	20.047	1.065	0.539
950.500	553.270	79.995	19.996	103.047	20.046	1.142	0.535
951.000	553.563	79.997	19.997	103.050	20.047	1.029	0.555
951.500	553.829	79.996	19.996	103.051	20.047	1.049	0.566
952.000	554.109	79.996	19.995	103.051	20.047	1.020	0.553
952.500	554.406	79.996	19.995	103.051	20.045	1.193	0.561
953.000	554.626	79.995	19.995	103.049	20.042	1.388	0.547
953.500	554.906	79.995	19.995	103.049	20.046	1.093	0.509
954.000	555.205	79.997	19.996	103.051	20.045	1.177	0.540
954.500	555.471	79.997	19.995	103.053	20.044	1.221	0.572
955.000	555.699	79.996	19.995	103.054	20.044	1.290	0.529
955.500	555.991	79.996	19.995	103.055	20.045	1.171	0.507
956.000	556.265	79.996	19.995	103.053	20.043	1.321	0.544
956.500	556.538	79.996	19.995	103.050	20.045	1.209	0.557
957.000	556.798	79.998	19.995	103.048	20.043	1.298	0.540
957.500	557.082	79.999	19.995	103.046	20.041	1.469	0.538
958.000	557.309	79.998	19.995	103.045	20.046	1.114	0.527
958.500	557.604	79.999	19.994	103.046	20.045	1.205	0.517
959.000	557.854	79.999	19.996	103.046	20.044	1.256	0.534
959.500	558.132	79.998	19.995	103.048	20.045	1.209	0.537
960.001	558.384	79.999	19.995	103.049	20.043	1.361	0.529
960.501	558.684	79.997	19.994	103.049	20.045	1.217	0.541
961.000	558.936	79.998	19.994	103.048	20.042	1.420	0.552
961.500	559.192	79.999	19.995	103.047	20.042	1.382	0.530
962.000	559.453	79.999	19.994	103.045	20.043	1.339	0.513
962.500	559.751	79.999	19.995	103.045	20.043	1.321	0.538
963.001	560.010	79.998	19.996	103.045	20.044	1.272	0.558
963.500	560.241	79.998	19.996	103.044	20.045	1.195	0.524
964.000	560.525	79.998	19.995	103.044	20.045	1.181	0.502
964.500	560.798	79.998	19.995	103.045	20.045	1.156	0.536
965.001	561.037	79.999	19.995	103.042	20.046	1.098	0.534
965.501	561.299	80.000	19.994	103.041	20.047	1.002	0.507
966.001	561.579	79.999	19.995	103.040	20.045	1.193	0.522
966.501	561.878	79.998	19.996	103.041	20.044	1.250	0.561
967.001	562.123	79.999	19.995	103.041	20.044	1.282	0.562
967.501	562.368	79.999	19.995	103.040	20.046	1.136	0.516
968.001	562.659	79.999	19.995	103.040	20.046	1.102	0.513
968.500	562.916	79.998	19.994	103.041	20.045	1.197	0.542
969.000	563.143	79.997	19.995	103.040	20.047	1.006	0.516
969.500	563.435	79.997	19.993	103.044	20.045	1.213	0.501
970.000	563.661	79.998	19.995	103.044	20.044	1.240	0.518
970.500	563.920	79.997	19.995	103.045	20.044	1.276	0.502
971.000	564.174	79.999	19.994	103.044	20.046	1.106	0.499
971.501	564.437	79.998	19.995	103.044	20.046	1.097	0.516
972.000	564.718	79.997	19.995	103.041	20.044	1.262	0.531
972.500	564.990	79.999	19.994	103.040	20.046	1.142	0.548
973.000	565.219	79.997	19.996	103.040	20.047	1.039	0.527
973.500	565.502	79.997	19.994	103.040	20.045	1.160	0.507
974.000	565.746	79.999	19.994	103.039	20.047	1.018	0.519
974.500	565.996	79.997	19.995	103.039	20.047	1.039	0.510
975.000	566.271	79.997	19.995	103.039	20.045	1.193	0.510
975.500	566.539	79.998	19.994	103.039	20.044	1.250	0.534
976.000	566.807	79.997	19.995	103.040	20.043	1.365	0.540
976.500	567.015	79.997	19.995	103.040	20.046	1.126	0.506
977.000	567.312	79.998	19.995	103.040	20.046	1.132	0.490
977.500	567.571	79.998	19.995	103.040	20.044	1.246	0.530
978.000	567.835	79.998	19.995	103.040	20.047	1.012	0.539
978.500	568.093	79.998	19.995	103.039	20.047	1.031	0.523
979.000	568.344	79.998	19.995	103.040	20.045	1.173	0.515
979.500	568.597	79.999	19.995	103.040	20.049	0.897	0.507
980.000	568.874	79.998	19.995	103.040	20.048	0.980	0.518
980.500	569.149	79.999	19.995	103.040	20.048	0.994	0.541
981.000	569.402	79.999	19.995	103.040	20.044	1.244	0.540
981.500	569.681	79.998	19.995	103.039	20.043	1.308	0.530
982.000	569.926	79.998	19.995	103.039	20.044	1.256	0.528
982.500	570.202	79.998	19.995	103.039	20.045	1.171	0.522
983.000	570.469	79.999	19.995	103.039	20.045	1.213	0.532
983.500	570.670	79.999	19.995	103.041	20.046	1.089	0.506
984.000	570.963	79.998	19.995	103.042	20.044	1.231	0.481
984.500	571.189	79.998	19.996	103.042	20.047	1.063	0.506
985.000	571.483	79.999	19.995	103.042	20.048	0.966	0.519
985.500	571.729	79.998	19.995	103.043	20.049	0.862	0.530
986.000	571.997	79.997	19.994	103.040	20.047	1.059	0.527
986.500	572.247	80.000	19.995	103.039	20.051	0.777	0.517
987.000	572.515	79.999	19.996	103.040	20.046	1.106	0.518
987.500	572.765	80.000	19.994	103.041	20.046	1.091	0.518
988.000	573.013	80.000	19.995	103.041	20.049	0.901	0.508
988.500	573.270	80.000	19.994	103.042	20.049	0.915	0.501
989.000	573.589	80.001	19.994	103.042	20.044	1.252	0.540
989.500	573.802	80.000	19.995	103.041	20.046	1.128	0.554
990.000	574.071	80.001	19.995	103.041	20.048	0.966	0.507
990.500	574.345	80.001	19.994	103.040	20.047	1.006	0.512
991.000	574.624	80.000	19.995	103.040	20.048	0.982	0.548
991.500	574.867	80.000	19.994	103.041	20.046	1.096	0.537
992.000	575.139	79.999	19.994	103.041	20.046	1.128	0.519
992.500	575.385	80.000	19.994	103.040	20.047	1.043	0.517
993.000	575.632	80.000	19.994	103.039	20.048	0.935	0.505
993.500	575.882	79.997	19.995	103.039	20.048	0.984	0.494
994.000	576.159	79.999	19.995	103.038	20.048	0.929	0.512
994.500	576.438	79.999	19.994	103.038	20.046	1.118	0.542
995.000	576.661	79.999	19.994	103.040	20.047	1.016	0.529
995.500	576.907	79.998	19.995	103.041	20.047	1.010	0.486
996.000	577.157	79.997	19.995	103.042	20.050	0.850	0.483
996.500	577.400	79.996	19.994	103.042	20.048	0.994	0.494
997.000	577.660	79.997	19.994	103.044	20.046	1.140	0.497
997.500	577.899	79.997	19.994	103.043	20.050	0.852	0.500
998.000	578.184	79.996	19.995	103.043	20.046	1.134	0.511
998.500	578.439	79.996	19.995	103.043	20.049	0.915	0.532
999.000	578.722	79.997	19.995	103.043	20.046	1.081	0.540
999.500	578.928	79.998	19.995	103.042	20.048	0.968	0.514
1000.000	579.199	79.997	19.996	103.042	20.050	0.801	0.483
1000.500	579.480	79.997	19.995	103.042	20.048	0.992	0.515
1001.000	579.704	79.997	19.994	103.043	20.047	1.073	0.528
1001.500	579.986	79.996	19.995	103.043	20.049	0.917	0.505
1002.000	580.205	79.997	19.995	103.043	20.048	0.954	0.503
1002.500	580.484	79.996	19.995	103.043	20.047	1.033	0.500
1003.000	580.760	79.997	19.995	103.043	20.046	1.128	0.527
1003.500	580.970	79.999	19.995	103.043	20.048	0.951	0.521
1004.000	581.256	79.996	19.996	103.044	20.050	0.852	0.491
1004.500	581.486	79.996	19.996	103.042	20.046	1.106	0.506
1005.000	581.739	79.995	19.995	103.038	20.048	0.931	0.499
1005.501	581.951	79.996	19.995	103.037	20.047	1.010	0.474
1006.000	582.242	79.996	19.995	103.036	20.049	0.905	0.484
1006.500	582.459	79.997	19.996	103.036	20.046	1.079	0.505
1007.000	582.725	79.996	19.995	103.038	20.047	1.031	0.495
1007.500	583.002	79.996	19.996	103.042	20.048	0.988	0.513
1008.000	583.242	79.997	19.996	103.043	20.046	1.108	0.531
1008.500	583.485	79.998	19.995	103.044	20.049	0.868	0.500
1009.000	583.747	79.996	19.996	103.044	20.049	0.889	0.494
1009.500	583.981	79.996	19.995	103.043	20.047	1.039	0.501
1010.000	584.243	79.998	19.995	103.043	20.047	1.035	0.496
1010.500	584.478	79.997	19.995	103.043	20.051	0.730	0.496
1011.000	584.744	79.996	19.996	103.043	20.049	0.915	0.499
1011.500	584.994	79.998	19.996	103.044	20.048	0.980	0.509
1012.000	585.244	79.996	19.997	103.045	20.048	0.978	0.508
1012.500	585.507	79.997	19.995	103.044	20.050	0.844	0.507
1013.000	585.747	79.997	19.996	103.044	20.048	0.984	0.508
1013.500	585.975	79.996	19.996	103.044	20.047	1.020	0.486
1014.000	586.225	79.997	19.996	103.042	20.045	1.201	0.473
1014.500	586.492	79.997	19.996	103.041	20.047	1.014	0.497
1015.000	586.742	79.996	19.996	103.042	20.046	1.079	0.517
1015.500	586.983	79.997	19.996	103.042	20.047	1.039	0.504
1016.000	587.234	79.996	19.996	103.042	20.048	0.978	0.491
1016.500	587.506	79.996	19.994	103.044	20.046	1.110	0.508
1017.000	587.735	79.996	19.996	103.045	20.046	1.116	0.512
1017.500	587.967	79.998	19.995	103.045	20.046	1.138	0.481
1018.000	588.216	79.996	19.997	103.045	20.046	1.140	0.471
1018.500	588.441	79.998	19.995	103.046	20.047	1.033	0.478
1019.000	588.741	79.997	19.995	103.046	20.044	1.258	0.500
1019.500	588.977	79.997	19.996	103.045	20.047	1.022	0.530
1020.000	589.222	79.998	19.995	103.045	20.048	0.949	0.508
1020.500	589.454	79.998	19.996	103.045	20.045	1.158	0.479
1021.000	589.685	79.997	19.996	103.045	20.044	1.248	0.470
1021.500	589.954	79.996	19.995	103.046	20.045	1.197	0.481
1022.000	590.197	79.997	19.995	103.045	20.046	1.079	0.506
1022.500	590.461	79.997	19.996	103.044	20.047	1.059	0.510
1023.000	590.710	79.997	19.995	103.045	20.046	1.130	0.510
1023.500	590.939	79.997	19.995	103.045	20.046	1.122	0.496
1024.000	591.196	79.997	19.995	103.043	20.046	1.136	0.482
1024.500	591.435	79.996	19.995	103.043	20.047	1.039	0.491
1025.001	591.708	79.996	19.995	103.043	20.045	1.215	0.504
1025.501	591.950	79.996	19.996	103.042	20.046	1.132	0.514
1026.000	592.197	79.996	19.996	103.043	20.044	1.246	0.502
1026.500	592.434	79.995	19.997	103.042	20.046	1.126	0.486
1027.000	592.681	79.995	19.997	103.043	20.041	1.455	0.484
1027.500	592.933	79.997	19.996	103.044	20.045	1.191	0.491
1028.000	593.155	79.996	19.996	103.044	20.044	1.276	0.486
1028.500	593.436	79.996	19.996	103.042	20.043	1.341	0.489
1029.000	593.697	79.996	19.997	103.042	20.043	1.296	0.523
1029.500	593.939	79.996	19.996	103.041	20.043	1.337	0.523
1030.000	594.205	79.996	19.995	103.040	20.042	1.375	0.505
1030.501	594.411	79.995	19.996	103.040	20.044	1.227	0.490
1031.001	594.702	79.995	19.996	103.040	20.043	1.355	0.485
1031.500	594.942	79.998	19.996	103.040	20.045	1.175	0.515
1032.000	595.174	79.996	19.995	103.041	20.042	1.396	0.502
1032.501	595.427	79.997	19.995	103.041	20.044	1.233	0.478
1033.001	595.701	79.996	19.996	103.041	20.042	1.369	0.506
1033.501	595.934	79.995	19.996	103.041	20.043	1.321	0.517
1034.001	596.186	79.997	19.996	103.039	20.043	1.355	0.496
1034.500	596.427	79.996	19.996	103.040	20.042	1.375	0.489
1035.000	596.654	79.995	19.996	103.040	20.041	1.501	0.480
1035.500	596.915	79.995	19.997	103.040	20.044	1.266	0.478
1036.000	597.170	79.997	19.997	103.041	20.041	1.461	0.502
1036.500	597.411	79.996	19.997	103.042	20.042	1.406	0.506
1037.000	597.672	79.996	19.996	103.042	20.044	1.288	0.499
1037.500	597.924	79.997	19.997	103.043	20.039	1.619	0.507
1038.000	598.148	79.997	19.996	103.045	20.042	1.375	0.494
1038.500	598.431	79.996	19.996	103.045	20.041	1.513	0.492
1039.000	598.653	79.997	19.996	103.045	20.045	1.167	0.506
1039.500	598.869	80.000	19.996	103.044	20.043	1.321	0.472
1040.000	599.133	79.998	19.996	103.044	20.044	1.276	0.459
1040.500	599.427	79.997	19.997	103.042	20.046	1.083	0.519
1041.000	599.610	79.997	19.996	103.041	20.044	1.234	0.518
1041.500	599.878	79.998	19.997	103.040	20.041	1.457	0.464
1042.000	600.141	79.999	19.996	103.043	20.042	1.372	0.491
1042.500	600.383	79.998	19.995	103.044	20.044	1.242	0.518
1043.000	600.603	79.998	19.996	103.044	20.044	1.268	0.484
1043.500	600.872	79.999	19.995	103.044	20.045	1.213	0.475
1044.000	601.128	79.998	19.995	103.044	20.045	1.162	0.507
1044.501	601.382	79.998	19.996	103.043	20.044	1.254	0.518
1045.001	601.608	79.999	19.995	103.042	20.043	1.309	0.495
1045.500	601.916	79.998	19.995	103.045	20.045	1.207	0.507
1046.000	602.130	79.999	19.995	103.048	20.045	1.185	0.528
1046.500	602.388	79.999	19.995	103.052	20.041	1.475	0.498
1047.000	602.636	79.998	19.995	103.051	20.044	1.286	0.489
1047.500	602.885	79.999	19.996	103.051	20.041	1.445	0.501
1048.000	603.160	79.998	19.995	103.049	20.044	1.231	0.511
1048.500	603.386	79.999	19.994	103.047	20.040	1.564	0.513
1049.000	603.644	79.998	19.996	103.043	20.043	1.345	0.492
1049.500	603.883	79.998	19.995	103.046	20.043	1.321	0.490
1050.000	604.097	79.999	19.995	103.045	20.042	1.428	0.475
1050.500	604.348	79.997	19.995	103.047	20.043	1.300	0.459
1051.000	604.597	79.998	19.995	103.049	20.042	1.416	0.482
1051.500	604.834	79.997	19.995	103.051	20.039	1.613	0.493
1052.000	605.075	79.999	19.994	103.050	20.042	1.408	0.482
1052.500	605.384	79.999	19.995	103.052	20.040	1.530	0.514
1053.000	605.626	79.998	19.994	103.051	20.041	1.512	0.550
1053.500	605.832	79.998	19.995	103.050	20.041	1.491	0.499
1054.000	606.110	79.997	19.996	103.048	20.041	1.467	0.466
1054.500	606.367	79.998	19.995	103.046	20.042	1.372	0.510
1055.000	606.646	79.998	19.995	103.046	20.043	1.355	0.535
1055.500	606.883	79.997	19.995	103.045	20.044	1.262	0.526
1056.000	607.105	79.996	19.995	103.046	20.041	1.451	0.488
1056.500	607.366	79.998	19.995	103.048	20.041	1.443	0.471
1057.001	607.606	79.998	19.995	103.048	20.041	1.449	0.492
1057.501	607.883	79.999	19.995	103.046	20.043	1.331	0.509
1058.000	608.108	79.998	19.995	103.046	20.044	1.258	0.509
1058.500	608.375	79.997	19.995	103.047	20.042	1.420	0.497
1059.000	608.609	79.997	19.995	103.046	20.044	1.272	0.497
1059.500	608.867	79.997	19.994	103.047	20.042	1.388	0.497
1060.000	609.142	79.998	19.995	103.047	20.042	1.398	0.513
1060.500	609.397	79.999	19.995	103.049	20.040	1.536	0.532
1061.000	609.648	79.998	19.995	103.047	20.042	1.388	0.518
1061.500	609.878	79.998	19.995	103.048	20.041	1.492	0.494
1062.000	610.148	79.999	19.995	103.052	20.042	1.372	0.490
1062.500	610.408	79.998	19.995	103.057	20.040	1.558	0.514
1063.000	610.644	79.999	19.995	103.058	20.041	1.469	0.513
1063.501	610.928	79.999	19.994	103.060	20.042	1.394	0.508
1064.001	611.189	79.998	19.995	103.059	20.042	1.437	0.532
1064.500	611.417	79.998	19.996	103.060	20.043	1.368	0.517
1065.000	611.649	79.999	19.995	103.061	20.040	1.532	0.475
1065.500	611.942	79.999	19.994	103.063	20.045	1.203	0.493
1066.000	612.159	79.999	19.995	103.062	20.042	1.376	0.518
1066.500	612.425	79.999	19.995	103.065	20.043	1.339	0.496
1067.000	612.672	79.999	19.995	103.060	20.043	1.299	0.498
1067.500	612.958	79.999	19.995	103.057	20.043	1.311	0.523
1068.000	613.157	80.000	19.996	103.055	20.044	1.281	0.509
1068.500	613.456	80.000	19.994	103.060	20.042	1.380	0.492
1069.000	613.721	79.999	19.995	103.062	20.042	1.404	0.531
1069.500	613.966	80.000	19.995	103.068	20.045	1.173	0.537
1070.000	614.226	80.000	19.994	103.071	20.044	1.258	0.507
1070.500	614.467	79.999	19.995	103.074	20.041	1.453	0.503
1071.000	614.745	80.000	19.995	103.075	20.039	1.589	0.510
1071.500	615.000	79.999	19.995	103.072	20.042	1.421	0.526
1072.001	615.279	80.001	19.996	103.071	20.038	1.693	0.533
1072.501	615.490	80.000	19.995	103.071	20.041	1.494	0.512
1073.000	615.783	79.999	19.995	103.071	20.042	1.390	0.497
1073.500	616.047	79.998	19.995	103.071	20.042	1.421	0.531
1074.000	616.285	79.999	19.996	103.074	20.040	1.552	0.529
1074.500	616.535	80.000	19.995	103.070	20.038	1.725	0.495
1075.000	616.801	80.000	19.995	103.071	20.039	1.591	0.502
1075.500	617.056	79.998	19.995	103.071	20.036	1.869	0.519
1076.000	617.324	79.997	19.995	103.071	20.039	1.654	0.522
1076.500	617.567	79.998	19.996	103.071	20.038	1.690	0.517
1077.000	617.823	79.998	19.994	103.076	20.039	1.656	0.505
1077.500	618.084	79.997	19.996	103.077	20.039	1.593	0.508
1078.000	618.330	79.997	19.995	103.076	20.037	1.804	0.512
1078.500	618.603	79.995	19.995	103.073	20.038	1.705	0.513
1079.000	618.886	79.998	19.995	103.074	20.040	1.518	0.537
1079.501	619.128	79.998	19.994	103.072	20.038	1.686	0.540
1080.001	619.377	79.996	19.995	103.068	20.042	1.406	0.508
1080.501	619.651	79.997	19.996	103.069	20.041	1.457	0.507
1081.000	619.888	79.997	19.995	103.073	20.041	1.465	0.517
1081.500	620.165	79.997	19.996	103.076	20.039	1.640	0.513
1082.000	620.408	79.998	19.995	103.077	20.036	1.816	0.517
1082.500	620.667	79.997	19.995	103.081	20.036	1.812	0.511
1083.000	620.942	79.996	19.995	103.081	20.037	1.780	0.518
1083.500	621.196	79.997	19.994	103.080	20.038	1.703	0.532
1084.000	621.422	79.998	19.994	103.079	20.038	1.705	0.505
1084.500	621.721	79.998	19.995	103.080	20.036	1.879	0.502
1085.000	621.939	79.999	19.994	103.078	20.036	1.820	0.521
1085.500	622.209	79.998	19.995	103.073	20.038	1.721	0.503
1086.000	622.458	79.998	19.995	103.072	20.038	1.719	0.504
1086.500	622.733	79.999	19.995	103.071	20.041	1.502	0.521
1087.000	622.973	79.998	19.995	103.066	20.038	1.695	0.519
1087.500	623.244	79.998	19.995	103.067	20.041	1.457	0.513
1088.000	623.462	79.997	19.996	103.073	20.040	1.567	0.500
1088.500	623.720	79.998	19.995	103.073	20.041	1.469	0.483
1089.000	623.953	79.999	19.995	103.074	20.041	1.502	0.483
1089.500	624.230	79.997	19.996	103.079	20.039	1.638	0.500
1090.000	624.489	79.997	19.996	103.080	20.039	1.642	0.523
1090.500	624.712	79.998	19.994	103.079	20.037	1.760	0.509
1091.000	625.005	79.998	19.995	103.080	20.037	1.739	0.499
1091.500	625.235	79.997	19.995	103.079	20.041	1.471	0.520
1092.000	625.500	79.998	19.995	103.079	20.038	1.676	0.509
1092.500	625.782	79.998	19.996	103.079	20.038	1.705	0.521
1093.000	626.055	80.000	19.996	103.079	20.037	1.755	0.550
1093.500	626.298	79.998	19.996	103.079	20.037	1.790	0.535
1094.000	626.551	79.998	19.996	103.079	20.039	1.597	0.506
1094.500	626.784	80.000	19.997	103.078	20.040	1.559	0.491
1095.000	627.049	79.999	19.995	103.078	20.040	1.563	0.492
1095.500	627.289	79.999	19.995	103.077	20.038	1.668	0.502
1096.000	627.528	79.999	19.995	103.077	20.040	1.581	0.492
1096.500	627.823	79.998	19.995	103.078	20.038	1.717	0.506
1097.000	628.092	79.999	19.996	103.078	20.036	1.820	0.549
1097.500	628.308	79.999	19.996	103.077	20.039	1.662	0.524
1098.000	628.551	79.999	19.996	103.077	20.039	1.640	0.472
1098.500	628.842	79.998	19.997	103.077	20.037	1.772	0.496
1099.001	629.066	79.998	19.995	103.077	20.037	1.739	0.525
1099.501	629.332	79.998	19.996	103.077	20.039	1.656	0.503
1100.000	629.581	79.999	19.995	103.079	20.037	1.757	0.502
1100.500	629.859	79.997	19.996	103.080	20.037	1.788	0.521
1101.000	630.119	79.998	19.995	103.080	20.039	1.640	0.533
1101.500	630.379	79.998	19.996	103.080	20.040	1.563	0.529
1102.000	630.624	79.999	19.995	103.080	20.038	1.735	0.512
1102.500	630.872	79.998	19.996	103.078	20.035	1.902	0.499
1103.000	631.128	79.998	19.995	103.078	20.036	1.859	0.499
1103.500	631.376	79.997	19.996	103.078	20.038	1.701	0.504
1104.000	631.630	79.997	19.996	103.077	20.038	1.721	0.503
1104.500	631.888	79.996	19.995	103.077	20.037	1.778	0.507
1105.000	632.143	79.998	19.995	103.078	20.039	1.605	0.513
1105.501	632.400	79.997	19.996	103.078	20.037	1.764	0.512
1106.001	632.601	79.997	19.996	103.077	20.037	1.808	0.485
1106.500	632.882	79.997	19.996	103.078	20.037	1.745	0.470
1107.000	633.075	79.998	19.996	103.078	20.037	1.792	0.478
1107.500	633.380	79.998	19.996	103.076	20.036	1.877	0.486
1108.000	633.636	79.998	19.995	103.076	20.036	1.820	0.530
1108.500	633.884	79.999	19.996	103.077	20.041	1.500	0.532
1109.000	634.133	79.996	19.997	103.076	20.039	1.601	0.500
1109.500	634.375	79.997	19.995	103.076	20.036	1.853	0.494
1110.000	634.660	79.997	19.995	103.077	20.039	1.593	0.509
1110.500	634.882	79.996	19.996	103.079	20.036	1.877	0.517
1111.000	635.104	79.998	19.996	103.079	20.037	1.796	0.476
1111.500	635.394	79.998	19.996	103.080	20.038	1.713	0.478
1112.000	635.678	79.997	19.997	103.081	20.038	1.727	0.543
1112.500	635.926	79.998	19.996	103.081	20.038	1.723	0.553
1113.000	636.198	79.997	19.995	103.081	20.038	1.707	0.526
1113.500	636.461	79.998	19.995	103.081	20.036	1.835	0.528
1114.000	636.675	79.996	19.995	103.080	20.038	1.664	0.506
1114.500	636.935	79.997	19.996	103.080	20.039	1.652	0.475
1115.000	637.188	79.998	19.996	103.080	20.033	2.032	0.494
1115.500	637.459	79.997	19.996	103.080	20.038	1.717	0.518
1116.001	637.669	79.997	19.996	103.080	20.038	1.731	0.503
1116.501	637.923	79.998	19.996	103.081	20.038	1.695	0.473
1117.000	638.193	79.998	19.996	103.080	20.039	1.638	0.494
1117.500	638.464	79.996	19.996	103.079	20.036	1.839	0.532
1118.000	638.687	79.997	19.995	103.080	20.034	1.985	0.518
1118.500	638.944	79.999	19.995	103.080	20.038	1.664	0.487
1119.000	639.240	79.998	19.996	103.080	20.035	1.926	0.517
1119.500	639.467	79.997	19.996	103.080	20.039	1.634	0.538
1120.000	639.692	79.998	19.996	103.081	20.036	1.869	0.488
1120.500	639.971	79.997	19.995	103.080	20.038	1.725	0.479
1121.001	640.212	79.999	19.996	103.081	20.039	1.660	0.512
1121.501	640.447	79.997	19.996	103.081	20.037	1.756	0.497
1122.000	640.754	79.999	19.997	103.082	20.037	1.800	0.508
1122.500	640.968	79.998	19.996	103.082	20.033	2.085	0.531
1123.000	641.247	79.998	19.996	103.085	20.036	1.845	0.507
1123.500	641.500	79.997	19.996	103.085	20.034	1.963	0.513
1124.000	641.739	79.999	19.995	103.086	20.034	1.963	0.512
1124.500	641.979	79.998	19.995	103.086	20.033	2.064	0.486
1125.000	642.273	79.999	19.996	103.089	20.033	2.058	0.506
1125.500	642.524	79.999	19.996	103.089	20.034	1.975	0.539
1126.000	642.812	79.999	19.996	103.092	20.035	1.928	0.542
1126.501	643.062	79.999	19.995	103.095	20.033	2.056	0.538
1127.001	643.292	79.999	19.996	103.096	20.035	1.932	0.509
1127.500	643.539	79.997	19.995	103.094	20.034	1.987	0.479
1128.000	643.789	79.998	19.996	103.092	20.035	1.955	0.487
1128.500	644.076	79.999	19.996	103.087	20.034	1.985	0.517
1129.000	644.296	79.998	19.996	103.084	20.035	1.918	0.522
1129.500	644.499	79.997	19.996	103.082	20.036	1.876	0.466
1130.000	644.753	79.998	19.997	103.083	20.036	1.813	0.440
1130.500	645.055	79.997	19.996	103.083	20.037	1.754	0.506
1131.000	645.286	79.998	19.996	103.085	20.037	1.776	0.544
1131.500	645.536	79.998	19.997	103.088	20.030	2.278	0.507
1132.000	645.787	79.998	19.996	103.090	20.035	1.900	0.491
1132.500	646.064	79.997	19.996	103.091	20.036	1.833	0.514
1133.000	646.317	79.997	19.996	103.097	20.037	1.744	0.529
1133.500	646.575	79.998	19.997	103.102	20.040	1.529	0.521
1134.000	646.805	79.998	19.996	103.105	20.037	1.793	0.500
1134.500	647.055	79.996	19.997	103.106	20.037	1.764	0.484
1135.000	647.319	79.997	19.996	103.103	20.041	1.496	0.497
1135.500	647.554	79.996	19.995	103.099	20.039	1.640	0.507
1136.000	647.833	79.997	19.995	103.097	20.039	1.659	0.507
1136.500	648.067	79.997	19.996	103.092	20.037	1.756	0.513
1137.000	648.302	79.997	19.996	103.092	20.041	1.504	0.491
1137.500	648.577	79.997	19.996	103.097	20.037	1.803	0.490
1138.000	648.829	79.999	19.995	103.097	20.038	1.732	0.519
1138.500	649.095	79.997	19.996	103.097	20.038	1.730	0.523
1139.000	649.343	79.997	19.995	103.102	20.040	1.555	0.516
1139.500	649.585	79.998	19.995	103.102	20.041	1.476	0.502
1140.000	649.834	79.998	19.995	103.103	20.036	1.821	0.491
1140.500	650.096	79.997	19.994	103.107	20.038	1.736	0.501
1141.000	650.376	79.998	19.995	103.111	20.040	1.531	0.527
1141.500	650.619	79.997	19.996	103.110	20.040	1.535	0.533
1142.000	650.889	79.998	19.995	103.113	20.038	1.689	0.518
1142.500	651.135	79.997	19.995	103.111	20.041	1.494	0.515
1143.000	651.383	79.998	19.994	103.106	20.039	1.606	0.505
1143.500	651.635	79.999	19.995	103.101	20.040	1.586	0.497
1144.000	651.905	79.999	19.995	103.106	20.038	1.703	0.510
1144.500	652.136	79.999	19.994	103.106	20.039	1.657	0.511
1145.000	652.411	80.000	19.995	103.110	20.035	1.898	0.504
1145.500	652.667	79.999	19.994	103.112	20.034	1.963	0.519
1146.000	652.895	79.999	19.994	103.112	20.037	1.740	0.508
1146.500	653.147	80.000	19.995	103.111	20.035	1.910	0.482
1147.000	653.410	80.000	19.995	103.113	20.034	1.994	0.497
1147.500	653.696	80.001	19.995	103.113	20.035	1.884	0.532
1148.000	653.939	79.999	19.994	103.115	20.038	1.732	0.539
1148.500	654.228	80.001	19.995	103.118	20.035	1.894	0.531
1149.000	654.465	80.000	19.996	103.116	20.037	1.742	0.529
1149.500	654.700	80.000	19.994	103.110	20.037	1.774	0.499
1150.000	654.975	80.001	19.995	103.104	20.034	1.959	0.490
1150.500	655.228	79.999	19.995	103.101	20.034	1.987	0.519
1151.000	655.486	80.000	19.995	103.099	20.036	1.858	0.520
1151.500	655.712	80.000	19.995	103.100	20.038	1.699	0.498
1152.000	655.991	80.001	19.995	103.103	20.036	1.839	0.494
1152.500	656.226	80.001	19.996	103.109	20.037	1.750	0.509
1153.000	656.501	80.001	19.996	103.112	20.035	1.919	0.512
1153.500	656.786	80.000	19.994	103.115	20.035	1.898	0.535
1154.000	657.007	80.001	19.995	103.117	20.034	2.030	0.533
1154.500	657.252	79.999	19.995	103.117	20.036	1.817	0.486
1155.000	657.483	80.000	19.996	103.116	20.035	1.896	0.471
1155.500	657.758	80.000	19.995	103.114	20.034	1.975	0.491
1156.000	658.029	79.998	19.994	103.114	20.034	2.010	0.526
1156.500	658.238	79.999	19.995	103.114	20.034	1.963	0.513
1157.000	658.526	79.998	19.994	103.113	20.035	1.947	0.488
1157.500	658.757	79.998	19.995	103.114	20.035	1.894	0.508
1158.000	659.023	79.997	19.995	103.116	20.033	2.061	0.508
1158.500	659.320	79.998	19.996	103.116	20.033	2.051	0.529
1159.000	659.516	79.998	19.995	103.115	20.033	2.095	0.528
1159.500	659.744	79.998	19.995	103.115	20.035	1.886	0.459
1160.000	659.970	79.997	19.995	103.114	20.032	2.170	0.440
1160.500	660.223	79.997	19.995	103.112	20.036	1.835	0.467
1161.001	660.503	79.998	19.995	103.109	20.034	2.028	0.506
1161.501	660.778	79.998	19.995	103.110	20.036	1.837	0.544
1162.001	661.034	79.997	19.995	103.111	20.035	1.898	0.542
1162.500	661.260	79.999	19.995	103.112	20.034	1.976	0.507
1163.000	661.485	79.999	19.995	103.115	20.034	1.990	0.467
1163.500	661.753	79.998	19.995	103.118	20.034	1.964	0.472
1164.000	662.006	79.997	19.995	103.119	20.032	2.134	0.507
1164.500	662.246	79.996	19.994	103.120	20.036	1.878	0.507
1165.000	662.472	79.997	19.996	103.121	20.033	2.053	0.479
1165.500	662.759	79.997	19.996	103.120	20.034	2.004	0.489
1166.000	663.012	79.997	19.996	103.121	20.033	2.053	0.526
1166.500	663.248	79.996	19.995	103.119	20.035	1.951	0.515
1167.000	663.457	79.999	19.996	103.119	20.034	1.990	0.467
1167.500	663.751	79.998	19.995	103.118	20.035	1.933	0.474
1168.000	663.988	79.998	19.995	103.120	20.033	2.036	0.517
1168.500	664.228	79.996	19.994	103.120	20.035	1.923	0.504
1169.000	664.477	79.998	19.994	103.121	20.033	2.075	0.483
1169.500	664.728	79.997	19.994	103.121	20.032	2.112	0.495
1170.000	665.042	79.999	19.994	103.121	20.032	2.164	0.533
1170.500	665.249	79.997	19.994	103.120	20.033	2.035	0.543
1171.000	665.511	79.999	19.995	103.122	20.033	2.033	0.495
1171.500	665.723	79.997	19.995	103.122	20.032	2.144	0.472
1172.000	665.982	79.998	19.994	103.123	20.035	1.892	0.472
1172.500	666.233	79.999	19.995	103.125	20.033	2.089	0.490
1173.000	666.492	79.998	19.994	103.125	20.034	1.994	0.510
1173.500	666.728	79.998	19.994	103.126	20.033	2.090	0.503
1174.000	666.988	79.997	19.995	103.132	20.036	1.872	0.496
1174.500	667.231	79.997	19.995	103.135	20.032	2.138	0.499
1175.000	667.527	79.996	19.995	103.133	20.033	2.100	0.521
1175.500	667.739	79.998	19.995	103.132	20.034	2.020	0.524
1176.000	667.986	79.997	19.995	103.134	20.037	1.787	0.483
1176.500	668.223	79.999	19.995	103.132	20.035	1.949	0.471
1177.000	668.489	79.997	19.994	103.131	20.033	2.053	0.494
1177.500	668.739	79.999	19.994	103.134	20.034	2.017	0.510
1178.000	668.976	79.999	19.995	103.134	20.033	2.098	0.501
1178.500	669.224	79.998	19.995	103.131	20.033	2.096	0.486
1179.000	669.484	79.998	19.995	103.127	20.033	2.076	0.497
1179.500	669.740	79.998	19.995	103.125	20.034	1.992	0.512
1180.000	669.961	79.998	19.996	103.125	20.032	2.138	0.496
1180.501	670.228	79.997	19.995	103.126	20.030	2.283	0.483
1181.001	670.510	79.998	19.995	103.127	20.032	2.147	0.518
1181.500	670.793	79.999	19.995	103.131	20.034	2.023	0.556
1182.000	670.984	79.999	19.994	103.134	20.034	1.972	0.519
1182.500	671.274	79.998	19.994	103.130	20.035	1.915	0.478
1183.000	671.499	79.998	19.995	103.131	20.032	2.157	0.498
1183.501	671.740	79.998	19.995	103.135	20.032	2.126	0.491
1184.001	672.035	79.997	19.995	103.138	20.032	2.136	0.501
1184.500	672.257	79.997	19.996	103.143	20.034	1.996	0.526
1185.000	672.493	79.998	19.995	103.149	20.032	2.157	0.488
1185.500	672.739	79.997	19.995	103.150	20.032	2.143	0.470
1186.000	673.032	79.997	19.995	103.147	20.030	2.291	0.510
1186.500	673.256	79.998	19.995	103.141	20.034	2.025	0.528
1187.000	673.522	79.996	19.995	103.139	20.033	2.078	0.504
1187.500	673.815	79.998	19.995	103.139	20.032	2.173	0.524
1188.000	674.032	79.997	19.994	103.144	20.027	2.516	0.534
1188.500	674.283	79.996	19.995	103.148	20.032	2.153	0.490
1189.000	674.530	79.997	19.995	103.155	20.030	2.273	0.483
1189.500	674.805	79.996	19.997	103.156	20.030	2.265	0.510
1190.001	675.077	79.997	19.996	103.155	20.030	2.319	0.534
1190.501	675.324	79.998	19.995	103.153	20.028	2.447	0.533
1191.000	675.569	79.997	19.996	103.151	20.030	2.311	0.505
1191.500	675.874	79.996	19.996	103.151	20.029	2.390	0.521
1192.000	676.077	79.996	19.995	103.151	20.033	2.092	0.529
1192.500	676.293	79.996	19.994	103.154	20.033	2.061	0.464
1193.000	676.615	79.996	19.996	103.154	20.032	2.135	0.479
1193.500	676.828	79.996	19.996	103.155	20.030	2.256	0.536
1194.000	677.090	79.998	19.996	103.155	20.031	2.238	0.505
1194.500	677.367	79.997	19.996	103.154	20.031	2.220	0.507
1195.001	677.624	79.999	19.996	103.152	20.030	2.293	0.536
1195.501	677.879	79.997	19.995	103.153	20.029	2.382	0.523
1196.000	678.115	79.997	19.996	103.153	20.032	2.124	0.501
1196.500	678.394	79.996	19.995	103.151	20.030	2.256	0.503
1197.000	678.626	79.997	19.996	103.152	20.026	2.581	0.513
1197.500	678.885	79.998	19.996	103.152	20.029	2.342	0.501
1198.000	679.140	79.998	19.996	103.152	20.029	2.392	0.503
1198.500	679.378	79.997	19.996	103.155	20.030	2.287	0.504
1199.000	679.643	79.997	19.996	103.158	20.030	2.267	0.498
1199.500	679.896	79.998	19.995	103.158	20.027	2.486	0.510
1200.000	680.169	79.998	19.996	103.158	20.027	2.543	0.522
1200.500	680.398	79.998	19.996	103.159	20.027	2.529	0.514
1201.000	680.655	79.997	19.996	103.159	20.029	2.348	0.494
1201.500	680.934	79.997	19.996	103.159	20.029	2.376	0.511
1202.000	681.160	79.998	19.995	103.159	20.026	2.602	0.520
1202.500	681.404	79.999	19.996	103.159	20.026	2.555	0.487
1203.000	681.641	79.999	19.995	103.159	20.027	2.521	0.475
1203.500	681.898	79.997	19.996	103.158	20.027	2.496	0.487
1204.000	682.169	79.999	19.996	103.158	20.026	2.590	0.511
1204.500	682.409	79.999	19.995	103.157	20.028	2.405	0.520
1205.000	682.671	79.999	19.995	103.157	20.026	2.596	0.507
1205.500	682.916	79.997	19.996	103.158	20.027	2.513	0.504
1206.000	683.202	80.000	19.995	103.158	20.027	2.507	0.519
1206.500	683.433	79.998	19.996	103.158	20.026	2.602	0.525
1207.000	683.672	79.998	19.995	103.160	20.027	2.492	0.494
1207.500	683.967	79.998	19.994	103.159	20.025	2.667	0.502
1208.000	684.185	79.998	19.996	103.159	20.031	2.202	0.523
1208.500	684.461	79.998	19.995	103.158	20.028	2.401	0.504
1209.000	684.719	79.998	19.995	103.157	20.024	2.754	0.514
1209.500	684.964	79.997	19.995	103.157	20.026	2.575	0.519
1210.000	685.203	79.998	19.995	103.158	20.028	2.470	0.493
1210.500	685.454	79.998	19.994	103.158	20.027	2.498	0.487
1211.000	685.724	79.999	19.995	103.157	20.030	2.281	0.505
1211.500	685.963	79.997	19.995	103.157	20.029	2.384	0.515
1212.000	686.233	79.998	19.995	103.157	20.029	2.336	0.509
1212.501	686.516	79.997	19.995	103.157	20.028	2.441	0.531
1213.001	686.716	79.997	19.996	103.157	20.025	2.624	0.518
1213.500	686.996	79.998	19.995	103.159	20.026	2.577	0.482
1214.000	687.216	79.996	19.996	103.161	20.025	2.665	0.490
1214.500	687.491	79.998	19.996	103.161	20.028	2.435	0.497
1215.000	687.744	79.996	19.995	103.162	20.026	2.576	0.512
1215.500	687.998	79.996	19.996	103.165	20.027	2.533	0.518
1216.000	688.262	79.998	19.996	103.167	20.025	2.669	0.512
1216.500	688.459	79.997	19.997	103.169	20.029	2.336	0.489
1217.000	688.741	79.998	19.997	103.171	20.023	2.795	0.470
1217.500	688.997	79.997	19.996	103.170	20.026	2.582	0.509
1218.000	689.269	79.997	19.996	103.167	20.023	2.779	0.533
1218.500	689.515	79.997	19.996	103.164	20.023	2.775	0.523
1219.000	689.776	79.998	19.996	103.161	20.025	2.639	0.512
1219.500	690.030	79.996	19.997	103.162	20.024	2.732	0.510
1220.000	690.246	79.997	19.996	103.165	20.024	2.749	0.492
1220.501	690.520	79.997	19.995	103.164	20.023	2.796	0.480
1221.001	690.807	79.997	19.996	103.164	20.024	2.765	0.526
1221.500	691.047	79.996	19.996	103.164	20.022	2.903	0.544
1222.000	691.289	79.999	19.996	103.160	20.024	2.765	0.504
1222.500	691.548	79.999	19.996	103.157	20.023	2.838	0.491
1223.000	691.776	79.999	19.996	103.156	20.019	3.090	0.494
1223.500	692.070	79.998	19.997	103.158	20.019	3.117	0.505
1224.000	692.318	79.998	19.996	103.161	20.023	2.804	0.532
1224.500	692.575	79.998	19.995	103.164	20.019	3.074	0.523
1225.000	692.836	79.999	19.995	103.168	20.022	2.855	0.511
1225.500	693.100	79.999	19.996	103.170	20.020	3.011	0.522
1226.000	693.363	79.999	19.996	103.172	20.023	2.836	0.526
1226.500	693.580	79.999	19.996	103.174	20.019	3.098	0.503
1227.000	693.814	79.998	19.995	103.178	20.022	2.911	0.465
1227.500	694.107	80.000	19.996	103.179	20.020	2.999	0.489
1228.000	694.307	80.000	19.994	103.183	20.020	3.043	0.511
1228.500	694.593	79.999	19.996	103.183	20.019	3.113	0.490
1229.000	694.854	80.000	19.995	103.184	20.018	3.151	0.516
1229.500	695.088	80.001	19.995	103.185	20.018	3.167	0.521
1230.000	695.357	80.002	19.994	103.186	20.019	3.121	0.499
1230.501	695.627	80.000	19.995	103.188	20.019	3.135	0.521
1231.001	695.850	80.001	19.994	103.191	20.015	3.360	0.516
1231.500	696.060	80.001	19.995	103.192	20.016	3.350	0.463
1232.000	696.335	80.001	19.994	103.193	20.017	3.236	0.458
1232.501	696.607	80.000	19.996	103.191	20.017	3.269	0.516
1233.001	696.884	79.999	19.995	103.191	20.018	3.186	0.548
1233.500	697.097	79.999	19.994	103.192	20.018	3.141	0.520
1234.000	697.361	80.000	19.996	103.192	20.018	3.198	0.483
1234.501	697.583	79.999	19.995	103.192	20.016	3.294	0.481
1235.001	697.817	80.000	19.995	103.194	20.017	3.216	0.471
1235.500	698.098	79.999	19.994	103.193	20.014	3.477	0.486
1236.000	698.355	79.999	19.995	103.194	20.014	3.452	0.527
1236.500	698.595	79.998	19.996	103.195	20.012	3.607	0.517
1237.000	698.818	80.000	19.995	103.195	20.014	3.436	0.480
1237.500	699.115	79.997	19.994	103.195	20.018	3.190	0.491
1238.000	699.340	79.998	19.996	103.195	20.015	3.420	0.521
1238.500	699.613	79.999	19.995	103.195	20.015	3.403	0.511
1239.000	699.859	79.997	19.996	103.195	20.015	3.379	0.509
1239.500	700.134	79.997	19.995	103.194	20.013	3.560	0.520
1240.000	700.375	79.996	19.996	103.195	20.013	3.511	0.518
1240.500	700.602	79.998	19.995	103.195	20.017	3.235	0.492
1241.000	700.854	79.997	19.995	103.195	20.014	3.487	0.474
1241.500	701.073	79.997	19.995	103.194	20.015	3.371	0.475
1242.000	701.356	79.996	19.995	103.192	20.013	3.552	0.487
1242.500	701.630	79.997	19.995	103.192	20.011	3.662	0.530
1243.001	701.846	79.997	19.995	103.191	20.011	3.686	0.523
1243.501	702.091	79.998	19.995	103.191	20.015	3.426	0.475
1244.000	702.323	79.997	19.996	103.193	20.013	3.568	0.469
1244.500	702.570	79.996	19.995	103.197	20.013	3.544	0.478
1245.000	702.855	79.997	19.995	103.199	20.012	3.617	0.505
1245.500	703.085	79.998	19.995	103.200	20.010	3.737	0.523
1246.000	703.329	79.996	19.995	103.200	20.013	3.546	0.495
1246.500	703.583	79.997	19.996	103.203	20.013	3.556	0.486
1247.000	703.853	79.997	19.996	103.202	20.011	3.674	0.511
1247.500	704.128	79.998	19.995	103.202	20.013	3.514	0.534
1248.000	704.316	79.997	19.996	103.203	20.010	3.747	0.504
1248.501	704.589	79.997	19.995	103.204	20.012	3.638	0.462
1249.001	704.842	79.995	19.996	103.201	20.010	3.731	0.494
1249.500	705.085	79.997	19.995	103.200	20.010	3.762	0.511
1250.000	705.326	79.996	19.996	103.199	20.012	3.636	0.490
1250.500	705.572	79.998	19.996	103.198	20.011	3.699	0.486
1251.000	705.847	79.997	19.996	103.197	20.012	3.652	0.504
1251.500	706.074	79.998	19.996	103.201	20.011	3.693	0.511
1252.000	706.348	79.998	19.995	103.205	20.010	3.752	0.501
1252.500	706.572	79.996	19.996	103.207	20.010	3.729	0.499
1253.000	706.840	79.997	19.995	103.210	20.012	3.627	0.495
1253.500	707.078	79.998	19.995	103.214	20.008	3.877	0.499
1254.000	707.344	79.996	19.994	103.214	20.011	3.711	0.505
1254.500	707.608	79.997	19.996	103.212	20.007	3.995	0.517
1255.001	707.870	79.998	19.995	103.209	20.011	3.723	0.528
1255.501	708.109	79.998	19.996	103.207	20.008	3.878	0.513
1256.000	708.360	79.996	19.996	103.206	20.012	3.642	0.495
1256.500	708.617	79.998	19.995	103.210	20.013	3.512	0.499
1257.000	708.869	79.996	19.996	103.216	20.011	3.672	0.509
1257.500	709.131	79.996	19.995	103.217	20.013	3.558	0.512
1258.000	709.386	79.997	19.996	103.220	20.011	3.705	0.515
1258.500	709.631	79.996	19.996	103.221	20.008	3.882	0.508
1259.000	709.906	79.997	19.995	103.220	20.012	3.603	0.510
1259.500	710.169	79.998	19.996	103.217	20.009	3.825	0.529
1260.000	710.398	79.998	19.995	103.221	20.009	3.860	0.515
1260.501	710.676	79.998	19.995	103.224	20.009	3.856	0.499
1261.001	710.908	79.999	19.994	103.228	20.010	3.754	0.509
1261.501	711.170	79.998	19.995	103.230	20.007	4.006	0.502
1262.001	711.379	79.998	19.995	103.232	20.010	3.768	0.482
1262.500	711.658	79.997	19.993	103.232	20.011	3.697	0.479
1263.000	711.959	79.998	19.996	103.229	20.017	3.282	0.534
1263.500	712.179	79.997	19.995	103.222	20.020	3.042	0.551
1264.000	712.412	79.997	19.996	103.217	20.011	3.719	0.487
1264.500	712.686	79.997	19.995	103.215	20.011	3.662	0.480
1265.000	712.925	79.998	19.994	103.217	20.009	3.845	0.510
1265.500	713.206	79.998	19.995	103.221	20.011	3.709	0.517
1266.000	713.467	79.997	19.995	103.227	20.007	3.971	0.531
1266.501	713.708	79.998	19.994	103.228	20.007	3.991	0.522
1267.001	713.937	79.997	19.996	103.227	20.011	3.705	0.486
1267.501	714.183	79.997	19.995	103.223	20.008	3.945	0.473
1268.001	714.462	79.996	19.995	103.220	20.007	3.969	0.500
1268.500	714.717	79.996	19.995	103.221	20.010	3.797	0.529
1269.000	714.958	79.997	19.995	103.226	20.010	3.770	0.515
1269.500	715.240	79.995	19.995	103.230	20.009	3.815	0.510
1270.000	715.483	79.997	19.995	103.229	20.011	3.699	0.524
1270.500	715.739	79.995	19.996	103.232	20.011	3.697	0.512
1271.000	716.030	79.996	19.994	103.232	20.008	3.919	0.523
1271.500	716.303	79.996	19.994	103.231	20.011	3.687	0.555
1272.000	716.530	79.997	19.995	103.232	20.010	3.732	0.532
1272.500	716.808	79.995	19.995	103.236	20.008	3.902	0.503
1273.000	717.047	79.997	19.995	103.233	20.009	3.847	0.510
1273.500	717.301	79.997	19.995	103.230	20.009	3.847	0.505
1274.000	717.575	79.996	19.995	103.223	20.009	3.861	0.511
1274.500	717.776	79.996	19.995	103.216	20.010	3.792	0.501
1275.000	718.049	79.996	19.995	103.215	20.009	3.847	0.474
1275.500	718.290	79.998	19.995	103.218	20.009	3.827	0.494
1276.000	718.570	79.996	19.996	103.216	20.007	4.015	0.517
1276.500	718.775	79.998	19.995	103.220	20.010	3.729	0.503
1277.000	719.040	79.997	19.996	103.221	20.008	3.944	0.478
1277.500	719.290	79.996	19.996	103.219	20.008	3.948	0.493
1278.000	719.580	79.997	19.995	103.220	20.010	3.764	0.527
1278.500	719.830	79.997	19.995	103.223	20.008	3.898	0.540
1279.000	720.055	79.997	19.996	103.226	20.010	3.750	0.507
1279.500	720.294	79.998	19.995	103.230	20.011	3.701	0.469
1280.000	720.565	79.997	19.996	103.234	20.012	3.650	0.487
1280.500	720.850	79.997	19.997	103.234	20.007	3.957	0.533
1281.000	721.115	79.998	19.996	103.235	20.010	3.796	0.553
1281.500	721.366	79.998	19.996	103.234	20.009	3.813	0.533
1282.000	721.633	79.998	19.996	103.235	20.012	3.634	0.517
1282.500	721.841	79.997	19.996	103.233	20.010	3.735	0.496
1283.000	722.072	79.998	19.996	103.233	20.010	3.745	0.457
1283.500	722.353	79.998	19.996	103.229	20.011	3.715	0.476
1284.000	722.625	79.999	19.995	103.228	20.013	3.552	0.533
1284.500	722.879	79.999	19.995	103.226	20.011	3.684	0.540
1285.000	723.152	79.999	19.996	103.226	20.010	3.787	0.526
1285.500	723.367	80.000	19.996	103.223	20.011	3.669	0.507
1286.000	723.603	79.999	19.997	103.221	20.011	3.674	0.470
1286.500	723.847	80.000	19.996	103.217	20.011	3.684	0.466
1287.000	724.095	79.999	19.997	103.215	20.008	3.911	0.486
1287.500	724.333	79.998	19.996	103.212	20.010	3.751	0.489
1288.000	724.607	79.998	19.996	103.213	20.011	3.708	0.499
1288.500	724.836	79.999	19.995	103.217	20.014	3.503	0.507
1289.000	725.104	80.000	19.995	103.222	20.008	3.903	0.500
1289.500	725.329	80.000	19.995	103.226	20.012	3.586	0.495
1290.000	725.594	79.998	19.995	103.229	20.015	3.403	0.491
1290.500	725.870	79.999	19.996	103.230	20.013	3.520	0.515
1291.000	726.099	79.999	19.995	103.230	20.014	3.459	0.523
1291.500	726.332	79.999	19.995	103.227	20.012	3.620	0.484
1292.000	726.582	80.000	19.996	103.224	20.010	3.774	0.473
1292.500	726.839	79.998	19.995	103.224	20.012	3.608	0.495
1293.000	727.078	79.999	19.996	103.223	20.011	3.697	0.501
1293.500	727.365	79.998	19.995	103.223	20.011	3.673	0.511
1294.000	727.593	79.996	19.996	103.221	20.014	3.486	0.520
1294.500	727.806	79.998	19.996	103.218	20.012	3.585	0.478
1295.000	728.090	79.999	19.997	103.213	20.014	3.490	0.469
1295.500	728.333	79.998	19.995	103.207	20.014	3.449	0.512
1296.000	728.613	79.998	19.995	103.203	20.014	3.475	0.525
1296.500	728.840	79.999	19.996	103.201	20.014	3.503	0.515
1297.000	729.100	79.998	19.997	103.203	20.015	3.365	0.496
1297.500	729.394	79.998	19.996	103.205	20.015	3.388	0.521
1298.000	729.598	79.998	19.996	103.204	20.012	3.627	0.526
1298.500	729.830	79.997	19.996	103.203	20.017	3.278	0.467
1299.000	730.093	79.998	19.996	103.201	20.013	3.568	0.466
1299.501	730.337	79.999	19.996	103.198	20.013	3.521	0.501
1300.001	730.637	79.999	19.995	103.194	20.016	3.288	0.526
1300.500	730.877	79.999	19.995	103.190	20.015	3.387	0.542
1301.000	731.106	79.997	19.996	103.183	20.015	3.381	0.504
1301.500	731.336	80.000	19.995	103.180	20.015	3.417	0.464
1302.000	731.618	79.998	19.996	103.178	20.015	3.397	0.485
1302.500	731.876	79.998	19.995	103.177	20.016	3.336	0.526
1303.000	732.128	79.998	19.996	103.178	20.017	3.265	0.525
1303.500	732.388	79.999	19.995	103.185	20.017	3.256	0.511
1304.000	732.660	79.998	19.997	103.187	20.018	3.191	0.522
1304.501	732.907	79.999	19.996	103.185	20.018	3.203	0.525
1305.001	733.154	79.999	19.995	103.183	20.020	3.038	0.506
1305.500	733.376	79.998	19.998	103.178	20.021	2.973	0.482
1306.000	733.648	79.998	19.996	103.172	20.019	3.123	0.482
1306.500	733.909	79.997	19.998	103.165	20.019	3.107	0.514
1307.000	734.156	79.999	19.997	103.161	20.022	2.900	0.520
1307.500	734.389	79.999	19.996	103.158	20.018	3.152	0.494
1308.000	734.657	79.998	19.996	103.157	20.021	2.955	0.490
1308.500	734.930	79.999	19.996	103.155	20.021	2.951	0.521
1309.000	735.138	79.999	19.997	103.155	20.022	2.898	0.511
1309.500	735.432	79.999	19.996	103.154	20.020	2.989	0.491
1310.000	735.670	80.000	19.995	103.152	20.021	2.981	0.517
1310.500	735.914	80.000	19.996	103.146	20.022	2.853	0.508
1311.000	736.164	80.000	19.996	103.138	20.024	2.717	0.488
1311.500	736.426	79.999	19.995	103.137	20.022	2.845	0.503
1312.000	736.698	79.999	19.997	103.137	20.024	2.697	0.523
1312.500	736.929	79.999	19.995	103.134	20.029	2.376	0.518
1313.001	737.220	79.999	19.997	103.134	20.029	2.388	0.513
1313.501	737.449	79.999	19.997	103.133	20.029	2.335	0.521
1314.000	737.756	79.998	19.996	103.128	20.029	2.348	0.528
1314.500	737.974	79.998	19.997	103.117	20.032	2.110	0.531
1315.000	738.233	80.000	19.998	103.107	20.030	2.288	0.502
1315.500	738.545	79.999	19.996	103.097	20.030	2.280	0.524
1316.000	738.787	79.997	19.996	103.089	20.031	2.244	0.562
1316.501	739.042	79.998	19.996	103.080	20.033	2.039	0.525
1317.001	739.290	79.998	19.997	103.077	20.034	2.008	0.500
1317.500	739.568	79.997	19.997	103.076	20.033	2.049	0.515
1318.000	739.822	79.999	19.996	103.076	20.035	1.948	0.529
1318.500	740.099	79.997	19.996	103.077	20.035	1.883	0.531
1319.000	740.380	79.997	19.996	103.078	20.034	2.004	0.544
1319.500	740.621	79.998	19.995	103.078	20.039	1.653	0.540
1320.000	740.868	79.996	19.996	103.078	20.035	1.927	0.505
1320.500	741.154	79.998	19.994	103.076	20.035	1.885	0.511
1321.000	741.424	79.998	19.994	103.074	20.039	1.635	0.545
1321.500	741.663	79.998	19.996	103.073	20.038	1.670	0.532
1322.000	741.894	79.997	19.994	103.071	20.038	1.680	0.489
1322.500	742.184	79.998	19.995	103.069	20.037	1.737	0.496
1323.000	742.403	79.996	19.996	103.071	20.038	1.722	0.516
1323.500	742.693	79.997	19.995	103.071	20.038	1.678	0.509
1324.000	742.918	79.998	19.995	103.067	20.039	1.599	0.512
1324.500	743.203	79.997	19.994	103.062	20.037	1.791	0.512
1325.000	743.458	79.998	19.995	103.058	20.039	1.592	0.525
