Sample ID:	C:\MCC\MCC Cal\Test\R13_Fiberglas_InsulationA_MCC_30K_min_220215_R3.txt
Sample Weight (mg):	4.42
Heating Rate (C/s):	0.5
Combustor Temp (C):	900
N2 Flow Rate (cc/min):	80
O2 Flow Rate (cc/min):	20
Calibration File:	C:\MCC\MCC Cal\Coeff1 JN10440_30_210304.txt.txt
T Correction Coefficients:	0	1.024463	0
Time Shift (s):	14
*
Time (s)	Temperature (C)	N2 flow rate (cc/min)	O2 flow rate (cc/min)	Flow Rate (cc/min)	Oxygen (%)	HRR (W/g)	Heating rate (C/s)
-0.001	114.947	80.006	19.993	103.684	20.210	-0.249	0.030
0.499	114.902	80.005	19.993	103.682	20.207	0.006	0.037
1.000	114.930	80.005	19.994	103.681	20.210	-0.223	-0.002
1.500	114.915	80.005	19.990	103.674	20.211	-0.295	-0.002
2.000	114.926	80.007	19.994	103.679	20.213	-0.418	0.005
2.500	114.898	80.006	19.995	103.682	20.213	-0.468	-0.011
3.000	114.898	80.007	19.993	103.683	20.213	-0.478	-0.023
3.500	114.906	80.006	19.994	103.681	20.210	-0.209	-0.010
4.000	114.861	80.005	19.992	103.683	20.213	-0.454	-0.014
4.500	114.875	80.007	19.992	103.679	20.211	-0.298	-0.034
5.000	114.907	80.005	19.994	103.681	20.212	-0.358	0.008
5.500	114.883	80.007	19.990	103.675	20.209	-0.153	0.027
6.000	114.863	80.004	19.992	103.677	20.202	0.350	-0.018
6.500	114.875	80.006	19.993	103.683	20.212	-0.376	-0.025
7.000	114.865	80.007	19.994	103.687	20.211	-0.287	-0.003
7.500	114.910	80.006	19.993	103.689	20.210	-0.241	0.018
8.000	114.890	80.005	19.994	103.702	20.204	0.221	0.030
8.500	114.842	80.006	19.993	103.714	20.208	-0.074	-0.021
9.000	114.938	80.007	19.992	103.716	20.209	-0.157	-0.010
9.500	114.909	80.006	19.992	103.716	20.210	-0.199	0.057
10.000	114.898	80.007	19.994	103.716	20.212	-0.360	0.013
10.500	114.875	80.005	19.992	103.717	20.205	0.139	-0.036
11.000	114.894	80.006	19.993	103.709	20.211	-0.336	-0.019
11.500	114.896	80.007	19.992	103.708	20.205	0.143	0.008
12.000	114.918	80.006	19.992	103.708	20.208	-0.084	0.023
12.501	114.920	80.005	19.992	103.708	20.203	0.293	0.024
13.000	114.899	80.006	19.993	103.707	20.210	-0.205	0.002
13.500	114.926	80.006	19.993	103.708	20.205	0.139	-0.007
14.000	114.922	80.006	19.993	103.708	20.207	0.006	0.015
14.500	114.919	80.006	19.994	103.704	20.209	-0.183	0.008
15.000	114.944	80.007	19.993	103.696	20.211	-0.301	0.008
15.500	114.916	80.006	19.993	103.691	20.208	-0.110	0.009
16.000	114.911	80.006	19.994	103.690	20.208	-0.072	-0.018
16.500	114.894	80.008	19.994	103.690	20.204	0.177	-0.027
17.000	114.921	80.006	19.994	103.694	20.208	-0.112	-0.006
17.500	114.961	80.007	19.992	103.704	20.203	0.321	0.039
18.000	114.964	80.007	19.995	103.715	20.212	-0.408	0.055
18.500	114.971	80.007	19.993	103.716	20.206	0.066	0.026
19.000	114.970	80.005	19.993	103.718	20.207	-0.044	0.007
19.500	114.924	80.006	19.994	103.725	20.201	0.458	-0.020
20.000	114.965	80.007	19.993	103.730	20.205	0.167	-0.026
20.500	114.970	80.005	19.992	103.732	20.209	-0.179	0.020
21.000	114.942	80.006	19.993	103.738	20.207	0.014	0.012
21.500	114.970	80.006	19.993	103.742	20.207	0.020	-0.012
22.000	114.939	80.006	19.991	103.738	20.198	0.624	-0.002
22.500	115.002	80.006	19.993	103.737	20.206	0.072	0.015
23.000	114.987	80.006	19.994	103.737	20.202	0.391	0.040
23.500	115.001	80.005	19.992	103.741	20.197	0.734	0.023
24.000	115.013	80.005	19.993	103.749	20.199	0.550	0.012
24.500	115.017	80.005	19.992	103.762	20.199	0.570	0.021
25.000	115.034	80.008	19.993	103.773	20.197	0.758	0.018
25.500	115.031	80.007	19.995	103.788	20.196	0.767	0.018
26.000	115.076	80.005	19.993	103.800	20.195	0.843	0.028
26.500	115.095	80.007	19.991	103.809	20.191	1.200	0.053
27.000	115.143	80.006	19.993	103.811	20.186	1.505	0.066
27.500	115.105	80.008	19.993	103.813	20.187	1.457	0.038
28.000	115.135	80.008	19.993	103.813	20.187	1.441	0.001
28.500	115.217	80.008	19.993	103.814	20.187	1.477	0.053
29.000	115.199	80.007	19.994	103.822	20.188	1.397	0.088
29.500	115.231	80.007	19.994	103.836	20.184	1.682	0.039
30.000	115.263	80.008	19.993	103.848	20.185	1.572	0.039
30.500	115.277	80.007	19.993	103.856	20.182	1.822	0.055
31.000	115.304	80.006	19.994	103.863	20.176	2.250	0.043
31.500	115.349	80.007	19.992	103.863	20.173	2.521	0.057
32.000	115.381	80.008	19.995	103.863	20.177	2.229	0.074
32.499	115.470	80.009	19.992	103.864	20.176	2.247	0.098
32.999	115.496	80.008	19.992	103.866	20.174	2.387	0.118
33.499	115.557	80.009	19.993	103.869	20.178	2.103	0.101
33.999	115.583	80.008	19.991	103.876	20.175	2.307	0.087
34.499	115.640	80.010	19.992	103.883	20.179	2.076	0.085
34.999	115.703	80.008	19.993	103.891	20.175	2.369	0.101
35.499	115.767	80.009	19.994	103.896	20.174	2.383	0.124
35.999	115.822	80.008	19.992	103.895	20.169	2.808	0.123
36.499	115.873	80.008	19.993	103.886	20.171	2.599	0.113
36.999	115.955	80.008	19.993	103.879	20.167	2.912	0.120
37.500	116.000	80.005	19.993	103.870	20.169	2.774	0.130
38.000	116.074	80.007	19.994	103.862	20.172	2.593	0.123
38.499	116.120	80.007	19.993	103.858	20.171	2.627	0.119
38.999	116.191	80.006	19.993	103.858	20.177	2.190	0.118
39.499	116.251	80.007	19.993	103.858	20.173	2.475	0.124
39.999	116.328	80.006	19.994	103.859	20.176	2.242	0.134
40.499	116.338	80.005	19.993	103.860	20.170	2.706	0.112
40.999	116.457	80.006	19.994	103.860	20.174	2.441	0.108
41.499	116.502	80.005	19.994	103.861	20.170	2.683	0.147
41.999	116.591	80.006	19.994	103.868	20.163	3.191	0.149
42.500	116.683	80.004	19.994	103.875	20.170	2.734	0.157
43.000	116.762	80.007	19.994	103.885	20.167	2.922	0.176
43.499	116.848	80.003	19.994	103.894	20.166	3.016	0.168
43.999	116.905	80.006	19.995	103.902	20.160	3.452	0.154
44.499	116.991	80.004	19.993	103.903	20.165	3.056	0.143
44.999	117.099	80.004	19.992	103.906	20.158	3.624	0.168
45.499	117.134	80.004	19.993	103.909	20.161	3.363	0.169
45.999	117.281	80.006	19.993	103.913	20.160	3.472	0.163
46.499	117.331	80.005	19.993	103.917	20.163	3.225	0.190
46.999	117.441	80.005	19.993	103.922	20.159	3.542	0.179
47.499	117.534	80.006	19.995	103.928	20.159	3.500	0.181
47.999	117.651	80.003	19.993	103.930	20.160	3.453	0.206
48.499	117.752	80.005	19.994	103.933	20.160	3.455	0.214
48.999	117.827	80.004	19.994	103.936	20.164	3.121	0.197
49.499	117.924	80.006	19.995	103.938	20.160	3.411	0.175
49.999	118.032	80.005	19.993	103.935	20.163	3.253	0.189
50.499	118.169	80.005	19.994	103.933	20.161	3.399	0.225
51.000	118.290	80.005	19.994	103.932	20.164	3.157	0.251
51.500	118.391	80.006	19.994	103.932	20.157	3.642	0.240
51.999	118.493	80.006	19.993	103.932	20.162	3.271	0.212
52.499	118.616	80.005	19.994	103.936	20.157	3.626	0.214
52.999	118.750	80.006	19.994	103.939	20.154	3.851	0.241
53.499	118.847	80.005	19.993	103.940	20.159	3.538	0.244
53.999	118.981	80.005	19.995	103.939	20.160	3.440	0.231
54.499	119.101	80.006	19.992	103.939	20.156	3.758	0.243
54.999	119.220	80.006	19.993	103.937	20.158	3.596	0.246
55.499	119.332	80.004	19.994	103.937	20.161	3.391	0.235
55.999	119.464	80.006	19.992	103.936	20.157	3.642	0.238
56.499	119.594	80.004	19.993	103.938	20.158	3.564	0.253
56.999	119.771	80.006	19.992	103.938	20.157	3.630	0.284
57.499	119.877	80.006	19.993	103.940	20.159	3.484	0.295
58.000	119.983	80.005	19.991	103.940	20.155	3.825	0.248
58.500	120.118	80.004	19.993	103.942	20.162	3.313	0.227
58.999	120.274	80.005	19.991	103.942	20.159	3.532	0.266
59.499	120.396	80.006	19.992	103.942	20.158	3.612	0.284
59.999	120.533	80.004	19.992	103.940	20.156	3.730	0.268
60.499	120.647	80.006	19.992	103.940	20.161	3.389	0.255
60.999	120.846	80.005	19.992	103.940	20.156	3.746	0.282
61.499	120.960	80.006	19.992	103.941	20.157	3.628	0.313
61.999	121.128	80.007	19.992	103.941	20.157	3.670	0.298
62.499	121.288	80.005	19.993	103.940	20.160	3.465	0.305
62.999	121.417	80.005	19.992	103.935	20.158	3.580	0.309
63.500	121.567	80.005	19.993	103.934	20.161	3.393	0.284
64.000	121.714	80.005	19.993	103.934	20.159	3.497	0.288
64.500	121.885	80.005	19.992	103.933	20.162	3.281	0.308
65.000	122.035	80.006	19.993	103.935	20.160	3.475	0.320
65.499	122.193	80.003	19.991	103.940	20.161	3.387	0.314
65.999	122.317	80.003	19.994	103.936	20.159	3.508	0.295
66.499	122.485	80.003	19.994	103.935	20.158	3.566	0.287
66.999	122.641	80.004	19.991	103.934	20.159	3.507	0.308
67.499	122.806	80.004	19.993	103.933	20.160	3.453	0.322
67.999	122.952	80.005	19.993	103.931	20.161	3.361	0.316
68.500	123.142	80.004	19.992	103.936	20.161	3.395	0.323
69.000	123.256	80.005	19.993	103.937	20.156	3.766	0.320
69.500	123.435	80.005	19.993	103.940	20.162	3.277	0.299
70.000	123.603	80.004	19.993	103.941	20.159	3.504	0.320
70.500	123.759	80.004	19.994	103.944	20.159	3.532	0.335
71.000	123.923	80.004	19.992	103.944	20.158	3.614	0.322
71.499	124.084	80.005	19.993	103.944	20.160	3.467	0.323
71.999	124.267	80.006	19.992	103.943	20.158	3.562	0.335
72.499	124.428	80.003	19.992	103.943	20.158	3.556	0.344
72.999	124.621	80.005	19.994	103.943	20.153	3.925	0.349
73.499	124.780	80.004	19.992	103.943	20.162	3.267	0.353
74.000	124.973	80.004	19.992	103.944	20.161	3.389	0.352
74.500	125.153	80.004	19.992	103.945	20.156	3.714	0.362
74.999	125.316	80.005	19.992	103.944	20.158	3.596	0.358
75.499	125.486	80.005	19.992	103.943	20.159	3.549	0.338
75.999	125.636	80.005	19.993	103.943	20.162	3.313	0.326
76.499	125.838	80.004	19.994	103.943	20.162	3.291	0.336
76.999	126.018	80.005	19.991	103.943	20.160	3.433	0.367
77.499	126.171	80.005	19.993	103.943	20.157	3.641	0.357
77.999	126.358	80.004	19.992	103.945	20.157	3.685	0.336
78.499	126.544	80.005	19.992	103.945	20.160	3.451	0.357
78.999	126.725	80.003	19.994	103.944	20.163	3.220	0.370
79.499	126.900	80.006	19.994	103.943	20.157	3.655	0.361
79.999	127.049	80.003	19.994	103.945	20.159	3.489	0.340
80.499	127.255	80.004	19.993	103.944	20.159	3.523	0.340
81.000	127.472	80.006	19.993	103.944	20.157	3.656	0.388
81.500	127.636	80.005	19.993	103.945	20.161	3.337	0.402
81.999	127.831	80.006	19.993	103.945	20.159	3.548	0.370
82.499	128.025	80.006	19.993	103.945	20.159	3.504	0.374
82.999	128.178	80.005	19.992	103.944	20.163	3.223	0.368
83.499	128.430	80.006	19.993	103.944	20.162	3.283	0.376
83.999	128.596	80.006	19.993	103.943	20.161	3.385	0.411
84.499	128.826	80.005	19.993	103.944	20.158	3.589	0.407
84.999	128.969	80.007	19.992	103.945	20.162	3.308	0.385
85.499	129.187	80.006	19.993	103.945	20.162	3.260	0.367
85.999	129.371	80.006	19.994	103.946	20.156	3.742	0.381
86.499	129.560	80.006	19.993	103.949	20.156	3.702	0.388
86.999	129.770	80.006	19.992	103.949	20.160	3.439	0.386
87.500	129.993	80.007	19.993	103.951	20.159	3.511	0.416
88.000	130.184	80.006	19.993	103.957	20.155	3.798	0.423
88.499	130.364	80.007	19.993	103.962	20.158	3.594	0.393
88.999	130.578	80.007	19.993	103.964	20.155	3.838	0.383
89.499	130.796	80.006	19.992	103.966	20.155	3.806	0.413
89.999	130.991	80.008	19.992	103.963	20.155	3.812	0.422
90.500	131.208	80.008	19.993	103.958	20.160	3.433	0.412
91.001	131.367	80.008	19.992	103.951	20.159	3.535	0.394
91.500	131.617	80.008	19.992	103.947	20.158	3.625	0.393
91.999	131.819	80.008	19.992	103.943	20.158	3.569	0.431
92.499	132.026	80.007	19.993	103.941	20.157	3.643	0.430
92.999	132.195	80.007	19.994	103.939	20.157	3.635	0.392
93.499	132.440	80.006	19.993	103.940	20.155	3.784	0.395
93.999	132.634	80.007	19.992	103.945	20.159	3.485	0.427
94.499	132.823	80.008	19.992	103.952	20.158	3.593	0.411
94.999	133.035	80.006	19.993	103.954	20.163	3.196	0.391
95.499	133.288	80.006	19.993	103.956	20.160	3.447	0.433
95.999	133.496	80.007	19.991	103.961	20.158	3.591	0.463
96.499	133.707	80.006	19.992	103.956	20.156	3.720	0.440
96.999	133.944	80.006	19.992	103.951	20.165	3.054	0.434
97.499	134.152	80.007	19.993	103.949	20.161	3.373	0.446
97.999	134.310	80.006	19.994	103.949	20.159	3.541	0.406
98.499	134.582	80.006	19.993	103.945	20.161	3.401	0.399
98.999	134.783	80.006	19.994	103.947	20.158	3.613	0.451
99.500	134.988	80.008	19.994	103.947	20.156	3.715	0.439
100.000	135.226	80.007	19.993	103.947	20.156	3.751	0.425
100.499	135.433	80.007	19.993	103.952	20.156	3.703	0.444
100.999	135.647	80.005	19.993	103.957	20.157	3.694	0.433
101.500	135.853	80.007	19.994	103.959	20.153	3.940	0.421
102.000	136.051	80.008	19.991	103.961	20.157	3.632	0.412
102.499	136.312	80.007	19.993	103.966	20.156	3.760	0.432
102.999	136.508	80.007	19.993	103.965	20.154	3.854	0.459
103.499	136.733	80.006	19.994	103.963	20.159	3.507	0.439
103.999	136.958	80.007	19.994	103.960	20.155	3.809	0.436
104.499	137.223	80.007	19.992	103.959	20.153	3.970	0.470
104.999	137.413	80.007	19.994	103.954	20.156	3.759	0.472
105.500	137.645	80.006	19.994	103.952	20.156	3.715	0.438
106.000	137.902	80.006	19.994	103.950	20.157	3.677	0.455
106.499	138.128	80.006	19.993	103.951	20.156	3.726	0.486
106.999	138.354	80.007	19.993	103.953	20.150	4.187	0.467
107.499	138.624	80.007	19.993	103.959	20.162	3.332	0.474
107.999	138.834	80.007	19.993	103.957	20.159	3.551	0.488
108.499	139.055	80.007	19.993	103.955	20.159	3.539	0.455
108.999	139.333	80.007	19.993	103.958	20.162	3.274	0.465
109.500	139.525	80.007	19.993	103.963	20.158	3.583	0.485
110.001	139.793	80.009	19.993	103.964	20.156	3.750	0.465
110.500	140.008	80.007	19.993	103.966	20.157	3.685	0.471
110.999	140.232	80.008	19.994	103.965	20.157	3.633	0.461
111.500	140.459	80.008	19.994	103.960	20.156	3.701	0.445
112.000	140.707	80.008	19.993	103.955	20.154	3.912	0.463
112.499	140.920	80.008	19.994	103.949	20.157	3.639	0.468
112.999	141.206	80.008	19.993	103.950	20.156	3.748	0.481
113.500	141.425	80.008	19.994	103.958	20.153	3.921	0.502
114.000	141.630	80.008	19.992	103.963	20.156	3.718	0.464
114.499	141.858	80.008	19.993	103.963	20.153	3.989	0.428
115.000	142.101	80.009	19.994	103.967	20.153	3.949	0.452
115.500	142.324	80.008	19.993	103.969	20.153	3.981	0.469
115.999	142.588	80.009	19.993	103.966	20.152	4.023	0.477
116.499	142.803	80.007	19.993	103.960	20.159	3.529	0.483
116.999	143.032	80.007	19.993	103.958	20.156	3.714	0.462
117.499	143.297	80.009	19.994	103.960	20.153	3.948	0.469
117.999	143.550	80.009	19.993	103.959	20.153	3.982	0.506
118.500	143.768	80.008	19.993	103.961	20.155	3.790	0.494
119.001	144.029	80.008	19.992	103.963	20.153	3.924	0.475
119.501	144.322	80.006	19.993	103.963	20.153	3.920	0.516
120.000	144.544	80.009	19.994	103.959	20.156	3.718	0.534
120.499	144.763	80.007	19.993	103.959	20.160	3.449	0.478
120.999	145.024	80.007	19.993	103.961	20.155	3.798	0.461
121.499	145.288	80.008	19.993	103.966	20.156	3.722	0.502
122.000	145.538	80.006	19.992	103.971	20.157	3.648	0.519
122.500	145.767	80.007	19.993	103.972	20.151	4.081	0.497
122.999	146.028	80.006	19.994	103.965	20.150	4.180	0.485
123.500	146.302	80.008	19.994	103.956	20.155	3.786	0.512
124.000	146.525	80.006	19.992	103.948	20.157	3.668	0.516
124.499	146.768	80.007	19.993	103.945	20.154	3.898	0.482
124.999	146.994	80.006	19.993	103.943	20.155	3.826	0.468
125.499	147.265	80.006	19.993	103.943	20.157	3.665	0.483
125.999	147.516	80.005	19.994	103.946	20.155	3.790	0.509
126.499	147.729	80.006	19.995	103.950	20.162	3.277	0.493
127.000	147.987	80.007	19.994	103.953	20.158	3.578	0.468
127.500	148.229	80.005	19.994	103.955	20.155	3.820	0.486
127.999	148.514	80.005	19.993	103.955	20.156	3.748	0.513
128.500	148.773	80.006	19.993	103.959	20.156	3.744	0.535
129.000	149.026	80.005	19.994	103.956	20.156	3.734	0.528
129.500	149.249	80.004	19.993	103.951	20.160	3.411	0.494
130.000	149.521	80.004	19.993	103.951	20.157	3.658	0.485
130.500	149.793	80.005	19.994	103.951	20.155	3.826	0.520
131.000	150.022	80.006	19.994	103.947	20.157	3.660	0.523
131.500	150.235	80.007	19.992	103.947	20.153	3.945	0.472
132.000	150.528	80.005	19.993	103.946	20.156	3.762	0.474
132.500	150.789	80.005	19.992	103.944	20.155	3.780	0.530
133.000	151.033	80.005	19.993	103.940	20.156	3.710	0.529
133.500	151.265	80.005	19.993	103.939	20.153	3.923	0.491
134.000	151.540	80.004	19.994	103.938	20.157	3.642	0.492
134.500	151.765	80.006	19.995	103.940	20.157	3.664	0.504
135.000	152.049	80.004	19.994	103.942	20.158	3.582	0.504
135.500	152.320	80.006	19.994	103.952	20.163	3.255	0.532
136.000	152.556	80.004	19.993	103.959	20.158	3.552	0.531
136.500	152.781	80.004	19.993	103.957	20.157	3.660	0.484
137.000	153.049	80.005	19.994	103.955	20.156	3.752	0.477
137.500	153.317	80.004	19.993	103.953	20.154	3.846	0.515
138.000	153.552	80.005	19.993	103.947	20.154	3.871	0.520
138.500	153.828	80.004	19.994	103.940	20.155	3.810	0.507
139.000	154.060	80.004	19.994	103.940	20.156	3.764	0.509
139.500	154.290	80.004	19.994	103.941	20.159	3.496	0.485
140.000	154.555	80.005	19.993	103.941	20.160	3.446	0.479
140.500	154.797	80.005	19.994	103.941	20.158	3.583	0.501
141.000	155.073	80.005	19.994	103.941	20.157	3.660	0.513
141.500	155.309	80.006	19.994	103.942	20.158	3.609	0.514
142.000	155.577	80.004	19.993	103.942	20.161	3.402	0.508
142.500	155.848	80.006	19.994	103.942	20.161	3.336	0.522
143.000	156.094	80.007	19.993	103.942	20.161	3.386	0.528
143.500	156.338	80.005	19.992	103.940	20.158	3.559	0.503
144.000	156.580	80.007	19.994	103.933	20.156	3.740	0.488
144.500	156.864	80.006	19.994	103.931	20.161	3.355	0.506
145.000	157.138	80.005	19.994	103.930	20.159	3.514	0.542
145.500	157.410	80.006	19.991	103.930	20.163	3.255	0.552
146.000	157.616	80.006	19.995	103.931	20.157	3.661	0.512
146.500	157.882	80.007	19.994	103.937	20.163	3.241	0.475
147.000	158.129	80.007	19.993	103.940	20.160	3.466	0.492
147.500	158.414	80.006	19.994	103.940	20.157	3.671	0.523
148.000	158.665	80.007	19.993	103.947	20.156	3.739	0.534
148.500	158.915	80.006	19.993	103.947	20.162	3.331	0.518
149.000	159.155	80.006	19.993	103.922	20.157	3.684	0.496
149.500	159.440	80.007	19.993	103.896	20.160	3.432	0.507
150.000	159.715	80.007	19.992	103.883	20.157	3.674	0.542
150.500	159.937	80.007	19.993	103.871	20.154	3.881	0.529
151.000	160.186	80.006	19.994	103.867	20.155	3.787	0.484
151.500	160.438	80.005	19.992	103.895	20.158	3.590	0.486
152.000	160.668	80.005	19.992	103.956	20.158	3.570	0.491
152.500	160.980	80.006	19.992	103.979	20.160	3.452	0.512
153.000	161.222	80.004	19.992	103.986	20.158	3.551	0.548
153.500	161.502	80.005	19.993	103.989	20.158	3.571	0.538
154.000	161.760	80.006	19.993	103.985	20.159	3.491	0.529
154.500	162.017	80.005	19.992	103.950	20.160	3.404	0.526
155.000	162.276	80.007	19.993	103.939	20.161	3.350	0.516
155.500	162.514	80.006	19.992	103.938	20.159	3.524	0.507
156.000	162.767	80.007	19.994	103.934	20.161	3.380	0.494
156.500	163.054	80.007	19.994	103.932	20.163	3.215	0.515
157.000	163.302	80.006	19.994	103.927	20.158	3.596	0.537
157.500	163.553	80.005	19.991	103.922	20.160	3.412	0.517
158.000	163.805	80.005	19.993	103.922	20.163	3.209	0.501
158.500	164.084	80.006	19.992	103.927	20.165	3.105	0.517
159.000	164.305	80.006	19.993	103.926	20.162	3.296	0.516
159.500	164.614	80.005	19.993	103.931	20.161	3.344	0.515
160.000	164.887	80.007	19.994	103.934	20.162	3.322	0.556
160.500	165.095	80.006	19.994	103.932	20.163	3.255	0.531
161.000	165.394	80.008	19.994	103.930	20.161	3.352	0.494
161.500	165.630	80.008	19.993	103.932	20.163	3.203	0.521
162.000	165.856	80.007	19.993	103.933	20.162	3.294	0.499
162.500	166.129	80.008	19.993	103.934	20.162	3.322	0.480
163.000	166.390	80.008	19.992	103.930	20.162	3.308	0.517
163.500	166.617	80.007	19.992	103.924	20.160	3.448	0.511
164.000	166.905	80.007	19.992	103.917	20.161	3.354	0.501
164.500	167.147	80.006	19.993	103.914	20.162	3.266	0.522
165.000	167.378	80.006	19.994	103.909	20.163	3.186	0.502
165.500	167.632	80.007	19.993	103.910	20.161	3.350	0.479
166.000	167.930	80.009	19.994	103.916	20.161	3.368	0.519
166.500	168.118	80.008	19.993	103.923	20.166	3.011	0.519
167.000	168.379	80.007	19.993	103.926	20.161	3.356	0.467
167.500	168.633	80.007	19.993	103.929	20.165	3.074	0.482
168.000	168.932	80.006	19.993	103.933	20.163	3.246	0.534
168.500	169.203	80.008	19.993	103.926	20.165	3.057	0.561
169.000	169.439	80.007	19.993	103.919	20.165	3.047	0.539
169.500	169.690	80.007	19.992	103.915	20.168	2.821	0.498
170.000	169.958	80.007	19.993	103.914	20.165	3.047	0.503
170.500	170.228	80.007	19.993	103.913	20.164	3.133	0.528
171.000	170.483	80.006	19.992	103.918	20.165	3.045	0.532
171.500	170.742	80.008	19.992	103.925	20.167	2.955	0.520
172.000	171.023	80.009	19.993	103.925	20.162	3.268	0.527
172.500	171.221	80.007	19.993	103.925	20.161	3.388	0.509
173.000	171.498	80.008	19.993	103.923	20.163	3.190	0.477
173.500	171.757	80.009	19.993	103.919	20.161	3.360	0.505
174.000	172.006	80.006	19.993	103.914	20.166	2.981	0.522
174.500	172.279	80.007	19.992	103.914	20.165	3.041	0.514
175.000	172.518	80.008	19.992	103.911	20.164	3.162	0.517
175.500	172.771	80.008	19.994	103.912	20.164	3.174	0.503
176.000	173.034	80.010	19.994	103.914	20.164	3.178	0.504
176.500	173.283	80.008	19.993	103.915	20.163	3.208	0.514
177.000	173.514	80.007	19.993	103.912	20.164	3.140	0.496
177.500	173.813	80.007	19.993	103.911	20.163	3.194	0.505
178.000	174.040	80.009	19.992	103.908	20.164	3.130	0.528
178.500	174.288	80.007	19.993	103.904	20.165	3.071	0.501
179.000	174.567	80.006	19.993	103.901	20.165	3.049	0.501
179.500	174.821	80.007	19.994	103.904	20.163	3.222	0.529
180.000	175.081	80.007	19.992	103.906	20.164	3.116	0.523
180.500	175.365	80.007	19.993	103.907	20.163	3.218	0.530
181.000	175.576	80.008	19.991	103.909	20.164	3.168	0.520
181.500	175.820	80.009	19.993	103.913	20.164	3.180	0.475
182.000	176.098	80.007	19.992	103.915	20.163	3.186	0.488
182.500	176.356	80.007	19.994	103.915	20.163	3.236	0.529
183.000	176.611	80.008	19.992	103.915	20.165	3.041	0.524
183.500	176.866	80.007	19.992	103.914	20.167	2.929	0.511
184.000	177.096	80.008	19.992	103.910	20.163	3.244	0.498
184.500	177.364	80.008	19.992	103.908	20.165	3.076	0.491
185.000	177.594	80.006	19.993	103.905	20.170	2.724	0.498
185.500	177.843	80.007	19.992	103.904	20.162	3.310	0.489
186.000	178.105	80.007	19.993	103.904	20.166	2.965	0.495
186.500	178.344	80.006	19.992	103.904	20.164	3.112	0.505
187.000	178.592	80.007	19.994	103.902	20.162	3.270	0.494
187.500	178.856	80.007	19.993	103.904	20.163	3.204	0.500
188.000	179.108	80.008	19.993	103.905	20.166	3.005	0.514
188.500	179.369	80.008	19.992	103.907	20.166	2.973	0.514
189.000	179.589	80.006	19.991	103.907	20.166	2.979	0.497
189.500	179.867	80.007	19.993	103.906	20.167	2.941	0.490
190.000	180.097	80.007	19.993	103.905	20.164	3.138	0.503
190.500	180.363	80.007	19.992	103.905	20.166	2.987	0.502
191.000	180.554	80.008	19.993	103.904	20.168	2.845	0.477
191.500	180.851	80.008	19.993	103.903	20.164	3.170	0.472
192.000	181.097	80.009	19.994	103.904	20.163	3.210	0.515
192.500	181.377	80.008	19.994	103.903	20.168	2.881	0.534
193.000	181.612	80.009	19.992	103.902	20.165	3.047	0.521
193.500	181.833	80.007	19.992	103.902	20.164	3.136	0.486
194.000	182.110	80.008	19.993	103.902	20.168	2.873	0.477
194.500	182.353	80.008	19.992	103.902	20.167	2.895	0.509
195.000	182.596	80.008	19.993	103.902	20.166	2.985	0.503
195.500	182.869	80.010	19.992	103.902	20.165	3.038	0.501
196.000	183.109	80.009	19.992	103.902	20.169	2.761	0.515
196.500	183.341	80.008	19.991	103.903	20.166	2.973	0.492
197.000	183.623	80.008	19.993	103.904	20.168	2.839	0.493
197.500	183.862	80.008	19.993	103.904	20.166	3.002	0.518
198.000	184.117	80.009	19.992	103.904	20.170	2.671	0.508
198.500	184.344	80.008	19.992	103.903	20.165	3.088	0.488
199.000	184.619	80.009	19.993	103.902	20.168	2.881	0.492
199.500	184.852	80.007	19.992	103.901	20.169	2.757	0.505
200.000	185.096	80.007	19.993	103.901	20.165	3.108	0.492
200.500	185.329	80.006	19.992	103.901	20.167	2.920	0.477
201.000	185.613	80.007	19.992	103.902	20.167	2.936	0.497
201.500	185.872	80.006	19.992	103.902	20.168	2.840	0.530
202.000	186.078	80.008	19.993	103.902	20.165	3.058	0.504
202.500	186.370	80.007	19.994	103.903	20.164	3.134	0.482
203.000	186.665	80.006	19.993	103.903	20.164	3.166	0.542
203.500	186.857	80.006	19.993	103.903	20.162	3.311	0.537
204.000	187.153	80.007	19.992	103.903	20.164	3.116	0.487
204.500	187.360	80.005	19.993	103.902	20.163	3.190	0.496
205.000	187.619	80.006	19.993	103.900	20.165	3.072	0.485
205.500	187.851	80.005	19.994	103.899	20.168	2.889	0.479
206.000	188.127	80.004	19.992	103.898	20.164	3.176	0.500
206.500	188.360	80.005	19.993	103.894	20.164	3.174	0.509
207.000	188.610	80.006	19.993	103.893	20.166	2.975	0.496
207.500	188.835	80.007	19.993	103.894	20.166	3.017	0.479
208.000	189.099	80.006	19.993	103.892	20.168	2.871	0.482
208.500	189.355	80.006	19.993	103.890	20.165	3.036	0.504
209.000	189.595	80.004	19.993	103.893	20.164	3.182	0.508
209.500	189.860	80.005	19.993	103.895	20.163	3.246	0.500
210.000	190.092	80.006	19.995	103.894	20.167	2.924	0.501
210.500	190.343	80.005	19.992	103.897	20.169	2.773	0.490
211.000	190.614	80.006	19.992	103.892	20.166	2.976	0.503
211.500	190.847	80.005	19.992	103.884	20.165	3.084	0.513
212.000	191.042	80.006	19.993	103.880	20.167	2.938	0.466
212.500	191.321	80.006	19.994	103.876	20.165	3.072	0.451
213.000	191.558	80.007	19.994	103.877	20.165	3.098	0.495
213.500	191.781	80.007	19.993	103.882	20.163	3.196	0.489
214.000	192.040	80.006	19.992	103.890	20.166	3.030	0.471
214.500	192.273	80.006	19.993	103.894	20.167	2.919	0.487
215.000	192.536	80.007	19.993	103.894	20.162	3.279	0.493
215.500	192.779	80.005	19.993	103.893	20.169	2.785	0.501
216.000	193.037	80.006	19.993	103.893	20.162	3.273	0.504
216.500	193.236	80.006	19.993	103.894	20.166	3.034	0.479
217.000	193.502	80.006	19.993	103.895	20.166	2.978	0.461
217.500	193.730	80.006	19.992	103.901	20.166	2.967	0.479
218.000	194.017	80.005	19.993	103.903	20.168	2.831	0.504
218.500	194.252	80.006	19.994	103.903	20.165	3.060	0.518
219.000	194.505	80.006	19.993	103.901	20.164	3.176	0.505
219.500	194.743	80.006	19.993	103.898	20.161	3.339	0.490
220.000	194.980	80.005	19.993	103.895	20.163	3.224	0.483
220.500	195.261	80.007	19.994	103.891	20.167	2.921	0.497
221.000	195.446	80.006	19.992	103.888	20.167	2.961	0.492
221.500	195.725	80.006	19.994	103.884	20.168	2.887	0.465
222.000	195.984	80.005	19.994	103.883	20.169	2.811	0.501
222.500	196.226	80.007	19.994	103.883	20.165	3.086	0.519
223.000	196.459	80.005	19.993	103.886	20.165	3.082	0.487
223.500	196.702	80.005	19.994	103.889	20.163	3.255	0.475
224.000	196.960	80.006	19.994	103.892	20.163	3.206	0.488
224.500	197.182	80.006	19.993	103.897	20.169	2.809	0.490
225.000	197.452	80.006	19.994	103.897	20.165	3.104	0.486
225.500	197.726	80.006	19.993	103.895	20.164	3.154	0.519
226.000	197.948	80.006	19.993	103.893	20.168	2.876	0.520
226.500	198.175	80.006	19.994	103.893	20.168	2.865	0.472
227.000	198.411	80.005	19.993	103.892	20.166	2.976	0.456
227.500	198.690	80.005	19.993	103.892	20.168	2.829	0.489
228.000	198.930	80.006	19.994	103.893	20.168	2.829	0.517
228.500	199.170	80.004	19.994	103.894	20.167	2.958	0.499
229.000	199.403	80.004	19.994	103.896	20.168	2.851	0.477
229.500	199.626	80.006	19.995	103.896	20.168	2.851	0.465
230.000	199.910	80.006	19.994	103.896	20.169	2.761	0.482
230.500	200.119	80.005	19.994	103.897	20.164	3.118	0.500
231.000	200.407	80.006	19.994	103.899	20.171	2.655	0.495
231.500	200.619	80.005	19.994	103.899	20.171	2.597	0.499
232.000	200.866	80.005	19.994	103.899	20.168	2.827	0.479
232.500	201.126	80.006	19.994	103.899	20.165	3.040	0.482
233.000	201.362	80.006	19.995	103.895	20.164	3.154	0.501
233.500	201.606	80.006	19.994	103.892	20.169	2.767	0.488
234.000	201.847	80.004	19.993	103.891	20.165	3.060	0.483
234.500	202.134	80.003	19.994	103.891	20.168	2.869	0.506
235.000	202.316	80.004	19.995	103.889	20.166	2.998	0.498
235.500	202.557	80.006	19.996	103.888	20.168	2.881	0.446
236.000	202.774	80.005	19.995	103.886	20.163	3.248	0.441
236.500	203.093	80.005	19.994	103.885	20.162	3.280	0.497
237.000	203.339	80.004	19.994	103.882	20.164	3.156	0.550
237.500	203.560	80.005	19.994	103.882	20.170	2.741	0.516
238.000	203.782	80.006	19.993	103.882	20.166	2.995	0.455
238.500	204.015	80.006	19.995	103.886	20.170	2.698	0.449
239.000	204.289	80.006	19.995	103.888	20.169	2.801	0.481
239.500	204.516	80.005	19.994	103.890	20.169	2.775	0.504
240.000	204.749	80.005	19.994	103.890	20.165	3.058	0.481
240.500	205.029	80.005	19.993	103.889	20.168	2.857	0.486
241.000	205.288	80.006	19.993	103.886	20.161	3.345	0.526
241.500	205.512	80.006	19.994	103.880	20.163	3.230	0.511
242.000	205.766	80.004	19.993	103.880	20.161	3.331	0.481
242.500	206.015	80.006	19.994	103.881	20.163	3.224	0.491
243.000	206.235	80.004	19.992	103.882	20.166	3.032	0.485
243.500	206.507	80.006	19.994	103.882	20.163	3.256	0.480
244.000	206.751	80.006	19.993	103.883	20.166	2.998	0.504
244.500	206.989	80.006	19.992	103.884	20.169	2.805	0.499
245.000	207.263	80.006	19.994	103.884	20.167	2.904	0.497
245.500	207.511	80.005	19.991	103.887	20.166	3.012	0.517
246.000	207.772	80.006	19.994	103.891	20.164	3.145	0.515
246.500	207.969	80.014	19.994	103.896	20.167	2.956	0.483
247.000	208.278	80.008	19.996	103.894	20.163	3.195	0.482
247.500	208.490	80.006	19.995	103.896	20.167	2.920	0.513
248.000	208.708	80.007	19.993	103.897	20.165	3.056	0.475
248.500	208.972	80.006	19.993	103.897	20.163	3.189	0.456
249.000	209.209	80.007	19.993	103.899	20.165	3.073	0.492
249.500	209.428	80.007	19.993	103.902	20.165	3.097	0.479
250.000	209.711	80.006	19.993	103.900	20.166	3.030	0.479
250.500	209.951	80.007	19.993	103.901	20.170	2.737	0.512
251.000	210.209	80.007	19.993	103.902	20.166	2.978	0.510
251.500	210.453	80.006	19.992	103.901	20.165	3.084	0.500
252.000	210.703	80.006	19.993	103.899	20.167	2.942	0.499
252.500	210.973	80.008	19.993	103.896	20.163	3.201	0.507
253.000	211.184	80.007	19.994	103.892	20.164	3.141	0.500
253.500	211.477	80.007	19.994	103.892	20.163	3.239	0.492
254.000	211.716	80.008	19.993	103.893	20.167	2.906	0.518
254.500	211.937	80.007	19.992	103.893	20.164	3.113	0.496
255.000	212.169	80.008	19.992	103.894	20.167	2.956	0.457
255.500	212.415	80.007	19.993	103.890	20.166	3.010	0.465
256.000	212.627	80.008	19.992	103.883	20.163	3.235	0.468
256.500	212.911	80.008	19.993	103.879	20.164	3.153	0.477
257.000	213.186	80.008	19.993	103.877	20.164	3.177	0.528
257.500	213.427	80.007	19.992	103.880	20.165	3.072	0.537
258.000	213.687	80.006	19.993	103.882	20.162	3.259	0.509
258.500	213.927	80.008	19.992	103.882	20.167	2.962	0.501
259.000	214.175	80.006	19.993	103.879	20.163	3.229	0.494
259.500	214.406	80.007	19.992	103.876	20.161	3.347	0.483
260.000	214.635	80.007	19.993	103.868	20.165	3.088	0.469
260.500	214.871	80.006	19.993	103.866	20.162	3.279	0.462
261.000	215.139	80.006	19.991	103.867	20.166	2.988	0.484
261.500	215.395	80.007	19.993	103.869	20.165	3.070	0.514
262.000	215.588	80.006	19.992	103.871	20.160	3.446	0.487
262.500	215.858	80.005	19.993	103.873	20.163	3.233	0.456
263.000	216.119	80.006	19.992	103.874	20.165	3.064	0.497
263.500	216.341	80.007	19.993	103.873	20.165	3.052	0.506
264.000	216.575	80.006	19.993	103.872	20.167	2.954	0.470
264.500	216.845	80.007	19.992	103.870	20.167	2.954	0.480
265.000	217.107	80.007	19.993	103.871	20.162	3.265	0.518
265.500	217.358	80.006	19.992	103.869	20.164	3.125	0.522
266.000	217.624	80.005	19.993	103.871	20.162	3.281	0.515
266.500	217.843	80.006	19.992	103.875	20.164	3.167	0.501
267.000	218.045	80.005	19.992	103.878	20.163	3.207	0.453
267.500	218.336	80.007	19.993	103.877	20.164	3.123	0.457
268.000	218.585	80.006	19.993	103.877	20.161	3.352	0.516
268.500	218.829	80.007	19.993	103.875	20.163	3.203	0.516
269.000	219.049	80.007	19.994	103.872	20.165	3.101	0.479
269.500	219.312	80.007	19.992	103.871	20.160	3.444	0.473
270.000	219.577	80.006	19.992	103.878	20.163	3.233	0.505
270.500	219.809	80.006	19.992	103.883	20.164	3.135	0.512
271.000	220.035	80.007	19.992	103.882	20.162	3.291	0.477
271.500	220.289	80.008	19.992	103.881	20.164	3.171	0.469
272.000	220.548	80.007	19.992	103.878	20.161	3.358	0.497
272.500	220.818	80.008	19.993	103.874	20.165	3.097	0.521
273.000	221.034	80.009	19.991	103.871	20.160	3.446	0.507
273.500	221.296	80.008	19.992	103.873	20.158	3.568	0.482
274.000	221.573	80.009	19.991	103.873	20.160	3.454	0.509
274.500	221.800	80.008	19.992	103.873	20.162	3.285	0.522
275.000	222.014	80.009	19.993	103.871	20.161	3.335	0.472
275.500	222.290	80.009	19.993	103.872	20.162	3.321	0.465
276.000	222.560	80.009	19.992	103.875	20.162	3.287	0.518
276.500	222.793	80.009	19.992	103.875	20.164	3.117	0.525
277.000	223.064	80.009	19.992	103.875	20.159	3.494	0.504
277.500	223.348	80.010	19.992	103.876	20.161	3.398	0.530
278.000	223.542	80.010	19.993	103.872	20.159	3.518	0.516
278.500	223.803	80.010	19.993	103.866	20.162	3.291	0.466
279.000	224.024	80.010	19.992	103.865	20.161	3.358	0.469
279.500	224.277	80.010	19.993	103.865	20.160	3.404	0.478
280.000	224.543	80.009	19.992	103.864	20.158	3.554	0.496
280.500	224.795	80.009	19.991	103.864	20.159	3.508	0.519
281.000	225.060	80.009	19.992	103.865	20.154	3.853	0.518
281.500	225.279	80.009	19.992	103.865	20.156	3.719	0.501
282.000	225.544	80.008	19.992	103.864	20.159	3.516	0.484
282.500	225.797	80.009	19.992	103.863	20.156	3.757	0.500
283.000	226.046	80.009	19.992	103.864	20.161	3.366	0.510
283.500	226.315	80.008	19.992	103.865	20.162	3.275	0.511
284.000	226.536	80.009	19.993	103.866	20.159	3.540	0.504
284.500	226.805	80.008	19.992	103.867	20.159	3.546	0.490
285.000	227.075	80.008	19.993	103.869	20.158	3.558	0.514
285.500	227.306	80.007	19.993	103.870	20.158	3.564	0.520
286.000	227.559	80.006	19.993	103.869	20.160	3.468	0.492
286.500	227.790	80.007	19.992	103.870	20.159	3.478	0.484
287.000	228.058	80.008	19.992	103.872	20.158	3.552	0.492
287.500	228.294	80.005	19.992	103.872	20.158	3.592	0.501
288.000	228.560	80.006	19.992	103.869	20.156	3.747	0.503
288.500	228.824	80.007	19.992	103.868	20.161	3.352	0.516
289.000	229.061	80.007	19.994	103.867	20.160	3.424	0.516
289.500	229.343	80.007	19.994	103.864	20.157	3.641	0.510
290.000	229.598	80.007	19.993	103.867	20.158	3.607	0.528
290.500	229.835	80.007	19.993	103.867	20.154	3.904	0.515
291.000	230.083	80.007	19.994	103.867	20.156	3.727	0.489
291.500	230.365	80.007	19.993	103.869	20.155	3.815	0.508
292.000	230.579	80.006	19.994	103.870	20.157	3.655	0.513
292.500	230.833	80.005	19.994	103.869	20.157	3.661	0.482
293.000	231.125	80.007	19.994	103.869	20.157	3.689	0.507
293.500	231.321	80.006	19.993	103.869	20.156	3.755	0.517
294.000	231.557	80.006	19.994	103.867	20.157	3.685	0.460
294.500	231.811	80.006	19.993	103.866	20.157	3.683	0.461
295.000	232.072	80.006	19.993	103.864	20.156	3.725	0.502
295.500	232.337	80.006	19.994	103.864	20.155	3.781	0.521
296.000	232.555	80.006	19.994	103.864	20.158	3.566	0.505
296.500	232.807	80.005	19.995	103.866	20.155	3.777	0.476
297.000	233.082	80.007	19.994	103.865	20.155	3.775	0.498
297.500	233.361	80.007	19.994	103.865	20.155	3.805	0.541
298.000	233.563	80.006	19.994	103.865	20.153	3.927	0.518
298.500	233.851	80.006	19.994	103.868	20.157	3.645	0.486
299.000	234.110	80.007	19.994	103.867	20.155	3.783	0.518
299.500	234.363	80.007	19.994	103.866	20.156	3.723	0.529
300.000	234.568	80.007	19.994	103.866	20.154	3.879	0.485
300.500	234.866	80.007	19.993	103.866	20.157	3.643	0.480
301.000	235.093	80.006	19.995	103.862	20.154	3.907	0.514
301.500	235.377	80.007	19.993	103.862	20.153	3.976	0.518
302.000	235.592	80.006	19.993	103.862	20.149	4.211	0.505
302.500	235.817	80.007	19.994	103.862	20.150	4.172	0.469
303.000	236.087	80.006	19.994	103.863	20.154	3.875	0.468
303.500	236.340	80.006	19.994	103.864	20.151	4.084	0.509
304.000	236.599	80.008	19.993	103.866	20.153	3.972	0.518
304.500	236.855	80.007	19.993	103.867	20.154	3.851	0.513
305.000	237.088	80.008	19.993	103.870	20.154	3.907	0.502
305.500	237.319	80.008	19.992	103.869	20.156	3.751	0.476
306.000	237.580	80.005	19.993	103.869	20.153	3.925	0.477
306.500	237.835	80.006	19.993	103.873	20.152	3.999	0.504
307.000	238.097	80.006	19.994	103.873	20.153	3.927	0.517
307.500	238.358	80.007	19.994	103.872	20.151	4.096	0.520
308.000	238.580	80.006	19.993	103.873	20.153	3.943	0.503
308.500	238.811	80.006	19.993	103.875	20.154	3.889	0.468
309.000	239.101	80.006	19.994	103.871	20.146	4.447	0.487
309.500	239.333	80.006	19.993	103.869	20.147	4.369	0.522
310.000	239.571	80.006	19.993	103.868	20.147	4.423	0.496
310.500	239.870	80.005	19.992	103.868	20.149	4.271	0.503
311.000	240.129	80.006	19.993	103.865	20.149	4.251	0.547
311.500	240.344	80.005	19.994	103.866	20.151	4.122	0.516
312.000	240.602	80.006	19.993	103.867	20.149	4.275	0.473
312.500	240.850	80.007	19.993	103.867	20.147	4.427	0.489
313.000	241.108	80.005	19.993	103.867	20.145	4.513	0.506
313.500	241.329	80.007	19.994	103.869	20.146	4.431	0.493
314.000	241.625	80.006	19.994	103.871	20.145	4.535	0.498
314.500	241.852	80.005	19.994	103.872	20.144	4.643	0.520
315.000	242.094	80.005	19.994	103.872	20.147	4.409	0.496
315.500	242.341	80.005	19.993	103.873	20.145	4.541	0.478
316.000	242.618	80.004	19.994	103.873	20.144	4.599	0.507
316.500	242.844	80.004	19.994	103.875	20.146	4.479	0.514
317.000	243.098	80.004	19.993	103.878	20.143	4.712	0.492
317.500	243.362	80.005	19.993	103.880	20.143	4.654	0.499
318.000	243.592	80.004	19.993	103.880	20.143	4.692	0.505
318.500	243.864	80.005	19.995	103.879	20.146	4.445	0.498
319.000	244.109	80.005	19.994	103.875	20.144	4.584	0.510
319.500	244.392	80.006	19.994	103.870	20.145	4.529	0.522
320.000	244.622	80.005	19.994	103.868	20.140	4.875	0.521
320.500	244.910	80.005	19.994	103.868	20.143	4.662	0.516
321.000	245.117	80.005	19.995	103.869	20.142	4.740	0.506
321.500	245.385	80.004	19.994	103.868	20.145	4.510	0.485
322.000	245.626	80.004	19.994	103.868	20.144	4.616	0.492
322.500	245.904	80.005	19.994	103.869	20.141	4.835	0.514
323.000	246.176	80.005	19.994	103.870	20.140	4.879	0.535
323.500	246.396	80.005	19.995	103.872	20.140	4.895	0.521
324.000	246.634	80.005	19.994	103.874	20.140	4.887	0.475
324.500	246.886	80.004	19.994	103.877	20.139	4.995	0.474
325.000	247.159	80.005	19.994	103.881	20.142	4.788	0.508
325.500	247.399	80.006	19.994	103.884	20.142	4.758	0.519
326.000	247.666	80.006	19.996	103.883	20.138	5.053	0.510
326.500	247.900	80.006	19.995	103.880	20.140	4.909	0.503
327.000	248.143	80.005	19.994	103.876	20.140	4.873	0.489
327.500	248.438	80.007	19.993	103.871	20.138	5.055	0.508
328.000	248.644	80.007	19.994	103.866	20.138	5.071	0.520
328.500	248.921	80.006	19.993	103.866	20.134	5.352	0.492
329.000	249.183	80.006	19.994	103.869	20.134	5.374	0.511
329.500	249.441	80.006	19.994	103.871	20.133	5.398	0.530
330.000	249.721	80.006	19.993	103.872	20.134	5.377	0.529
330.500	249.955	80.007	19.994	103.873	20.133	5.403	0.526
331.000	250.204	80.006	19.994	103.871	20.130	5.635	0.498
331.500	250.454	80.005	19.993	103.868	20.131	5.539	0.491
332.000	250.702	80.007	19.993	103.867	20.132	5.519	0.498
332.500	250.964	80.006	19.994	103.866	20.134	5.340	0.504
333.000	251.247	80.007	19.994	103.866	20.129	5.729	0.527
333.500	251.491	80.008	19.993	103.867	20.128	5.775	0.536
334.000	251.731	80.007	19.992	103.867	20.130	5.611	0.506
334.500	252.010	80.008	19.993	103.869	20.127	5.826	0.502
335.000	252.232	80.007	19.993	103.873	20.129	5.685	0.510
335.500	252.507	80.008	19.993	103.873	20.129	5.696	0.499
336.000	252.745	80.007	19.992	103.871	20.129	5.684	0.505
336.500	253.004	80.007	19.992	103.871	20.126	5.961	0.505
337.000	253.235	80.009	19.992	103.869	20.125	5.971	0.493
337.500	253.472	80.006	19.992	103.865	20.131	5.600	0.479
338.000	253.739	80.008	19.992	103.864	20.123	6.163	0.486
338.500	254.009	80.008	19.993	103.868	20.129	5.715	0.521
339.000	254.258	80.008	19.994	103.872	20.124	6.086	0.528
339.500	254.505	80.008	19.993	103.872	20.124	6.096	0.507
340.000	254.811	80.007	19.993	103.873	20.126	5.946	0.525
340.500	255.007	80.007	19.993	103.872	20.121	6.301	0.527
341.000	255.275	80.007	19.993	103.868	20.124	6.113	0.483
341.500	255.490	80.008	19.992	103.866	20.123	6.149	0.474
342.000	255.746	80.008	19.993	103.867	20.121	6.283	0.477
342.500	256.034	80.007	19.992	103.869	20.125	6.037	0.507
343.000	256.283	80.007	19.994	103.873	20.121	6.301	0.540
343.500	256.490	80.007	19.993	103.876	20.120	6.379	0.497
344.000	256.796	80.007	19.993	103.879	20.121	6.281	0.484
344.500	256.994	80.007	19.994	103.880	20.121	6.263	0.508
345.000	257.258	80.008	19.994	103.878	20.119	6.421	0.483
345.500	257.503	80.007	19.993	103.877	20.118	6.514	0.486
346.000	257.781	80.006	19.993	103.874	20.118	6.488	0.516
346.500	258.015	80.007	19.992	103.869	20.113	6.883	0.518
347.000	258.281	80.006	19.993	103.866	20.115	6.727	0.506
347.500	258.509	80.007	19.993	103.866	20.116	6.638	0.497
348.000	258.770	80.008	19.992	103.863	20.109	7.162	0.492
348.500	259.017	80.007	19.993	103.864	20.111	6.996	0.498
349.000	259.271	80.008	19.993	103.868	20.113	6.887	0.504
349.500	259.549	80.007	19.994	103.874	20.113	6.915	0.517
350.000	259.772	80.008	19.994	103.877	20.112	6.947	0.517
350.500	260.033	80.008	19.994	103.877	20.112	6.990	0.492
351.000	260.295	80.006	19.992	103.881	20.113	6.897	0.503
351.500	260.548	80.008	19.994	103.877	20.111	7.064	0.519
352.000	260.785	80.007	19.993	103.870	20.109	7.150	0.503
352.500	261.086	80.009	19.992	103.868	20.109	7.191	0.514
353.000	261.327	80.008	19.992	103.871	20.108	7.260	0.540
353.500	261.538	80.008	19.994	103.870	20.110	7.106	0.497
354.000	261.815	80.007	19.993	103.875	20.109	7.144	0.470
354.500	262.054	80.007	19.993	103.881	20.106	7.366	0.502
355.000	262.280	80.009	19.994	103.882	20.108	7.272	0.490
355.500	262.567	80.009	19.992	103.882	20.105	7.473	0.489
356.000	262.782	80.009	19.993	103.882	20.102	7.703	0.508
356.500	263.079	80.010	19.993	103.882	20.101	7.765	0.507
357.000	263.318	80.009	19.993	103.881	20.107	7.350	0.524
357.500	263.590	80.010	19.992	103.878	20.102	7.666	0.524
358.000	263.839	80.008	19.991	103.875	20.097	8.047	0.516
358.500	264.086	80.009	19.993	103.876	20.099	7.911	0.508
359.000	264.334	80.008	19.993	103.875	20.095	8.180	0.495
359.500	264.587	80.009	19.993	103.873	20.097	8.044	0.498
360.000	264.821	80.008	19.993	103.874	20.098	7.973	0.494
360.500	265.055	80.009	19.992	103.878	20.095	8.222	0.477
361.000	265.358	80.008	19.992	103.879	20.094	8.264	0.502
361.500	265.559	80.008	19.993	103.874	20.092	8.436	0.521
362.000	265.803	80.009	19.992	103.873	20.096	8.126	0.475
362.500	266.051	80.008	19.993	103.872	20.094	8.314	0.469
363.000	266.341	80.008	19.994	103.872	20.091	8.533	0.515
363.500	266.601	80.009	19.995	103.871	20.093	8.342	0.544
364.000	266.847	80.008	19.993	103.877	20.091	8.517	0.528
364.500	267.097	80.008	19.994	103.877	20.092	8.440	0.501
365.000	267.332	80.007	19.994	103.881	20.089	8.649	0.490
365.500	267.581	80.007	19.993	103.882	20.087	8.810	0.485
366.000	267.823	80.007	19.993	103.881	20.088	8.756	0.488
366.500	268.098	80.007	19.995	103.881	20.088	8.704	0.504
367.000	268.364	80.007	19.996	103.889	20.081	9.203	0.529
367.500	268.611	80.008	19.995	103.890	20.084	9.004	0.527
368.000	268.853	80.007	19.994	103.893	20.085	8.934	0.501
368.500	269.115	80.006	19.993	103.897	20.082	9.179	0.497
369.000	269.363	80.005	19.993	103.898	20.080	9.327	0.507
369.500	269.630	80.006	19.994	103.898	20.082	9.189	0.512
370.000	269.834	80.006	19.994	103.896	20.081	9.203	0.493
370.500	270.094	80.006	19.993	103.895	20.078	9.472	0.468
371.000	270.405	80.006	19.992	103.897	20.074	9.751	0.518
371.500	270.618	80.006	19.993	103.898	20.073	9.817	0.547
372.000	270.866	80.006	19.994	103.898	20.073	9.797	0.492
372.500	271.132	80.006	19.992	103.900	20.073	9.789	0.487
373.000	271.367	80.005	19.993	103.899	20.070	10.005	0.508
373.500	271.661	80.006	19.993	103.899	20.068	10.162	0.515
374.000	271.887	80.006	19.992	103.900	20.068	10.210	0.525
374.500	272.168	80.006	19.992	103.900	20.071	9.977	0.514
375.000	272.375	80.007	19.993	103.900	20.069	10.095	0.497
375.500	272.647	80.006	19.994	103.900	20.066	10.366	0.483
376.000	272.926	80.006	19.992	103.899	20.062	10.649	0.515
376.500	273.136	80.007	19.993	103.897	20.068	10.170	0.520
377.000	273.404	80.007	19.992	103.897	20.062	10.625	0.484
377.500	273.668	80.006	19.992	103.897	20.061	10.673	0.505
378.000	273.913	80.007	19.992	103.900	20.060	10.768	0.521
378.500	274.164	80.007	19.994	103.902	20.059	10.830	0.503
379.000	274.420	80.006	19.993	103.904	20.061	10.701	0.501
379.500	274.663	80.006	19.993	103.902	20.059	10.880	0.503
380.000	274.926	80.006	19.993	103.902	20.059	10.854	0.502
380.500	275.174	80.007	19.993	103.902	20.054	11.197	0.508
381.000	275.418	80.005	19.993	103.901	20.052	11.378	0.502
381.500	275.691	80.006	19.994	103.901	20.052	11.331	0.504
382.000	275.939	80.006	19.993	103.901	20.052	11.345	0.519
382.500	276.179	80.007	19.994	103.901	20.050	11.508	0.504
383.000	276.405	80.006	19.993	103.901	20.052	11.327	0.477
383.500	276.660	80.007	19.993	103.901	20.046	11.776	0.474
384.000	276.929	80.008	19.994	103.901	20.044	11.920	0.503
384.500	277.161	80.006	19.992	103.903	20.045	11.901	0.513
385.000	277.415	80.006	19.993	103.903	20.044	11.970	0.494
385.500	277.675	80.007	19.993	103.902	20.039	12.325	0.500
386.000	277.903	80.006	19.992	103.903	20.040	12.247	0.500
386.500	278.147	80.007	19.992	103.903	20.042	12.071	0.480
387.000	278.396	80.007	19.994	103.903	20.041	12.193	0.483
387.500	278.683	80.006	19.993	103.901	20.037	12.431	0.515
388.000	278.934	80.006	19.993	103.901	20.035	12.589	0.537
388.500	279.200	80.007	19.994	103.901	20.032	12.822	0.528
389.000	279.450	80.006	19.994	103.902	20.033	12.782	0.516
389.500	279.665	80.005	19.993	103.902	20.031	12.917	0.491
390.000	279.921	80.006	19.994	103.904	20.027	13.161	0.468
390.500	280.191	80.006	19.993	103.905	20.027	13.165	0.498
391.000	280.429	80.005	19.993	103.904	20.026	13.293	0.517
391.500	280.699	80.006	19.993	103.902	20.022	13.550	0.508
392.000	280.932	80.005	19.992	103.901	20.025	13.339	0.506
392.500	281.183	80.006	19.993	103.902	20.021	13.627	0.493
393.000	281.426	80.005	19.993	103.902	20.020	13.716	0.488
393.500	281.658	80.006	19.993	103.904	20.020	13.722	0.484
394.000	281.942	80.005	19.992	103.908	20.019	13.748	0.496
394.500	282.204	80.006	19.993	103.910	20.016	13.980	0.531
395.000	282.423	80.006	19.993	103.916	20.016	14.028	0.514
395.500	282.670	80.005	19.993	103.916	20.014	14.164	0.474
396.000	282.901	80.005	19.993	103.914	20.013	14.238	0.472
396.500	283.188	80.003	19.993	103.913	20.012	14.271	0.498
397.000	283.435	80.006	19.994	103.912	20.011	14.386	0.526
397.500	283.702	80.005	19.994	103.909	20.007	14.641	0.524
398.000	283.902	80.005	19.993	103.914	20.005	14.786	0.490
398.500	284.134	80.005	19.992	103.919	20.004	14.862	0.449
399.000	284.405	80.005	19.993	103.920	19.999	15.266	0.467
399.500	284.642	80.005	19.994	103.918	20.004	14.885	0.506
400.000	284.927	80.004	19.993	103.917	19.999	15.284	0.515
400.500	285.160	80.005	19.993	103.916	19.998	15.293	0.520
401.000	285.426	80.005	19.993	103.915	19.996	15.471	0.508
401.500	285.633	80.006	19.994	103.921	19.997	15.430	0.486
402.000	285.915	80.006	19.993	103.922	19.992	15.761	0.481
402.500	286.173	80.005	19.994	103.922	19.993	15.683	0.515
403.000	286.422	80.005	19.994	103.919	19.991	15.810	0.523
403.500	286.637	80.006	19.993	103.915	19.988	16.023	0.485
404.000	286.942	80.005	19.993	103.908	19.987	16.153	0.492
404.500	287.151	80.005	19.993	103.910	19.985	16.305	0.517
405.000	287.432	80.007	19.994	103.909	19.985	16.266	0.502
405.500	287.702	80.006	19.993	103.911	19.981	16.547	0.521
406.000	287.911	80.006	19.994	103.914	19.980	16.652	0.515
406.500	288.152	80.006	19.994	103.918	19.979	16.737	0.464
407.000	288.368	80.008	19.994	103.920	19.974	17.108	0.453
407.500	288.630	80.005	19.994	103.925	19.973	17.188	0.467
408.000	288.918	80.006	19.994	103.925	19.977	16.832	0.514
408.500	289.153	80.005	19.993	103.923	19.970	17.409	0.537
409.000	289.409	80.007	19.993	103.919	19.971	17.337	0.507
409.500	289.688	80.006	19.993	103.915	19.966	17.648	0.513
410.000	289.920	80.007	19.992	103.913	19.961	18.013	0.523
410.500	290.173	80.006	19.992	103.911	19.961	18.017	0.498
411.000	290.401	80.006	19.994	103.912	19.961	18.020	0.483
411.500	290.660	80.007	19.994	103.918	19.959	18.189	0.484
412.000	290.969	80.006	19.994	103.924	19.956	18.436	0.527
412.500	291.203	80.007	19.993	103.926	19.954	18.558	0.556
413.000	291.450	80.006	19.993	103.929	19.958	18.233	0.512
413.500	291.677	80.007	19.993	103.927	19.951	18.757	0.478
414.000	291.940	80.006	19.994	103.923	19.948	18.963	0.482
414.500	292.210	80.007	19.994	103.923	19.946	19.111	0.512
415.000	292.461	80.008	19.995	103.924	19.944	19.308	0.527
415.500	292.674	80.007	19.993	103.927	19.945	19.231	0.492
416.000	292.925	80.007	19.994	103.931	19.943	19.376	0.464
416.500	293.189	80.008	19.994	103.928	19.939	19.624	0.490
417.000	293.434	80.007	19.994	103.923	19.938	19.735	0.512
417.500	293.714	80.008	19.994	103.921	19.933	20.065	0.517
418.000	293.936	80.007	19.994	103.920	19.929	20.372	0.513
418.500	294.190	80.007	19.993	103.922	19.932	20.141	0.489
419.000	294.433	80.007	19.993	103.928	19.928	20.486	0.486
419.500	294.688	80.006	19.994	103.932	19.925	20.718	0.497
420.000	294.938	80.007	19.994	103.935	19.923	20.838	0.502
420.500	295.197	80.006	19.995	103.934	19.922	20.917	0.507
421.000	295.455	80.007	19.994	103.934	19.922	20.891	0.513
421.500	295.681	80.007	19.994	103.935	19.915	21.410	0.500
422.000	295.960	80.006	19.994	103.936	19.916	21.364	0.494
422.500	296.200	80.006	19.994	103.936	19.913	21.551	0.512
423.000	296.440	80.007	19.994	103.936	19.911	21.701	0.500
423.500	296.690	80.007	19.993	103.935	19.910	21.789	0.485
424.000	296.913	80.006	19.994	103.934	19.910	21.821	0.482
424.500	297.177	80.007	19.994	103.934	19.908	21.938	0.480
425.000	297.408	80.007	19.993	103.935	19.905	22.137	0.491
425.500	297.662	80.005	19.993	103.935	19.900	22.528	0.490
426.000	297.946	80.006	19.994	103.937	19.901	22.435	0.511
426.500	298.196	80.006	19.994	103.938	19.893	23.064	0.535
427.000	298.438	80.007	19.994	103.938	19.893	23.067	0.513
427.500	298.731	80.007	19.993	103.939	19.890	23.256	0.514
428.000	298.957	80.006	19.994	103.938	19.885	23.607	0.527
428.500	299.164	80.007	19.993	103.940	19.884	23.702	0.476
429.000	299.440	80.006	19.993	103.940	19.882	23.856	0.458
429.500	299.712	80.007	19.994	103.941	19.883	23.764	0.516
430.000	299.949	80.009	19.994	103.942	19.878	24.165	0.529
430.500	300.180	80.006	19.993	103.943	19.876	24.256	0.489
431.000	300.455	80.006	19.994	103.944	19.874	24.424	0.487
431.500	300.675	80.006	19.994	103.945	19.870	24.749	0.501
432.000	300.922	80.007	19.992	103.944	19.870	24.692	0.481
432.500	301.195	80.006	19.993	103.944	19.865	25.065	0.494
433.000	301.466	80.007	19.993	103.943	19.863	25.229	0.532
433.500	301.686	80.006	19.993	103.941	19.862	25.311	0.517
434.000	301.942	80.008	19.993	103.941	19.857	25.688	0.484
434.500	302.191	80.007	19.993	103.945	19.855	25.824	0.491
435.000	302.471	80.008	19.993	103.947	19.855	25.814	0.517
435.500	302.687	80.008	19.992	103.951	19.853	25.944	0.512
436.000	302.949	80.007	19.993	103.951	19.848	26.342	0.487
436.500	303.194	80.009	19.993	103.950	19.844	26.663	0.492
437.000	303.460	80.007	19.993	103.950	19.847	26.440	0.509
437.500	303.712	80.008	19.993	103.955	19.841	26.835	0.515
438.000	304.030	80.010	19.992	103.952	19.836	27.190	0.544
438.500	304.244	80.008	19.992	103.957	19.836	27.252	0.551
439.000	304.479	80.009	19.993	103.959	19.839	27.022	0.490
439.500	304.708	80.009	19.993	103.961	19.836	27.231	0.456
440.000	304.973	80.007	19.993	103.963	19.832	27.509	0.479
440.500	305.194	80.009	19.992	103.965	19.829	27.759	0.490
441.000	305.430	80.008	19.992	103.964	19.825	28.014	0.472
441.500	305.700	80.010	19.993	103.969	19.825	28.043	0.481
442.000	305.925	80.008	19.993	103.969	19.818	28.511	0.501
442.500	306.184	80.010	19.993	103.968	19.820	28.428	0.490
443.000	306.452	80.009	19.994	103.973	19.814	28.862	0.505
443.500	306.691	80.008	19.993	103.975	19.811	29.054	0.517
444.000	306.926	80.008	19.994	103.975	19.804	29.571	0.491
444.500	307.199	80.009	19.992	103.974	19.806	29.421	0.491
445.000	307.457	80.009	19.993	103.974	19.801	29.817	0.519
445.500	307.701	80.007	19.993	103.975	19.798	30.035	0.517
446.000	307.971	80.008	19.993	103.977	19.799	29.954	0.508
446.500	308.185	80.008	19.993	103.979	19.796	30.148	0.499
447.000	308.442	80.007	19.993	103.982	19.792	30.482	0.477
447.500	308.735	80.007	19.993	103.982	19.789	30.690	0.511
448.000	308.957	80.007	19.994	103.982	19.790	30.580	0.533
448.500	309.209	80.007	19.994	103.981	19.789	30.674	0.495
449.000	309.451	80.006	19.994	103.980	19.781	31.280	0.483
449.500	309.707	80.007	19.994	103.980	19.782	31.227	0.495
450.000	309.954	80.006	19.993	103.979	19.776	31.670	0.501
450.500	310.236	80.006	19.993	103.979	19.775	31.731	0.517
451.000	310.485	80.006	19.993	103.979	19.773	31.856	0.530
451.500	310.751	80.005	19.994	103.982	19.770	32.042	0.523
452.000	310.987	80.006	19.994	103.982	19.769	32.171	0.508
452.500	311.245	80.006	19.993	103.983	19.764	32.490	0.497
453.000	311.493	80.006	19.993	103.983	19.762	32.696	0.500
453.500	311.756	80.006	19.993	103.983	19.756	33.114	0.509
454.000	312.009	80.006	19.993	103.981	19.754	33.255	0.513
454.500	312.282	80.006	19.993	103.982	19.751	33.492	0.521
455.000	312.505	80.006	19.994	103.983	19.751	33.442	0.511
455.500	312.792	80.006	19.993	103.983	19.744	34.001	0.503
456.000	313.040	80.006	19.992	103.986	19.745	33.927	0.523
456.500	313.257	80.005	19.992	103.992	19.737	34.515	0.500
457.000	313.550	80.006	19.993	103.997	19.735	34.685	0.487
457.500	313.763	80.006	19.992	103.999	19.734	34.739	0.508
458.000	314.023	80.007	19.992	103.999	19.730	35.022	0.490
458.500	314.287	80.006	19.993	104.002	19.723	35.497	0.499
459.000	314.552	80.007	19.992	104.003	19.726	35.327	0.527
459.500	314.818	80.006	19.992	104.001	19.721	35.699	0.530
460.000	315.079	80.006	19.992	104.000	19.718	35.879	0.529
460.500	315.312	80.006	19.993	104.003	19.717	35.981	0.511
461.000	315.542	80.005	19.992	104.003	19.714	36.221	0.479
461.500	315.806	80.006	19.993	104.001	19.710	36.503	0.478
462.000	316.039	80.007	19.992	104.004	19.707	36.705	0.495
462.500	316.335	80.006	19.993	104.006	19.706	36.816	0.513
463.000	316.567	80.007	19.992	104.010	19.702	37.075	0.529
463.500	316.832	80.008	19.993	104.013	19.698	37.334	0.512
464.000	317.081	80.008	19.993	104.015	19.694	37.640	0.505
464.500	317.336	80.008	19.992	104.018	19.694	37.630	0.509
465.000	317.576	80.007	19.992	104.022	19.690	37.969	0.500
465.500	317.822	80.006	19.992	104.021	19.684	38.431	0.491
466.000	318.100	80.006	19.993	104.021	19.684	38.360	0.505
466.500	318.329	80.007	19.992	104.021	19.685	38.302	0.516
467.000	318.585	80.006	19.992	104.021	19.678	38.824	0.496
467.500	318.843	80.007	19.993	104.019	19.677	38.941	0.500
468.000	319.082	80.007	19.992	104.018	19.668	39.556	0.505
468.500	319.346	80.008	19.994	104.018	19.664	39.857	0.500
469.000	319.607	80.007	19.993	104.018	19.664	39.859	0.514
469.500	319.840	80.006	19.993	104.017	19.664	39.877	0.510
470.000	320.082	80.007	19.993	104.018	19.656	40.456	0.484
470.500	320.322	80.007	19.992	104.018	19.654	40.623	0.478
471.000	320.618	80.006	19.993	104.019	19.648	41.074	0.509
471.500	320.854	80.006	19.992	104.019	19.645	41.238	0.534
472.000	321.124	80.007	19.993	104.022	19.643	41.443	0.518
472.500	321.351	80.007	19.993	104.023	19.639	41.736	0.502
473.000	321.645	80.008	19.993	104.024	19.636	41.946	0.510
473.500	321.849	80.007	19.994	104.023	19.634	42.094	0.510
474.000	322.126	80.006	19.994	104.022	19.630	42.398	0.489
474.500	322.423	80.006	19.993	104.021	19.625	42.710	0.527
475.000	322.645	80.006	19.994	104.021	19.619	43.153	0.547
475.500	322.881	80.006	19.995	104.021	19.617	43.356	0.488
476.000	323.143	80.007	19.993	104.022	19.615	43.509	0.478
476.500	323.338	80.006	19.994	104.022	19.609	43.941	0.478
477.000	323.631	80.008	19.994	104.026	19.606	44.143	0.472
477.500	323.916	80.006	19.994	104.030	19.602	44.434	0.533
478.000	324.157	80.007	19.993	104.032	19.598	44.682	0.552
478.500	324.426	80.006	19.995	104.036	19.595	44.908	0.518
479.000	324.672	80.006	19.994	104.037	19.591	45.233	0.512
479.500	324.932	80.007	19.993	104.040	19.589	45.402	0.511
480.000	325.172	80.005	19.993	104.042	19.581	45.968	0.503
480.500	325.452	80.007	19.995	104.045	19.581	46.020	0.510
481.000	325.680	80.007	19.994	104.046	19.578	46.193	0.514
481.500	325.925	80.005	19.994	104.050	19.573	46.601	0.491
482.000	326.181	80.006	19.994	104.049	19.569	46.854	0.487
482.500	326.436	80.006	19.994	104.049	19.570	46.807	0.506
483.000	326.679	80.007	19.994	104.049	19.565	47.170	0.504
483.500	326.929	80.006	19.993	104.052	19.562	47.405	0.495
484.000	327.185	80.005	19.994	104.053	19.554	47.931	0.499
484.500	327.461	80.006	19.994	104.053	19.553	47.999	0.519
485.000	327.678	80.007	19.993	104.053	19.546	48.539	0.513
485.500	327.906	80.006	19.994	104.056	19.548	48.435	0.469
486.000	328.206	80.005	19.994	104.055	19.541	48.908	0.487
486.500	328.447	80.006	19.994	104.057	19.536	49.298	0.535
487.000	328.685	80.006	19.994	104.050	19.535	49.388	0.510
487.500	328.965	80.006	19.994	104.029	19.527	49.920	0.498
488.000	329.212	80.006	19.994	104.011	19.526	49.995	0.523
488.500	329.442	80.006	19.995	103.996	19.522	50.319	0.502
489.000	329.697	80.008	19.993	103.983	19.517	50.688	0.481
489.500	329.938	80.008	19.994	103.985	19.514	50.890	0.491
490.000	330.207	80.009	19.994	104.007	19.510	51.231	0.504
490.500	330.465	80.008	19.993	104.052	19.506	51.515	0.519
491.000	330.717	80.008	19.994	104.094	19.504	51.633	0.518
491.500	330.950	80.006	19.993	104.113	19.501	51.891	0.498
492.000	331.195	80.008	19.993	104.125	19.495	52.292	0.482
492.500	331.477	80.007	19.994	104.126	19.489	52.744	0.502
493.000	331.720	80.008	19.993	104.101	19.487	52.925	0.526
493.500	331.970	80.007	19.994	104.076	19.485	53.055	0.509
494.000	332.216	80.007	19.994	104.067	19.479	53.453	0.495
494.500	332.470	80.008	19.993	104.062	19.476	53.728	0.499
495.000	332.788	80.008	19.993	104.063	19.477	53.603	0.536
495.500	333.018	80.009	19.993	104.063	19.472	54.019	0.560
496.000	333.264	80.007	19.992	104.065	19.470	54.155	0.512
496.500	333.516	80.009	19.994	104.068	19.464	54.619	0.487
497.000	333.808	80.009	19.992	104.069	19.459	54.948	0.521
497.500	334.060	80.008	19.992	104.070	19.455	55.215	0.544
498.000	334.325	80.008	19.993	104.071	19.450	55.645	0.531
498.500	334.573	80.010	19.994	104.071	19.449	55.667	0.515
499.000	334.809	80.008	19.993	104.070	19.443	56.156	0.498
499.500	335.039	80.008	19.993	104.071	19.441	56.282	0.475
500.000	335.276	80.007	19.994	104.075	19.432	56.908	0.466
500.500	335.573	80.007	19.993	104.078	19.429	57.162	0.501
501.000	335.794	80.008	19.993	104.083	19.426	57.374	0.526
501.500	336.066	80.007	19.993	104.087	19.422	57.687	0.505
502.000	336.293	80.007	19.994	104.091	19.424	57.535	0.496
502.500	336.558	80.007	19.993	104.092	19.417	58.008	0.496
503.000	336.837	80.008	19.994	104.094	19.410	58.567	0.518
503.500	337.107	80.008	19.993	104.093	19.411	58.497	0.547
504.000	337.322	80.007	19.993	104.090	19.406	58.869	0.517
504.500	337.569	80.006	19.994	104.088	19.401	59.216	0.473
505.000	337.811	80.008	19.994	104.088	19.401	59.182	0.476
505.500	338.090	80.007	19.994	104.090	19.393	59.785	0.505
506.000	338.332	80.006	19.994	104.091	19.393	59.826	0.521
506.500	338.533	80.006	19.993	104.094	19.390	60.038	0.482
507.000	338.856	80.006	19.994	104.097	19.388	60.172	0.483
507.500	339.125	80.006	19.994	104.097	19.380	60.761	0.558
508.000	339.325	80.006	19.994	104.098	19.379	60.867	0.531
508.500	339.635	80.006	19.994	104.097	19.376	61.084	0.490
509.000	339.886	80.005	19.994	104.097	19.373	61.246	0.535
509.500	340.100	80.006	19.995	104.097	19.367	61.696	0.513
510.000	340.395	80.008	19.994	104.097	19.365	61.856	0.487
510.500	340.637	80.007	19.994	104.097	19.362	62.072	0.523
511.000	340.880	80.006	19.996	104.097	19.360	62.229	0.511
511.500	341.143	80.007	19.994	104.098	19.354	62.645	0.495
512.000	341.355	80.005	19.993	104.098	19.353	62.763	0.490
512.500	341.604	80.007	19.994	104.097	19.348	63.080	0.468
513.000	341.866	80.007	19.996	104.097	19.345	63.364	0.486
513.500	342.099	80.006	19.995	104.097	19.339	63.790	0.503
514.000	342.393	80.006	19.994	104.097	19.337	63.931	0.511
514.500	342.589	80.008	19.993	104.097	19.336	63.983	0.509
515.000	342.850	80.005	19.994	104.097	19.332	64.308	0.474
515.500	343.089	80.007	19.994	104.096	19.333	64.208	0.478
516.000	343.364	80.007	19.994	104.096	19.328	64.593	0.507
516.500	343.639	80.006	19.994	104.096	19.325	64.831	0.532
517.000	343.843	80.007	19.994	104.097	19.323	64.914	0.514
517.500	344.101	80.007	19.995	104.097	19.318	65.284	0.470
518.000	344.353	80.007	19.995	104.098	19.320	65.165	0.486
518.500	344.628	80.008	19.993	104.098	19.315	65.506	0.518
519.000	344.871	80.008	19.993	104.097	19.312	65.733	0.522
519.500	345.113	80.007	19.994	104.097	19.313	65.648	0.502
520.000	345.384	80.008	19.993	104.097	19.309	65.956	0.499
520.500	345.622	80.007	19.995	104.097	19.305	66.288	0.511
521.000	345.934	80.006	19.992	104.098	19.306	66.174	0.530
521.500	346.144	80.008	19.993	104.098	19.305	66.217	0.536
522.000	346.419	80.006	19.991	104.098	19.299	66.679	0.503
522.500	346.682	80.010	19.993	104.098	19.299	66.706	0.511
523.000	346.908	80.007	19.993	104.097	19.297	66.815	0.513
523.500	347.160	80.008	19.993	104.097	19.295	66.963	0.484
524.000	347.427	80.009	19.993	104.098	19.295	66.986	0.499
524.500	347.676	80.007	19.993	104.098	19.289	67.428	0.517
525.000	347.932	80.007	19.991	104.098	19.292	67.217	0.510
525.500	348.168	80.008	19.992	104.098	19.291	67.241	0.499
526.000	348.420	80.007	19.992	104.097	19.291	67.236	0.490
526.500	348.683	80.007	19.993	104.094	19.288	67.507	0.502
527.000	348.959	80.008	19.994	104.093	19.285	67.671	0.527
527.500	349.210	80.008	19.992	104.093	19.286	67.652	0.533
528.000	349.449	80.008	19.993	104.091	19.287	67.571	0.509
528.500	349.713	80.008	19.994	104.089	19.286	67.644	0.497
529.000	349.947	80.007	19.993	104.087	19.288	67.489	0.501
529.500	350.202	80.007	19.993	104.080	19.287	67.527	0.494
530.000	350.469	80.005	19.993	104.076	19.290	67.300	0.506
530.500	350.679	80.007	19.995	104.074	19.291	67.276	0.499
531.000	350.968	80.008	19.994	104.071	19.292	67.178	0.488
531.500	351.190	80.007	19.994	104.069	19.289	67.379	0.505
532.000	351.459	80.005	19.993	104.068	19.290	67.299	0.501
532.500	351.723	80.006	19.992	104.065	19.291	67.199	0.512
533.000	351.997	80.006	19.995	104.060	19.294	67.034	0.535
533.500	352.249	80.005	19.993	104.057	19.291	67.247	0.532
534.000	352.498	80.007	19.994	104.057	19.296	66.865	0.514
534.500	352.760	80.005	19.993	104.056	19.295	66.916	0.506
535.000	353.023	80.006	19.992	104.056	19.300	66.573	0.519
535.500	353.310	80.007	19.993	104.053	19.301	66.493	0.538
536.000	353.564	80.005	19.992	104.048	19.302	66.410	0.545
536.500	353.796	80.006	19.994	104.042	19.305	66.202	0.513
537.000	354.090	80.007	19.993	104.038	19.307	66.003	0.506
537.500	354.321	80.006	19.993	104.033	19.308	65.991	0.526
538.000	354.598	80.006	19.994	104.031	19.311	65.715	0.517
538.500	354.811	80.006	19.994	104.029	19.315	65.427	0.499
539.000	355.070	80.007	19.993	104.027	19.324	64.764	0.480
539.500	355.317	80.005	19.993	104.024	19.315	65.463	0.489
540.000	355.550	80.006	19.993	104.021	19.324	64.788	0.493
540.500	355.863	80.006	19.994	104.018	19.327	64.513	0.513
541.000	356.084	80.006	19.993	104.012	19.336	63.904	0.540
541.500	356.358	80.006	19.992	104.007	19.340	63.592	0.515
542.000	356.600	80.007	19.993	104.003	19.344	63.312	0.505
542.500	356.873	80.005	19.993	103.999	19.346	63.145	0.515
543.000	357.130	80.007	19.994	103.992	19.350	62.842	0.523
543.500	357.373	80.006	19.993	103.990	19.357	62.347	0.516
544.000	357.644	80.006	19.993	103.988	19.362	61.928	0.508
544.500	357.902	80.008	19.993	103.983	19.366	61.658	0.521
545.000	358.169	80.007	19.994	103.972	19.370	61.342	0.527
545.500	358.417	80.006	19.993	103.965	19.377	60.865	0.520
546.000	358.702	80.005	19.994	103.959	19.385	60.244	0.524
546.500	358.940	80.006	19.994	103.955	19.389	59.959	0.528
547.000	359.184	80.006	19.993	103.953	19.401	59.080	0.502
547.500	359.428	80.006	19.994	103.956	19.403	58.946	0.485
548.000	359.694	80.007	19.994	103.956	19.411	58.313	0.499
548.500	359.944	80.006	19.993	103.954	19.418	57.828	0.513
549.000	360.222	80.006	19.994	103.949	19.424	57.423	0.522
549.500	360.473	80.006	19.995	103.941	19.433	56.750	0.528
550.000	360.732	80.007	19.993	103.930	19.442	56.077	0.519
550.500	360.966	80.007	19.993	103.924	19.451	55.438	0.502
551.000	361.211	80.006	19.993	103.918	19.458	54.899	0.486
551.500	361.480	80.007	19.993	103.912	19.464	54.437	0.496
552.000	361.736	80.007	19.993	103.907	19.473	53.787	0.520
552.500	361.974	80.007	19.993	103.906	19.476	53.560	0.510
553.000	362.236	80.007	19.993	103.904	19.491	52.491	0.497
553.500	362.493	80.006	19.993	103.902	19.496	52.082	0.509
554.000	362.733	80.006	19.993	103.899	19.507	51.269	0.508
554.500	362.996	80.006	19.992	103.891	19.519	50.397	0.500
555.000	363.253	80.006	19.993	103.883	19.529	49.669	0.512
555.500	363.540	80.007	19.993	103.876	19.536	49.173	0.532
556.000	363.742	80.006	19.993	103.868	19.549	48.208	0.517
556.500	364.000	80.006	19.992	103.863	19.557	47.658	0.475
557.000	364.273	80.007	19.993	103.864	19.561	47.349	0.495
557.500	364.529	80.006	19.993	103.864	19.574	46.405	0.530
558.000	364.752	80.007	19.993	103.864	19.582	45.774	0.504
558.500	365.025	80.007	19.993	103.863	19.588	45.369	0.487
559.000	365.291	80.007	19.994	103.857	19.600	44.489	0.518
559.500	365.542	80.007	19.992	103.849	19.612	43.609	0.528
560.000	365.808	80.007	19.992	103.844	19.618	43.165	0.517
560.500	366.057	80.008	19.993	103.838	19.629	42.348	0.516
561.000	366.285	80.006	19.993	103.836	19.636	41.808	0.496
561.500	366.542	80.006	19.992	103.840	19.650	40.795	0.481
562.000	366.829	80.006	19.994	103.845	19.656	40.370	0.514
562.500	367.054	80.007	19.993	103.843	19.661	39.981	0.528
563.000	367.275	80.005	19.993	103.842	19.672	39.213	0.479
563.500	367.554	80.006	19.993	103.838	19.683	38.385	0.473
564.000	367.774	80.007	19.993	103.832	19.688	38.012	0.499
564.500	368.073	80.006	19.993	103.826	19.696	37.455	0.509
565.000	368.301	80.007	19.993	103.826	19.706	36.713	0.523
565.500	368.538	80.006	19.992	103.825	19.718	35.855	0.496
566.000	368.786	80.006	19.992	103.823	19.725	35.329	0.475
566.500	369.080	80.006	19.993	103.822	19.733	34.751	0.514
567.000	369.321	80.007	19.992	103.822	19.738	34.382	0.538
567.500	369.563	80.005	19.992	103.822	19.751	33.434	0.509
568.000	369.801	80.005	19.994	103.820	19.752	33.295	0.482
568.500	370.105	80.006	19.994	103.821	19.763	32.493	0.511
569.000	370.315	80.006	19.993	103.822	19.767	32.204	0.528
569.500	370.585	80.005	19.993	103.821	19.777	31.527	0.497
570.000	370.837	80.005	19.993	103.821	19.783	31.078	0.501
570.500	371.067	80.005	19.993	103.824	19.788	30.700	0.502
571.000	371.334	80.006	19.993	103.820	19.794	30.245	0.489
571.500	371.590	80.006	19.993	103.813	19.803	29.631	0.510
572.000	371.850	80.006	19.994	103.809	19.807	29.279	0.520
572.500	372.095	80.007	19.993	103.806	19.810	29.074	0.511
573.000	372.343	80.007	19.993	103.799	19.815	28.712	0.499
573.500	372.599	80.007	19.992	103.799	19.822	28.164	0.498
574.000	372.869	80.005	19.993	103.801	19.826	27.918	0.515
574.500	373.095	80.008	19.994	103.802	19.831	27.520	0.511
575.000	373.390	80.007	19.993	103.800	19.833	27.407	0.509
575.500	373.622	80.008	19.993	103.801	19.842	26.736	0.524
576.000	373.874	80.007	19.993	103.798	19.845	26.486	0.506
576.500	374.093	80.008	19.993	103.795	19.847	26.347	0.477
577.000	374.361	80.008	19.994	103.793	19.850	26.145	0.479
577.500	374.631	80.007	19.994	103.793	19.853	25.936	0.513
578.000	374.865	80.008	19.994	103.797	19.856	25.715	0.521
578.500	375.124	80.007	19.994	103.799	19.860	25.386	0.499
579.000	375.372	80.007	19.994	103.798	19.863	25.168	0.500
579.500	375.661	80.007	19.993	103.796	19.870	24.701	0.522
580.000	375.912	80.007	19.994	103.794	19.870	24.652	0.539
580.500	376.137	80.007	19.993	103.790	19.874	24.397	0.508
581.000	376.422	80.006	19.994	103.792	19.877	24.183	0.493
581.500	376.668	80.007	19.994	103.799	19.877	24.169	0.521
582.000	376.921	80.007	19.993	103.803	19.879	24.018	0.515
582.500	377.157	80.007	19.992	103.803	19.883	23.744	0.494
583.000	377.401	80.007	19.993	103.803	19.886	23.541	0.484
583.500	377.640	80.007	19.993	103.799	19.885	23.599	0.482
584.000	377.912	80.007	19.993	103.793	19.885	23.610	0.498
584.500	378.109	80.007	19.993	103.790	19.888	23.339	0.490
585.000	378.384	80.006	19.993	103.793	19.891	23.148	0.470
585.500	378.645	80.006	19.994	103.796	19.889	23.268	0.504
586.000	378.929	80.005	19.996	103.797	19.889	23.318	0.541
586.500	379.122	80.005	19.993	103.801	19.888	23.345	0.512
587.000	379.378	80.006	19.994	103.801	19.896	22.801	0.463
587.500	379.665	80.006	19.993	103.797	19.892	23.086	0.496
588.000	379.915	80.007	19.992	103.794	19.894	22.948	0.540
588.500	380.152	80.006	19.993	103.794	19.893	23.014	0.512
589.000	380.390	80.006	19.995	103.793	19.893	22.965	0.481
589.500	380.665	80.005	19.993	103.794	19.892	23.047	0.494
590.000	380.852	80.006	19.993	103.798	19.894	22.935	0.488
590.500	381.124	80.007	19.994	103.802	19.895	22.882	0.460
591.000	381.370	80.007	19.993	103.805	19.896	22.814	0.489
591.500	381.621	80.007	19.993	103.804	19.892	23.038	0.508
592.000	381.851	80.008	19.993	103.803	19.897	22.692	0.489
592.500	382.161	80.005	19.994	103.800	19.893	23.018	0.510
593.000	382.387	80.006	19.993	103.795	19.893	23.034	0.538
593.500	382.631	80.007	19.993	103.790	19.894	22.906	0.503
594.000	382.893	80.008	19.992	103.790	19.897	22.736	0.488
594.500	383.150	80.009	19.994	103.792	19.894	22.920	0.512
595.000	383.384	80.009	19.992	103.793	19.894	22.893	0.505
595.500	383.640	80.007	19.993	103.794	19.894	22.914	0.491
596.000	383.887	80.008	19.993	103.795	19.895	22.875	0.496
596.500	384.117	80.008	19.993	103.797	19.892	23.081	0.490
597.000	384.343	80.007	19.994	103.798	19.890	23.195	0.467
597.500	384.619	80.008	19.995	103.795	19.888	23.335	0.479
598.000	384.836	80.007	19.994	103.794	19.891	23.177	0.498
598.500	385.103	80.007	19.994	103.793	19.891	23.147	0.489
599.000	385.353	80.009	19.995	103.790	19.893	22.979	0.500
599.500	385.610	80.008	19.993	103.791	19.888	23.336	0.511
600.000	385.866	80.008	19.993	103.795	19.890	23.247	0.510
600.500	386.088	80.008	19.994	103.797	19.891	23.142	0.496
601.000	386.353	80.008	19.993	103.797	19.889	23.283	0.483
601.500	386.625	80.008	19.995	103.798	19.888	23.357	0.512
602.000	386.880	80.009	19.993	103.798	19.887	23.470	0.532
602.500	387.108	80.008	19.993	103.800	19.889	23.323	0.505
603.000	387.336	80.008	19.993	103.806	19.887	23.466	0.469
603.500	387.602	80.009	19.994	103.812	19.881	23.888	0.475
604.000	387.866	80.008	19.994	103.813	19.886	23.516	0.512
604.500	388.109	80.007	19.994	103.811	19.880	23.929	0.518
605.000	388.347	80.007	19.992	103.808	19.884	23.692	0.494
605.500	388.639	80.009	19.993	103.801	19.880	23.921	0.505
606.000	388.851	80.008	19.994	103.797	19.880	23.972	0.517
606.500	389.100	80.008	19.995	103.798	19.877	24.153	0.483
607.000	389.346	80.008	19.995	103.802	19.876	24.247	0.478
607.500	389.599	80.007	19.995	103.806	19.878	24.097	0.497
608.000	389.836	80.007	19.994	103.808	19.879	24.055	0.494
608.500	390.103	80.009	19.995	103.804	19.878	24.092	0.497
609.000	390.323	80.008	19.995	103.799	19.875	24.335	0.495
609.500	390.575	80.007	19.994	103.798	19.877	24.146	0.479
610.000	390.811	80.007	19.995	103.796	19.875	24.351	0.480
610.500	391.113	80.006	19.994	103.799	19.874	24.402	0.513
611.000	391.305	80.007	19.995	103.802	19.873	24.454	0.516
611.500	391.583	80.006	19.996	103.805	19.870	24.679	0.482
612.000	391.839	80.006	19.995	103.804	19.872	24.557	0.502
612.500	392.107	80.007	19.994	103.804	19.869	24.734	0.529
613.000	392.341	80.005	19.995	103.802	19.867	24.905	0.512
613.500	392.597	80.006	19.995	103.805	19.871	24.622	0.496
614.000	392.863	80.007	19.995	103.803	19.868	24.804	0.506
614.500	393.125	80.006	19.995	103.800	19.869	24.760	0.526
615.000	393.382	80.006	19.994	103.800	19.861	25.354	0.524
615.500	393.656	80.006	19.996	103.804	19.869	24.772	0.525
616.000	393.889	80.005	19.995	103.805	19.865	25.047	0.519
616.500	394.161	80.007	19.993	103.804	19.865	25.060	0.506
617.000	394.377	80.006	19.994	103.804	19.860	25.393	0.497
617.500	394.631	80.006	19.994	103.799	19.859	25.502	0.480
618.000	394.887	80.005	19.993	103.793	19.862	25.239	0.490
618.500	395.140	80.008	19.994	103.792	19.856	25.729	0.509
619.000	395.401	80.006	19.994	103.797	19.857	25.607	0.511
619.500	395.643	80.008	19.994	103.795	19.856	25.696	0.508
620.000	395.889	80.006	19.995	103.795	19.855	25.752	0.496
620.500	396.128	80.008	19.995	103.797	19.853	25.898	0.487
621.000	396.389	80.006	19.993	103.794	19.855	25.812	0.493
621.500	396.665	80.007	19.994	103.792	19.851	26.057	0.518
622.000	396.900	80.007	19.993	103.793	19.849	26.252	0.524
622.500	397.163	80.006	19.994	103.794	19.846	26.441	0.505
623.000	397.421	80.007	19.993	103.792	19.846	26.445	0.510
623.500	397.640	80.008	19.993	103.791	19.843	26.667	0.499
624.000	397.900	80.008	19.993	103.789	19.842	26.742	0.478
624.500	398.175	80.006	19.993	103.788	19.843	26.693	0.507
625.000	398.424	80.007	19.993	103.789	19.839	26.974	0.529
625.500	398.699	80.007	19.994	103.792	19.838	27.015	0.523
626.000	398.940	80.007	19.993	103.793	19.839	26.955	0.520
626.500	399.195	80.007	19.993	103.799	19.841	26.844	0.506
627.000	399.413	80.008	19.993	103.801	19.839	26.985	0.485
627.500	399.660	80.007	19.993	103.802	19.835	27.282	0.470
628.000	399.919	80.007	19.993	103.804	19.837	27.112	0.486
628.500	400.179	80.006	19.993	103.801	19.835	27.273	0.512
629.000	400.410	80.007	19.993	103.795	19.832	27.464	0.504
629.500	400.677	80.006	19.993	103.794	19.832	27.432	0.494
630.000	400.960	80.007	19.994	103.791	19.828	27.793	0.525
630.500	401.204	80.008	19.992	103.789	19.829	27.698	0.539
631.000	401.429	80.005	19.993	103.790	19.828	27.772	0.498
631.500	401.682	80.006	19.993	103.793	19.827	27.867	0.473
632.000	401.931	80.005	19.994	103.794	19.825	27.987	0.490
632.500	402.196	80.007	19.993	103.794	19.828	27.795	0.508
633.000	402.491	80.006	19.993	103.792	19.825	27.968	0.537
633.500	402.719	80.006	19.992	103.791	19.824	28.026	0.541
634.000	402.970	80.006	19.993	103.791	19.824	28.065	0.501
634.500	403.227	80.005	19.994	103.796	19.820	28.372	0.494
635.000	403.495	80.006	19.993	103.801	19.821	28.304	0.516
635.500	403.747	80.007	19.993	103.802	19.819	28.444	0.522
636.000	403.982	80.008	19.994	103.801	19.815	28.700	0.503
636.500	404.225	80.006	19.992	103.800	19.816	28.644	0.483
637.000	404.488	80.007	19.993	103.797	19.816	28.658	0.492
637.500	404.735	80.008	19.993	103.792	19.811	28.983	0.508
638.000	404.958	80.007	19.993	103.791	19.813	28.883	0.490
638.500	405.220	80.008	19.993	103.791	19.807	29.284	0.478
639.000	405.487	80.007	19.994	103.790	19.809	29.140	0.507
639.500	405.772	80.006	19.993	103.790	19.804	29.504	0.540
640.000	406.003	80.007	19.993	103.794	19.802	29.671	0.534
640.500	406.260	80.005	19.993	103.794	19.798	29.932	0.502
641.000	406.507	80.007	19.993	103.796	19.797	30.004	0.497
641.500	406.761	80.007	19.993	103.797	19.800	29.796	0.502
642.000	407.045	80.004	19.994	103.793	19.797	30.000	0.519
642.500	407.332	80.005	19.994	103.790	19.795	30.177	0.555
643.000	407.549	80.006	19.994	103.791	19.789	30.598	0.538
643.500	407.809	80.006	19.993	103.789	19.792	30.402	0.490
644.000	408.045	80.006	19.994	103.788	19.792	30.408	0.486
644.500	408.314	80.005	19.994	103.789	19.787	30.799	0.500
645.000	408.563	80.006	19.993	103.787	19.787	30.736	0.511
645.500	408.790	80.004	19.994	103.787	19.788	30.703	0.497
646.000	409.089	80.006	19.994	103.787	19.787	30.786	0.502
646.500	409.351	80.006	19.993	103.787	19.782	31.154	0.544
647.000	409.626	80.006	19.992	103.787	19.782	31.102	0.549
647.500	409.853	80.005	19.992	103.791	19.783	31.075	0.519
648.000	410.140	80.008	19.993	103.792	19.778	31.456	0.508
648.500	410.378	80.007	19.992	103.792	19.777	31.473	0.519
649.000	410.630	80.008	19.993	103.793	19.772	31.847	0.507
649.500	410.893	80.006	19.993	103.793	19.771	31.913	0.503
650.000	411.159	80.007	19.993	103.790	19.771	31.932	0.522
650.500	411.408	80.006	19.994	103.789	19.771	31.948	0.522
651.000	411.671	80.005	19.994	103.788	19.768	32.118	0.514
651.500	411.899	80.007	19.993	103.788	19.768	32.136	0.502
652.000	412.144	80.007	19.993	103.789	19.766	32.325	0.482
652.500	412.396	80.008	19.993	103.788	19.765	32.377	0.485
653.000	412.656	80.008	19.994	103.789	19.763	32.540	0.505
653.500	412.912	80.008	19.994	103.790	19.760	32.739	0.514
654.000	413.119	80.007	19.994	103.790	19.762	32.588	0.489
654.500	413.363	80.007	19.994	103.790	19.761	32.683	0.457
655.000	413.662	80.007	19.994	103.790	19.760	32.738	0.497
655.500	413.897	80.007	19.992	103.792	19.760	32.756	0.539
656.000	414.126	80.007	19.994	103.792	19.755	33.117	0.499
656.500	414.400	80.006	19.993	103.791	19.756	33.051	0.484
657.000	414.609	80.007	19.994	103.793	19.753	33.279	0.493
657.500	414.879	80.008	19.993	103.793	19.753	33.279	0.481
658.000	415.122	80.006	19.993	103.791	19.749	33.562	0.496
658.500	415.412	80.007	19.992	103.790	19.745	33.862	0.523
659.000	415.633	80.008	19.993	103.790	19.746	33.789	0.523
659.500	415.915	80.008	19.991	103.787	19.744	33.914	0.507
660.000	416.161	80.008	19.993	103.786	19.743	33.996	0.515
660.500	416.410	80.009	19.991	103.786	19.737	34.456	0.511
661.000	416.697	80.008	19.993	103.785	19.736	34.511	0.516
661.500	416.932	80.009	19.992	103.785	19.738	34.375	0.529
662.000	417.159	80.007	19.992	103.786	19.732	34.805	0.492
662.500	417.430	80.007	19.993	103.786	19.729	35.032	0.480
663.000	417.680	80.008	19.993	103.786	19.730	34.967	0.510
663.500	417.932	80.010	19.993	103.786	19.730	34.954	0.511
664.000	418.149	80.008	19.993	103.785	19.726	35.203	0.486
664.500	418.442	80.008	19.992	103.785	19.724	35.345	0.490
665.001	418.704	80.008	19.992	103.786	19.722	35.501	0.532
665.500	418.913	80.008	19.992	103.790	19.720	35.697	0.513
666.000	419.251	80.006	19.993	103.789	19.718	35.825	0.509
666.500	419.458	80.009	19.995	103.788	19.719	35.759	0.546
667.000	419.710	80.009	19.993	103.790	19.714	36.075	0.502
667.500	419.988	80.007	19.994	103.789	19.714	36.081	0.494
668.000	420.221	80.008	19.994	103.785	19.712	36.230	0.521
668.500	420.487	80.007	19.995	103.785	19.710	36.365	0.506
669.000	420.733	80.009	19.994	103.785	19.707	36.634	0.505
669.500	421.023	80.007	19.994	103.784	19.704	36.816	0.523
670.000	421.270	80.007	19.993	103.785	19.704	36.849	0.536
670.500	421.522	80.006	19.994	103.786	19.700	37.118	0.518
671.000	421.796	80.007	19.993	103.786	19.699	37.211	0.513
671.500	422.026	80.007	19.993	103.786	19.696	37.392	0.515
672.000	422.269	80.006	19.993	103.785	19.695	37.517	0.489
672.500	422.537	80.006	19.994	103.783	19.695	37.507	0.492
673.000	422.794	80.006	19.994	103.783	19.692	37.697	0.518
673.500	423.032	80.005	19.994	103.780	19.690	37.894	0.510
674.000	423.297	80.004	19.993	103.777	19.686	38.159	0.499
674.500	423.562	80.006	19.994	103.776	19.686	38.141	0.517
675.000	423.825	80.006	19.994	103.776	19.685	38.204	0.529
675.500	424.080	80.007	19.993	103.776	19.682	38.434	0.523
676.000	424.308	80.007	19.994	103.778	19.679	38.700	0.500
676.500	424.552	80.007	19.994	103.781	19.677	38.817	0.477
677.000	424.829	80.007	19.994	103.782	19.676	38.873	0.496
677.500	425.058	80.008	19.994	103.781	19.676	38.867	0.514
678.000	425.335	80.007	19.994	103.781	19.676	38.886	0.506
678.500	425.600	80.008	19.994	103.780	19.673	39.128	0.524
679.000	425.838	80.007	19.995	103.780	19.673	39.073	0.522
679.500	426.103	80.008	19.995	103.777	19.666	39.626	0.503
680.000	426.390	80.008	19.994	103.774	19.663	39.808	0.527
680.500	426.615	80.008	19.993	103.774	19.659	40.096	0.532
681.000	426.888	80.009	19.993	103.774	19.658	40.205	0.506
681.500	427.136	80.008	19.992	103.774	19.660	40.040	0.510
682.000	427.368	80.010	19.994	103.777	19.660	40.025	0.500
682.500	427.585	80.007	19.992	103.781	19.656	40.318	0.464
683.000	427.853	80.009	19.995	103.779	19.653	40.544	0.467
683.500	428.133	80.009	19.994	103.780	19.650	40.828	0.516
684.000	428.372	80.010	19.994	103.778	19.648	40.961	0.533
684.500	428.660	80.009	19.992	103.776	19.648	40.968	0.523
685.000	428.897	80.008	19.994	103.777	19.646	41.073	0.526
685.500	429.134	80.011	19.993	103.777	19.644	41.259	0.500
686.000	429.370	80.009	19.993	103.776	19.641	41.478	0.474
686.500	429.657	80.011	19.992	103.772	19.638	41.676	0.498
687.000	429.889	80.009	19.993	103.770	19.635	41.893	0.521
687.500	430.166	80.010	19.993	103.769	19.636	41.813	0.514
688.000	430.413	80.008	19.993	103.769	19.630	42.285	0.516
688.500	430.657	80.011	19.993	103.770	19.628	42.418	0.507
689.000	430.922	80.009	19.993	103.772	19.628	42.402	0.500
689.500	431.166	80.009	19.993	103.770	19.630	42.237	0.509
690.000	431.419	80.009	19.993	103.768	19.624	42.724	0.503
690.500	431.680	80.008	19.993	103.766	19.624	42.701	0.505
691.000	431.919	80.008	19.993	103.766	19.621	42.905	0.507
691.500	432.181	80.007	19.993	103.765	19.620	42.987	0.501
692.000	432.447	80.008	19.994	103.769	19.620	43.020	0.515
692.500	432.717	80.007	19.993	103.770	19.615	43.371	0.532
693.000	432.956	80.009	19.993	103.773	19.614	43.445	0.523
693.500	433.190	80.006	19.994	103.774	19.612	43.607	0.491
694.000	433.477	80.009	19.994	103.776	19.608	43.864	0.497
694.500	433.715	80.006	19.994	103.778	19.609	43.787	0.523
695.000	433.951	80.005	19.993	103.777	19.604	44.143	0.499
695.500	434.251	80.005	19.995	103.774	19.606	44.039	0.505
696.000	434.515	80.005	19.994	103.770	19.604	44.153	0.550
696.500	434.730	80.007	19.993	103.766	19.603	44.244	0.522
697.000	434.966	80.004	19.993	103.766	19.600	44.463	0.465
697.500	435.245	80.005	19.993	103.768	19.596	44.733	0.483
698.000	435.529	80.005	19.994	103.768	19.595	44.828	0.539
698.500	435.767	80.006	19.995	103.768	19.594	44.872	0.542
699.000	436.024	80.003	19.994	103.767	19.592	45.000	0.508
699.500	436.261	80.006	19.994	103.766	19.591	45.145	0.494
700.000	436.537	80.005	19.994	103.766	19.589	45.241	0.504
700.500	436.778	80.006	19.994	103.766	19.588	45.349	0.515
701.000	437.014	80.006	19.994	103.769	19.586	45.468	0.497
701.500	437.286	80.005	19.994	103.773	19.589	45.285	0.492
702.000	437.511	80.005	19.995	103.769	19.582	45.744	0.502
702.500	437.801	80.006	19.993	103.769	19.581	45.875	0.506
703.000	438.069	80.005	19.994	103.773	19.582	45.766	0.536
703.500	438.306	80.006	19.995	103.774	19.578	46.082	0.531
704.000	438.558	80.007	19.995	103.774	19.578	46.072	0.497
704.500	438.795	80.006	19.995	103.777	19.572	46.525	0.489
705.000	439.046	80.006	19.994	103.776	19.574	46.324	0.489
705.500	439.295	80.005	19.994	103.774	19.572	46.488	0.494
706.000	439.562	80.007	19.994	103.772	19.574	46.380	0.508
706.500	439.803	80.005	19.994	103.767	19.571	46.607	0.512
707.000	440.066	80.005	19.994	103.767	19.567	46.839	0.506
707.500	440.325	80.004	19.994	103.766	19.566	46.953	0.513
708.000	440.575	80.004	19.994	103.761	19.564	47.111	0.515
708.500	440.809	80.005	19.994	103.759	19.564	47.095	0.496
709.000	441.075	80.005	19.995	103.759	19.565	47.025	0.492
709.500	441.321	80.006	19.993	103.754	19.561	47.321	0.506
710.000	441.604	80.004	19.994	103.755	19.558	47.531	0.520
710.500	441.879	80.005	19.993	103.759	19.558	47.520	0.544
711.000	442.100	80.006	19.995	103.764	19.555	47.731	0.527
711.500	442.361	80.005	19.994	103.771	19.553	47.872	0.489
712.000	442.615	80.006	19.993	103.778	19.550	48.079	0.498
712.500	442.867	80.006	19.994	103.780	19.550	48.140	0.510
713.000	443.146	80.007	19.993	103.782	19.550	48.088	0.519
713.500	443.385	80.006	19.994	103.775	19.551	48.052	0.525
714.000	443.626	80.006	19.993	103.772	19.544	48.536	0.499
714.500	443.891	80.006	19.993	103.767	19.544	48.536	0.493
715.000	444.161	80.006	19.993	103.762	19.542	48.688	0.520
715.500	444.427	80.008	19.994	103.756	19.544	48.576	0.535
716.000	444.667	80.006	19.993	103.756	19.545	48.460	0.521
716.500	444.924	80.007	19.992	103.754	19.541	48.742	0.502
717.000	445.170	80.006	19.993	103.752	19.538	49.008	0.500
717.500	445.414	80.006	19.993	103.751	19.536	49.158	0.497
718.000	445.676	80.006	19.993	103.750	19.536	49.138	0.498
718.500	445.893	80.006	19.994	103.751	19.536	49.120	0.492
719.000	446.161	80.007	19.993	103.752	19.534	49.310	0.481
719.500	446.415	80.006	19.994	103.752	19.537	49.039	0.504
720.000	446.693	80.007	19.993	103.751	19.533	49.346	0.527
720.500	446.908	80.005	19.993	103.754	19.533	49.338	0.512
721.000	447.172	80.005	19.992	103.756	19.529	49.617	0.486
721.500	447.438	80.006	19.992	103.754	19.527	49.820	0.504
722.000	447.699	80.004	19.993	103.754	19.527	49.775	0.529
722.500	447.951	80.006	19.993	103.753	19.528	49.719	0.520
723.000	448.207	80.005	19.993	103.750	19.528	49.729	0.510
723.500	448.444	80.005	19.994	103.747	19.525	49.966	0.501
724.000	448.718	80.005	19.994	103.746	19.524	49.986	0.503
724.500	448.944	80.006	19.993	103.746	19.525	49.913	0.506
725.000	449.204	80.006	19.994	103.748	19.525	49.903	0.493
725.500	449.471	80.007	19.993	103.748	19.523	50.115	0.506
726.000	449.687	80.002	19.994	103.748	19.519	50.350	0.504
726.500	449.948	80.007	19.995	103.748	19.519	50.364	0.480
727.000	450.216	80.005	19.994	103.752	19.518	50.445	0.503
727.500	450.470	80.006	19.994	103.753	19.518	50.461	0.525
728.000	450.708	80.006	19.993	103.756	19.516	50.566	0.507
728.500	450.934	80.008	19.994	103.757	19.519	50.342	0.478
729.000	451.198	80.006	19.994	103.756	19.519	50.358	0.477
729.500	451.472	80.004	19.994	103.752	19.516	50.581	0.513
730.000	451.725	80.007	19.994	103.749	19.516	50.558	0.532
730.500	451.977	80.006	19.994	103.746	19.516	50.592	0.516
731.000	452.226	80.007	19.993	103.747	19.516	50.596	0.503
731.500	452.465	80.006	19.994	103.747	19.518	50.417	0.495
732.000	452.736	80.006	19.992	103.747	19.517	50.501	0.499
732.500	453.012	80.007	19.993	103.747	19.519	50.367	0.528
733.000	453.248	80.006	19.993	103.749	19.514	50.748	0.529
733.500	453.523	80.005	19.993	103.748	19.516	50.560	0.511
734.000	453.783	80.005	19.992	103.747	19.515	50.677	0.523
734.500	454.024	79.998	19.993	103.748	19.515	50.658	0.518
735.000	454.252	80.005	19.993	103.748	19.515	50.647	0.485
735.500	454.503	80.006	19.994	103.746	19.511	50.975	0.475
736.000	454.790	80.004	19.994	103.746	19.515	50.691	0.508
736.500	455.018	80.005	19.994	103.748	19.516	50.587	0.526
737.000	455.323	80.006	19.993	103.749	19.516	50.569	0.524
737.500	455.565	80.006	19.994	103.748	19.518	50.453	0.540
738.000	455.818	80.002	19.995	103.747	19.518	50.444	0.521
738.500	456.052	80.007	19.993	103.748	19.517	50.505	0.491
739.000	456.285	80.007	19.993	103.746	19.518	50.463	0.477
739.500	456.543	80.009	19.993	103.744	19.520	50.317	0.479
740.000	456.804	80.009	19.994	103.744	19.520	50.267	0.506
740.500	457.017	80.009	19.994	103.744	19.519	50.367	0.497
741.000	457.277	80.007	19.993	103.742	19.523	50.060	0.473
741.500	457.560	80.008	19.993	103.742	19.523	50.100	0.507
742.000	457.784	80.006	19.993	103.743	19.523	50.075	0.525
742.500	458.067	80.011	19.994	103.743	19.527	49.757	0.508
743.000	458.314	80.005	19.993	103.743	19.525	49.960	0.519
743.500	458.585	80.008	19.993	103.742	19.528	49.694	0.524
744.000	458.843	80.007	19.993	103.743	19.526	49.865	0.524
744.500	459.066	80.009	19.993	103.742	19.532	49.459	0.505
745.000	459.312	80.008	19.993	103.742	19.535	49.202	0.474
745.500	459.596	80.010	19.993	103.743	19.530	49.541	0.499
746.000	459.849	80.009	19.993	103.744	19.535	49.207	0.534
746.500	460.093	80.008	19.994	103.744	19.533	49.352	0.517
747.000	460.345	80.009	19.993	103.744	19.535	49.220	0.497
747.500	460.606	80.008	19.994	103.745	19.535	49.235	0.505
748.000	460.867	80.009	19.992	103.744	19.541	48.730	0.518
748.500	461.104	80.008	19.992	103.744	19.543	48.612	0.510
749.000	461.332	80.009	19.993	103.744	19.542	48.686	0.481
749.500	461.604	80.011	19.993	103.743	19.542	48.710	0.483
750.000	461.851	80.007	19.994	103.743	19.543	48.615	0.510
750.500	462.128	80.008	19.993	103.745	19.545	48.445	0.521
751.000	462.367	80.008	19.993	103.745	19.546	48.380	0.520
751.500	462.636	80.008	19.993	103.745	19.549	48.168	0.512
752.000	462.886	80.008	19.993	103.745	19.555	47.772	0.514
752.500	463.150	80.007	19.993	103.745	19.556	47.637	0.517
753.000	463.377	80.008	19.992	103.744	19.554	47.814	0.502
753.500	463.648	80.009	19.992	103.744	19.560	47.397	0.494
754.000	463.900	80.005	19.992	103.744	19.561	47.294	0.510
754.500	464.170	80.007	19.992	103.745	19.565	47.035	0.523
755.000	464.414	80.008	19.993	103.746	19.566	46.905	0.518
755.500	464.652	80.006	19.993	103.746	19.569	46.704	0.498
756.000	464.890	80.008	19.993	103.745	19.570	46.655	0.479
756.500	465.150	80.009	19.993	103.743	19.574	46.344	0.486
757.000	465.395	80.007	19.992	103.743	19.577	46.137	0.502
757.500	465.679	80.008	19.993	103.742	19.579	45.986	0.518
758.000	465.904	80.006	19.993	103.742	19.582	45.775	0.519
758.500	466.165	80.007	19.993	103.743	19.585	45.544	0.497
759.000	466.440	80.007	19.992	103.745	19.591	45.125	0.511
759.500	466.698	80.007	19.993	103.744	19.592	45.010	0.534
760.000	466.971	80.009	19.992	103.745	19.595	44.822	0.532
760.500	467.220	80.008	19.993	103.745	19.596	44.716	0.527
761.000	467.428	80.007	19.992	103.745	19.597	44.641	0.490
761.500	467.702	80.008	19.994	103.745	19.603	44.243	0.470
762.000	467.928	80.008	19.992	103.745	19.607	43.964	0.491
762.500	468.228	80.004	19.994	103.748	19.609	43.781	0.513
763.000	468.450	80.008	19.993	103.749	19.613	43.464	0.524
763.500	468.698	80.005	19.993	103.750	19.620	43.015	0.496
764.000	468.965	80.009	19.992	103.750	19.621	42.893	0.492
764.500	469.235	80.008	19.994	103.750	19.624	42.707	0.526
765.000	469.457	80.008	19.993	103.747	19.625	42.641	0.515
765.500	469.687	80.008	19.993	103.747	19.631	42.200	0.472
766.000	469.995	80.008	19.993	103.747	19.637	41.726	0.496
766.500	470.230	80.007	19.993	103.747	19.637	41.737	0.541
767.000	470.480	80.009	19.993	103.747	19.642	41.339	0.514
767.500	470.717	80.008	19.994	103.748	19.643	41.265	0.486
768.000	470.998	80.011	19.992	103.747	19.651	40.682	0.503
768.500	471.268	80.009	19.993	103.747	19.655	40.455	0.534
769.000	471.509	80.008	19.992	103.747	19.658	40.172	0.531
769.500	471.770	80.012	19.994	103.748	19.660	40.087	0.507
770.000	472.038	80.007	19.993	103.749	19.667	39.567	0.515
770.500	472.288	80.008	19.994	103.751	19.672	39.210	0.523
771.000	472.516	80.009	19.994	103.754	19.678	38.709	0.498
771.500	472.805	80.007	19.994	103.758	19.681	38.533	0.498
772.000	473.052	80.009	19.993	103.760	19.685	38.247	0.526
772.500	473.307	80.010	19.993	103.759	19.692	37.711	0.519
773.000	473.572	80.009	19.993	103.758	19.692	37.689	0.511
773.500	473.829	80.010	19.993	103.755	19.698	37.289	0.521
774.000	474.101	80.006	19.993	103.753	19.703	36.917	0.526
774.500	474.347	80.008	19.994	103.751	19.707	36.600	0.524
775.000	474.650	80.003	19.993	103.750	19.710	36.408	0.534
775.500	474.854	80.008	19.994	103.753	19.716	35.927	0.528
776.000	475.137	80.008	19.993	103.752	19.722	35.549	0.497
776.500	475.401	80.006	19.993	103.750	19.727	35.114	0.517
777.000	475.637	80.011	19.993	103.749	19.734	34.659	0.523
777.500	475.945	80.008	19.993	103.752	19.738	34.378	0.522
778.000	476.157	80.008	19.992	103.753	19.744	33.921	0.532
778.500	476.374	80.006	19.993	103.756	19.744	33.895	0.475
779.000	476.646	80.004	19.993	103.757	19.754	33.197	0.459
779.500	476.896	80.007	19.993	103.758	19.757	32.990	0.505
780.000	477.171	80.007	19.995	103.755	19.759	32.838	0.523
780.500	477.397	80.009	19.994	103.751	19.764	32.414	0.513
781.000	477.656	80.006	19.993	103.751	19.770	32.010	0.493
781.500	477.910	80.006	19.994	103.756	19.775	31.656	0.499
782.000	478.179	80.008	19.993	103.756	19.778	31.424	0.518
782.500	478.445	80.006	19.993	103.760	19.783	31.036	0.529
783.000	478.672	80.007	19.992	103.763	19.790	30.570	0.514
783.500	478.936	80.007	19.993	103.762	19.794	30.265	0.492
784.000	479.211	80.007	19.994	103.760	19.797	30.009	0.515
784.500	479.477	80.005	19.994	103.761	19.802	29.681	0.540
785.000	479.743	80.007	19.994	103.758	19.802	29.671	0.536
785.500	479.970	80.007	19.993	103.757	19.808	29.252	0.513
786.000	480.229	80.007	19.994	103.757	19.814	28.812	0.490
786.500	480.525	80.005	19.994	103.755	19.819	28.395	0.521
787.000	480.745	80.005	19.996	103.760	19.823	28.153	0.536
787.500	480.998	80.008	19.993	103.764	19.829	27.689	0.494
788.000	481.277	80.007	19.993	103.769	19.831	27.538	0.502
788.500	481.553	80.007	19.993	103.773	19.837	27.065	0.544
789.000	481.800	80.007	19.993	103.777	19.839	26.928	0.540
789.500	482.052	80.006	19.994	103.775	19.845	26.508	0.511
790.000	482.305	80.006	19.993	103.774	19.850	26.127	0.502
790.500	482.567	80.006	19.994	103.772	19.855	25.795	0.510
791.000	482.856	80.006	19.995	103.771	19.858	25.591	0.533
791.500	483.090	80.004	19.993	103.771	19.862	25.286	0.537
792.000	483.344	80.011	19.993	103.773	19.868	24.803	0.505
792.500	483.588	80.003	19.994	103.773	19.869	24.770	0.493
793.000	483.859	80.008	19.994	103.772	19.876	24.226	0.507
793.500	484.126	80.005	19.995	103.771	19.876	24.212	0.527
794.000	484.322	80.007	19.993	103.771	19.884	23.667	0.501
794.500	484.591	80.004	19.995	103.771	19.889	23.257	0.464
795.000	484.859	80.008	19.995	103.773	19.893	22.979	0.501
795.500	485.102	80.009	19.994	103.775	19.900	22.467	0.524
796.000	485.395	80.000	19.995	103.775	19.902	22.318	0.523
796.500	485.631	80.006	19.995	103.772	19.904	22.195	0.532
797.000	485.892	80.003	19.995	103.771	19.910	21.784	0.513
797.500	486.167	80.012	19.993	103.769	19.914	21.429	0.517
798.000	486.408	80.008	19.994	103.771	19.911	21.687	0.526
798.500	486.681	80.007	19.993	103.771	19.920	21.026	0.515
799.000	486.907	80.004	19.993	103.773	19.922	20.846	0.506
799.500	487.118	80.008	19.994	103.771	19.929	20.348	0.468
800.000	487.405	80.005	19.995	103.773	19.930	20.302	0.468
800.500	487.682	80.008	19.994	103.771	19.933	20.052	0.531
801.000	487.918	80.009	19.994	103.768	19.938	19.685	0.539
801.500	488.196	80.015	19.992	103.770	19.945	19.191	0.513
802.000	488.438	80.008	19.993	103.776	19.946	19.092	0.517
802.500	488.683	80.009	19.994	103.775	19.951	18.728	0.503
803.000	488.960	80.005	19.994	103.772	19.955	18.440	0.504
803.500	489.213	79.993	19.996	103.775	19.956	18.365	0.526
804.000	489.500	80.002	19.995	103.771	19.965	17.722	0.535
804.500	489.753	80.005	19.994	103.765	19.965	17.721	0.540
805.000	489.976	80.025	19.994	103.765	19.967	17.552	0.508
805.500	490.255	80.015	19.993	103.764	19.969	17.399	0.490
806.000	490.486	80.024	19.991	103.761	19.970	17.373	0.507
806.500	490.731	80.008	19.993	103.768	19.974	17.064	0.493
807.000	491.038	80.022	19.993	103.772	19.972	17.226	0.513
807.500	491.243	79.993	19.995	103.773	19.981	16.552	0.532
808.000	491.505	80.017	19.991	103.778	19.986	16.146	0.490
808.500	491.770	80.012	19.993	103.784	19.987	16.098	0.497
809.000	492.059	80.008	19.993	103.781	19.991	15.806	0.540
809.500	492.313	80.015	19.992	103.779	19.994	15.589	0.549
810.000	492.574	80.006	19.994	103.778	19.997	15.341	0.529
810.500	492.829	80.006	19.995	103.779	20.001	15.098	0.516
811.000	493.082	80.009	19.991	103.777	20.002	15.008	0.513
811.500	493.329	80.018	19.993	103.780	20.001	15.051	0.504
812.000	493.618	80.009	19.993	103.779	20.006	14.739	0.518
812.500	493.867	80.007	19.993	103.779	20.009	14.518	0.537
813.000	494.132	80.016	19.993	103.779	20.014	14.114	0.526
813.500	494.373	80.013	19.993	103.780	20.012	14.248	0.510
814.000	494.650	80.005	19.993	103.778	20.016	14.005	0.512
814.500	494.922	79.999	19.994	103.780	20.020	13.654	0.533
815.000	495.200	79.997	19.994	103.779	20.022	13.525	0.550
815.500	495.465	80.006	19.993	103.777	20.023	13.436	0.546
816.000	495.752	80.013	19.991	103.778	20.024	13.392	0.547
816.500	495.982	80.010	19.993	103.780	20.029	13.061	0.534
817.000	496.252	80.024	19.994	103.779	20.031	12.892	0.508
817.500	496.514	80.013	19.992	103.777	20.031	12.868	0.516
818.000	496.776	80.019	19.994	103.780	20.038	12.339	0.528
818.500	497.003	80.011	19.992	103.776	20.041	12.169	0.506
819.000	497.241	80.010	19.994	103.775	20.041	12.161	0.477
819.500	497.533	80.008	19.992	103.776	20.046	11.774	0.498
820.000	497.810	79.999	19.994	103.782	20.050	11.519	0.549
820.500	498.032	80.014	19.993	103.780	20.049	11.585	0.534
821.000	498.274	79.983	19.996	103.776	20.052	11.381	0.482
821.500	498.528	79.987	19.996	103.772	20.056	11.056	0.480
822.000	498.784	80.006	19.995	103.771	20.055	11.110	0.503
822.500	499.104	80.006	19.993	103.767	20.058	10.902	0.543
823.000	499.367	80.003	19.993	103.766	20.061	10.670	0.580
823.500	499.595	80.012	19.994	103.772	20.060	10.793	0.537
824.000	499.886	80.017	19.991	103.774	20.058	10.931	0.505
824.500	500.094	80.019	19.992	103.775	20.062	10.627	0.509
825.000	500.394	80.005	19.992	103.773	20.065	10.360	0.504
825.500	500.630	80.017	19.991	103.772	20.069	10.097	0.522
826.000	500.867	80.009	19.995	103.771	20.072	9.879	0.504
826.500	501.139	80.006	19.994	103.766	20.072	9.904	0.491
827.000	501.430	80.012	19.992	103.764	20.067	10.282	0.536
827.500	501.644	80.011	19.992	103.769	20.066	10.338	0.534
828.000	501.920	80.002	19.993	103.771	20.073	9.774	0.498
828.500	502.136	80.008	19.992	103.772	20.077	9.485	0.491
829.000	502.428	80.000	19.995	103.777	20.075	9.632	0.500
829.500	502.689	80.006	19.995	103.778	20.079	9.397	0.530
830.000	502.926	80.008	19.994	103.774	20.083	9.104	0.525
830.500	503.216	80.010	19.993	103.771	20.083	9.054	0.513
831.000	503.479	80.022	19.991	103.770	20.084	8.971	0.540
831.500	503.750	80.010	19.993	103.771	20.085	8.920	0.544
832.000	503.983	80.022	19.992	103.776	20.087	8.781	0.519
832.500	504.245	80.000	19.994	103.780	20.090	8.587	0.499
833.000	504.529	80.000	19.992	103.781	20.090	8.596	0.520
833.500	504.799	80.007	19.992	103.785	20.089	8.616	0.550
834.000	505.011	79.992	19.995	103.783	20.090	8.586	0.518
834.500	505.273	79.996	19.994	103.774	20.090	8.549	0.478
835.000	505.572	80.013	19.992	103.765	20.093	8.338	0.518
835.500	505.835	80.004	19.994	103.768	20.095	8.231	0.562
836.000	506.106	80.008	19.993	103.764	20.098	7.960	0.548
836.500	506.348	80.005	19.993	103.767	20.101	7.731	0.524
837.000	506.598	80.007	19.993	103.777	20.101	7.747	0.502
837.500	506.809	79.998	19.994	103.784	20.102	7.651	0.476
838.000	507.094	80.008	19.994	103.782	20.105	7.484	0.479
838.500	507.344	80.006	19.994	103.785	20.104	7.522	0.516
839.000	507.610	80.002	19.994	103.782	20.104	7.518	0.525
839.500	507.856	80.009	19.992	103.775	20.104	7.526	0.514
840.000	508.123	80.015	19.994	103.772	20.103	7.584	0.513
840.500	508.401	80.021	19.993	103.771	20.109	7.156	0.529
841.000	508.599	79.988	19.995	103.771	20.108	7.241	0.511
841.500	508.894	79.996	19.993	103.771	20.108	7.225	0.484
842.000	509.140	80.010	19.991	103.773	20.107	7.349	0.516
842.500	509.413	80.011	19.992	103.778	20.113	6.895	0.530
843.000	509.659	80.008	19.993	103.784	20.113	6.871	0.520
843.500	509.905	80.001	19.992	103.783	20.113	6.863	0.506
844.000	510.158	80.017	19.992	103.786	20.112	6.958	0.495
844.500	510.447	80.018	19.990	103.787	20.116	6.670	0.520
845.000	510.692	80.013	19.992	103.786	20.116	6.640	0.538
845.500	510.982	79.997	19.994	103.781	20.114	6.791	0.534
846.000	511.209	80.004	19.993	103.779	20.117	6.602	0.526
846.500	511.454	80.005	19.994	103.781	20.117	6.564	0.495
847.000	511.686	80.006	19.995	103.782	20.117	6.554	0.475
847.500	511.950	79.993	19.994	103.782	20.122	6.237	0.486
848.000	512.209	80.006	19.992	103.782	20.122	6.202	0.509
848.500	512.491	79.993	19.994	103.785	20.122	6.225	0.532
849.000	512.758	79.989	19.992	103.781	20.123	6.148	0.545
849.500	512.990	80.004	19.992	103.784	20.125	5.994	0.524
850.000	513.260	79.988	19.993	103.781	20.123	6.120	0.501
850.500	513.532	80.014	19.991	103.782	20.123	6.170	0.522
851.000	513.802	80.020	19.989	103.783	20.123	6.114	0.542
851.500	514.038	80.014	19.994	103.788	20.126	5.941	0.524
852.000	514.308	80.015	19.991	103.784	20.124	6.064	0.506
852.500	514.576	80.014	19.991	103.787	20.129	5.705	0.522
853.000	514.834	80.010	19.991	103.789	20.127	5.823	0.531
853.500	515.084	80.007	19.992	103.786	20.128	5.811	0.517
854.000	515.337	79.997	19.994	103.781	20.128	5.795	0.506
854.500	515.623	80.017	19.992	103.782	20.128	5.745	0.521
855.000	515.917	80.014	19.990	103.782	20.130	5.656	0.560
855.500	516.142	80.016	19.992	103.784	20.130	5.638	0.550
856.000	516.391	80.005	19.995	103.786	20.128	5.803	0.496
856.500	516.655	80.028	19.991	103.783	20.129	5.677	0.494
857.000	516.910	80.013	19.992	103.785	20.126	5.962	0.517
857.500	517.125	80.003	19.993	103.784	20.133	5.405	0.494
858.000	517.474	80.010	19.993	103.778	20.133	5.446	0.516
858.500	517.667	80.007	19.993	103.778	20.133	5.391	0.553
859.000	517.921	80.010	19.993	103.784	20.133	5.427	0.495
859.500	518.248	79.994	19.994	103.783	20.134	5.325	0.514
860.000	518.431	80.009	19.994	103.782	20.135	5.271	0.546
860.500	518.796	80.015	19.993	103.784	20.137	5.134	0.529
861.000	519.029	80.009	19.992	103.783	20.135	5.303	0.573
861.500	519.239	80.024	19.991	103.784	20.136	5.229	0.521
862.000	519.500	79.983	19.995	103.784	20.135	5.291	0.457
862.500	519.722	80.014	19.992	103.784	20.138	5.034	0.477
863.000	520.045	80.012	19.992	103.781	20.135	5.258	0.514
863.500	520.282	79.985	19.994	103.778	20.137	5.138	0.552
864.000	520.511	79.998	19.994	103.776	20.138	5.050	0.512
864.500	520.834	80.012	19.993	103.773	20.140	4.913	0.509
865.000	521.079	80.025	19.992	103.775	20.140	4.873	0.560
865.500	521.302	79.983	19.996	103.780	20.143	4.704	0.518
866.000	521.564	80.008	19.993	103.777	20.140	4.875	0.476
866.500	521.835	80.004	19.993	103.778	20.138	5.054	0.509
867.000	522.087	79.997	19.996	103.777	20.137	5.152	0.528
867.500	522.326	79.998	19.994	103.772	20.145	4.554	0.507
868.000	522.632	80.017	19.992	103.771	20.140	4.871	0.518
868.500	522.836	80.004	19.995	103.777	20.143	4.660	0.528
869.000	523.122	79.999	19.993	103.776	20.144	4.600	0.500
869.500	523.426	80.006	19.994	103.775	20.140	4.877	0.540
870.000	523.665	80.004	19.994	103.782	20.142	4.719	0.566
870.500	523.857	79.997	19.996	103.781	20.142	4.777	0.487
871.000	524.167	80.003	19.993	103.774	20.144	4.632	0.466
871.500	524.456	80.006	19.992	103.776	20.141	4.817	0.550
872.000	524.684	79.986	19.995	103.778	20.145	4.528	0.558
872.500	524.919	80.016	19.992	103.775	20.143	4.670	0.490
873.000	525.226	80.000	19.995	103.778	20.140	4.879	0.502
873.500	525.473	80.011	19.992	103.782	20.146	4.437	0.548
874.000	525.706	80.006	19.994	103.784	20.144	4.572	0.517
874.500	525.970	80.006	19.994	103.781	20.144	4.624	0.489
875.000	526.208	79.999	19.994	103.778	20.147	4.407	0.500
875.500	526.507	80.010	19.993	103.773	20.144	4.606	0.519
876.000	526.760	80.012	19.993	103.775	20.142	4.731	0.544
876.500	527.016	80.003	19.994	103.774	20.143	4.650	0.530
877.000	527.269	80.001	19.994	103.774	20.141	4.803	0.509
877.500	527.516	80.007	19.995	103.777	20.145	4.536	0.505
878.000	527.749	80.002	19.993	103.778	20.143	4.664	0.490
878.500	528.060	79.993	19.994	103.778	20.142	4.757	0.512
879.000	528.319	80.007	19.995	103.774	20.146	4.473	0.557
879.500	528.586	80.010	19.994	103.774	20.149	4.272	0.548
880.000	528.844	80.012	19.993	103.775	20.147	4.377	0.525
880.500	529.048	79.993	19.996	103.776	20.145	4.509	0.494
881.000	529.304	79.990	19.995	103.771	20.148	4.337	0.461
881.500	529.603	80.006	19.994	103.774	20.146	4.483	0.508
882.000	529.875	80.006	19.993	103.775	20.147	4.399	0.563
882.500	530.085	80.010	19.993	103.776	20.150	4.166	0.526
883.000	530.390	80.016	19.992	103.775	20.145	4.503	0.498
883.500	530.671	80.012	19.992	103.779	20.146	4.445	0.551
884.000	530.864	80.007	19.994	103.780	20.144	4.612	0.530
884.500	531.155	80.005	19.995	103.781	20.151	4.100	0.479
885.000	531.459	80.002	19.996	103.779	20.151	4.124	0.540
885.500	531.646	80.010	19.994	103.778	20.144	4.614	0.543
886.000	531.934	80.004	19.995	103.778	20.155	3.836	0.483
886.500	532.161	80.002	19.992	103.775	20.153	3.973	0.495
887.000	532.420	80.006	19.994	103.775	20.141	4.791	0.501
887.500	532.756	80.008	19.995	103.772	20.151	4.124	0.541
888.000	532.971	80.008	19.995	103.771	20.150	4.196	0.573
888.500	533.145	80.008	19.994	103.769	20.156	3.738	0.469
889.000	533.467	80.018	19.993	103.772	20.150	4.160	0.442
889.500	533.686	80.004	19.995	103.772	20.152	3.989	0.519
890.000	534.011	80.006	19.994	103.776	20.147	4.355	0.542
890.500	534.347	80.015	19.992	103.778	20.154	3.897	0.603
891.000	534.505	79.993	19.995	103.782	20.144	4.574	0.578
891.500	534.801	80.004	19.993	103.782	20.146	4.429	0.474
892.000	534.977	80.006	19.993	103.780	20.151	4.092	0.462
892.500	535.312	80.005	19.994	103.785	20.149	4.210	0.491
893.000	535.504	80.004	19.996	103.787	20.151	4.125	0.519
893.500	535.886	79.995	19.996	103.785	20.153	3.965	0.551
894.000	536.089	79.994	19.996	103.786	20.150	4.140	0.580
894.500	536.290	80.013	19.993	103.786	20.151	4.118	0.494
895.000	536.690	80.015	19.993	103.784	20.149	4.263	0.502
895.500	536.865	80.010	19.994	103.782	20.155	3.780	0.588
896.000	537.112	80.016	19.993	103.781	20.151	4.070	0.499
896.500	537.312	79.999	19.995	103.782	20.151	4.122	0.434
897.000	537.566	80.003	19.995	103.782	20.151	4.060	0.450
897.500	537.811	79.999	19.996	103.782	20.149	4.248	0.477
898.000	538.179	80.002	19.994	103.782	20.150	4.140	0.557
898.500	538.454	80.016	19.994	103.784	20.149	4.208	0.628
899.000	538.708	80.002	19.994	103.784	20.148	4.319	0.586
899.500	538.952	80.015	19.994	103.787	20.150	4.136	0.514
900.000	539.698	80.013	19.995	103.787	20.147	4.397	0.744
900.500	539.884	80.002	19.998	103.789	20.148	4.320	0.961
901.000	539.507	79.993	19.996	103.783	20.151	4.097	0.371
901.500	539.763	80.007	19.994	103.776	20.148	4.298	-0.156
902.000	540.240	80.012	19.992	103.774	20.156	3.748	0.306
902.500	540.718	80.013	19.992	103.776	20.153	3.931	0.844
903.000	540.775	80.006	19.994	103.779	20.153	3.961	0.744
903.500	540.966	80.013	19.993	103.785	20.150	4.133	0.392
904.000	541.146	79.999	19.995	103.789	20.151	4.129	0.310
904.500	541.585	80.000	19.995	103.786	20.150	4.202	0.495
905.000	541.666	79.987	19.997	103.784	20.152	4.015	0.570
905.500	541.963	80.012	19.992	103.776	20.152	4.055	0.449
906.000	542.258	80.006	19.994	103.775	20.149	4.254	0.485
906.500	542.512	80.010	19.994	103.775	20.152	4.035	0.571
907.000	542.722	80.018	19.994	103.776	20.153	3.973	0.507
907.500	543.043	80.004	19.998	103.777	20.149	4.254	0.498
908.000	543.194	80.013	19.994	103.776	20.149	4.248	0.502
908.500	543.571	80.003	19.992	103.777	20.149	4.248	0.500
909.000	543.678	80.000	19.996	103.780	20.148	4.311	0.506
909.500	544.027	80.018	19.992	103.777	20.149	4.261	0.470
910.000	544.242	80.013	19.993	103.779	20.151	4.120	0.510
910.500	544.527	79.999	19.993	103.787	20.149	4.254	0.532
911.000	544.830	80.011	19.991	103.783	20.149	4.262	0.544
911.500	544.942	80.006	19.995	103.783	20.155	3.822	0.501
912.000	545.264	80.017	19.993	103.786	20.156	3.718	0.424
912.500	545.510	80.010	19.994	103.787	20.151	4.104	0.501
913.000	545.794	80.004	19.994	103.785	20.151	4.066	0.549
913.500	546.061	80.012	19.991	103.786	20.150	4.154	0.540
914.000	546.270	80.015	19.992	103.787	20.149	4.256	0.513
914.500	546.541	80.005	19.993	103.792	20.153	3.953	0.478
915.000	546.739	80.008	19.992	103.790	20.151	4.116	0.474
915.500	547.045	79.996	19.995	103.792	20.156	3.720	0.486
916.000	547.344	80.024	19.992	103.790	20.149	4.215	0.554
916.500	547.567	80.008	19.993	103.789	20.151	4.086	0.564
917.000	547.770	80.013	19.992	103.785	20.151	4.094	0.474
917.500	548.071	80.013	19.993	103.786	20.153	3.945	0.465
918.000	548.342	79.989	19.995	103.785	20.150	4.198	0.538
918.500	548.567	79.987	19.992	103.786	20.154	3.854	0.534
919.000	548.837	80.024	19.990	103.779	20.152	4.011	0.495
919.500	549.068	79.997	19.995	103.777	20.150	4.144	0.497
920.000	549.335	80.008	19.991	103.770	20.152	4.008	0.499
920.500	549.623	80.005	19.992	103.771	20.152	4.030	0.527
921.000	549.826	80.013	19.998	103.773	20.152	4.048	0.523
921.500	550.033	79.997	19.997	103.778	20.153	3.981	0.450
922.000	550.336	79.999	19.996	103.777	20.150	4.194	0.460
922.500	550.591	80.004	19.991	103.782	20.151	4.067	0.534
923.000	550.857	80.001	19.995	103.779	20.152	4.033	0.539
923.500	551.088	80.005	19.995	103.777	20.151	4.059	0.509
924.000	551.372	80.011	19.993	103.773	20.151	4.124	0.506
924.500	551.657	80.002	19.994	103.776	20.154	3.855	0.542
925.000	551.891	79.995	19.997	103.778	20.153	3.923	0.544
925.500	552.170	80.005	19.994	103.771	20.158	3.616	0.516
926.000	552.428	80.009	19.993	103.771	20.155	3.765	0.525
926.500	552.711	80.004	19.990	103.772	20.156	3.725	0.539
927.000	552.954	80.008	19.996	103.770	20.155	3.769	0.533
927.500	553.160	80.008	19.997	103.768	20.154	3.843	0.488
928.000	553.453	80.010	19.990	103.774	20.155	3.822	0.474
928.500	553.732	80.015	19.993	103.777	20.154	3.905	0.535
929.000	553.993	80.033	19.990	103.780	20.150	4.140	0.556
929.500	554.220	80.004	19.991	103.786	20.158	3.555	0.514
930.000	554.523	80.012	19.995	103.783	20.153	3.961	0.509
930.500	554.753	80.010	19.993	103.779	20.156	3.696	0.531
931.000	555.043	80.009	19.993	103.772	20.157	3.678	0.526
931.500	555.281	80.005	19.994	103.772	20.158	3.615	0.524
932.000	555.537	80.024	19.992	103.769	20.155	3.802	0.511
932.500	555.794	80.010	19.994	103.776	20.155	3.828	0.504
933.000	556.064	79.993	19.996	103.781	20.155	3.772	0.519
933.500	556.310	80.014	19.992	103.785	20.155	3.776	0.521
934.000	556.558	80.009	19.993	103.785	20.156	3.754	0.506
934.500	556.777	80.011	19.994	103.784	20.154	3.867	0.481
935.000	557.083	80.014	19.993	103.779	20.156	3.724	0.495
935.500	557.320	79.998	19.994	103.775	20.151	4.086	0.534
936.000	557.554	80.014	19.994	103.771	20.156	3.698	0.507
936.500	557.841	80.003	19.994	103.765	20.153	3.959	0.496
937.000	558.112	80.011	19.992	103.762	20.155	3.820	0.540
937.500	558.331	80.009	19.994	103.764	20.154	3.853	0.524
938.000	558.615	80.012	19.995	103.767	20.154	3.877	0.496
938.500	558.901	80.011	19.987	103.773	20.156	3.748	0.537
939.000	559.138	80.005	19.997	103.781	20.153	3.929	0.547
939.500	559.414	80.005	19.997	103.782	20.155	3.836	0.518
940.000	559.663	80.006	19.992	103.780	20.157	3.664	0.519
940.500	559.915	80.011	19.994	103.779	20.152	3.997	0.513
941.000	560.178	80.016	19.993	103.779	20.152	3.989	0.508
941.500	560.400	80.002	19.994	103.777	20.153	3.939	0.501
942.000	560.682	80.006	19.992	103.779	20.152	4.009	0.495
942.500	560.934	80.022	19.992	103.783	20.154	3.866	0.519
943.000	561.172	80.003	19.990	103.782	20.155	3.826	0.512
943.500	561.440	80.013	19.993	103.781	20.153	3.965	0.498
944.000	561.721	80.006	19.993	103.778	20.156	3.708	0.527
944.500	562.003	80.010	19.993	103.777	20.153	3.951	0.556
945.000	562.237	80.006	19.996	103.776	20.153	3.971	0.540
945.500	562.538	80.007	19.989	103.774	20.154	3.875	0.526
946.000	562.729	80.002	19.996	103.775	20.152	4.005	0.514
946.500	563.033	80.017	19.990	103.776	20.149	4.230	0.494
947.000	563.260	80.008	19.994	103.778	20.152	4.031	0.513
947.500	563.489	80.006	19.992	103.778	20.149	4.260	0.493
948.000	563.733	80.002	19.994	103.779	20.153	3.925	0.464
948.500	564.062	80.007	19.991	103.779	20.154	3.899	0.522
949.000	564.260	80.022	19.991	103.781	20.152	4.017	0.550
949.500	564.510	80.010	19.993	103.781	20.152	3.995	0.488
950.000	564.822	80.011	19.994	103.781	20.151	4.110	0.505
950.500	565.054	80.013	19.988	103.781	20.154	3.851	0.553
951.000	565.271	79.989	19.992	103.784	20.154	3.893	0.497
951.500	565.539	80.006	19.996	103.781	20.152	4.029	0.467
952.000	565.824	80.014	19.989	103.777	20.155	3.823	0.519
952.500	566.077	80.026	19.989	103.779	20.156	3.741	0.546
953.000	566.313	80.020	19.989	103.781	20.155	3.793	0.513
953.500	566.569	80.003	19.993	103.783	20.152	4.004	0.490
954.000	566.860	80.006	19.993	103.785	20.153	3.976	0.520
954.500	567.107	80.006	19.997	103.788	20.154	3.845	0.543
955.000	567.345	80.006	19.994	103.785	20.153	3.929	0.512
955.500	567.574	80.006	19.991	103.783	20.153	3.959	0.476
956.000	567.873	80.015	19.995	103.781	20.152	4.003	0.497
956.500	568.118	80.010	19.996	103.780	20.154	3.884	0.536
957.000	568.346	80.013	19.993	103.780	20.153	3.975	0.508
957.500	568.594	80.003	19.992	103.782	20.155	3.780	0.474
958.000	568.877	80.009	19.996	103.781	20.153	3.985	0.503
958.500	569.142	79.999	19.992	103.781	20.151	4.122	0.540
959.000	569.380	80.000	19.997	103.783	20.154	3.895	0.526
959.500	569.657	80.007	19.988	103.780	20.152	4.041	0.509
960.000	569.891	80.009	19.992	103.779	20.153	3.961	0.513
960.500	570.141	80.006	19.993	103.780	20.150	4.164	0.497
961.000	570.380	80.000	19.994	103.780	20.151	4.063	0.486
961.500	570.665	80.006	19.995	103.777	20.150	4.198	0.506
962.000	570.901	80.005	19.996	103.777	20.150	4.180	0.523
962.500	571.146	80.010	19.996	103.777	20.153	3.927	0.501
963.000	571.432	80.012	19.996	103.773	20.153	3.923	0.506
963.500	571.648	80.001	19.995	103.767	20.154	3.895	0.516
964.000	571.944	80.008	19.994	103.764	20.156	3.734	0.507
964.500	572.198	80.019	19.989	103.766	20.152	4.011	0.531
965.000	572.465	80.006	19.997	103.769	20.153	3.975	0.535
965.500	572.723	80.012	19.993	103.772	20.156	3.724	0.523
966.000	573.007	80.002	19.994	103.778	20.155	3.822	0.534
966.500	573.265	80.018	19.995	103.785	20.156	3.764	0.542
967.000	573.513	80.004	19.998	103.788	20.154	3.853	0.524
967.500	573.788	80.005	19.998	103.785	20.156	3.758	0.515
968.000	574.038	79.999	19.993	103.785	20.157	3.656	0.524
968.500	574.323	80.004	19.995	103.785	20.157	3.688	0.529
969.000	574.561	80.004	19.993	103.785	20.157	3.690	0.529
969.500	574.862	80.007	19.994	103.782	20.155	3.814	0.531
970.000	575.118	80.006	19.993	103.783	20.156	3.696	0.548
970.500	575.375	80.009	19.996	103.784	20.159	3.507	0.535
971.000	575.630	80.001	19.997	103.783	20.155	3.780	0.512
971.500	575.896	80.003	19.996	103.782	20.152	4.011	0.516
972.000	576.149	80.009	19.995	103.780	20.153	3.947	0.520
972.500	576.355	79.995	19.996	103.778	20.156	3.726	0.489
973.000	576.648	80.004	20.000	103.772	20.155	3.804	0.479
973.500	576.874	80.009	19.994	103.771	20.156	3.744	0.509
974.000	577.176	80.010	19.990	103.772	20.155	3.770	0.524
974.500	577.376	80.008	19.988	103.774	20.153	3.981	0.515
975.000	577.640	80.006	19.999	103.777	20.155	3.822	0.483
975.500	577.935	79.999	19.994	103.783	20.154	3.887	0.512
976.000	578.140	80.000	19.996	103.783	20.154	3.909	0.530
976.500	578.415	80.009	19.994	103.781	20.153	3.929	0.490
977.000	578.687	80.006	19.992	103.781	20.153	3.959	0.513
977.500	578.979	80.002	19.997	103.782	20.153	3.961	0.555
978.000	579.216	80.003	19.996	103.780	20.153	3.977	0.546
978.500	579.489	80.010	19.997	103.778	20.152	4.055	0.519
979.000	579.741	80.003	19.987	103.776	20.148	4.340	0.518
979.500	579.976	80.004	19.993	103.777	20.149	4.276	0.506
980.000	580.247	80.003	19.996	103.776	20.148	4.282	0.496
980.500	580.496	80.010	19.991	103.777	20.151	4.130	0.513
981.000	580.757	80.004	19.998	103.782	20.150	4.148	0.515
981.500	581.011	80.008	19.995	103.786	20.150	4.202	0.512
982.000	581.261	80.004	19.998	103.785	20.151	4.063	0.510
982.500	581.544	80.006	19.993	103.783	20.151	4.070	0.518
983.000	581.778	80.008	19.993	103.785	20.152	3.991	0.525
983.500	582.078	80.009	19.994	103.784	20.150	4.164	0.525
984.000	582.334	80.009	19.995	103.785	20.154	3.847	0.545
984.500	582.557	80.010	19.994	103.783	20.151	4.064	0.518
985.000	582.819	80.004	19.994	103.784	20.154	3.859	0.482
985.500	583.071	80.007	19.992	103.783	20.153	3.959	0.499
986.000	583.327	80.009	19.999	103.784	20.152	4.007	0.511
986.500	583.582	80.008	19.996	103.783	20.153	3.933	0.510
987.000	583.835	80.007	19.996	103.785	20.154	3.903	0.509
987.500	584.102	80.013	19.993	103.785	20.152	3.989	0.514
988.000	584.379	80.009	19.997	103.787	20.151	4.128	0.532
988.500	584.607	80.013	19.990	103.783	20.152	3.995	0.524
989.000	584.865	80.011	19.993	103.785	20.151	4.072	0.496
989.500	585.147	80.013	19.993	103.785	20.148	4.286	0.514
990.000	585.365	80.004	19.995	103.785	20.150	4.154	0.520
990.500	585.653	80.004	19.995	103.783	20.153	3.921	0.502
991.000	585.880	80.006	19.994	103.784	20.152	4.054	0.511
991.500	586.168	80.010	19.990	103.783	20.150	4.132	0.515
992.000	586.398	80.005	19.995	103.781	20.152	4.053	0.516
992.500	586.583	80.013	19.994	103.778	20.151	4.059	0.467
993.000	586.879	80.008	19.994	103.779	20.152	4.015	0.448
993.500	587.134	80.006	19.996	103.778	20.152	4.017	0.516
994.000	587.396	80.002	19.998	103.778	20.153	3.969	0.534
994.500	587.622	80.010	19.995	103.778	20.151	4.110	0.502
995.000	587.876	80.009	19.995	103.780	20.154	3.901	0.483
995.500	588.193	80.013	19.989	103.779	20.153	3.967	0.525
996.000	588.412	80.009	19.990	103.781	20.149	4.254	0.554
996.500	588.652	80.013	19.990	103.782	20.152	4.025	0.497
997.000	588.945	80.009	19.993	103.782	20.151	4.103	0.496
997.500	589.208	80.011	19.997	103.782	20.152	4.003	0.545
998.000	589.429	80.021	19.993	103.782	20.151	4.085	0.520
998.500	589.709	80.001	19.992	103.782	20.149	4.246	0.492
999.000	589.960	80.012	19.994	103.780	20.148	4.343	0.516
999.500	590.281	80.012	19.993	103.780	20.153	3.945	0.552
1000.000	590.468	80.016	19.992	103.780	20.152	4.025	0.540
1000.500	590.767	80.016	19.997	103.781	20.149	4.228	0.497
1001.000	590.984	80.011	19.995	103.778	20.151	4.091	0.501
1001.500	591.236	80.012	19.994	103.779	20.154	3.905	0.492
1002.000	591.507	80.006	19.991	103.777	20.152	4.041	0.496
1002.500	591.767	80.016	19.992	103.778	20.151	4.111	0.527
1003.000	592.021	80.008	19.993	103.780	20.153	3.967	0.523
1003.500	592.278	80.004	19.991	103.784	20.150	4.136	0.513
1004.000	592.501	80.015	19.987	103.784	20.153	3.937	0.495
1004.500	592.782	80.010	19.994	103.788	20.154	3.877	0.492
1005.000	593.016	80.004	19.993	103.787	20.150	4.140	0.510
1005.500	593.309	80.008	19.992	103.783	20.150	4.172	0.521
1006.000	593.563	80.012	19.991	103.782	20.153	3.951	0.537
1006.500	593.833	80.006	19.994	103.783	20.148	4.282	0.536
1007.000	594.099	80.006	19.992	103.781	20.151	4.104	0.530
1007.500	594.325	80.012	19.994	103.782	20.149	4.206	0.514
1008.000	594.642	80.013	19.990	103.785	20.147	4.375	0.517
1008.500	594.858	80.000	19.993	103.785	20.149	4.256	0.538
1009.000	595.144	80.009	19.996	103.784	20.145	4.551	0.518
1009.500	595.404	80.000	19.994	103.784	20.149	4.242	0.524
1010.000	595.648	80.003	19.994	103.782	20.149	4.236	0.525
1010.500	595.890	80.010	19.991	103.782	20.150	4.152	0.495
1011.000	596.173	80.007	19.991	103.780	20.151	4.118	0.505
1011.500	596.386	80.011	19.990	103.781	20.150	4.140	0.510
1012.000	596.689	80.013	19.988	103.782	20.149	4.228	0.506
1012.500	596.880	80.011	19.995	103.785	20.148	4.286	0.505
1013.000	597.172	80.010	19.988	103.786	20.148	4.289	0.488
1013.500	597.452	80.014	19.996	103.786	20.147	4.357	0.528
1014.000	597.677	80.004	19.998	103.785	20.150	4.196	0.539
1014.500	597.959	80.000	20.000	103.783	20.148	4.291	0.506
1015.000	598.226	80.011	19.992	103.779	20.147	4.411	0.528
1015.500	598.481	80.009	19.994	103.780	20.151	4.122	0.536
1016.000	598.718	80.011	19.995	103.780	20.148	4.309	0.507
1016.500	598.985	80.009	19.994	103.780	20.148	4.348	0.498
1017.000	599.226	80.008	19.993	103.781	20.151	4.071	0.505
1017.500	599.495	80.005	19.992	103.783	20.151	4.087	0.509
1018.000	599.754	80.008	19.997	103.782	20.152	4.019	0.519
1018.500	600.017	80.018	19.992	103.781	20.149	4.274	0.525
1019.000	600.260	80.012	19.992	103.783	20.152	4.033	0.514
1019.500	600.535	80.015	19.985	103.784	20.151	4.100	0.512
1020.000	600.787	80.017	19.992	103.785	20.150	4.202	0.522
1020.500	601.019	80.005	19.988	103.787	20.148	4.323	0.505
1021.000	601.257	80.008	19.991	103.786	20.147	4.367	0.477
1021.500	601.566	80.002	19.992	103.784	20.151	4.098	0.509
1022.000	601.783	80.007	19.991	103.782	20.151	4.116	0.537
1022.500	601.995	80.003	20.000	103.781	20.148	4.334	0.478
1023.000	602.285	80.010	19.990	103.778	20.146	4.491	0.466
1023.500	602.534	80.008	19.995	103.778	20.146	4.443	0.520
1024.000	602.801	80.009	19.994	103.777	20.150	4.192	0.528
1024.499	603.042	80.009	19.994	103.777	20.148	4.293	0.512
1024.999	603.303	80.014	19.996	103.772	20.150	4.168	0.505
1025.499	603.554	80.009	19.990	103.772	20.148	4.335	0.507
1026.000	603.809	80.010	19.987	103.773	20.145	4.525	0.509
1026.500	604.068	80.011	19.995	103.776	20.149	4.250	0.510
1026.999	604.346	80.011	19.991	103.779	20.150	4.186	0.525
1027.499	604.582	80.012	19.991	103.786	20.150	4.192	0.525
1027.999	604.869	80.003	19.996	103.788	20.148	4.349	0.519
1028.499	605.086	79.997	19.994	103.787	20.150	4.192	0.513
1028.999	605.333	80.005	19.995	103.786	20.148	4.304	0.484
1029.499	605.597	80.008	19.996	103.785	20.149	4.264	0.487
1029.999	605.839	80.007	19.995	103.783	20.148	4.332	0.508
1030.499	606.113	79.997	19.997	103.782	20.149	4.222	0.511
1030.999	606.372	80.005	19.995	103.781	20.148	4.346	0.525
1031.499	606.620	80.005	19.996	103.780	20.145	4.499	0.520
1032.000	606.912	80.008	19.991	103.781	20.149	4.260	0.523
1032.500	607.166	80.009	19.995	103.782	20.151	4.126	0.543
1033.000	607.416	80.006	19.988	103.782	20.148	4.322	0.525
1033.501	607.670	80.017	19.987	103.784	20.149	4.220	0.504
1034.000	607.888	80.003	19.997	103.782	20.149	4.234	0.488
1034.500	608.138	80.000	19.997	103.780	20.149	4.226	0.470
1035.000	608.423	80.002	19.996	103.777	20.148	4.308	0.501
1035.499	608.664	80.026	19.989	103.776	20.149	4.258	0.531
1035.999	608.907	80.006	19.996	103.778	20.149	4.256	0.505
1036.499	609.195	80.006	19.991	103.780	20.151	4.087	0.508
1036.999	609.396	80.009	19.994	103.780	20.146	4.463	0.510
1037.499	609.709	80.008	19.990	103.781	20.148	4.306	0.501
1037.999	609.914	80.008	19.998	103.780	20.150	4.202	0.516
1038.500	610.168	80.007	19.990	103.779	20.147	4.423	0.489
1039.000	610.462	80.010	19.991	103.780	20.148	4.341	0.504
1039.500	610.669	80.008	19.997	103.783	20.147	4.407	0.525
1040.000	610.986	80.004	19.991	103.784	20.147	4.359	0.512
1040.499	611.213	80.007	19.992	103.786	20.145	4.560	0.533
1040.999	611.461	80.002	19.993	103.786	20.145	4.533	0.509
1041.499	611.742	80.007	19.991	103.784	20.146	4.425	0.502
1041.999	611.967	80.012	19.994	103.784	20.151	4.095	0.518
1042.499	612.242	80.005	19.994	103.784	20.146	4.469	0.504
1042.999	612.508	80.007	19.993	103.783	20.145	4.511	0.521
1043.499	612.737	80.005	19.996	103.784	20.147	4.355	0.518
1043.999	612.994	80.009	19.992	103.783	20.147	4.389	0.490
1044.499	613.274	80.010	19.992	103.783	20.146	4.441	0.511
1044.999	613.510	80.009	19.990	103.783	20.149	4.222	0.527
1045.499	613.760	80.008	19.994	103.784	20.147	4.357	0.501
1045.999	614.022	79.999	19.994	103.783	20.146	4.427	0.499
1046.499	614.304	80.005	19.996	103.784	20.147	4.395	0.528
1046.999	614.530	80.009	19.993	103.783	20.148	4.282	0.526
1047.499	614.856	80.009	19.990	103.784	20.145	4.508	0.530
1047.999	615.102	80.005	19.989	103.783	20.148	4.343	0.562
1048.499	615.328	80.005	19.997	103.782	20.147	4.403	0.522
1048.999	615.608	80.002	20.001	103.782	20.147	4.391	0.488
1049.499	615.910	80.004	19.997	103.781	20.147	4.355	0.544
1049.999	616.113	80.003	19.991	103.779	20.150	4.166	0.544
1050.499	616.377	80.011	19.991	103.779	20.148	4.282	0.486
1050.999	616.645	80.008	19.994	103.780	20.146	4.461	0.500
1051.499	616.861	80.008	19.994	103.781	20.149	4.230	0.508
1051.999	617.145	80.011	19.996	103.783	20.148	4.335	0.492
1052.499	617.409	80.010	19.992	103.784	20.146	4.425	0.524
1052.999	617.632	80.010	19.992	103.785	20.147	4.379	0.517
1053.499	617.890	80.009	19.993	103.783	20.147	4.353	0.484
1053.999	618.130	80.006	19.989	103.783	20.147	4.387	0.490
1054.499	618.377	79.998	20.001	103.782	20.145	4.518	0.493
1054.999	618.657	80.007	19.995	103.780	20.140	4.897	0.507
1055.499	618.909	80.006	19.992	103.779	20.144	4.624	0.529
1055.999	619.142	80.011	19.996	103.781	20.143	4.658	0.509
1056.499	619.397	80.008	19.993	103.779	20.147	4.407	0.487
1057.000	619.681	80.003	19.993	103.780	20.143	4.672	0.514
1057.500	619.948	80.008	19.991	103.779	20.146	4.445	0.545
1058.000	620.201	80.008	19.992	103.778	20.145	4.504	0.535
1058.500	620.457	80.005	19.993	103.775	20.142	4.750	0.514
1058.999	620.726	80.007	19.993	103.776	20.145	4.562	0.517
1059.499	620.960	80.003	19.992	103.777	20.142	4.771	0.514
1059.999	621.184	80.009	19.992	103.779	20.141	4.795	0.480
1060.499	621.432	80.011	19.993	103.779	20.142	4.734	0.465
1060.999	621.686	80.010	19.995	103.781	20.142	4.785	0.487
1061.499	621.942	80.005	19.993	103.780	20.141	4.841	0.506
1061.999	622.199	80.000	20.003	103.779	20.141	4.809	0.512
1062.499	622.483	80.010	19.991	103.778	20.144	4.612	0.527
1062.999	622.745	80.007	19.996	103.779	20.142	4.744	0.543
1063.499	622.999	80.004	19.997	103.779	20.140	4.879	0.531
1064.000	623.275	80.008	19.996	103.779	20.142	4.787	0.523
1064.500	623.508	80.007	19.992	103.775	20.143	4.670	0.520
1064.999	623.726	80.007	19.994	103.778	20.144	4.584	0.480
1065.499	623.974	80.008	19.993	103.776	20.139	4.951	0.458
1065.999	624.258	80.006	19.995	103.777	20.139	4.955	0.499
1066.499	624.504	80.001	19.999	103.777	20.145	4.558	0.531
1066.999	624.735	80.011	19.990	103.775	20.145	4.513	0.504
1067.499	624.998	80.004	19.990	103.774	20.141	4.815	0.486
1067.999	625.274	80.006	19.990	103.776	20.141	4.861	0.516
1068.499	625.466	80.001	19.998	103.777	20.138	5.076	0.503
1068.999	625.737	80.005	19.998	103.776	20.143	4.716	0.465
1069.499	625.971	80.009	19.993	103.782	20.140	4.909	0.484
1069.999	626.213	80.004	19.998	103.782	20.145	4.564	0.491
1070.499	626.492	80.010	19.993	103.779	20.143	4.688	0.498
1070.999	626.752	80.011	19.991	103.778	20.146	4.473	0.529
1071.499	627.027	80.006	19.995	103.780	20.141	4.851	0.537
1071.999	627.272	80.006	19.994	103.781	20.144	4.572	0.528
1072.499	627.492	80.005	19.994	103.780	20.143	4.688	0.493
1072.999	627.722	80.008	19.993	103.783	20.144	4.640	0.457
1073.499	628.007	80.006	19.994	103.782	20.141	4.813	0.482
1074.000	628.220	80.009	19.993	103.781	20.142	4.722	0.506
1074.500	628.492	80.009	19.992	103.781	20.143	4.708	0.492
1074.999	628.725	80.005	19.993	103.782	20.142	4.746	0.495
1075.500	629.040	80.009	19.990	103.781	20.143	4.712	0.527
1076.000	629.284	80.006	19.996	103.782	20.145	4.561	0.554
1076.499	629.529	80.012	19.988	103.782	20.140	4.889	0.524
1076.999	629.780	80.006	19.996	103.782	20.139	4.959	0.492
1077.499	630.073	80.009	19.996	103.781	20.141	4.855	0.520
1077.999	630.290	80.009	19.994	103.779	20.143	4.680	0.527
1078.499	630.538	80.010	19.993	103.779	20.142	4.718	0.488
1078.999	630.805	80.009	19.995	103.779	20.140	4.915	0.490
1079.499	631.048	80.009	19.990	103.773	20.142	4.746	0.512
1079.999	631.301	80.010	19.992	103.775	20.143	4.662	0.503
1080.499	631.543	80.013	19.995	103.777	20.143	4.658	0.496
1080.999	631.809	80.012	19.992	103.774	20.144	4.600	0.501
1081.499	632.056	80.009	19.994	103.773	20.144	4.592	0.510
1081.999	632.293	80.010	19.995	103.776	20.143	4.676	0.499
1082.499	632.547	80.008	19.993	103.773	20.143	4.668	0.488
1082.999	632.826	80.012	19.994	103.773	20.145	4.547	0.512
1083.500	633.075	80.010	19.994	103.776	20.141	4.833	0.530
1084.000	633.336	80.009	19.992	103.778	20.140	4.871	0.519
1084.499	633.611	80.014	19.993	103.779	20.143	4.668	0.523
1084.999	633.883	80.009	19.992	103.784	20.143	4.682	0.541
1085.499	634.112	80.007	19.993	103.785	20.141	4.820	0.523
1086.000	634.380	80.007	19.995	103.785	20.143	4.714	0.499
1086.500	634.671	80.009	19.996	103.785	20.144	4.601	0.528
1087.000	634.909	80.009	19.995	103.785	20.139	4.967	0.544
1087.500	635.182	80.010	19.989	103.779	20.142	4.728	0.520
1087.999	635.402	80.008	19.994	103.779	20.141	4.829	0.502
1088.499	635.677	80.008	19.994	103.779	20.143	4.710	0.494
1088.999	635.919	80.007	19.995	103.779	20.142	4.740	0.506
1089.499	636.223	80.006	19.996	103.779	20.141	4.831	0.532
1089.999	636.462	80.007	19.996	103.782	20.142	4.766	0.545
1090.499	636.715	80.009	19.994	103.781	20.139	4.939	0.517
1091.000	636.957	80.005	19.990	103.782	20.137	5.130	0.494
1091.500	637.198	80.010	19.994	103.781	20.138	5.054	0.489
1091.999	637.475	80.012	19.990	103.780	20.140	4.911	0.500
1092.499	637.742	80.009	19.992	103.780	20.142	4.730	0.531
1092.999	637.979	80.008	19.996	103.781	20.144	4.620	0.524
1093.499	638.217	80.009	19.994	103.781	20.141	4.851	0.490
1093.999	638.495	80.008	19.990	103.782	20.142	4.750	0.496
1094.499	638.755	80.008	19.994	103.784	20.142	4.734	0.527
1094.999	639.001	80.009	19.993	103.785	20.141	4.799	0.522
1095.499	639.292	80.007	19.994	103.788	20.141	4.823	0.522
1095.999	639.523	80.009	19.995	103.788	20.141	4.821	0.530
1096.499	639.790	80.009	19.994	103.788	20.139	4.985	0.510
1096.999	640.035	80.011	19.993	103.787	20.139	5.001	0.505
1097.499	640.274	80.011	19.990	103.787	20.142	4.786	0.498
1097.999	640.524	80.009	19.993	103.785	20.140	4.891	0.486
1098.499	640.787	80.008	19.993	103.785	20.141	4.805	0.501
1098.999	641.028	80.011	19.993	103.785	20.140	4.913	0.509
1099.499	641.287	80.009	19.992	103.785	20.145	4.570	0.502
1099.999	641.554	80.012	19.993	103.785	20.145	4.527	0.512
1100.499	641.821	80.010	19.989	103.784	20.140	4.883	0.530
1100.999	642.040	80.006	19.994	103.784	20.142	4.754	0.510
1101.499	642.310	80.010	19.991	103.784	20.142	4.732	0.487
1101.999	642.560	80.009	19.993	103.785	20.141	4.863	0.504
1102.500	642.773	80.011	19.992	103.784	20.138	5.045	0.491
1103.000	643.029	80.010	19.994	103.785	20.141	4.851	0.466
1103.499	643.307	80.008	19.993	103.784	20.141	4.833	0.502
1104.000	643.592	80.008	19.994	103.784	20.141	4.820	0.548
1104.500	643.820	80.009	19.993	103.783	20.140	4.869	0.538
1104.999	644.089	80.010	19.993	103.784	20.143	4.704	0.505
1105.499	644.323	80.011	19.990	103.783	20.136	5.186	0.500
1105.999	644.593	80.007	19.992	103.782	20.140	4.917	0.504
1106.499	644.851	80.007	19.995	103.782	20.141	4.839	0.517
1106.999	645.105	80.016	19.992	103.782	20.142	4.721	0.520
1107.499	645.315	80.005	19.996	103.782	20.141	4.827	0.488
1108.000	645.599	80.009	19.992	103.781	20.140	4.883	0.479
1108.500	645.842	80.011	19.994	103.783	20.143	4.680	0.510
1108.999	646.108	80.007	19.994	103.782	20.143	4.650	0.518
1109.499	646.352	80.009	19.992	103.782	20.143	4.666	0.510
1109.999	646.619	80.008	19.997	103.783	20.139	4.967	0.510
1110.499	646.867	80.007	19.989	103.783	20.142	4.747	0.513
1111.000	647.134	80.011	19.992	103.782	20.143	4.658	0.515
1111.500	647.416	80.009	19.992	103.783	20.141	4.797	0.532
1111.999	647.629	80.008	19.992	103.784	20.141	4.849	0.522
1112.499	647.930	80.009	19.992	103.783	20.141	4.853	0.504
1113.000	648.183	80.009	19.992	103.785	20.138	5.060	0.534
1113.500	648.438	80.008	19.989	103.785	20.141	4.813	0.531
1113.999	648.672	80.012	19.991	103.785	20.139	4.945	0.499
1114.499	648.935	80.005	19.990	103.785	20.141	4.837	0.493
1114.999	649.204	80.015	19.990	103.785	20.137	5.134	0.515
1115.500	649.424	80.010	19.998	103.785	20.146	4.441	0.511
1116.000	649.667	80.006	19.994	103.782	20.147	4.401	0.476
1116.499	649.905	80.007	19.993	103.779	20.137	5.156	0.472
1116.999	650.230	80.003	19.993	103.776	20.135	5.271	0.522
1117.499	650.469	80.007	19.995	103.774	20.134	5.359	0.563
1117.999	650.717	80.001	19.999	103.774	20.141	4.855	0.525
1118.500	650.973	80.007	19.988	103.776	20.138	5.058	0.496
1119.000	651.233	80.000	19.992	103.779	20.139	4.966	0.511
1119.499	651.475	80.008	19.992	103.780	20.142	4.779	0.509
1119.999	651.728	80.008	19.993	103.780	20.141	4.805	0.498
1120.499	652.028	80.007	19.993	103.779	20.139	4.968	0.524
1120.999	652.252	80.008	19.992	103.778	20.141	4.853	0.538
1121.499	652.505	80.009	19.994	103.775	20.140	4.929	0.500
1121.999	652.790	80.008	19.991	103.774	20.136	5.218	0.508
1122.499	653.016	80.007	19.994	103.771	20.139	4.975	0.525
1122.999	653.267	80.006	19.995	103.770	20.140	4.897	0.494
1123.499	653.517	80.008	19.994	103.772	20.137	5.148	0.489
1123.999	653.754	80.008	19.993	103.775	20.139	4.973	0.494
1124.499	654.029	80.008	19.993	103.776	20.142	4.776	0.499
1124.999	654.283	80.007	19.993	103.778	20.138	5.080	0.521
1125.499	654.517	80.009	19.992	103.776	20.138	5.044	0.509
1125.999	654.789	80.011	19.993	103.776	20.136	5.170	0.497
1126.499	655.064	80.006	19.997	103.775	20.138	5.023	0.526
1126.999	655.294	80.003	19.995	103.775	20.137	5.100	0.526
1127.500	655.553	80.010	19.988	103.777	20.140	4.905	0.497
1128.000	655.809	80.010	19.993	103.781	20.138	5.082	0.502
1128.499	656.061	80.006	19.994	103.781	20.138	5.035	0.512
1128.999	656.279	80.008	19.994	103.775	20.142	4.790	0.489
1129.499	656.651	80.007	19.994	103.773	20.138	5.052	0.530
1129.999	656.829	80.006	19.993	103.772	20.137	5.118	0.570
1130.500	657.042	80.006	19.995	103.770	20.139	4.943	0.470
1131.000	657.372	80.008	19.993	103.770	20.141	4.831	0.467
1131.499	657.604	80.008	19.992	103.776	20.141	4.799	0.552
1131.999	657.857	80.006	19.992	103.779	20.139	4.943	0.523
1132.500	658.142	80.011	19.984	103.780	20.141	4.861	0.512
1133.000	658.363	80.008	19.992	103.782	20.141	4.847	0.522
1133.499	658.624	80.008	19.993	103.783	20.141	4.837	0.494
1133.999	658.854	80.007	19.992	103.783	20.141	4.841	0.486
1134.499	659.112	80.009	19.993	103.783	20.139	4.975	0.489
1134.999	659.415	80.008	19.990	103.783	20.140	4.929	0.525
1135.500	659.647	80.006	19.992	103.782	20.138	5.036	0.549
1136.001	659.866	80.005	19.993	103.780	20.141	4.845	0.493
1136.500	660.150	80.014	19.987	103.779	20.138	5.044	0.477
1136.999	660.388	80.012	19.995	103.781	20.137	5.100	0.512
1137.499	660.657	80.012	19.988	103.782	20.139	5.006	0.514
1137.999	660.921	80.012	19.993	103.783	20.139	4.983	0.520
1138.499	661.155	80.008	19.996	103.785	20.137	5.148	0.516
1138.999	661.467	80.009	19.992	103.785	20.137	5.088	0.522
1139.499	661.702	80.008	19.994	103.783	20.139	4.999	0.547
1139.999	661.945	80.010	19.991	103.783	20.138	5.052	0.512
1140.499	662.223	80.009	19.991	103.782	20.139	4.991	0.499
1140.999	662.439	80.009	19.989	103.779	20.138	5.082	0.507
1141.499	662.724	80.005	19.996	103.781	20.137	5.112	0.497
1141.999	662.957	80.011	19.992	103.780	20.139	4.995	0.509
1142.499	663.199	80.006	19.993	103.779	20.136	5.200	0.496
1142.999	663.499	80.008	19.991	103.779	20.142	4.754	0.509
1143.500	663.732	80.007	19.995	103.781	20.139	4.995	0.537
1144.000	663.959	80.004	19.994	103.780	20.140	4.913	0.497
1144.499	664.244	80.010	19.993	103.781	20.139	4.989	0.486
1144.999	664.509	80.007	19.995	103.782	20.140	4.879	0.531
1145.499	664.761	80.010	19.991	103.781	20.139	4.959	0.533
1145.999	664.987	80.007	19.995	103.782	20.140	4.927	0.498
1146.499	665.263	80.004	19.998	103.782	20.139	5.003	0.491
1146.999	665.513	80.007	19.995	103.782	20.138	5.028	0.514
1147.499	665.761	80.007	19.994	103.780	20.138	5.020	0.511
1147.999	666.060	80.009	19.994	103.780	20.137	5.098	0.522
1148.500	666.273	80.010	19.994	103.779	20.141	4.795	0.529
1149.000	666.541	80.009	19.994	103.780	20.142	4.733	0.497
1149.499	666.805	80.008	19.994	103.780	20.140	4.908	0.507
1149.999	667.026	80.004	19.997	103.782	20.139	4.988	0.509
1150.500	667.304	80.008	19.989	103.782	20.141	4.839	0.492
1151.000	667.516	80.006	19.997	103.784	20.141	4.863	0.494
1151.499	667.796	80.012	19.991	103.783	20.141	4.807	0.491
1151.999	668.068	80.009	19.993	103.784	20.139	4.941	0.522
1152.499	668.301	80.008	19.994	103.784	20.141	4.799	0.529
1152.999	668.565	80.005	19.995	103.785	20.138	5.042	0.501
1153.499	668.820	80.006	19.997	103.784	20.140	4.917	0.508
1153.999	669.074	80.005	19.993	103.784	20.138	5.018	0.514
1154.499	669.315	80.005	19.994	103.782	20.138	5.022	0.502
1154.999	669.565	80.004	19.993	103.782	20.140	4.913	0.493
1155.499	669.830	80.008	19.995	103.782	20.143	4.668	0.503
1155.999	670.113	80.006	19.994	103.781	20.139	4.965	0.532
1156.499	670.374	80.006	19.994	103.782	20.139	4.959	0.546
1156.999	670.604	80.000	20.006	103.784	20.137	5.132	0.517
1157.499	670.866	80.009	19.993	103.782	20.137	5.098	0.491
1157.999	671.121	80.011	19.991	103.781	20.136	5.172	0.504
1158.499	671.380	80.005	19.997	103.781	20.138	5.034	0.516
1158.999	671.647	80.008	19.995	103.777	20.136	5.194	0.520
1159.499	671.895	80.007	19.993	103.773	20.134	5.371	0.521
1159.999	672.156	80.008	19.993	103.770	20.136	5.222	0.512
1160.499	672.422	80.006	19.994	103.771	20.137	5.136	0.518
1160.999	672.621	80.007	19.992	103.770	20.136	5.178	0.496
1161.500	672.841	80.009	19.993	103.774	20.137	5.088	0.442
1162.000	673.177	80.008	19.993	103.776	20.136	5.160	0.487
1162.499	673.386	80.009	19.993	103.780	20.138	5.062	0.550
1162.999	673.699	80.007	19.994	103.780	20.137	5.118	0.534
1163.499	673.955	80.010	19.993	103.778	20.137	5.146	0.546
1163.999	674.198	80.010	19.994	103.776	20.135	5.276	0.534
1164.499	674.473	80.009	19.993	103.778	20.135	5.273	0.508
1164.999	674.688	80.007	19.996	103.777	20.136	5.188	0.504
1165.499	674.955	80.011	19.992	103.775	20.136	5.188	0.486
1165.999	675.198	80.007	19.994	103.777	20.139	5.008	0.496
1166.500	675.488	80.009	19.992	103.779	20.136	5.206	0.522
1167.000	675.736	80.009	19.995	103.779	20.136	5.176	0.536
1167.499	675.981	80.008	19.993	103.779	20.134	5.321	0.515
1167.999	676.226	80.009	19.993	103.780	20.136	5.230	0.491
1168.499	676.463	80.009	19.992	103.781	20.135	5.291	0.486
1168.999	676.737	80.009	19.991	103.781	20.134	5.313	0.497
1169.500	676.952	80.009	19.993	103.783	20.137	5.156	0.500
1170.000	677.235	80.009	19.992	103.783	20.137	5.134	0.493
1170.499	677.473	80.008	19.993	103.782	20.133	5.413	0.509
1170.999	677.746	80.007	19.993	103.782	20.136	5.216	0.516
1171.500	677.967	80.008	19.993	103.781	20.135	5.299	0.503
1172.000	678.253	80.008	19.994	103.778	20.134	5.309	0.500
1172.499	678.495	80.009	19.994	103.777	20.135	5.257	0.517
1172.999	678.756	80.007	19.993	103.778	20.132	5.452	0.516
1173.499	678.974	80.007	19.994	103.779	20.135	5.289	0.491
1173.999	679.231	80.008	19.993	103.780	20.135	5.233	0.477
1174.499	679.529	80.007	19.993	103.783	20.131	5.530	0.515
1175.000	679.763	80.008	19.994	103.784	20.133	5.395	0.543
1175.500	679.986	80.008	19.993	103.781	20.134	5.307	0.494
1175.999	680.266	80.006	19.994	103.780	20.133	5.437	0.480
1176.499	680.532	80.008	19.993	103.780	20.132	5.488	0.525
1176.999	680.808	80.008	19.992	103.780	20.132	5.464	0.544
1177.499	681.061	80.007	19.993	103.781	20.132	5.504	0.536
1177.999	681.294	80.007	19.993	103.784	20.130	5.600	0.507
1178.499	681.546	80.007	19.995	103.785	20.130	5.616	0.485
1179.000	681.795	80.007	19.994	103.785	20.136	5.210	0.493
1179.500	682.042	80.008	19.993	103.784	20.130	5.626	0.499
1179.999	682.310	80.009	19.992	103.784	20.129	5.705	0.505
1180.499	682.527	80.010	19.993	103.783	20.130	5.632	0.500
1180.999	682.801	80.008	19.992	103.783	20.131	5.544	0.488
1181.499	683.069	80.009	19.993	103.781	20.128	5.801	0.517
1182.000	683.367	80.009	19.993	103.781	20.129	5.688	0.554
1182.500	683.573	80.009	19.993	103.781	20.131	5.596	0.535
1182.999	683.834	80.009	19.994	103.777	20.129	5.685	0.486
1183.499	684.082	80.009	19.994	103.777	20.125	5.966	0.488
1183.999	684.328	80.008	19.995	103.778	20.130	5.644	0.501
1184.499	684.588	80.010	19.993	103.777	20.131	5.560	0.500
1184.999	684.872	80.010	19.991	103.777	20.130	5.658	0.526
1185.500	685.129	80.010	19.995	103.780	20.132	5.516	0.543
1186.000	685.338	80.006	19.995	103.780	20.130	5.668	0.503
1186.499	685.555	80.010	19.995	103.779	20.131	5.556	0.446
1186.999	685.912	80.008	19.997	103.780	20.131	5.534	0.500
1187.499	686.217	80.011	19.994	103.779	20.129	5.715	0.618
1187.999	686.552	80.011	19.993	103.778	20.129	5.691	0.651
1188.499	686.610	80.009	19.993	103.778	20.131	5.528	0.517
1188.999	686.874	80.009	19.993	103.778	20.129	5.725	0.357
1189.499	687.086	80.010	19.994	103.778	20.130	5.662	0.399
1189.999	687.351	80.011	19.994	103.778	20.132	5.502	0.477
1190.499	687.605	80.009	19.993	103.777	20.131	5.540	0.499
1190.999	687.889	80.011	19.993	103.778	20.130	5.622	0.528
1191.499	688.131	80.009	19.993	103.778	20.132	5.502	0.532
1191.999	688.387	80.010	19.993	103.779	20.130	5.616	0.512
1192.500	688.643	80.010	19.993	103.779	20.133	5.441	0.505
1193.000	688.920	80.010	19.993	103.779	20.132	5.475	0.522
1193.499	689.145	80.009	19.994	103.779	20.134	5.347	0.518
1193.999	689.388	80.008	19.994	103.778	20.132	5.520	0.485
1194.499	689.645	80.008	19.994	103.778	20.132	5.500	0.484
1194.999	689.928	80.009	19.993	103.778	20.132	5.490	0.520
1195.499	690.184	80.010	19.993	103.779	20.132	5.470	0.539
1195.999	690.437	80.008	19.992	103.780	20.132	5.452	0.524
1196.499	690.662	80.009	19.993	103.780	20.130	5.622	0.494
1196.999	690.915	80.008	19.995	103.780	20.130	5.639	0.478
1197.499	691.180	80.008	19.993	103.779	20.130	5.612	0.498
1197.999	691.472	80.007	19.993	103.779	20.129	5.703	0.538
1198.499	691.723	80.009	19.993	103.778	20.134	5.335	0.550
1198.999	691.960	80.007	19.995	103.776	20.134	5.335	0.515
1199.499	692.218	80.009	19.992	103.775	20.132	5.510	0.492
1200.000	692.472	80.007	19.992	103.776	20.132	5.498	0.504
1200.500	692.731	80.009	19.992	103.777	20.131	5.550	0.513
1200.999	693.068	80.008	19.992	103.778	20.133	5.381	0.554
1201.499	693.253	80.008	19.991	103.781	20.133	5.417	0.559
1201.999	693.520	80.007	19.993	103.782	20.132	5.510	0.487
1202.499	693.781	80.009	19.993	103.782	20.133	5.396	0.490
1203.000	694.069	80.008	19.993	103.782	20.133	5.438	0.538
1203.500	694.276	80.008	19.992	103.782	20.130	5.663	0.522
1203.999	694.555	80.007	19.993	103.781	20.131	5.550	0.491
1204.499	694.828	80.008	19.995	103.780	20.132	5.456	0.519
1204.999	695.074	80.009	19.993	103.781	20.131	5.524	0.536
1205.499	695.346	80.010	19.991	103.780	20.133	5.448	0.519
1206.000	695.586	80.009	19.993	103.777	20.134	5.351	0.515
1206.500	695.846	80.008	19.995	103.777	20.131	5.566	0.506
1206.999	696.117	80.008	19.994	103.774	20.133	5.431	0.515
1207.499	696.384	80.008	19.993	103.774	20.129	5.680	0.534
1207.999	696.590	80.008	19.992	103.774	20.132	5.463	0.506
1208.499	696.899	80.008	19.993	103.778	20.132	5.473	0.494
1208.999	697.161	80.008	19.992	103.778	20.133	5.419	0.543
1209.499	697.372	80.009	19.994	103.778	20.133	5.421	0.522
1209.999	697.638	80.009	19.994	103.776	20.131	5.584	0.475
1210.499	697.902	80.009	19.994	103.774	20.134	5.355	0.503
1210.999	698.133	80.009	19.993	103.772	20.130	5.598	0.512
1211.499	698.425	80.008	19.993	103.771	20.130	5.622	0.509
1211.999	698.685	80.009	19.993	103.775	20.132	5.482	0.538
1212.500	698.931	80.009	19.993	103.776	20.132	5.516	0.529
1213.000	699.138	80.008	19.993	103.773	20.134	5.313	0.479
1213.499	699.402	80.010	19.993	103.771	20.130	5.632	0.462
1213.999	699.690	80.010	19.994	103.770	20.129	5.719	0.512
1214.499	699.931	80.009	19.993	103.770	20.131	5.580	0.541
1214.999	700.160	80.009	19.992	103.769	20.127	5.827	0.499
1215.500	700.450	80.009	19.994	103.774	20.130	5.610	0.494
1216.000	700.685	80.009	19.992	103.777	20.130	5.650	0.522
1216.500	700.929	80.007	19.994	103.776	20.132	5.509	0.502
1217.000	701.152	80.010	19.993	103.777	20.134	5.349	0.473
1217.499	701.441	80.009	19.993	103.777	20.128	5.813	0.489
1217.999	701.668	80.008	19.994	103.777	20.130	5.636	0.514
1218.499	701.922	80.007	19.994	103.779	20.131	5.532	0.499
1218.999	702.181	80.008	19.993	103.781	20.132	5.504	0.497
1219.500	702.426	80.009	19.992	103.782	20.132	5.520	0.508
1220.000	702.691	80.009	19.993	103.782	20.131	5.542	0.507
1220.499	702.928	80.009	19.993	103.783	20.133	5.445	0.506
1220.999	703.169	80.009	19.992	103.782	20.128	5.754	0.490
1221.499	703.443	80.008	19.992	103.782	20.130	5.612	0.496
1221.999	703.672	80.008	19.994	103.781	20.128	5.760	0.509
1222.499	703.913	80.008	19.993	103.779	20.127	5.831	0.486
1222.999	704.180	80.007	19.993	103.779	20.129	5.732	0.489
1223.499	704.422	80.008	19.991	103.779	20.129	5.676	0.509
1223.999	704.745	80.008	19.993	103.779	20.129	5.708	0.537
1224.499	704.931	80.007	19.992	103.779	20.128	5.813	0.537
1224.999	705.168	80.008	19.992	103.781	20.130	5.662	0.466
1225.499	705.423	80.010	19.993	103.782	20.131	5.568	0.458
1225.999	705.686	80.009	19.993	103.782	20.130	5.650	0.505
1226.499	705.940	80.007	19.992	103.784	20.128	5.759	0.518
1227.000	706.191	80.009	19.992	103.785	20.130	5.656	0.512
1227.501	706.462	80.008	19.993	103.785	20.130	5.630	0.514
1228.001	706.663	80.008	19.991	103.785	20.129	5.706	0.497
1228.500	706.923	80.007	19.994	103.786	20.132	5.513	0.466
1228.999	707.186	80.008	19.993	103.785	20.132	5.501	0.492
1229.499	707.420	80.007	19.992	103.782	20.128	5.815	0.510
1229.999	707.691	80.009	19.993	103.783	20.127	5.885	0.501
1230.499	707.911	80.009	19.991	103.783	20.128	5.784	0.498
1231.000	708.204	80.008	19.992	103.783	20.127	5.863	0.502
1231.500	708.410	80.008	19.993	103.785	20.126	5.921	0.506
1231.999	708.646	80.007	19.993	103.788	20.125	5.965	0.471
1232.499	708.901	80.008	19.992	103.787	20.123	6.116	0.467
1232.999	709.176	80.008	19.991	103.786	20.129	5.726	0.511
1233.500	709.407	80.008	19.992	103.784	20.124	6.056	0.518
1234.000	709.646	80.007	19.992	103.784	20.128	5.777	0.488
1234.499	709.877	80.008	19.994	103.784	20.125	6.032	0.470
1235.000	710.116	80.007	19.992	103.784	20.125	5.996	0.470
1235.500	710.406	80.006	19.993	103.784	20.127	5.841	0.500
1235.999	710.666	80.007	19.992	103.785	20.125	6.030	0.540
1236.499	710.898	80.008	19.992	103.780	20.122	6.186	0.521
1236.999	711.155	80.007	19.992	103.779	20.125	6.030	0.490
1237.499	711.385	80.008	19.992	103.778	20.123	6.118	0.488
1237.999	711.637	80.008	19.991	103.779	20.124	6.064	0.485
1238.499	711.901	80.008	19.993	103.779	20.123	6.118	0.499
1238.999	712.104	80.008	19.992	103.782	20.121	6.287	0.491
1239.499	712.372	80.009	19.994	103.784	20.123	6.173	0.469
1240.000	712.644	80.008	19.992	103.785	20.120	6.369	0.505
1240.500	712.863	80.009	19.991	103.786	20.124	6.104	0.516
1240.999	713.134	80.009	19.992	103.786	20.122	6.221	0.490
1241.499	713.393	80.011	19.989	103.787	20.122	6.241	0.510
1242.000	713.618	80.008	19.993	103.787	20.125	6.002	0.507
1242.500	713.846	80.010	19.992	103.787	20.125	6.020	0.469
1242.999	714.114	80.010	19.993	103.786	20.124	6.104	0.475
1243.499	714.392	80.008	19.993	103.786	20.122	6.223	0.521
1243.999	714.610	80.008	19.993	103.786	20.122	6.217	0.520
1244.500	714.925	80.009	19.993	103.785	20.124	6.094	0.514
1245.000	715.152	80.009	19.991	103.783	20.122	6.205	0.538
1245.499	715.388	80.009	19.992	103.782	20.124	6.101	0.503
1245.999	715.622	80.009	19.993	103.782	20.121	6.314	0.467
1246.499	715.898	80.009	19.993	103.782	20.123	6.113	0.490
1246.999	716.164	80.010	19.994	103.783	20.124	6.063	0.526
1247.499	716.370	80.009	19.993	103.785	20.125	5.994	0.507
1247.999	716.644	80.010	19.995	103.787	20.122	6.217	0.476
1248.499	716.874	80.009	19.993	103.786	20.124	6.052	0.492
1248.999	717.101	80.009	19.993	103.785	20.122	6.231	0.481
1249.499	717.368	80.011	19.992	103.782	20.121	6.291	0.476
1249.999	717.612	80.009	19.993	103.780	20.123	6.163	0.503
1250.499	717.865	80.010	19.993	103.779	20.125	6.036	0.504
1250.999	718.116	80.008	19.993	103.778	20.121	6.287	0.501
1251.499	718.365	80.008	19.994	103.779	20.125	6.034	0.502
1251.999	718.602	80.009	19.993	103.782	20.122	6.243	0.492
1252.499	718.880	80.008	19.995	103.783	20.123	6.155	0.500
1252.999	719.117	80.007	19.994	103.783	20.122	6.243	0.515
1253.499	719.393	80.009	19.994	103.782	20.126	5.891	0.514
1254.000	719.607	80.008	19.994	103.782	20.121	6.309	0.502
1254.500	719.871	80.009	19.995	103.782	20.123	6.177	0.484
1254.999	720.093	80.008	19.994	103.781	20.122	6.247	0.482
1255.499	720.400	80.009	19.993	103.781	20.120	6.390	0.507
1255.999	720.652	80.008	19.994	103.779	20.121	6.325	0.544
1256.499	720.882	80.008	19.993	103.773	20.118	6.546	0.520
1256.999	721.151	80.009	19.995	103.772	20.123	6.152	0.490
1257.499	721.396	80.008	19.994	103.773	20.117	6.607	0.507
1257.999	721.678	80.007	19.995	103.772	20.122	6.247	0.521
1258.499	721.903	80.008	19.993	103.775	20.119	6.450	0.517
1258.999	722.136	80.007	19.994	103.778	20.117	6.575	0.483
1259.499	722.416	80.008	19.994	103.777	20.118	6.530	0.485
1259.999	722.671	80.007	19.993	103.776	20.119	6.412	0.524
1260.499	722.882	80.010	19.993	103.773	20.116	6.643	0.501
1260.999	723.191	80.009	19.992	103.771	20.119	6.434	0.493
1261.499	723.471	80.009	19.994	103.773	20.116	6.649	0.554
1261.999	723.721	80.009	19.993	103.776	20.118	6.531	0.560
1262.499	723.956	80.008	19.993	103.776	20.115	6.744	0.508
1263.000	724.192	80.009	19.993	103.776	20.121	6.289	0.478
1263.501	724.469	80.008	19.993	103.778	20.119	6.440	0.492
1264.000	724.700	80.011	19.992	103.779	20.117	6.562	0.511
1264.499	724.970	80.011	19.993	103.779	20.117	6.560	0.505
1264.999	725.190	80.010	19.993	103.778	20.118	6.492	0.495
1265.499	725.446	80.009	19.993	103.778	20.118	6.540	0.483
1266.000	725.720	80.009	19.992	103.776	20.121	6.287	0.503
1266.500	726.004	80.011	19.995	103.776	20.118	6.484	0.544
1266.999	726.226	80.011	19.995	103.776	20.117	6.569	0.532
1267.500	726.481	80.010	19.994	103.777	20.120	6.344	0.491
1268.000	726.703	80.010	19.993	103.780	20.120	6.358	0.477
1268.499	726.987	80.011	19.993	103.778	20.120	6.388	0.492
1269.000	727.239	80.010	19.994	103.777	20.118	6.498	0.521
1269.500	727.470	80.010	19.993	103.776	20.116	6.691	0.510
1269.999	727.758	80.010	19.994	103.776	20.114	6.806	0.501
1270.499	727.963	80.010	19.993	103.776	20.118	6.484	0.505
1271.000	728.228	80.011	19.993	103.778	20.117	6.553	0.481
1271.500	728.491	80.011	19.992	103.774	20.116	6.627	0.499
1272.000	728.726	80.010	19.993	103.772	20.118	6.476	0.514
1272.500	728.999	80.010	19.993	103.772	20.120	6.390	0.503
1273.000	729.246	80.009	19.993	103.772	20.118	6.512	0.514
1273.500	729.468	80.012	19.993	103.770	20.117	6.621	0.494
1273.999	729.772	80.009	19.994	103.774	20.120	6.331	0.497
1274.499	730.009	80.009	19.994	103.777	20.118	6.520	0.534
1274.999	730.238	80.009	19.993	103.777	20.118	6.532	0.503
1275.499	730.504	80.010	19.993	103.777	20.119	6.458	0.480
1275.999	730.706	80.010	19.993	103.778	20.115	6.763	0.482
1276.499	730.977	80.008	19.995	103.778	20.116	6.657	0.471
1276.999	731.231	80.010	19.993	103.775	20.121	6.296	0.499
1277.500	731.497	80.009	19.994	103.774	20.117	6.561	0.522
1278.000	731.771	80.010	19.994	103.771	20.117	6.557	0.530
1278.499	731.999	80.007	19.995	103.772	20.118	6.541	0.521
1278.999	732.272	80.008	19.996	103.773	20.115	6.731	0.502
1279.499	732.517	80.008	19.994	103.776	20.117	6.574	0.510
1279.999	732.796	80.009	19.994	103.776	20.117	6.591	0.521
1280.499	733.003	80.008	19.995	103.777	20.115	6.711	0.505
1280.999	733.285	80.008	19.994	103.775	20.116	6.641	0.487
1281.499	733.528	80.010	19.993	103.771	20.115	6.711	0.507
1282.000	733.799	80.008	19.994	103.768	20.118	6.490	0.519
1282.500	734.049	80.008	19.994	103.767	20.118	6.534	0.517
1283.000	734.268	80.009	19.994	103.769	20.119	6.466	0.495
1283.500	734.521	80.008	19.994	103.771	20.117	6.610	0.471
1283.999	734.784	80.008	19.994	103.775	20.117	6.580	0.494
1284.499	734.998	80.008	19.995	103.778	20.118	6.546	0.497
1284.999	735.238	80.008	19.994	103.780	20.117	6.618	0.465
1285.499	735.512	80.008	19.993	103.780	20.118	6.546	0.484
1285.999	735.769	80.007	19.993	103.780	20.113	6.861	0.523
1286.499	736.026	80.007	19.993	103.780	20.116	6.673	0.522
1286.999	736.237	80.007	19.994	103.777	20.119	6.458	0.491
1287.499	736.505	80.007	19.993	103.771	20.118	6.544	0.474
1287.999	736.758	80.007	19.994	103.768	20.117	6.568	0.500
1288.500	737.018	80.008	19.992	103.769	20.118	6.500	0.517
1289.000	737.277	80.007	19.993	103.769	20.113	6.898	0.516
1289.499	737.500	80.009	19.993	103.772	20.115	6.759	0.500
1289.999	737.720	80.007	19.994	103.776	20.114	6.803	0.462
1290.499	738.015	80.007	19.994	103.776	20.114	6.775	0.479
1290.999	738.259	80.008	19.994	103.774	20.112	6.930	0.527
1291.500	738.512	80.007	19.993	103.770	20.112	6.952	0.518
1292.000	738.773	80.007	19.993	103.770	20.114	6.841	0.506
1292.499	739.018	80.007	19.993	103.774	20.112	6.932	0.510
1292.999	739.250	80.006	19.993	103.776	20.114	6.799	0.491
1293.499	739.518	80.008	19.994	103.779	20.116	6.636	0.489
1293.999	739.750	80.009	19.994	103.784	20.115	6.723	0.500
1294.500	740.020	80.008	19.992	103.785	20.116	6.695	0.501
1295.000	740.262	80.009	19.993	103.782	20.115	6.717	0.507
1295.499	740.507	80.008	19.993	103.780	20.111	7.004	0.499
1295.999	740.767	80.007	19.993	103.780	20.112	6.984	0.496
1296.499	741.020	80.009	19.992	103.781	20.113	6.865	0.509
1296.999	741.283	80.010	19.992	103.780	20.112	6.970	0.514
1297.499	741.524	80.008	19.993	103.782	20.115	6.699	0.510
1297.999	741.815	80.009	19.993	103.782	20.117	6.564	0.518
1298.499	742.052	80.009	19.994	103.781	20.112	6.964	0.530
1298.999	742.304	80.008	19.992	103.779	20.113	6.896	0.509
1299.499	742.535	80.009	19.994	103.778	20.113	6.900	0.486
1299.999	742.805	80.009	19.992	103.779	20.115	6.739	0.492
1300.500	743.080	80.009	19.994	103.778	20.113	6.901	0.523
1301.000	743.325	80.009	19.993	103.778	20.113	6.895	0.532
1301.499	743.560	80.007	19.993	103.780	20.114	6.787	0.500
