Sample ID:	C:\MCC\MCC Cal\Test\Engineered_Wood_Furniture_MCC_30K_min_211216_R3.txt
Sample Weight (mg):	4.98
Heating Rate (C/s):	0.5
Combustor Temp (C):	900
N2 Flow Rate (cc/min):	80
O2 Flow Rate (cc/min):	20
Calibration File:	C:\MCC\MCC Cal\Coeff1 JN10440_30_210304.txt.txt
T Correction Coefficients:	0	1.024463	0
Time Shift (s):	14
*
Time (s)	Temperature (C)	N2 flow rate (cc/min)	O2 flow rate (cc/min)	Flow Rate (cc/min)	Oxygen (%)	HRR (W/g)	Heating rate (C/s)
0.000	111.154	80.001	19.994	103.060	20.001	0.007	-0.008
0.500	111.168	80.001	19.994	103.060	19.997	0.206	0.013
1.000	111.149	80.001	19.994	103.058	20.000	0.030	0.010
1.500	111.169	80.001	19.995	103.055	20.000	0.070	-0.002
2.000	111.157	80.002	19.994	103.051	19.999	0.135	0.005
2.500	111.184	80.001	19.995	103.050	19.998	0.163	0.012
3.000	111.131	80.001	19.995	103.049	20.000	0.019	-0.006
3.500	111.136	80.002	19.995	103.051	19.998	0.146	-0.037
4.000	111.126	80.003	19.994	103.054	19.999	0.130	-0.026
4.500	111.145	80.002	19.993	103.059	19.998	0.199	0.002
5.000	111.151	80.001	19.994	103.058	19.995	0.338	0.017
5.500	111.155	80.002	19.994	103.059	19.996	0.280	0.018
6.000	111.126	80.001	19.994	103.059	19.998	0.179	-0.008
6.500	111.151	80.003	19.994	103.058	19.997	0.250	-0.015
7.000	111.142	80.003	19.992	103.059	19.997	0.269	0.006
7.500	111.117	80.002	19.993	103.061	19.997	0.267	-0.009
8.000	111.136	80.003	19.994	103.062	19.998	0.165	-0.020
8.500	111.148	80.001	19.993	103.063	19.999	0.118	0.013
9.000	111.128	80.002	19.993	103.064	19.995	0.348	0.011
9.500	111.161	80.001	19.993	103.064	19.996	0.311	0.002
10.000	111.162	80.001	19.993	103.064	19.996	0.332	0.023
10.500	111.115	80.000	19.994	103.065	19.994	0.417	-0.006
11.000	111.136	80.003	19.995	103.066	19.997	0.213	-0.036
11.500	111.133	80.002	19.994	103.070	19.990	0.669	-0.004
12.000	111.178	80.003	19.994	103.071	19.995	0.364	0.031
12.500	111.175	80.003	19.994	103.075	19.994	0.415	0.042
13.000	111.152	80.002	19.993	103.083	19.993	0.494	0.008
13.500	111.159	80.001	19.993	103.088	19.993	0.468	-0.021
14.000	111.143	80.002	19.992	103.091	19.992	0.581	-0.013
14.500	111.165	80.000	19.993	103.096	19.990	0.663	-0.001
15.000	111.151	80.003	19.994	103.099	19.992	0.558	0.007
15.501	111.155	80.002	19.995	103.100	19.993	0.512	-0.001
16.001	111.168	80.002	19.994	103.102	19.995	0.347	0.004
16.500	111.176	80.003	19.995	103.105	19.990	0.663	0.019
17.000	111.190	80.001	19.994	103.108	19.993	0.480	0.022
17.500	111.192	80.002	19.994	103.115	19.988	0.808	0.019
18.000	111.220	80.001	19.994	103.121	19.989	0.774	0.023
18.500	111.187	80.001	19.994	103.128	19.988	0.831	0.013
19.000	111.212	80.001	19.993	103.133	19.987	0.910	-0.007
19.500	111.210	80.002	19.993	103.139	19.984	1.105	0.007
20.000	111.283	80.002	19.993	103.140	19.982	1.220	0.047
20.500	111.275	80.002	19.993	103.145	19.980	1.329	0.068
21.000	111.285	80.003	19.993	103.152	19.981	1.264	0.034
21.500	111.277	80.003	19.994	103.157	19.983	1.156	0.003
22.000	111.337	80.001	19.994	103.159	19.979	1.376	0.027
22.500	111.343	80.001	19.993	103.162	19.983	1.112	0.059
23.000	111.357	80.001	19.993	103.162	19.983	1.139	0.043
23.500	111.384	80.000	19.992	103.158	19.978	1.440	0.030
24.000	111.429	80.001	19.992	103.156	19.979	1.413	0.057
24.500	111.433	80.002	19.991	103.155	19.979	1.410	0.061
25.001	111.470	80.001	19.993	103.156	19.982	1.229	0.045
25.501	111.474	80.003	19.994	103.150	19.981	1.294	0.041
26.000	111.544	80.002	19.992	103.149	19.978	1.475	0.058
26.500	111.581	80.002	19.993	103.152	19.977	1.507	0.090
27.000	111.598	80.003	19.994	103.159	19.977	1.505	0.080
27.500	111.628	80.003	19.994	103.164	19.979	1.392	0.051
28.000	111.652	80.003	19.994	103.172	19.979	1.401	0.051
28.500	111.713	80.003	19.993	103.179	19.978	1.473	0.070
29.000	111.755	80.003	19.994	103.182	19.974	1.744	0.094
29.500	111.812	80.003	19.993	103.184	19.977	1.561	0.101
30.000	111.815	80.004	19.994	103.186	19.971	1.889	0.079
30.500	111.846	80.004	19.993	103.193	19.971	1.919	0.046
31.000	111.933	80.003	19.993	103.198	19.972	1.875	0.076
31.500	112.003	80.002	19.992	103.202	19.969	2.056	0.138
32.000	111.981	80.003	19.993	103.202	19.970	1.979	0.103
32.500	112.052	80.004	19.993	103.206	19.971	1.903	0.048
33.000	112.101	80.003	19.993	103.204	19.965	2.328	0.084
33.500	112.124	80.003	19.993	103.205	19.968	2.090	0.097
34.000	112.188	80.004	19.993	103.207	19.968	2.092	0.080
34.500	112.232	80.004	19.993	103.212	19.967	2.146	0.097
35.000	112.327	80.004	19.993	103.213	19.968	2.127	0.123
35.500	112.383	80.004	19.993	103.216	19.969	2.076	0.145
36.000	112.429	80.005	19.992	103.218	19.967	2.168	0.127
36.500	112.481	80.004	19.993	103.216	19.965	2.319	0.100
37.000	112.521	80.004	19.993	103.214	19.968	2.094	0.096
37.500	112.573	80.004	19.993	103.211	19.963	2.460	0.092
38.001	112.660	80.003	19.993	103.209	19.966	2.217	0.115
38.501	112.751	80.004	19.993	103.209	19.968	2.111	0.158
39.000	112.809	80.004	19.993	103.210	19.967	2.192	0.164
39.500	112.873	80.003	19.992	103.212	19.963	2.425	0.136
40.000	112.945	80.003	19.995	103.214	19.964	2.353	0.129
40.500	113.011	80.003	19.993	103.217	19.965	2.294	0.137
41.000	113.084	80.000	19.997	103.217	19.965	2.319	0.139
41.500	113.168	80.001	19.994	103.217	19.963	2.407	0.147
42.000	113.222	80.000	19.994	103.217	19.966	2.219	0.147
42.501	113.319	80.002	19.994	103.221	19.963	2.448	0.145
43.001	113.372	80.001	19.994	103.226	19.963	2.448	0.151
43.501	113.459	80.000	19.994	103.232	19.963	2.428	0.145
44.001	113.562	80.003	19.994	103.239	19.964	2.358	0.165
44.500	113.594	80.002	19.993	103.246	19.961	2.569	0.162
45.000	113.699	80.000	19.994	103.249	19.957	2.811	0.136
45.500	113.773	80.002	19.995	103.251	19.962	2.517	0.158
46.000	113.868	80.001	19.995	103.254	19.955	2.957	0.173
46.501	113.942	80.001	19.995	103.255	19.958	2.740	0.169
47.001	114.049	80.002	19.994	103.256	19.957	2.797	0.175
47.500	114.156	80.000	19.994	103.256	19.956	2.862	0.198
48.001	114.247	80.002	19.994	103.256	19.957	2.841	0.206
48.501	114.317	80.000	19.993	103.256	19.955	2.938	0.180
49.001	114.428	80.003	19.994	103.256	19.958	2.740	0.171
49.500	114.538	80.000	19.995	103.255	19.958	2.753	0.201
50.000	114.626	80.001	19.993	103.256	19.957	2.816	0.209
50.500	114.706	80.001	19.994	103.256	19.954	3.012	0.183
51.000	114.830	80.001	19.994	103.256	19.956	2.887	0.186
51.500	114.938	80.002	19.995	103.256	19.957	2.836	0.218
52.000	115.046	80.001	19.994	103.256	19.959	2.669	0.224
52.500	115.150	80.002	19.994	103.257	19.959	2.702	0.214
53.000	115.244	79.999	19.995	103.256	19.956	2.901	0.206
53.500	115.361	80.002	19.994	103.257	19.953	3.093	0.205
54.000	115.499	80.001	19.994	103.258	19.956	2.891	0.232
54.500	115.611	80.003	19.994	103.260	19.955	2.940	0.252
55.000	115.703	80.000	19.994	103.266	19.953	3.077	0.227
55.500	115.823	80.001	19.994	103.269	19.955	2.935	0.208
56.000	115.921	80.000	19.994	103.270	19.955	2.979	0.215
56.500	116.097	80.002	19.993	103.273	19.956	2.877	0.246
57.000	116.196	80.001	19.994	103.276	19.953	3.065	0.275
57.500	116.345	80.001	19.993	103.271	19.955	2.988	0.262
58.000	116.445	80.001	19.993	103.271	19.953	3.088	0.248
58.500	116.573	80.001	19.994	103.272	19.951	3.218	0.239
59.000	116.675	80.001	19.994	103.269	19.953	3.107	0.229
59.500	116.813	80.002	19.993	103.271	19.951	3.190	0.235
60.000	116.910	80.001	19.994	103.274	19.951	3.224	0.238
60.500	117.084	80.000	19.994	103.275	19.953	3.106	0.253
61.001	117.160	80.001	19.994	103.280	19.949	3.359	0.260
61.501	117.317	80.000	19.994	103.287	19.950	3.261	0.241
62.000	117.462	80.000	19.993	103.288	19.947	3.477	0.268
62.500	117.607	80.001	19.994	103.292	19.951	3.243	0.296
63.000	117.733	80.001	19.994	103.295	19.948	3.439	0.281
63.500	117.877	80.002	19.994	103.296	19.949	3.328	0.271
64.000	117.977	80.001	19.993	103.296	19.949	3.356	0.257
64.500	118.150	80.002	19.994	103.296	19.953	3.109	0.258
65.000	118.311	79.999	19.994	103.296	19.948	3.411	0.304
65.501	118.428	80.001	19.994	103.295	19.949	3.365	0.306
66.001	118.568	80.001	19.994	103.295	19.951	3.199	0.267
66.501	118.728	80.000	19.993	103.294	19.950	3.303	0.279
67.000	118.912	80.000	19.995	103.294	19.948	3.418	0.322
67.500	119.039	79.999	19.993	103.294	19.948	3.389	0.327
68.000	119.172	80.000	19.995	103.295	19.946	3.516	0.286
68.500	119.324	80.000	19.994	103.295	19.948	3.396	0.273
69.000	119.445	79.999	19.995	103.295	19.945	3.599	0.279
69.500	119.628	80.001	19.995	103.295	19.950	3.296	0.289
70.000	119.753	79.999	19.994	103.296	19.948	3.382	0.306
70.500	119.937	79.999	19.994	103.296	19.947	3.453	0.308
71.001	120.081	80.000	19.995	103.296	19.947	3.457	0.318
71.501	120.246	79.999	19.994	103.296	19.950	3.303	0.319
72.000	120.416	79.999	19.994	103.297	19.947	3.462	0.322
72.500	120.548	80.000	19.995	103.297	19.948	3.437	0.318
73.001	120.724	80.000	19.994	103.296	19.950	3.271	0.305
73.501	120.860	80.001	19.994	103.296	19.951	3.231	0.310
74.000	121.037	79.999	19.993	103.296	19.947	3.492	0.313
74.501	121.186	79.999	19.994	103.296	19.948	3.418	0.320
75.001	121.402	79.999	19.995	103.297	19.949	3.361	0.345
75.500	121.532	80.001	19.995	103.298	19.949	3.361	0.355
76.000	121.692	79.998	19.995	103.300	19.950	3.261	0.318
76.501	121.889	79.999	19.994	103.300	19.950	3.263	0.323
77.001	122.043	79.999	19.994	103.300	19.948	3.430	0.354
77.501	122.212	80.000	19.994	103.300	19.952	3.180	0.337
78.000	122.364	79.999	19.995	103.298	19.948	3.390	0.322
78.500	122.549	80.000	19.995	103.297	19.947	3.455	0.329
79.000	122.710	80.001	19.995	103.297	19.953	3.112	0.342
79.500	122.885	80.001	19.994	103.297	19.950	3.272	0.341
80.000	123.082	80.001	19.995	103.298	19.950	3.251	0.354
80.500	123.279	80.001	19.994	103.298	19.949	3.325	0.383
81.001	123.440	80.000	19.995	103.300	19.948	3.392	0.376
81.501	123.614	80.000	19.993	103.303	19.950	3.256	0.347
82.001	123.789	80.001	19.993	103.306	19.949	3.326	0.342
82.500	123.963	80.002	19.993	103.305	19.948	3.400	0.349
83.000	124.163	79.999	19.995	103.306	19.947	3.506	0.362
83.500	124.329	79.999	19.994	103.304	19.948	3.419	0.370
84.000	124.500	80.001	19.994	103.301	19.948	3.434	0.351
84.500	124.720	79.998	19.994	103.298	19.947	3.474	0.364
85.001	124.929	80.004	19.994	103.300	19.948	3.411	0.410
85.501	125.092	80.003	19.994	103.303	19.948	3.425	0.401
86.000	125.262	80.000	19.995	103.305	19.948	3.397	0.352
86.500	125.478	80.001	19.994	103.305	19.944	3.688	0.359
87.000	125.648	80.001	19.995	103.304	19.945	3.598	0.386
87.501	125.875	80.002	19.993	103.303	19.948	3.404	0.392
88.001	126.035	80.003	19.993	103.302	19.950	3.257	0.392
88.501	126.228	80.002	19.993	103.303	19.946	3.539	0.369
89.001	126.424	80.003	19.994	103.309	19.947	3.442	0.371
89.500	126.604	80.002	19.995	103.314	19.948	3.437	0.383
90.000	126.844	80.003	19.994	103.321	19.946	3.566	0.398
90.500	127.011	80.002	19.993	103.322	19.948	3.418	0.413
91.000	127.216	80.002	19.994	103.324	19.947	3.502	0.389
91.500	127.415	80.003	19.993	103.320	19.946	3.532	0.388
92.001	127.620	80.003	19.993	103.316	19.947	3.497	0.404
92.501	127.804	80.004	19.993	103.309	19.947	3.497	0.397
93.000	128.034	80.001	19.994	103.306	19.946	3.511	0.402
93.500	128.228	80.005	19.992	103.306	19.945	3.622	0.419
94.000	128.400	80.000	19.993	103.304	19.944	3.640	0.395
94.500	128.653	80.003	19.993	103.302	19.948	3.427	0.395
95.000	128.823	80.002	19.994	103.304	19.944	3.656	0.424
95.500	129.017	80.001	19.993	103.308	19.944	3.636	0.394
96.001	129.213	80.004	19.994	103.308	19.945	3.582	0.377
96.501	129.443	80.004	19.993	103.312	19.945	3.610	0.408
97.000	129.645	80.002	19.993	103.313	19.946	3.553	0.429
97.500	129.832	80.005	19.993	103.312	19.947	3.442	0.411
98.000	130.054	80.003	19.992	103.308	19.946	3.564	0.399
98.500	130.231	80.000	19.994	103.306	19.943	3.710	0.404
99.000	130.447	80.004	19.993	103.301	19.946	3.554	0.396
99.500	130.668	80.002	19.993	103.299	19.943	3.714	0.415
100.000	130.826	80.004	19.994	103.300	19.947	3.444	0.408
100.500	131.069	80.002	19.993	103.302	19.944	3.654	0.390
101.000	131.293	80.001	19.994	103.300	19.945	3.583	0.434
101.500	131.474	80.003	19.994	103.301	19.945	3.578	0.436
102.000	131.691	80.002	19.994	103.301	19.944	3.650	0.402
102.500	131.847	80.003	19.993	103.301	19.948	3.418	0.386
103.000	132.085	80.002	19.994	103.303	19.943	3.712	0.383
103.500	132.318	80.004	19.994	103.304	19.944	3.661	0.432
104.001	132.509	80.003	19.994	103.307	19.944	3.642	0.447
104.501	132.715	80.001	19.994	103.311	19.947	3.504	0.411
105.001	132.930	80.003	19.995	103.314	19.947	3.492	0.409
105.501	133.130	80.003	19.996	103.311	19.946	3.565	0.418
106.000	133.349	80.002	19.996	103.313	19.943	3.714	0.417
106.500	133.593	80.003	19.994	103.309	19.944	3.645	0.441
107.000	133.814	80.003	19.994	103.307	19.945	3.615	0.464
107.500	134.046	80.001	19.995	103.306	19.944	3.684	0.459
108.000	134.216	80.003	19.995	103.305	19.941	3.876	0.427
108.500	134.447	80.005	19.994	103.307	19.943	3.751	0.402
109.000	134.659	80.002	19.993	103.311	19.942	3.790	0.422
109.500	134.870	80.004	19.992	103.313	19.943	3.709	0.433
110.000	135.101	80.002	19.994	103.309	19.944	3.663	0.433
110.500	135.309	80.003	19.993	103.309	19.945	3.603	0.440
111.000	135.542	80.002	19.994	103.305	19.938	4.079	0.440
111.500	135.795	80.003	19.993	103.301	19.943	3.753	0.464
112.000	135.994	80.003	19.994	103.300	19.944	3.686	0.469
112.500	136.209	80.003	19.993	103.307	19.945	3.631	0.433
113.000	136.417	80.003	19.993	103.309	19.942	3.791	0.419
113.500	136.638	80.003	19.994	103.309	19.943	3.730	0.427
114.000	136.879	80.004	19.992	103.309	19.942	3.795	0.446
114.500	137.098	80.005	19.993	103.314	19.945	3.608	0.460
115.000	137.347	80.004	19.993	103.313	19.944	3.645	0.464
115.500	137.592	80.005	19.992	103.315	19.942	3.810	0.481
116.000	137.782	80.004	19.993	103.316	19.946	3.564	0.465
116.500	138.009	80.004	19.992	103.322	19.942	3.807	0.426
117.000	138.248	80.005	19.993	103.317	19.942	3.773	0.442
117.500	138.483	80.003	19.994	103.314	19.944	3.668	0.470
118.000	138.690	80.004	19.993	103.314	19.940	3.900	0.458
118.500	138.898	80.006	19.994	103.318	19.941	3.884	0.429
119.000	139.136	80.004	19.994	103.317	19.941	3.835	0.430
119.500	139.369	80.005	19.993	103.317	19.941	3.877	0.458
120.000	139.559	80.002	19.994	103.313	19.939	4.011	0.447
120.500	139.809	80.004	19.993	103.307	19.940	3.899	0.432
121.000	140.075	80.003	19.993	103.305	19.943	3.753	0.478
121.501	140.306	80.004	19.994	103.303	19.939	3.966	0.506
122.001	140.505	80.003	19.993	103.308	19.942	3.818	0.463
122.500	140.758	80.002	19.993	103.314	19.942	3.800	0.441
123.000	140.962	80.002	19.993	103.314	19.943	3.703	0.455
123.500	141.224	80.003	19.994	103.310	19.942	3.804	0.462
124.000	141.415	80.001	19.993	103.309	19.942	3.805	0.460
124.500	141.677	80.002	19.993	103.307	19.942	3.793	0.453
125.000	141.877	80.002	19.994	103.301	19.942	3.823	0.458
125.500	142.145	80.002	19.993	103.301	19.943	3.751	0.465
126.000	142.365	80.002	19.993	103.302	19.941	3.844	0.478
126.500	142.611	80.004	19.993	103.300	19.939	3.992	0.477
127.000	142.833	80.003	19.992	103.299	19.943	3.744	0.468
127.500	143.034	80.000	19.993	103.300	19.943	3.760	0.446
128.000	143.307	80.002	19.992	103.300	19.943	3.745	0.448
128.500	143.566	80.002	19.993	103.301	19.938	4.038	0.503
129.000	143.814	80.002	19.994	103.300	19.944	3.689	0.519
129.500	144.030	80.001	19.994	103.298	19.939	3.981	0.485
130.000	144.315	80.001	19.992	103.297	19.941	3.841	0.482
130.500	144.507	80.001	19.994	103.298	19.940	3.938	0.489
131.000	144.777	80.001	19.994	103.301	19.943	3.754	0.470
131.500	145.020	80.003	19.994	103.303	19.943	3.717	0.488
132.000	145.241	80.000	19.994	103.307	19.942	3.823	0.488
132.500	145.469	80.002	19.995	103.308	19.941	3.839	0.456
133.000	145.730	80.001	19.994	103.309	19.939	3.971	0.469
133.500	145.895	80.001	19.994	103.306	19.940	3.895	0.457
134.000	146.143	80.001	19.994	103.307	19.941	3.853	0.419
134.500	146.413	80.001	19.994	103.307	19.942	3.786	0.465
135.000	146.653	79.999	19.994	103.306	19.941	3.888	0.514
135.500	146.901	80.003	19.994	103.307	19.941	3.837	0.499
136.000	147.159	80.002	19.994	103.307	19.939	3.971	0.497
136.500	147.368	80.002	19.995	103.307	19.942	3.785	0.487
137.000	147.619	80.002	19.994	103.307	19.943	3.723	0.463
137.500	147.819	80.002	19.993	103.310	19.939	3.961	0.455
138.000	148.075	80.003	19.994	103.310	19.939	3.978	0.454
138.500	148.338	80.000	19.993	103.309	19.941	3.860	0.488
139.000	148.609	80.001	19.994	103.306	19.942	3.804	0.526
139.500	148.810	80.000	19.994	103.305	19.937	4.098	0.503
140.000	149.092	80.001	19.994	103.302	19.940	3.941	0.477
140.500	149.345	79.999	19.995	103.303	19.939	3.971	0.509
141.000	149.614	80.000	19.994	103.307	19.940	3.934	0.529
141.500	149.841	79.998	19.995	103.307	19.938	4.050	0.509
142.000	150.091	80.001	19.994	103.305	19.937	4.129	0.486
142.500	150.304	80.001	19.994	103.305	19.939	4.018	0.470
143.000	150.556	80.000	19.994	103.302	19.938	4.052	0.465
143.500	150.800	80.001	19.994	103.299	19.939	4.024	0.481
144.000	151.030	80.001	19.994	103.298	19.938	4.034	0.485
144.500	151.283	79.999	19.993	103.298	19.939	3.985	0.478
145.000	151.529	80.001	19.995	103.298	19.940	3.904	0.491
145.500	151.753	80.001	19.994	103.302	19.938	4.031	0.484
146.000	152.054	80.001	19.994	103.305	19.943	3.749	0.497
146.500	152.241	80.001	19.995	103.309	19.940	3.955	0.506
147.000	152.509	80.001	19.994	103.312	19.943	3.759	0.471
147.500	152.733	80.002	19.994	103.316	19.937	4.103	0.474
148.000	152.996	80.001	19.994	103.315	19.943	3.724	0.490
148.500	153.273	80.001	19.994	103.317	19.939	3.996	0.514
149.000	153.481	80.003	19.994	103.317	19.941	3.844	0.513
149.500	153.764	80.000	19.994	103.314	19.936	4.154	0.488
150.000	153.965	80.000	19.994	103.310	19.936	4.195	0.487
150.500	154.228	80.000	19.994	103.307	19.939	3.996	0.474
151.000	154.443	80.001	19.993	103.304	19.938	4.066	0.471
151.500	154.713	80.000	19.994	103.300	19.943	3.746	0.482
152.000	154.966	80.000	19.995	103.300	19.940	3.932	0.504
152.500	155.185	80.001	19.993	103.300	19.942	3.793	0.497
153.000	155.450	80.001	19.994	103.301	19.940	3.930	0.478
153.500	155.666	80.000	19.994	103.302	19.937	4.120	0.482
154.000	155.945	80.002	19.994	103.304	19.940	3.904	0.488
154.500	156.174	80.000	19.994	103.305	19.938	4.085	0.501
155.000	156.412	80.000	19.994	103.305	19.937	4.094	0.488
155.500	156.668	80.000	19.994	103.303	19.939	3.994	0.480
156.000	156.933	80.000	19.995	103.302	19.939	4.016	0.507
156.500	157.171	80.001	19.993	103.298	19.939	4.004	0.512
157.000	157.437	80.000	19.993	103.297	19.939	3.976	0.504
157.500	157.698	79.999	19.996	103.299	19.938	4.048	0.516
158.000	157.961	80.001	19.994	103.300	19.938	4.082	0.526
158.500	158.180	79.999	19.994	103.302	19.938	4.089	0.503
159.000	158.416	80.002	19.993	103.306	19.939	4.008	0.468
159.500	158.682	79.999	19.995	103.308	19.939	3.972	0.479
160.000	158.972	80.001	19.994	103.307	19.942	3.775	0.529
160.500	159.231	80.000	19.995	103.307	19.939	3.967	0.553
161.000	159.422	80.000	19.994	103.309	19.940	3.930	0.499
161.500	159.675	80.000	19.994	103.309	19.938	4.062	0.447
162.000	159.921	80.001	19.994	103.308	19.933	4.379	0.471
162.500	160.142	80.001	19.994	103.307	19.938	4.065	0.483
163.000	160.456	80.003	19.993	103.305	19.937	4.138	0.501
163.500	160.674	80.001	19.995	103.302	19.939	3.983	0.533
164.000	160.924	80.000	19.995	103.298	19.939	3.995	0.500
164.501	161.200	79.999	19.994	103.297	19.938	4.039	0.497
165.001	161.452	80.000	19.994	103.295	19.936	4.153	0.527
165.500	161.725	80.001	19.994	103.295	19.938	4.051	0.526
166.000	161.935	80.002	19.994	103.296	19.936	4.173	0.504
166.500	162.196	80.001	19.994	103.296	19.936	4.169	0.477
167.000	162.418	80.000	19.995	103.296	19.936	4.196	0.478
167.500	162.686	80.002	19.994	103.297	19.939	3.970	0.487
168.000	162.945	80.001	19.994	103.297	19.933	4.388	0.508
168.500	163.164	80.002	19.994	103.296	19.937	4.106	0.503
169.000	163.432	80.002	19.994	103.294	19.935	4.250	0.483
169.500	163.685	80.003	19.995	103.294	19.934	4.340	0.504
170.000	163.975	80.003	19.995	103.294	19.934	4.330	0.532
170.500	164.200	80.002	19.994	103.293	19.935	4.233	0.529
171.000	164.475	80.002	19.994	103.293	19.933	4.372	0.507
171.500	164.731	80.003	19.994	103.292	19.936	4.155	0.515
172.000	164.989	80.002	19.995	103.292	19.936	4.178	0.522
172.500	165.255	80.002	19.994	103.292	19.936	4.166	0.519
173.000	165.505	80.002	19.994	103.290	19.931	4.513	0.520
173.500	165.781	80.003	19.994	103.290	19.935	4.258	0.521
174.000	165.971	80.001	19.994	103.291	19.936	4.161	0.496
174.500	166.266	80.004	19.995	103.291	19.936	4.164	0.475
175.000	166.522	80.003	19.994	103.288	19.937	4.102	0.519
175.500	166.777	80.003	19.995	103.285	19.936	4.199	0.531
176.000	167.005	80.002	19.994	103.285	19.930	4.544	0.497
176.500	167.267	80.001	19.994	103.285	19.933	4.351	0.487
177.000	167.492	80.002	19.993	103.285	19.933	4.388	0.489
177.500	167.763	80.004	19.993	103.289	19.934	4.303	0.491
178.001	168.021	80.003	19.994	103.292	19.930	4.589	0.512
178.501	168.242	80.001	19.994	103.291	19.933	4.391	0.504
179.000	168.503	80.002	19.993	103.291	19.932	4.416	0.481
179.500	168.736	80.002	19.993	103.290	19.931	4.495	0.488
180.000	168.969	80.001	19.993	103.289	19.934	4.301	0.479
180.500	169.287	80.002	19.993	103.289	19.930	4.594	0.508
181.000	169.504	80.000	19.993	103.291	19.932	4.462	0.543
181.500	169.759	80.001	19.994	103.291	19.933	4.382	0.504
182.000	170.030	80.003	19.993	103.292	19.933	4.393	0.499
182.500	170.268	80.002	19.994	103.293	19.931	4.504	0.517
183.000	170.503	80.002	19.994	103.293	19.933	4.407	0.490
183.500	170.757	80.002	19.993	103.293	19.931	4.492	0.481
184.000	170.986	80.003	19.994	103.293	19.931	4.537	0.486
184.500	171.282	80.002	19.994	103.294	19.931	4.495	0.505
185.000	171.512	80.002	19.994	103.291	19.930	4.571	0.526
185.500	171.746	80.002	19.993	103.288	19.929	4.669	0.494
186.000	171.984	80.001	19.992	103.288	19.929	4.647	0.468
186.500	172.277	79.999	19.993	103.288	19.929	4.648	0.502
187.000	172.503	80.002	19.993	103.287	19.931	4.525	0.525
187.500	172.738	80.001	19.993	103.288	19.930	4.560	0.490
188.000	173.028	80.002	19.994	103.291	19.931	4.523	0.493
188.500	173.288	80.002	19.993	103.292	19.929	4.634	0.538
189.000	173.532	80.001	19.993	103.289	19.931	4.488	0.527
189.500	173.774	80.004	19.993	103.287	19.929	4.617	0.495
190.000	173.985	80.003	19.993	103.285	19.930	4.587	0.470
190.500	174.270	80.001	19.993	103.284	19.931	4.523	0.475
191.000	174.537	80.003	19.994	103.282	19.927	4.749	0.524
191.500	174.746	80.003	19.994	103.282	19.930	4.576	0.514
192.000	174.972	80.002	19.993	103.285	19.929	4.664	0.456
192.500	175.245	80.005	19.994	103.287	19.930	4.569	0.467
193.000	175.472	80.004	19.993	103.288	19.927	4.767	0.499
193.500	175.738	80.003	19.993	103.288	19.928	4.726	0.496
194.000	175.970	80.003	19.993	103.288	19.928	4.708	0.496
194.500	176.193	80.004	19.994	103.286	19.926	4.811	0.477
195.000	176.471	80.004	19.993	103.286	19.924	4.962	0.478
195.500	176.716	80.003	19.992	103.282	19.923	5.006	0.512
196.000	176.964	80.004	19.993	103.284	19.922	5.075	0.508
196.500	177.248	80.003	19.994	103.286	19.925	4.869	0.512
197.000	177.479	80.002	19.994	103.289	19.926	4.849	0.523
197.500	177.728	80.004	19.994	103.285	19.921	5.151	0.498
198.000	177.996	80.005	19.992	103.287	19.924	4.985	0.499
198.500	178.223	80.004	19.993	103.288	19.921	5.170	0.506
199.000	178.488	80.003	19.993	103.287	19.922	5.094	0.494
199.500	178.705	80.003	19.993	103.288	19.922	5.077	0.487
200.000	178.947	80.003	19.994	103.291	19.920	5.223	0.470
200.500	179.206	80.004	19.993	103.286	19.924	4.976	0.480
201.000	179.452	80.004	19.993	103.286	19.921	5.186	0.503
201.500	179.710	80.003	19.992	103.286	19.924	4.957	0.505
202.000	179.966	80.004	19.994	103.284	19.923	5.009	0.509
202.500	180.246	80.004	19.993	103.285	19.923	5.045	0.525
203.000	180.473	80.002	19.993	103.291	19.921	5.171	0.522
203.500	180.729	80.003	19.993	103.291	19.922	5.112	0.495
204.000	180.972	80.002	19.993	103.290	19.922	5.113	0.491
204.500	181.206	80.001	19.993	103.290	19.920	5.253	0.488
205.000	181.449	80.001	19.993	103.290	19.920	5.233	0.477
205.500	181.673	80.000	19.994	103.289	19.920	5.235	0.472
206.000	181.940	80.000	19.994	103.289	19.917	5.406	0.479
206.500	182.190	80.001	19.995	103.289	19.920	5.239	0.505
207.000	182.460	80.002	19.993	103.291	19.917	5.420	0.519
207.500	182.690	80.000	19.993	103.292	19.916	5.475	0.510
208.000	182.951	79.999	19.993	103.293	19.914	5.597	0.495
208.500	183.188	80.002	19.994	103.294	19.911	5.822	0.494
209.000	183.430	79.999	19.993	103.293	19.917	5.408	0.489
209.500	183.699	80.000	19.994	103.291	19.918	5.334	0.495
210.000	183.858	80.000	19.994	103.291	19.917	5.424	0.469
210.500	184.169	80.002	19.993	103.292	19.913	5.665	0.449
211.000	184.392	80.000	19.994	103.292	19.915	5.538	0.502
211.500	184.663	80.001	19.993	103.294	19.913	5.687	0.514
212.000	184.920	80.001	19.993	103.291	19.913	5.693	0.511
212.500	185.160	80.001	19.993	103.288	19.913	5.649	0.513
213.000	185.427	80.002	19.993	103.286	19.913	5.672	0.502
213.500	185.661	79.999	19.994	103.285	19.909	5.924	0.504
214.000	185.913	79.999	19.993	103.282	19.912	5.736	0.494
214.500	186.172	80.001	19.993	103.285	19.911	5.833	0.499
215.000	186.460	80.002	19.993	103.289	19.914	5.628	0.529
215.500	186.670	80.001	19.993	103.291	19.916	5.496	0.522
216.000	186.945	80.002	19.994	103.291	19.910	5.848	0.492
216.500	187.167	80.001	19.994	103.294	19.910	5.892	0.491
217.000	187.476	80.000	19.993	103.296	19.911	5.797	0.514
217.500	187.698	80.003	19.993	103.297	19.910	5.851	0.531
218.000	187.926	80.001	19.994	103.297	19.910	5.876	0.490
218.500	188.184	80.000	19.993	103.296	19.911	5.795	0.468
219.000	188.427	80.002	19.992	103.297	19.909	5.944	0.494
219.500	188.687	80.002	19.993	103.293	19.908	5.986	0.502
220.000	188.892	80.000	19.992	103.289	19.910	5.840	0.484
220.501	189.155	80.001	19.993	103.289	19.910	5.881	0.466
221.000	189.399	80.002	19.993	103.291	19.907	6.070	0.488
221.500	189.639	80.001	19.993	103.292	19.906	6.107	0.496
222.000	189.906	80.001	19.993	103.295	19.903	6.335	0.495
222.500	190.131	80.000	19.994	103.299	19.906	6.096	0.499
223.000	190.381	80.001	19.993	103.297	19.906	6.124	0.483
223.500	190.636	80.000	19.992	103.295	19.904	6.251	0.490
224.000	190.899	80.001	19.993	103.295	19.904	6.244	0.512
224.500	191.176	80.001	19.993	103.294	19.905	6.211	0.529
225.000	191.419	79.999	19.993	103.294	19.906	6.104	0.530
225.500	191.626	80.003	19.994	103.295	19.905	6.213	0.485
226.000	191.921	80.000	19.994	103.293	19.904	6.258	0.476
226.500	192.094	80.002	19.993	103.290	19.906	6.117	0.486
227.000	192.357	80.003	19.993	103.288	19.902	6.401	0.452
227.500	192.615	80.000	19.993	103.287	19.900	6.519	0.478
228.000	192.875	80.002	19.993	103.285	19.899	6.611	0.519
228.500	193.092	80.000	19.994	103.285	19.899	6.549	0.497
229.000	193.395	80.002	19.993	103.281	19.901	6.477	0.498
229.500	193.631	80.001	19.994	103.278	19.900	6.515	0.529
230.000	193.853	80.001	19.996	103.272	19.899	6.551	0.499
230.500	194.117	80.000	19.994	103.273	19.897	6.683	0.472
231.000	194.376	80.002	19.995	103.275	19.899	6.583	0.504
231.500	194.635	80.002	19.995	103.278	19.897	6.738	0.520
232.000	194.847	80.000	19.996	103.282	19.897	6.683	0.494
232.500	195.131	80.001	19.995	103.282	19.894	6.879	0.484
233.000	195.364	80.000	19.994	103.280	19.896	6.745	0.507
233.500	195.598	80.001	19.994	103.278	19.898	6.665	0.492
234.000	195.816	80.001	19.995	103.279	19.898	6.628	0.459
234.500	196.106	80.000	19.994	103.281	19.895	6.831	0.480
235.000	196.348	80.001	19.994	103.287	19.894	6.887	0.520
235.500	196.556	79.999	19.993	103.289	19.893	6.993	0.491
236.000	196.815	80.000	19.994	103.292	19.894	6.913	0.459
236.500	197.014	79.999	19.995	103.293	19.892	7.005	0.462
237.000	197.271	80.000	19.994	103.289	19.889	7.204	0.457
237.500	197.551	80.002	19.994	103.288	19.891	7.075	0.497
238.000	197.834	79.999	19.994	103.288	19.890	7.140	0.550
238.500	198.048	80.002	19.994	103.288	19.890	7.129	0.530
239.000	198.312	80.000	19.995	103.287	19.889	7.240	0.487
239.500	198.561	80.002	19.994	103.285	19.889	7.240	0.495
240.000	198.793	80.000	19.995	103.287	19.892	7.024	0.497
240.500	199.028	79.999	19.994	103.285	19.889	7.197	0.475
241.000	199.294	80.000	19.995	103.283	19.892	7.024	0.484
241.500	199.527	80.002	19.995	103.285	19.890	7.186	0.500
242.000	199.773	80.002	19.993	103.291	19.888	7.311	0.489
242.500	200.043	80.000	19.994	103.292	19.886	7.436	0.497
243.000	200.280	80.000	19.994	103.295	19.889	7.197	0.511
243.500	200.518	80.001	19.996	103.296	19.888	7.301	0.491
244.000	200.757	80.001	19.994	103.294	19.888	7.294	0.476
244.500	201.027	80.001	19.994	103.287	19.888	7.278	0.493
245.000	201.247	80.000	19.994	103.286	19.886	7.391	0.499
245.500	201.491	80.003	19.995	103.285	19.888	7.274	0.477
246.000	201.757	80.000	19.994	103.283	19.886	7.404	0.487
246.500	201.957	80.000	19.995	103.283	19.884	7.520	0.488
247.000	202.241	80.000	19.996	103.285	19.885	7.471	0.475
247.500	202.478	80.001	19.993	103.284	19.885	7.455	0.503
248.000	202.707	80.001	19.993	103.278	19.883	7.618	0.493
248.500	202.935	80.001	19.994	103.275	19.884	7.534	0.461
249.000	203.181	80.001	19.994	103.272	19.884	7.530	0.466
249.500	203.435	80.002	19.994	103.271	19.883	7.588	0.487
250.000	203.704	80.001	19.994	103.271	19.887	7.375	0.512
250.500	203.933	80.001	19.994	103.273	19.884	7.565	0.510
251.000	204.161	80.002	19.994	103.275	19.884	7.567	0.477
251.500	204.368	80.002	19.995	103.277	19.883	7.598	0.447
252.000	204.645	80.002	19.994	103.280	19.885	7.483	0.460
252.500	204.895	80.001	19.994	103.280	19.879	7.882	0.505
253.000	205.152	80.001	19.995	103.280	19.883	7.629	0.517
253.500	205.353	80.002	19.993	103.283	19.882	7.693	0.483
254.000	205.632	80.003	19.995	103.284	19.878	7.924	0.469
254.500	205.861	80.002	19.995	103.286	19.881	7.773	0.494
255.000	206.140	80.004	19.995	103.288	19.876	8.045	0.508
255.500	206.384	80.002	19.994	103.287	19.877	7.972	0.515
256.000	206.619	80.002	19.994	103.285	19.877	8.022	0.501
256.500	206.885	80.003	19.995	103.281	19.879	7.865	0.490
257.000	207.139	80.003	19.995	103.273	19.876	8.096	0.510
257.500	207.365	80.002	19.994	103.269	19.878	7.963	0.500
258.000	207.607	80.002	19.994	103.273	19.876	8.044	0.474
258.500	207.870	80.003	19.994	103.275	19.878	7.956	0.487
259.000	208.120	80.002	19.994	103.281	19.876	8.093	0.509
259.500	208.381	80.001	19.994	103.287	19.878	7.946	0.512
260.000	208.637	80.002	19.994	103.290	19.877	7.985	0.514
260.500	208.908	80.002	19.995	103.290	19.875	8.117	0.522
261.000	209.113	80.001	19.994	103.287	19.875	8.117	0.501
261.500	209.346	80.003	19.994	103.282	19.874	8.166	0.457
262.000	209.594	80.001	19.994	103.279	19.874	8.205	0.459
262.500	209.822	80.000	19.994	103.274	19.872	8.309	0.479
263.000	210.074	80.000	19.995	103.269	19.872	8.346	0.478
263.500	210.363	80.000	19.995	103.264	19.873	8.273	0.510
264.000	210.580	80.003	19.994	103.268	19.872	8.358	0.523
264.500	210.867	79.999	19.993	103.271	19.873	8.268	0.505
265.000	211.087	80.002	19.994	103.277	19.874	8.220	0.506
265.500	211.349	80.002	19.996	103.282	19.871	8.393	0.495
266.000	211.582	80.003	19.996	103.289	19.873	8.280	0.488
266.500	211.792	80.000	19.995	103.290	19.870	8.435	0.469
267.000	212.042	80.001	19.995	103.290	19.868	8.558	0.452
267.500	212.273	80.002	19.995	103.290	19.871	8.361	0.470
268.000	212.486	79.999	19.995	103.288	19.869	8.513	0.462
268.500	212.749	80.001	19.995	103.286	19.868	8.591	0.460
269.000	212.999	80.002	19.994	103.284	19.871	8.416	0.495
269.500	213.236	80.001	19.994	103.281	19.869	8.495	0.500
270.000	213.480	80.003	19.994	103.275	19.870	8.466	0.484
270.500	213.762	80.002	19.994	103.272	19.865	8.776	0.504
271.000	214.007	80.001	19.994	103.272	19.869	8.531	0.527
271.500	214.254	80.002	19.995	103.269	19.869	8.524	0.509
272.000	214.483	80.003	19.993	103.267	19.866	8.721	0.484
272.500	214.745	80.003	19.993	103.269	19.870	8.462	0.483
273.000	214.957	80.002	19.994	103.271	19.869	8.514	0.482
273.500	215.234	80.003	19.993	103.272	19.868	8.566	0.482
274.000	215.434	80.002	19.993	103.275	19.867	8.668	0.483
274.500	215.694	80.003	19.994	103.278	19.866	8.684	0.468
275.000	215.931	80.002	19.992	103.282	19.866	8.724	0.479
275.500	216.188	80.004	19.992	103.286	19.867	8.669	0.496
276.000	216.403	80.002	19.993	103.284	19.867	8.648	0.483
276.500	216.637	80.002	19.993	103.282	19.865	8.762	0.460
277.000	216.894	80.004	19.993	103.283	19.866	8.683	0.470
277.500	217.169	80.003	19.994	103.281	19.865	8.774	0.512
278.000	217.409	80.003	19.994	103.281	19.865	8.767	0.523
278.500	217.617	80.005	19.994	103.284	19.867	8.661	0.482
279.000	217.882	80.003	19.992	103.286	19.865	8.755	0.460
279.500	218.125	80.003	19.994	103.288	19.868	8.563	0.490
280.000	218.379	80.004	19.992	103.289	19.865	8.787	0.503
280.500	218.627	80.002	19.993	103.283	19.866	8.727	0.500
281.000	218.861	80.002	19.993	103.278	19.868	8.611	0.492
281.500	219.106	80.003	19.992	103.277	19.864	8.874	0.480
282.000	219.321	80.003	19.993	103.270	19.871	8.405	0.469
282.500	219.565	80.003	19.992	103.267	19.860	9.118	0.460
283.000	219.827	80.004	19.993	103.267	19.863	8.933	0.483
283.500	220.074	80.002	19.993	103.266	19.865	8.788	0.507
284.000	220.324	80.003	19.992	103.263	19.861	9.033	0.503
284.500	220.532	80.003	19.993	103.266	19.863	8.889	0.478
285.000	220.825	80.002	19.992	103.270	19.861	9.017	0.479
285.500	221.090	80.003	19.993	103.272	19.861	9.034	0.529
286.000	221.346	80.002	19.994	103.278	19.863	8.915	0.540
286.500	221.600	80.001	19.994	103.280	19.862	8.997	0.515
287.000	221.800	80.001	19.994	103.281	19.861	9.056	0.482
287.500	222.084	80.001	19.994	103.279	19.861	9.045	0.469
288.000	222.305	80.001	19.994	103.278	19.861	9.012	0.495
288.500	222.545	80.001	19.993	103.274	19.862	8.975	0.483
289.000	222.810	80.000	19.994	103.272	19.865	8.803	0.483
289.500	223.073	79.999	19.994	103.272	19.861	9.032	0.517
290.000	223.307	80.001	19.994	103.274	19.862	8.966	0.513
290.500	223.559	80.002	19.994	103.278	19.859	9.175	0.491
291.000	223.810	80.001	19.994	103.283	19.864	8.857	0.494
291.501	224.065	80.001	19.994	103.282	19.858	9.232	0.504
292.000	224.351	80.000	19.994	103.283	19.859	9.142	0.524
292.500	224.551	80.001	19.995	103.282	19.860	9.103	0.514
293.000	224.807	80.002	19.994	103.278	19.862	8.941	0.471
293.500	225.040	80.000	19.992	103.275	19.858	9.204	0.473
294.000	225.324	80.001	19.994	103.275	19.861	9.033	0.503
294.500	225.535	80.002	19.994	103.273	19.859	9.144	0.505
295.000	225.776	80.000	19.994	103.274	19.858	9.210	0.473
295.500	226.033	80.001	19.993	103.272	19.868	8.594	0.475
296.000	226.311	80.001	19.993	103.268	19.868	8.557	0.517
296.500	226.534	80.000	19.995	103.267	19.867	8.641	0.518
297.000	226.773	80.002	19.994	103.269	19.864	8.845	0.482
297.501	226.983	80.000	19.994	103.267	19.866	8.709	0.456
298.001	227.265	80.001	19.993	103.268	19.853	9.533	0.471
298.500	227.487	80.001	19.993	103.271	19.861	9.008	0.498
299.000	227.751	80.001	19.994	103.278	19.854	9.459	0.495
299.500	228.002	80.002	19.993	103.274	19.854	9.512	0.500
300.000	228.280	80.001	19.994	103.275	19.858	9.228	0.521
300.500	228.499	80.001	19.993	103.276	19.853	9.560	0.513
301.000	228.767	80.000	19.993	103.273	19.853	9.535	0.493
301.500	229.018	80.001	19.993	103.269	19.853	9.571	0.503
302.000	229.263	80.001	19.993	103.271	19.855	9.441	0.507
302.500	229.530	80.001	19.994	103.273	19.856	9.335	0.504
303.000	229.789	80.002	19.993	103.273	19.850	9.754	0.519
303.500	230.013	80.000	19.993	103.271	19.856	9.357	0.505
304.000	230.239	80.001	19.994	103.271	19.867	8.670	0.467
304.500	230.541	80.003	19.994	103.273	19.870	8.461	0.489
305.000	230.781	80.002	19.994	103.272	19.854	9.516	0.535
305.500	231.143	80.002	19.994	103.276	19.849	9.793	0.572
306.000	231.345	80.002	19.993	103.279	19.854	9.471	0.583
306.500	231.492	80.000	19.993	103.282	19.852	9.594	0.456
307.000	231.709	80.001	19.993	103.282	19.854	9.460	0.357
307.500	231.995	80.000	19.993	103.278	19.848	9.899	0.434
308.000	232.222	80.002	19.993	103.273	19.852	9.593	0.508
308.500	232.439	80.001	19.993	103.271	19.850	9.748	0.478
309.000	232.692	80.000	19.993	103.266	19.850	9.730	0.456
309.500	232.939	80.000	19.995	103.268	19.852	9.626	0.485
310.000	233.203	80.002	19.993	103.270	19.847	9.973	0.505
310.500	233.459	80.002	19.994	103.269	19.846	10.029	0.515
311.000	233.683	80.002	19.993	103.269	19.849	9.817	0.500
311.500	233.966	80.002	19.993	103.274	19.853	9.549	0.494
312.000	234.170	80.002	19.993	103.276	19.847	9.918	0.497
312.500	234.426	80.003	19.993	103.279	19.850	9.724	0.474
313.000	234.686	80.003	19.993	103.281	19.858	9.219	0.488
313.500	234.907	80.001	19.994	103.280	19.854	9.519	0.498
314.000	235.214	80.002	19.993	103.275	19.849	9.797	0.505
314.500	235.470	80.002	19.993	103.272	19.850	9.777	0.545
315.000	235.701	80.002	19.994	103.274	19.846	10.035	0.525
315.500	235.946	80.001	19.993	103.275	19.850	9.756	0.482
316.000	236.138	80.002	19.993	103.275	19.848	9.908	0.456
316.500	236.401	80.002	19.993	103.282	19.843	10.201	0.446
317.000	236.632	80.001	19.993	103.281	19.846	10.038	0.475
317.500	237.005	79.999	19.992	103.279	19.843	10.200	0.549
318.000	237.158	80.001	19.994	103.279	19.845	10.068	0.565
318.500	237.409	80.001	19.994	103.285	19.844	10.144	0.465
319.000	237.671	80.003	19.994	103.285	19.845	10.089	0.458
319.500	237.956	80.001	19.993	103.287	19.847	9.968	0.530
320.000	238.205	80.003	19.994	103.287	19.843	10.226	0.540
320.500	238.483	80.001	19.994	103.290	19.841	10.323	0.531
321.000	238.664	80.001	19.994	103.286	19.842	10.257	0.493
321.500	238.939	80.001	19.995	103.280	19.843	10.206	0.457
322.000	239.280	80.000	19.994	103.276	19.842	10.299	0.536
322.500	239.426	80.001	19.994	103.277	19.840	10.396	0.552
323.000	239.744	80.001	19.994	103.278	19.842	10.292	0.476
323.500	239.901	80.001	19.995	103.281	19.840	10.380	0.469
324.000	240.158	80.001	19.993	103.286	19.840	10.370	0.444
324.500	240.407	80.001	19.993	103.288	19.839	10.472	0.460
325.000	240.662	80.001	19.994	103.285	19.838	10.555	0.505
325.500	240.880	80.000	19.995	103.283	19.840	10.386	0.489
326.000	241.118	80.000	19.995	103.284	19.835	10.704	0.464
326.500	241.340	80.001	19.995	103.286	19.836	10.688	0.458
327.000	241.597	79.999	19.995	103.289	19.836	10.630	0.469
327.500	241.829	80.001	19.993	103.291	19.837	10.616	0.484
328.000	242.154	80.002	19.994	103.286	19.836	10.641	0.523
328.500	242.398	80.000	19.994	103.285	19.843	10.217	0.563
329.000	242.644	80.001	19.994	103.283	19.833	10.853	0.530
329.500	242.878	80.001	19.995	103.282	19.834	10.769	0.485
330.000	243.121	80.001	19.995	103.282	19.835	10.691	0.478
330.500	243.365	80.001	19.994	103.285	19.844	10.152	0.481
331.000	243.607	80.000	19.995	103.282	19.833	10.850	0.486
331.500	243.870	80.001	19.995	103.285	19.830	11.027	0.496
332.000	244.107	80.002	19.994	103.285	19.831	11.001	0.502
332.500	244.357	80.002	19.994	103.286	19.829	11.119	0.493
333.000	244.605	80.002	19.994	103.286	19.831	10.992	0.493
333.500	244.875	80.003	19.995	103.286	19.828	11.156	0.509
334.000	245.101	80.000	19.994	103.286	19.826	11.313	0.507
334.500	245.348	80.003	19.994	103.286	19.827	11.235	0.484
335.000	245.585	80.002	19.995	103.290	19.824	11.403	0.478
335.500	245.852	80.002	19.994	103.292	19.826	11.322	0.494
336.000	246.080	80.002	19.995	103.294	19.826	11.278	0.499
336.500	246.356	80.002	19.995	103.290	19.830	11.049	0.499
337.000	246.599	80.003	19.994	103.288	19.826	11.276	0.512
337.500	246.842	80.003	19.994	103.286	19.827	11.258	0.503
338.000	247.089	80.002	19.994	103.285	19.825	11.375	0.488
338.500	247.334	80.002	19.994	103.288	19.825	11.343	0.491
339.000	247.598	80.001	19.995	103.291	19.823	11.472	0.500
339.500	247.837	80.004	19.993	103.294	19.825	11.392	0.506
340.000	248.061	80.001	19.994	103.296	19.820	11.709	0.483
340.500	248.299	80.003	19.993	103.297	19.821	11.658	0.462
341.000	248.576	80.003	19.993	103.297	19.818	11.850	0.488
341.500	248.824	80.001	19.993	103.297	19.815	11.997	0.520
342.000	249.103	80.003	19.994	103.296	19.815	11.993	0.526
342.500	249.300	80.001	19.995	103.296	19.823	11.523	0.501
343.000	249.552	80.002	19.993	103.296	19.819	11.743	0.462
343.500	249.840	80.001	19.994	103.296	19.834	10.811	0.495
344.000	250.121	80.001	19.993	103.294	19.825	11.352	0.555
344.500	250.301	80.000	19.994	103.294	19.825	11.374	0.515
345.000	250.599	80.002	19.995	103.293	19.816	11.961	0.469
345.500	250.823	80.002	19.994	103.294	19.814	12.090	0.500
346.000	251.101	80.001	19.994	103.295	19.814	12.084	0.512
346.500	251.360	80.001	19.993	103.297	19.813	12.135	0.519
347.000	251.634	80.001	19.994	103.298	19.814	12.082	0.535
347.500	251.805	80.001	19.993	103.298	19.815	11.994	0.490
348.000	252.096	80.001	19.994	103.298	19.817	11.894	0.454
348.500	252.313	80.000	19.994	103.298	19.818	11.834	0.485
349.000	252.575	80.000	19.994	103.298	19.808	12.468	0.493
349.500	252.817	80.001	19.993	103.298	19.811	12.276	0.491
350.000	253.056	80.000	19.994	103.298	19.808	12.451	0.493
350.500	253.315	80.000	19.994	103.297	19.806	12.597	0.489
351.000	253.574	80.001	19.994	103.298	19.807	12.509	0.508
351.500	253.891	80.001	19.995	103.298	19.808	12.474	0.547
352.000	254.066	80.001	19.996	103.298	19.803	12.819	0.534
352.500	254.355	80.001	19.995	103.298	19.805	12.671	0.478
353.000	254.537	80.002	19.995	103.297	19.805	12.669	0.468
353.500	254.842	80.001	19.995	103.296	19.800	13.002	0.479
354.000	255.089	80.002	19.995	103.296	19.802	12.870	0.520
354.500	255.351	80.002	19.995	103.296	19.801	12.910	0.531
355.000	255.554	80.002	19.994	103.296	19.799	13.070	0.487
355.500	255.796	80.002	19.995	103.296	19.796	13.238	0.455
356.000	256.021	80.003	19.995	103.295	19.797	13.185	0.456
356.500	256.277	80.003	19.994	103.295	19.795	13.281	0.474
357.000	256.522	80.003	19.995	103.294	19.797	13.168	0.491
357.500	256.776	80.003	19.995	103.294	19.805	12.647	0.500
358.000	257.039	80.003	19.994	103.294	19.809	12.384	0.508
358.500	257.286	80.003	19.994	103.293	19.806	12.602	0.514
359.000	257.535	80.003	19.995	103.292	19.802	12.859	0.503
359.500	257.833	80.004	19.994	103.292	19.798	13.125	0.521
360.000	258.034	80.005	19.995	103.293	19.788	13.781	0.523
360.500	258.342	80.004	19.994	103.295	19.792	13.503	0.504
361.000	258.560	80.003	19.995	103.295	19.791	13.540	0.518
361.500	258.793	80.005	19.994	103.295	19.796	13.241	0.488
362.000	259.033	80.004	19.994	103.296	19.791	13.562	0.462
362.500	259.309	80.003	19.994	103.295	19.790	13.636	0.494
363.000	259.561	80.004	19.994	103.293	19.798	13.089	0.522
363.500	259.832	80.003	19.995	103.294	19.783	14.113	0.526
364.000	260.061	80.003	19.995	103.294	19.783	14.077	0.512
364.500	260.301	80.003	19.992	103.294	19.776	14.537	0.484
365.000	260.547	80.004	19.994	103.293	19.778	14.408	0.477
365.500	260.788	80.004	19.994	103.293	19.778	14.386	0.487
366.000	261.012	80.005	19.993	103.292	19.777	14.453	0.476
366.500	261.266	80.004	19.994	103.293	19.774	14.702	0.471
367.000	261.537	80.004	19.994	103.295	19.778	14.410	0.501
367.500	261.744	80.002	19.992	103.297	19.773	14.747	0.501
368.000	261.983	80.003	19.993	103.297	19.770	14.907	0.462
368.500	262.279	80.002	19.994	103.298	19.769	14.993	0.490
369.000	262.494	80.002	19.994	103.298	19.787	13.833	0.523
369.500	262.733	80.002	19.994	103.296	19.781	14.205	0.482
370.000	262.959	80.003	19.994	103.294	19.778	14.441	0.460
370.500	263.229	80.002	19.994	103.296	19.771	14.847	0.481
371.000	263.458	80.002	19.994	103.299	19.766	15.211	0.498
371.500	263.696	80.002	19.995	103.303	19.765	15.234	0.483
372.000	263.942	80.002	19.994	103.310	19.759	15.628	0.475
372.500	264.214	80.000	19.995	103.316	19.756	15.827	0.501
373.000	264.453	80.002	19.994	103.318	19.758	15.721	0.515
373.500	264.706	80.003	19.993	103.318	19.755	15.880	0.502
374.000	264.961	79.999	19.994	103.317	19.758	15.695	0.500
374.500	265.204	80.000	19.994	103.313	19.753	16.053	0.503
375.000	265.456	80.001	19.994	103.308	19.750	16.199	0.497
375.500	265.720	80.002	19.993	103.308	19.752	16.121	0.506
376.000	265.917	80.000	19.994	103.311	19.754	15.941	0.488
376.500	266.170	80.000	19.994	103.315	19.746	16.479	0.455
377.000	266.437	80.000	19.994	103.318	19.749	16.300	0.485
377.500	266.647	80.002	19.994	103.322	19.746	16.506	0.499
378.000	266.904	80.000	19.993	103.324	19.753	16.045	0.472
378.500	267.164	80.000	19.994	103.325	19.761	15.525	0.492
379.000	267.450	80.000	19.993	103.324	19.748	16.350	0.531
379.500	267.730	79.999	19.994	103.319	19.746	16.505	0.556
380.000	267.933	79.999	19.994	103.320	19.743	16.671	0.524
380.500	268.189	80.004	19.993	103.320	19.742	16.763	0.471
381.000	268.413	80.001	19.995	103.321	19.745	16.544	0.470
381.500	268.636	79.999	19.994	103.321	19.743	16.708	0.464
382.000	268.889	80.000	19.993	103.328	19.740	16.866	0.462
382.500	269.170	80.001	19.993	103.330	19.753	16.049	0.505
383.000	269.415	80.001	19.994	103.329	19.752	16.084	0.530
383.500	269.675	80.002	19.994	103.325	19.748	16.375	0.516
384.000	269.927	80.000	19.994	103.326	19.740	16.861	0.508
384.500	270.176	80.001	19.993	103.326	19.742	16.736	0.506
385.000	270.441	80.003	19.995	103.327	19.740	16.877	0.507
385.500	270.664	80.002	19.996	103.330	19.734	17.247	0.501
386.000	270.915	80.000	19.995	103.335	19.726	17.794	0.481
386.500	271.200	80.001	19.995	103.335	19.722	18.049	0.506
387.000	271.628	80.001	19.994	103.335	19.722	18.016	0.624
387.500	271.752	80.001	19.994	103.334	19.722	18.046	0.632
388.000	271.928	80.001	19.995	103.333	19.726	17.780	0.426
388.500	272.208	80.000	19.994	103.328	19.723	17.960	0.379
389.000	272.455	80.002	19.994	103.324	19.719	18.226	0.492
389.500	272.810	80.001	19.995	103.320	19.712	18.694	0.564
390.000	272.972	80.000	19.995	103.320	19.712	18.661	0.559
390.500	273.237	80.001	19.996	103.321	19.712	18.659	0.472
391.000	273.440	80.000	19.993	103.326	19.715	18.525	0.448
391.500	273.862	80.002	19.994	103.329	19.712	18.659	0.546
392.000	273.962	80.002	19.995	103.333	19.708	18.948	0.573
392.500	274.232	80.000	19.995	103.335	19.706	19.052	0.446
393.000	274.478	80.002	19.993	103.335	19.711	18.760	0.443
393.500	274.726	80.002	19.994	103.336	19.710	18.801	0.505
394.000	274.983	80.001	19.994	103.336	19.700	19.463	0.500
394.500	275.269	80.001	19.994	103.337	19.711	18.732	0.525
395.000	275.476	80.001	19.994	103.337	19.697	19.670	0.518
395.500	275.758	80.001	19.994	103.337	19.697	19.643	0.491
396.000	276.030	80.001	19.994	103.337	19.696	19.711	0.521
396.500	276.248	80.001	19.994	103.337	19.692	19.998	0.522
397.000	276.474	80.000	19.993	103.337	19.692	19.966	0.467
397.500	276.752	79.999	19.994	103.337	19.687	20.337	0.474
398.000	276.982	80.002	19.993	103.338	19.690	20.139	0.506
398.500	277.246	80.000	19.994	103.338	19.683	20.549	0.501
399.000	277.521	80.001	19.994	103.338	19.688	20.276	0.516
399.500	277.733	80.002	19.993	103.338	19.681	20.729	0.513
400.000	277.961	80.003	19.994	103.339	19.686	20.381	0.463
400.500	278.260	80.001	19.995	103.338	19.676	21.037	0.484
401.000	278.505	80.001	19.994	103.338	19.682	20.660	0.536
401.500	278.886	80.003	19.994	103.338	19.684	20.514	0.585
402.000	279.005	80.002	19.993	103.338	19.687	20.319	0.563
402.500	279.309	80.002	19.993	103.339	19.680	20.760	0.462
403.000	279.544	80.001	19.993	103.339	19.677	20.943	0.481
403.500	279.784	80.001	19.993	103.339	19.666	21.669	0.507
404.000	280.012	80.000	19.995	103.339	19.668	21.551	0.471
404.500	280.227	80.000	19.994	103.340	19.673	21.187	0.455
405.000	280.524	80.002	19.994	103.340	19.666	21.677	0.477
405.500	280.737	80.000	19.994	103.341	19.658	22.201	0.511
406.000	281.032	80.002	19.994	103.341	19.661	22.020	0.509
406.500	281.217	80.002	19.993	103.342	19.657	22.277	0.494
407.000	281.499	80.001	19.995	103.345	19.658	22.178	0.474
407.500	281.723	80.002	19.994	103.345	19.659	22.136	0.486
408.000	282.042	80.001	19.994	103.345	19.654	22.482	0.524
408.500	282.230	80.002	19.994	103.345	19.648	22.831	0.525
409.000	282.530	80.001	19.994	103.346	19.653	22.514	0.497
409.500	282.770	80.001	19.994	103.342	19.651	22.633	0.514
410.000	282.996	80.000	19.994	103.341	19.646	22.994	0.503
410.500	283.281	80.002	19.994	103.341	19.637	23.527	0.489
411.000	283.511	80.002	19.994	103.345	19.636	23.587	0.513
411.500	283.765	80.001	19.993	103.347	19.634	23.746	0.499
412.000	284.033	80.002	19.993	103.348	19.637	23.577	0.503
412.500	284.305	80.001	19.994	103.351	19.638	23.464	0.531
413.000	284.533	80.002	19.993	103.355	19.630	23.986	0.520
413.500	284.771	80.003	19.994	103.356	19.630	24.032	0.483
414.000	285.011	80.000	19.994	103.354	19.632	23.885	0.472
414.500	285.345	80.003	19.994	103.353	19.636	23.596	0.526
415.000	285.523	80.002	19.994	103.353	19.637	23.528	0.543
415.500	285.739	80.004	19.994	103.350	19.626	24.290	0.453
416.000	286.018	80.002	19.995	103.349	19.634	23.758	0.444
416.500	286.297	80.003	19.994	103.354	19.627	24.167	0.526
417.000	286.540	80.002	19.994	103.361	19.623	24.434	0.540
417.500	286.823	80.003	19.994	103.364	19.624	24.423	0.524
418.000	287.073	80.002	19.994	103.368	19.621	24.614	0.530
418.500	287.274	80.002	19.994	103.371	19.617	24.856	0.492
419.000	287.523	80.005	19.994	103.366	19.614	25.041	0.450
419.500	287.824	80.003	19.994	103.362	19.610	25.277	0.500
420.000	288.064	80.001	19.995	103.364	19.613	25.110	0.546
420.500	288.307	80.000	19.995	103.362	19.604	25.702	0.512
421.000	288.597	80.002	19.995	103.358	19.599	26.035	0.508
421.500	288.791	80.002	19.995	103.363	19.600	25.969	0.508
422.000	289.095	80.003	19.995	103.364	19.597	26.171	0.491
422.500	289.289	80.004	19.994	103.359	19.595	26.258	0.498
423.000	289.544	80.001	19.995	103.359	19.595	26.245	0.474
423.500	289.812	80.003	19.995	103.358	19.594	26.348	0.486
424.000	290.054	80.002	19.995	103.356	19.595	26.293	0.516
424.500	290.302	80.000	19.996	103.359	19.590	26.611	0.500
425.000	290.575	80.002	19.994	103.363	19.590	26.603	0.506
425.500	290.865	80.002	19.994	103.364	19.587	26.793	0.542
426.000	291.074	80.001	19.995	103.369	19.586	26.884	0.531
426.500	291.321	80.000	19.995	103.367	19.581	27.173	0.478
427.000	291.557	80.002	19.995	103.365	19.579	27.285	0.470
427.500	291.843	80.000	19.994	103.361	19.573	27.679	0.503
428.000	292.080	80.001	19.994	103.359	19.574	27.610	0.522
428.500	292.350	80.003	19.994	103.359	19.573	27.669	0.514
429.000	292.577	80.001	19.994	103.362	19.574	27.662	0.502
429.500	292.851	80.001	19.994	103.364	19.569	27.961	0.499
430.000	293.096	80.002	19.995	103.368	19.570	27.900	0.511
430.500	293.353	80.001	19.994	103.369	19.564	28.297	0.511
431.000	293.609	80.003	19.995	103.369	19.562	28.398	0.507
431.500	293.881	80.001	19.995	103.368	19.560	28.511	0.520
432.000	294.122	80.002	19.993	103.368	19.558	28.701	0.520
432.500	294.357	80.002	19.994	103.366	19.556	28.796	0.494
433.000	294.642	80.001	19.994	103.364	19.560	28.509	0.498
433.500	294.871	80.002	19.994	103.364	19.552	29.041	0.517
434.000	295.154	80.000	19.994	103.363	19.552	29.066	0.513
434.500	295.418	80.002	19.995	103.364	19.551	29.095	0.530
435.000	295.695	80.003	19.994	103.366	19.551	29.120	0.544
435.500	295.899	80.003	19.994	103.366	19.550	29.201	0.511
436.000	296.189	80.001	19.994	103.363	19.546	29.433	0.487
436.500	296.456	80.004	19.994	103.360	19.543	29.609	0.525
437.000	296.671	80.002	19.994	103.360	19.545	29.528	0.519
437.500	296.945	80.002	19.994	103.359	19.544	29.583	0.486
438.000	297.205	80.002	19.995	103.362	19.542	29.713	0.512
438.500	297.491	80.002	19.995	103.366	19.541	29.759	0.540
439.000	297.724	80.004	19.995	103.370	19.536	30.078	0.532
439.500	297.979	80.003	19.994	103.370	19.536	30.116	0.503
440.000	298.191	80.003	19.996	103.368	19.536	30.079	0.477
440.500	298.543	80.003	19.994	103.364	19.527	30.647	0.516
441.000	298.695	80.005	19.994	103.363	19.535	30.154	0.534
441.500	298.962	80.004	19.995	103.363	19.528	30.617	0.461
442.000	299.306	80.003	19.994	103.363	19.523	30.908	0.515
442.500	299.482	80.002	19.995	103.366	19.526	30.754	0.566
443.000	299.758	80.004	19.995	103.371	19.524	30.851	0.486
443.500	299.996	80.003	19.995	103.371	19.520	31.132	0.483
444.000	300.281	80.002	19.996	103.371	19.521	31.062	0.519
444.500	300.502	80.003	19.994	103.371	19.516	31.392	0.514
445.000	300.685	80.004	19.994	103.371	19.524	30.870	0.454
445.500	300.939	80.001	19.995	103.369	19.517	31.347	0.420
446.000	301.199	80.005	19.996	103.370	19.515	31.487	0.476
446.500	301.538	80.004	19.995	103.370	19.516	31.391	0.557
447.000	301.812	80.004	19.995	103.371	19.510	31.777	0.606
447.500	301.985	80.005	19.995	103.371	19.515	31.432	0.530
448.000	302.284	80.002	19.995	103.372	19.522	30.979	0.460
448.500	302.690	80.001	19.995	103.372	19.511	31.694	0.589
449.000	302.721	80.000	19.995	103.371	19.504	32.145	0.571
449.500	303.011	80.001	19.995	103.371	19.501	32.390	0.379
450.000	303.293	80.000	19.995	103.371	19.500	32.436	0.447
450.500	303.553	79.999	19.995	103.370	19.500	32.420	0.557
451.000	303.795	80.001	19.995	103.370	19.497	32.636	0.521
451.500	304.036	80.001	19.995	103.371	19.494	32.818	0.492
452.000	304.305	79.998	19.994	103.371	19.492	32.955	0.497
452.500	304.566	80.001	19.995	103.371	19.488	33.225	0.520
453.000	304.843	79.999	19.995	103.372	19.488	33.188	0.534
453.500	305.002	79.999	19.994	103.373	19.486	33.355	0.487
454.000	305.350	79.999	19.996	103.375	19.483	33.505	0.471
454.500	305.545	80.001	19.995	103.377	19.480	33.709	0.525
455.000	305.837	79.999	19.994	103.378	19.478	33.856	0.515
455.500	306.115	80.002	19.995	103.379	19.477	33.930	0.529
456.000	306.328	80.000	19.995	103.378	19.475	34.079	0.530
456.500	306.635	80.002	19.994	103.377	19.474	34.116	0.506
457.000	306.810	79.999	19.994	103.379	19.473	34.169	0.501
457.500	307.146	80.000	19.995	103.383	19.474	34.132	0.496
458.000	307.379	80.000	19.993	103.387	19.470	34.369	0.540
458.500	307.633	79.999	19.995	103.389	19.469	34.437	0.528
459.000	307.869	80.002	19.994	103.388	19.467	34.568	0.488
459.500	308.149	80.002	19.994	103.387	19.463	34.808	0.503
460.000	308.377	80.001	19.994	103.390	19.462	34.910	0.513
460.500	308.662	80.000	19.994	103.386	19.462	34.862	0.510
461.000	308.910	80.001	19.994	103.385	19.462	34.895	0.523
461.500	309.169	80.002	19.994	103.385	19.456	35.254	0.520
462.000	309.401	80.000	19.993	103.384	19.452	35.551	0.499
462.500	309.689	79.999	19.993	103.379	19.453	35.455	0.506
463.000	309.953	80.001	19.994	103.383	19.451	35.603	0.536
463.500	310.207	80.003	19.993	103.390	19.449	35.718	0.535
464.000	310.491	80.001	19.992	103.395	19.447	35.894	0.528
464.500	310.715	80.002	19.993	103.399	19.445	35.986	0.523
465.000	310.983	80.001	19.994	103.403	19.443	36.141	0.500
465.500	311.226	80.001	19.994	103.403	19.442	36.187	0.501
466.000	311.526	80.001	19.994	103.400	19.441	36.252	0.527
466.500	311.800	80.001	19.994	103.400	19.438	36.475	0.559
467.000	312.046	80.000	19.993	103.401	19.437	36.527	0.547
467.500	312.308	80.003	19.993	103.401	19.432	36.850	0.514
468.000	312.556	80.000	19.993	103.400	19.433	36.793	0.509
468.500	312.806	80.000	19.993	103.401	19.429	37.016	0.504
469.000	313.057	80.001	19.994	103.400	19.427	37.166	0.500
469.500	313.341	80.000	19.993	103.398	19.428	37.094	0.518
470.000	313.597	80.001	19.994	103.394	19.423	37.414	0.538
470.500	313.866	80.002	19.994	103.389	19.422	37.465	0.533
471.000	314.108	80.000	19.993	103.388	19.419	37.657	0.518
471.500	314.397	80.003	19.993	103.387	19.418	37.731	0.521
472.000	314.656	80.003	19.993	103.390	19.417	37.827	0.539
472.500	314.904	80.002	19.993	103.394	19.415	37.961	0.527
473.000	315.159	79.999	19.993	103.396	19.413	38.102	0.505
473.500	315.415	80.002	19.994	103.399	19.411	38.201	0.507
474.000	315.664	80.001	19.993	103.403	19.409	38.303	0.508
474.500	315.980	80.000	19.993	103.405	19.405	38.623	0.535
475.000	316.196	80.002	19.993	103.408	19.405	38.608	0.549
475.500	316.444	80.000	19.993	103.413	19.402	38.760	0.499
476.000	316.703	80.001	19.994	103.414	19.401	38.833	0.486
476.500	316.988	80.002	19.993	103.413	19.397	39.137	0.525
477.000	317.231	80.001	19.994	103.413	19.394	39.279	0.536
477.500	317.496	80.000	19.994	103.411	19.392	39.421	0.518
478.000	317.707	79.999	19.994	103.412	19.390	39.574	0.492
478.500	318.017	80.000	19.994	103.412	19.390	39.567	0.498
479.000	318.287	80.001	19.994	103.413	19.385	39.873	0.550
479.500	318.559	80.001	19.994	103.413	19.383	40.011	0.561
480.000	318.773	79.999	19.993	103.415	19.384	39.973	0.514
480.500	319.054	80.001	19.993	103.414	19.380	40.215	0.490
481.000	319.277	80.000	19.993	103.412	19.378	40.327	0.500
481.500	319.546	79.999	19.994	103.411	19.376	40.466	0.498
482.000	319.821	80.000	19.994	103.411	19.371	40.772	0.518
482.500	320.089	80.001	19.994	103.410	19.370	40.841	0.543
483.000	320.313	79.999	19.993	103.410	19.373	40.684	0.517
483.500	320.621	80.000	19.994	103.412	19.366	41.116	0.512
484.000	320.840	80.001	19.993	103.412	19.365	41.215	0.530
484.500	321.124	80.001	19.994	103.409	19.367	41.064	0.515
485.000	321.392	79.999	19.994	103.408	19.360	41.521	0.527
485.500	321.632	80.002	19.993	103.409	19.358	41.673	0.530
486.000	321.891	79.999	19.994	103.407	19.353	41.948	0.503
486.500	322.146	80.002	19.994	103.404	19.351	42.086	0.506
487.000	322.408	79.999	19.994	103.407	19.352	42.038	0.515
487.500	322.675	80.001	19.994	103.407	19.348	42.286	0.523
488.000	322.931	80.001	19.993	103.406	19.343	42.599	0.526
488.500	323.177	80.000	19.994	103.408	19.344	42.550	0.512
489.000	323.408	80.002	19.993	103.411	19.339	42.865	0.490
489.500	323.683	80.001	19.994	103.413	19.337	43.013	0.492
490.000	323.945	80.002	19.994	103.413	19.333	43.293	0.522
490.500	324.207	80.001	19.995	103.414	19.329	43.528	0.531
491.000	324.498	80.001	19.993	103.413	19.327	43.643	0.538
491.500	324.714	80.001	19.995	103.413	19.324	43.875	0.530
492.000	324.945	80.002	19.994	103.412	19.324	43.858	0.478
492.500	325.180	80.001	19.993	103.415	19.323	43.906	0.457
493.000	325.438	80.001	19.994	103.419	19.318	44.209	0.479
493.500	325.677	80.000	19.993	103.423	19.314	44.523	0.495
494.000	325.987	80.004	19.993	103.423	19.312	44.643	0.523
494.500	326.215	80.001	19.994	103.425	19.312	44.655	0.543
495.000	326.434	80.003	19.993	103.423	19.306	45.047	0.493
495.500	326.738	80.001	19.994	103.419	19.304	45.152	0.485
496.000	326.963	80.003	19.994	103.415	19.303	45.208	0.526
496.500	327.229	80.000	19.994	103.421	19.296	45.656	0.510
497.000	327.541	80.004	19.992	103.424	19.295	45.711	0.534
497.500	327.794	80.003	19.994	103.431	19.292	45.900	0.571
498.000	327.980	80.001	19.993	103.438	19.291	45.986	0.502
498.500	328.293	80.005	19.994	103.445	19.289	46.118	0.469
499.000	328.522	80.003	19.993	103.446	19.283	46.527	0.520
499.500	328.775	80.003	19.993	103.443	19.283	46.520	0.512
500.000	329.056	80.003	19.994	103.441	19.276	46.968	0.508
500.500	329.330	80.002	19.993	103.438	19.277	46.901	0.545
501.000	329.551	80.003	19.993	103.440	19.274	47.097	0.525
501.500	329.800	80.002	19.993	103.440	19.269	47.412	0.482
502.000	330.038	80.002	19.993	103.442	19.266	47.610	0.478
502.500	330.322	80.003	19.992	103.443	19.265	47.707	0.505
503.000	330.562	80.001	19.993	103.443	19.261	47.966	0.523
503.500	330.802	80.004	19.993	103.438	19.259	48.097	0.502
504.000	331.031	80.003	19.993	103.434	19.250	48.638	0.474
504.500	331.314	80.002	19.993	103.434	19.252	48.549	0.490
505.000	331.559	80.001	19.993	103.436	19.249	48.700	0.520
505.500	331.802	80.005	19.995	103.440	19.244	49.047	0.508
506.000	332.060	80.002	19.994	103.445	19.241	49.221	0.495
506.500	332.326	80.003	19.994	103.449	19.238	49.433	0.512
507.000	332.578	80.003	19.994	103.452	19.235	49.641	0.521
507.500	332.827	80.002	19.994	103.451	19.233	49.781	0.510
508.000	333.070	80.000	19.994	103.452	19.226	50.215	0.497
508.500	333.300	80.003	19.994	103.452	19.227	50.180	0.483
509.000	333.563	80.001	19.993	103.450	19.222	50.502	0.483
509.500	333.833	80.002	19.993	103.450	19.221	50.518	0.512
510.000	334.085	80.001	19.994	103.450	19.213	51.068	0.527
510.500	334.346	80.000	19.996	103.449	19.211	51.211	0.517
511.000	334.607	80.006	19.994	103.448	19.208	51.405	0.518
511.500	334.877	80.000	19.994	103.450	19.205	51.565	0.527
512.000	335.113	80.003	19.994	103.450	19.200	51.941	0.519
512.500	335.329	80.005	19.993	103.451	19.196	52.154	0.479
513.000	335.632	80.005	19.993	103.452	19.194	52.319	0.485
513.500	335.862	80.005	19.994	103.460	19.190	52.557	0.526
514.000	336.103	80.001	19.993	103.466	19.185	52.884	0.502
514.500	336.348	80.001	19.995	103.468	19.183	52.999	0.478
515.000	336.623	80.003	19.994	103.474	19.181	53.158	0.504
515.500	336.833	80.002	19.994	103.475	19.177	53.385	0.503
516.000	337.094	80.000	19.995	103.470	19.175	53.512	0.478
516.500	337.336	80.002	19.994	103.466	19.171	53.775	0.487
517.000	337.605	80.004	19.994	103.464	19.166	54.108	0.507
517.500	337.870	80.001	19.994	103.466	19.165	54.201	0.522
518.000	338.128	79.999	19.995	103.472	19.157	54.689	0.528
518.500	338.357	80.003	19.994	103.476	19.154	54.912	0.505
519.000	338.612	80.001	19.994	103.480	19.150	55.166	0.486
519.500	338.867	80.003	19.994	103.481	19.147	55.375	0.497
520.000	339.091	80.001	19.994	103.479	19.144	55.563	0.494
520.500	339.357	80.004	19.993	103.479	19.143	55.593	0.484
521.000	339.614	80.000	19.995	103.481	19.138	55.922	0.506
521.500	339.858	80.003	19.993	103.482	19.133	56.248	0.512
522.000	340.103	80.003	19.994	103.485	19.131	56.417	0.495
522.500	340.338	80.003	19.994	103.487	19.126	56.745	0.484
523.000	340.579	80.004	19.994	103.487	19.122	56.993	0.478
523.500	340.832	80.005	19.993	103.486	19.122	57.012	0.485
524.000	341.046	80.003	19.994	103.488	19.116	57.359	0.480
524.500	341.323	80.006	19.994	103.490	19.112	57.665	0.479
525.000	341.563	80.006	19.993	103.491	19.112	57.605	0.504
525.500	341.824	80.004	19.994	103.492	19.107	57.989	0.509
526.000	342.058	80.005	19.993	103.492	19.103	58.228	0.498
526.500	342.310	80.005	19.994	103.492	19.101	58.375	0.491
527.000	342.533	80.002	19.994	103.492	19.098	58.532	0.480
527.500	342.808	80.005	19.993	103.492	19.094	58.806	0.486
528.000	343.050	80.004	19.995	103.493	19.088	59.207	0.507
528.500	343.295	80.001	19.993	103.495	19.087	59.245	0.502
529.000	343.524	80.004	19.994	103.495	19.081	59.613	0.481
529.500	343.769	80.001	19.993	103.495	19.082	59.597	0.473
530.000	344.023	80.003	19.993	103.494	19.075	60.004	0.486
530.500	344.308	80.002	19.994	103.493	19.076	59.981	0.519
531.000	344.520	80.002	19.994	103.491	19.063	60.817	0.518
531.500	344.766	80.001	19.994	103.495	19.073	60.180	0.478
532.000	344.988	80.002	19.994	103.497	19.067	60.545	0.463
532.500	345.255	80.001	19.994	103.498	19.072	60.249	0.478
533.000	345.468	80.001	19.993	103.502	19.063	60.794	0.484
533.500	345.727	79.999	19.994	103.504	19.051	61.600	0.476
534.000	346.011	79.997	19.995	103.506	19.053	61.442	0.507
534.500	346.245	80.001	19.995	103.510	19.048	61.801	0.530
535.000	346.492	80.001	19.994	103.516	19.044	62.030	0.500
535.500	346.729	80.000	19.994	103.517	19.040	62.315	0.483
536.000	346.977	80.001	19.994	103.521	19.037	62.501	0.485
536.500	347.228	80.001	19.995	103.522	19.037	62.474	0.492
537.000	347.468	79.994	19.994	103.524	19.034	62.680	0.495
537.500	347.698	80.000	19.993	103.524	19.028	63.056	0.480
538.000	347.975	79.992	19.995	103.527	19.031	62.872	0.488
538.500	348.226	79.990	19.996	103.527	19.026	63.232	0.518
539.000	348.499	80.000	19.994	103.524	19.022	63.455	0.526
539.500	348.727	79.997	19.994	103.523	19.019	63.626	0.512
540.000	348.995	80.000	19.994	103.518	19.020	63.616	0.499
540.500	349.236	79.999	19.994	103.512	19.016	63.811	0.503
541.000	349.501	80.000	19.994	103.511	19.010	64.236	0.508
541.500	349.770	80.000	19.995	103.514	19.009	64.278	0.520
542.000	349.957	80.001	19.994	103.510	19.014	63.992	0.495
542.500	350.245	80.003	19.994	103.509	19.007	64.422	0.465
543.000	350.495	80.000	19.994	103.509	19.006	64.475	0.506
543.500	350.685	80.000	19.994	103.511	19.006	64.511	0.489
544.000	351.012	80.006	19.994	103.507	19.003	64.682	0.478
544.500	351.164	79.982	19.997	103.508	18.999	64.949	0.498
545.000	351.441	80.012	19.993	103.503	19.006	64.460	0.454
545.500	351.659	80.005	19.995	103.505	18.997	65.058	0.462
546.000	351.949	80.000	19.995	103.504	18.999	64.953	0.502
546.500	352.192	80.000	19.995	103.506	18.999	64.951	0.521
547.000	352.451	80.001	19.995	103.507	18.994	65.250	0.517
547.500	352.725	80.001	19.994	103.514	18.996	65.143	0.517
548.000	352.958	80.001	19.994	103.511	19.001	64.813	0.520
548.500	353.234	80.002	19.995	103.508	18.997	65.045	0.508
549.000	353.460	80.000	19.995	103.504	18.996	65.111	0.505
549.500	353.737	80.000	19.995	103.499	18.997	65.035	0.503
550.000	353.946	80.000	19.994	103.495	18.997	65.031	0.495
550.500	354.212	80.003	19.994	103.493	18.998	65.002	0.481
551.000	354.475	80.001	19.994	103.490	18.997	65.050	0.502
551.500	354.732	80.002	19.993	103.489	18.997	65.042	0.525
552.000	354.978	80.003	19.994	103.489	18.999	64.883	0.511
552.500	355.220	80.001	19.994	103.488	18.997	65.005	0.495
553.000	355.481	79.998	19.993	103.489	19.000	64.841	0.495
553.500	355.711	80.002	19.994	103.488	19.001	64.747	0.497
554.000	355.965	80.000	19.994	103.487	19.000	64.801	0.487
554.500	356.193	80.002	19.993	103.485	19.004	64.595	0.483
555.001	356.449	80.001	19.993	103.482	19.007	64.367	0.483
555.500	356.691	80.004	19.992	103.481	19.011	64.101	0.492
556.000	356.935	80.000	19.993	103.481	19.013	64.003	0.492
556.500	357.209	80.001	19.994	103.477	19.015	63.868	0.502
557.000	357.461	80.001	19.994	103.476	19.018	63.640	0.521
557.500	357.678	80.002	19.994	103.473	19.020	63.546	0.497
558.000	357.937	80.001	19.994	103.466	19.028	62.974	0.473
558.500	358.208	80.002	19.993	103.458	19.029	62.959	0.503
559.000	358.428	80.002	19.993	103.455	19.032	62.707	0.510
559.500	358.698	80.000	19.992	103.450	19.035	62.561	0.490
560.000	358.946	80.004	19.993	103.449	19.038	62.345	0.503
560.500	359.197	80.001	19.993	103.449	19.044	61.980	0.508
561.000	359.502	80.003	19.993	103.449	19.047	61.738	0.528
561.500	359.692	80.001	19.994	103.447	19.053	61.364	0.525
562.000	359.953	80.002	19.994	103.442	19.060	60.918	0.473
562.500	360.230	80.001	19.993	103.434	19.062	60.756	0.495
563.000	360.516	80.002	19.993	103.427	19.070	60.269	0.551
563.500	360.707	80.000	19.993	103.420	19.077	59.771	0.520
564.000	360.975	80.002	19.993	103.416	19.078	59.749	0.468
564.500	361.220	79.997	19.993	103.415	19.090	58.977	0.486
565.000	361.478	80.006	19.994	103.414	19.095	58.656	0.508
565.500	361.692	79.996	19.995	103.414	19.104	58.071	0.487
566.000	361.945	79.998	19.996	103.411	19.103	58.126	0.470
566.500	362.217	80.001	19.994	103.408	19.110	57.641	0.496
567.000	362.460	80.003	19.994	103.403	19.125	56.659	0.520
567.500	362.695	79.999	19.993	103.399	19.129	56.433	0.496
568.001	363.009	80.002	19.994	103.392	19.137	55.890	0.513
568.501	363.224	79.999	19.994	103.386	19.146	55.294	0.539
569.000	363.465	80.000	19.995	103.379	19.155	54.742	0.493
569.500	363.717	80.001	19.994	103.375	19.162	54.278	0.474
570.000	364.003	80.000	19.994	103.371	19.168	53.854	0.515
570.500	364.252	79.995	19.995	103.370	19.182	52.959	0.536
571.000	364.510	80.001	19.995	103.367	19.187	52.612	0.521
571.500	364.755	80.000	19.994	103.367	19.199	51.894	0.505
572.000	365.017	79.998	19.995	103.364	19.206	51.381	0.505
572.500	365.237	80.002	19.994	103.360	19.217	50.727	0.494
573.000	365.491	79.998	19.994	103.354	19.225	50.194	0.478
573.500	365.737	80.001	19.995	103.349	19.233	49.684	0.488
574.000	366.035	80.002	19.994	103.341	19.248	48.719	0.522
574.500	366.249	79.999	19.994	103.337	19.256	48.188	0.528
575.000	366.496	80.005	19.993	103.332	19.268	47.421	0.486
575.500	366.756	80.002	19.993	103.326	19.275	46.911	0.484
576.000	367.030	80.000	19.993	103.322	19.289	46.023	0.520
576.500	367.242	80.000	19.993	103.320	19.297	45.534	0.510
577.000	367.533	80.000	19.995	103.314	19.309	44.739	0.495
577.500	367.757	80.003	19.994	103.307	19.319	44.088	0.509
578.000	368.002	80.006	19.994	103.305	19.331	43.308	0.492
578.500	368.282	80.024	19.994	103.300	19.344	42.468	0.497
579.000	368.545	80.005	19.994	103.293	19.354	41.814	0.534
579.500	368.770	80.004	19.993	103.289	19.364	41.181	0.516
580.000	369.032	80.002	19.995	103.285	19.375	40.480	0.488
580.500	369.331	80.001	19.995	103.279	19.386	39.744	0.524
581.000	369.540	80.004	19.994	103.277	19.397	39.069	0.535
581.500	369.786	80.004	19.994	103.273	19.407	38.384	0.482
582.000	370.058	80.000	19.994	103.267	19.414	37.922	0.486
582.500	370.300	80.002	19.995	103.264	19.428	37.006	0.516
583.000	370.550	80.002	19.994	103.262	19.439	36.326	0.503
583.500	370.787	80.004	19.994	103.257	19.454	35.332	0.489
584.000	371.068	80.003	19.993	103.255	19.459	35.006	0.503
584.500	371.280	80.002	19.994	103.253	19.472	34.206	0.506
585.000	371.540	80.006	19.993	103.253	19.484	33.388	0.483
585.500	371.824	80.001	19.994	103.254	19.490	33.002	0.507
586.000	372.100	80.000	19.993	103.247	19.501	32.322	0.552
586.500	372.347	80.002	19.994	103.242	19.512	31.617	0.542
587.000	372.614	80.001	19.994	103.237	19.521	30.989	0.519
587.500	372.854	80.001	19.994	103.230	19.533	30.258	0.511
588.000	373.099	80.003	19.994	103.224	19.541	29.737	0.496
588.500	373.358	80.003	19.993	103.224	19.552	28.985	0.494
589.000	373.610	80.001	19.994	103.225	19.564	28.220	0.507
589.500	373.849	80.002	19.993	103.224	19.572	27.692	0.501
590.000	374.162	80.000	19.993	103.224	19.581	27.132	0.521
590.500	374.402	80.008	19.992	103.221	19.588	26.672	0.552
591.000	374.676	80.002	19.994	103.222	19.597	26.095	0.534
591.500	374.906	79.999	19.993	103.220	19.606	25.538	0.510
592.000	375.156	80.001	19.994	103.220	19.614	25.012	0.492
592.500	375.431	80.001	19.993	103.219	19.624	24.384	0.502
593.000	375.702	80.003	19.993	103.220	19.631	23.907	0.535
593.500	375.939	80.001	19.994	103.218	19.638	23.421	0.527
594.000	376.227	79.999	19.994	103.218	19.651	22.612	0.517
594.500	376.460	80.001	19.995	103.214	19.656	22.262	0.523
595.000	376.694	80.003	19.992	103.212	19.662	21.893	0.495
595.500	376.965	80.003	19.993	103.210	19.670	21.390	0.486
596.000	377.235	80.003	19.993	103.211	19.676	21.021	0.523
596.500	377.493	80.001	19.994	103.211	19.680	20.716	0.534
597.000	377.734	79.992	19.996	103.213	19.686	20.320	0.514
597.500	377.963	80.000	19.994	103.209	19.693	19.905	0.485
598.000	378.236	80.000	19.994	103.205	19.699	19.473	0.486
598.500	378.486	80.004	19.993	103.199	19.708	18.894	0.512
599.000	378.770	80.002	19.994	103.197	19.710	18.775	0.528
599.500	379.034	80.001	19.994	103.194	19.716	18.429	0.541
600.000	379.288	80.006	19.994	103.192	19.723	17.977	0.533
600.500	379.557	80.007	19.993	103.191	19.727	17.679	0.520
601.000	379.813	80.005	19.994	103.196	19.729	17.596	0.524
601.500	380.045	79.999	19.995	103.199	19.736	17.104	0.507
602.000	380.311	80.005	19.993	103.202	19.741	16.763	0.493
602.500	380.558	80.005	19.993	103.204	19.745	16.543	0.505
603.000	380.809	80.005	19.994	103.207	19.750	16.229	0.505
603.500	381.067	79.999	19.995	103.207	19.752	16.097	0.503
604.000	381.312	80.003	19.993	103.206	19.760	15.578	0.506
604.500	381.541	80.000	19.995	103.208	19.762	15.413	0.489
605.000	381.820	79.995	19.994	103.210	19.768	15.071	0.491
605.500	382.086	80.004	19.993	103.210	19.771	14.846	0.526
606.000	382.333	80.004	19.992	103.204	19.774	14.662	0.529
606.500	382.592	80.004	19.993	103.198	19.788	13.780	0.510
607.000	382.861	80.002	19.994	103.192	19.779	14.310	0.517
607.500	383.112	80.003	19.994	103.192	19.778	14.391	0.524
608.000	383.369	80.002	19.993	103.190	19.778	14.412	0.514
608.500	383.648	80.004	19.993	103.191	19.789	13.654	0.522
609.000	383.882	80.004	19.993	103.194	19.785	13.931	0.525
609.500	384.090	80.004	19.994	103.197	19.788	13.775	0.477
610.000	384.373	80.001	19.994	103.198	19.795	13.324	0.466
610.500	384.606	80.001	19.994	103.196	19.798	13.108	0.504
611.000	384.866	80.002	19.994	103.194	19.801	12.913	0.504
611.500	385.140	80.002	19.995	103.191	19.799	13.024	0.513
612.000	385.360	80.003	19.993	103.188	19.810	12.357	0.514
612.500	385.638	80.003	19.993	103.186	19.811	12.242	0.496
613.000	385.906	80.000	19.993	103.188	19.801	12.884	0.522
613.500	386.158	80.000	19.994	103.189	19.804	12.714	0.533
614.000	386.394	80.002	19.993	103.190	19.814	12.058	0.504
614.500	386.655	80.003	19.993	103.192	19.806	12.604	0.493
615.000	386.929	80.000	19.994	103.193	19.821	11.612	0.516
615.500	387.145	80.004	19.994	103.193	19.808	12.432	0.513
616.000	387.399	80.003	19.994	103.193	19.813	12.114	0.480
616.500	387.635	79.999	19.994	103.192	19.815	11.980	0.480
617.000	387.902	80.002	19.995	103.189	19.820	11.685	0.496
617.500	388.127	80.001	19.994	103.188	19.819	11.755	0.498
618.000	388.409	80.002	19.994	103.184	19.820	11.656	0.499
618.500	388.674	80.002	19.994	103.187	19.821	11.641	0.527
619.000	388.927	80.000	19.993	103.188	19.822	11.578	0.533
619.500	389.156	80.000	19.993	103.191	19.822	11.523	0.500
620.000	389.418	80.001	19.993	103.194	19.828	11.164	0.486
620.500	389.694	79.999	19.994	103.196	19.824	11.416	0.514
621.000	389.964	80.005	19.993	103.198	19.831	10.946	0.542
621.500	390.164	80.002	19.994	103.200	19.824	11.398	0.508
622.000	390.440	79.998	19.995	103.199	19.829	11.075	0.474
622.500	390.695	80.000	19.993	103.200	19.832	10.888	0.504
623.000	390.940	80.001	19.993	103.201	19.832	10.936	0.515
623.500	391.194	80.001	19.994	103.198	19.827	11.226	0.500
624.000	391.460	80.000	19.995	103.198	19.836	10.673	0.510
624.500	391.673	80.000	19.994	103.202	19.832	10.900	0.499
625.000	391.954	79.999	19.995	103.202	19.832	10.880	0.487
625.500	392.228	80.001	19.997	103.207	19.831	10.970	0.524
626.000	392.477	80.002	19.997	103.211	19.837	10.613	0.539
626.500	392.756	80.001	19.997	103.215	19.831	10.999	0.526
627.000	392.964	80.000	19.995	103.214	19.834	10.747	0.508
627.500	393.227	79.999	19.995	103.212	19.835	10.737	0.479
628.000	393.500	80.000	19.995	103.208	19.835	10.691	0.503
628.500	393.806	79.999	19.995	103.206	19.836	10.618	0.558
629.000	394.017	80.006	19.994	103.198	19.837	10.608	0.548
629.500	394.316	80.002	19.995	103.192	19.838	10.520	0.513
630.000	394.533	79.999	19.995	103.193	19.839	10.463	0.513
630.500	394.845	80.000	19.995	103.192	19.835	10.707	0.523
631.000	395.065	80.000	19.995	103.190	19.838	10.534	0.531
631.500	395.325	79.999	19.996	103.193	19.838	10.495	0.506
632.000	395.608	80.001	19.996	103.195	19.836	10.669	0.511
632.500	395.861	80.004	19.994	103.191	19.839	10.428	0.539
633.000	396.103	79.998	19.995	103.193	19.836	10.639	0.516
633.500	396.394	79.991	19.996	103.194	19.840	10.361	0.514
634.000	396.625	79.999	19.995	103.195	19.843	10.223	0.527
634.500	396.874	80.000	19.994	103.198	19.842	10.278	0.501
635.000	397.104	80.000	19.995	103.204	19.843	10.183	0.480
635.500	397.376	79.999	19.994	103.204	19.843	10.228	0.490
636.000	397.624	80.001	19.996	103.204	19.841	10.338	0.511
636.500	397.863	80.000	19.995	103.205	19.840	10.410	0.504
637.000	398.189	80.004	19.996	103.205	19.838	10.489	0.527
637.500	398.409	80.002	19.996	103.206	19.845	10.079	0.555
638.000	398.641	79.998	19.996	103.203	19.844	10.132	0.499
638.500	398.904	80.001	19.995	103.199	19.842	10.267	0.473
639.000	399.172	80.000	19.995	103.193	19.843	10.225	0.513
639.500	399.431	80.001	19.995	103.185	19.846	9.975	0.529
640.000	399.691	80.004	19.993	103.177	19.843	10.172	0.522
640.500	399.947	80.005	19.993	103.177	19.842	10.233	0.517
641.000	400.171	80.000	19.995	103.180	19.844	10.110	0.498
641.500	400.455	80.000	19.994	103.182	19.846	10.025	0.494
642.000	400.710	80.001	19.995	103.188	19.846	10.006	0.524
642.500	400.928	80.003	19.995	103.190	19.846	9.992	0.506
643.000	401.177	80.000	19.995	103.188	19.849	9.795	0.470
643.500	401.438	80.003	19.994	103.188	19.848	9.861	0.488
644.000	401.692	80.000	19.994	103.187	19.848	9.854	0.513
644.500	401.930	79.998	19.995	103.187	19.853	9.550	0.504
645.000	402.194	79.999	19.993	103.191	19.852	9.627	0.497
645.500	402.467	80.005	19.994	103.198	19.849	9.798	0.519
646.000	402.685	79.999	19.993	103.204	19.851	9.671	0.514
646.500	402.987	80.002	19.994	103.209	19.854	9.506	0.505
647.000	403.213	79.999	19.994	103.206	19.852	9.592	0.524
647.500	403.467	80.000	19.994	103.204	19.854	9.499	0.504
648.000	403.733	80.002	19.993	103.200	19.849	9.819	0.500
648.500	404.005	80.001	19.994	103.198	19.854	9.465	0.529
649.000	404.254	79.995	19.994	103.196	19.854	9.460	0.530
649.500	404.492	80.001	19.994	103.196	19.861	9.039	0.504
650.000	404.720	79.995	19.993	103.197	19.855	9.419	0.476
650.500	405.003	80.000	19.995	103.198	19.858	9.194	0.488
651.000	405.254	79.999	19.994	103.193	19.855	9.402	0.523
651.500	405.506	80.001	19.994	103.191	19.854	9.502	0.519
652.000	405.776	80.002	19.993	103.191	19.850	9.727	0.512
652.500	405.967	80.001	19.993	103.188	19.851	9.680	0.491
653.000	406.273	79.997	19.993	103.185	19.852	9.636	0.479
653.500	406.490	80.001	19.994	103.188	19.853	9.553	0.510
654.000	406.754	80.001	19.993	103.188	19.853	9.578	0.502
654.500	407.014	80.001	19.993	103.187	19.857	9.303	0.503
655.000	407.269	80.000	19.993	103.186	19.851	9.671	0.520
655.500	407.508	80.001	19.993	103.186	19.854	9.490	0.504
656.000	407.764	79.994	19.994	103.184	19.851	9.666	0.494
656.500	408.059	80.000	19.994	103.182	19.849	9.803	0.523
657.000	408.297	80.002	19.994	103.181	19.853	9.559	0.542
657.500	408.530	80.001	19.993	103.182	19.855	9.449	0.502
658.000	408.768	79.999	19.994	103.184	19.858	9.247	0.471
658.500	408.990	80.003	19.993	103.182	19.855	9.432	0.466
659.000	409.294	80.001	19.994	103.183	19.857	9.285	0.493
659.500	409.571	79.997	19.993	103.183	19.858	9.227	0.553
660.000	409.792	80.007	19.993	103.183	19.855	9.423	0.540
660.500	410.047	80.002	19.994	103.182	19.857	9.288	0.487
661.000	410.337	79.998	19.995	103.182	19.858	9.256	0.511
661.500	410.547	80.005	19.994	103.183	19.858	9.223	0.522
662.000	410.819	80.001	19.994	103.183	19.858	9.235	0.491
662.500	411.077	80.000	19.993	103.184	19.858	9.210	0.506
663.000	411.306	80.001	19.994	103.183	19.855	9.442	0.508
663.500	411.574	80.002	19.993	103.183	19.858	9.224	0.492
664.000	411.829	79.995	19.993	103.182	19.860	9.117	0.510
664.500	412.037	80.001	19.993	103.182	19.855	9.395	0.493
665.000	412.340	80.001	19.994	103.180	19.854	9.473	0.487
665.500	412.579	79.999	19.994	103.182	19.856	9.361	0.526
666.000	412.875	80.003	19.993	103.185	19.859	9.174	0.538
666.500	413.108	80.002	19.993	103.185	19.855	9.392	0.532
667.000	413.371	80.002	19.992	103.187	19.857	9.277	0.512
667.500	413.593	80.000	19.994	103.188	19.855	9.405	0.491
668.000	413.827	80.002	19.993	103.185	19.857	9.280	0.471
668.500	414.123	80.000	19.993	103.183	19.855	9.429	0.493
669.000	414.359	80.000	19.993	103.183	19.859	9.171	0.531
669.500	414.566	80.000	19.994	103.181	19.856	9.329	0.488
670.000	414.788	80.005	19.993	103.181	19.857	9.284	0.436
670.500	415.044	79.991	19.993	103.180	19.860	9.122	0.453
671.000	415.293	80.009	19.993	103.185	19.859	9.182	0.491
671.500	415.639	80.002	19.993	103.186	19.861	9.060	0.550
672.000	415.821	80.003	19.992	103.186	19.858	9.196	0.562
672.500	416.083	80.002	19.993	103.186	19.857	9.284	0.487
673.000	416.368	80.010	19.992	103.186	19.859	9.180	0.495
673.500	416.650	80.000	19.993	103.185	19.861	9.034	0.557
674.000	416.863	80.011	19.993	103.184	19.860	9.074	0.531
674.500	417.177	80.006	19.993	103.186	19.861	9.006	0.511
675.000	417.385	80.006	19.993	103.188	19.861	9.018	0.525
675.500	417.614	79.998	19.994	103.189	19.862	8.939	0.480
676.000	417.878	80.000	19.993	103.191	19.864	8.816	0.465
676.500	418.154	79.999	19.993	103.194	19.861	9.004	0.516
677.000	418.373	79.987	19.997	103.194	19.862	8.972	0.518
677.500	418.642	80.004	19.993	103.188	19.864	8.847	0.492
678.000	418.907	80.005	19.993	103.186	19.865	8.791	0.511
678.500	419.123	80.005	19.993	103.183	19.865	8.791	0.507
679.000	419.365	79.991	19.993	103.178	19.864	8.837	0.470
679.500	419.647	80.007	19.993	103.175	19.864	8.845	0.491
680.000	419.901	80.003	19.992	103.179	19.866	8.701	0.530
680.500	420.142	80.004	19.993	103.179	19.864	8.803	0.516
681.000	420.410	80.004	19.993	103.179	19.864	8.803	0.502
681.500	420.619	80.003	19.993	103.180	19.866	8.678	0.493
682.000	420.900	80.003	19.994	103.181	19.866	8.696	0.483
682.500	421.161	80.005	19.993	103.179	19.867	8.668	0.516
683.000	421.404	80.003	19.993	103.180	19.868	8.561	0.523
683.500	421.667	80.005	19.993	103.180	19.867	8.673	0.505
684.000	421.906	80.001	19.994	103.181	19.869	8.511	0.504
684.500	422.196	80.003	19.992	103.179	19.868	8.597	0.515
685.000	422.439	80.009	19.993	103.181	19.870	8.479	0.531
685.500	422.664	80.004	19.994	103.181	19.870	8.446	0.500
686.000	422.936	80.003	19.994	103.184	19.868	8.552	0.482
686.500	423.188	80.001	19.994	103.183	19.868	8.581	0.511
687.000	423.446	80.006	19.993	103.183	19.869	8.514	0.517
687.500	423.691	80.003	19.994	103.182	19.871	8.372	0.507
688.000	423.950	80.001	19.993	103.182	19.874	8.206	0.504
688.500	424.204	80.005	19.993	103.177	19.867	8.616	0.509
689.000	424.497	80.005	19.994	103.177	19.869	8.495	0.530
689.500	424.717	80.003	19.995	103.178	19.872	8.349	0.530
690.000	424.956	80.000	19.994	103.179	19.870	8.442	0.486
690.500	425.259	80.004	19.994	103.179	19.871	8.384	0.501
691.000	425.467	80.004	19.993	103.179	19.869	8.486	0.527
691.500	425.793	80.005	19.993	103.178	19.870	8.437	0.522
692.000	425.975	80.005	19.994	103.177	19.869	8.483	0.521
692.500	426.230	80.005	19.994	103.179	19.870	8.421	0.472
693.000	426.493	80.002	19.994	103.182	19.877	8.002	0.478
693.500	426.707	80.004	19.992	103.183	19.871	8.409	0.498
694.000	426.975	80.003	19.993	103.183	19.874	8.221	0.479
694.500	427.249	80.005	19.994	103.184	19.872	8.323	0.512
695.000	427.525	80.004	19.994	103.183	19.872	8.333	0.546
695.500	427.733	80.003	19.994	103.179	19.870	8.423	0.517
696.000	427.998	80.001	19.995	103.180	19.868	8.544	0.479
696.500	428.256	80.001	19.993	103.179	19.871	8.374	0.498
697.000	428.479	80.003	19.994	103.179	19.872	8.339	0.502
697.500	428.778	80.000	19.994	103.178	19.872	8.346	0.502
698.000	429.047	79.999	19.994	103.177	19.872	8.321	0.545
698.500	429.275	79.998	19.995	103.176	19.871	8.397	0.532
699.000	429.511	80.004	19.994	103.176	19.874	8.217	0.480
699.500	429.770	80.001	19.994	103.177	19.869	8.536	0.479
700.000	430.036	80.000	19.994	103.177	19.871	8.372	0.510
700.500	430.324	80.005	19.994	103.177	19.871	8.351	0.540
701.000	430.476	80.001	19.994	103.178	19.870	8.427	0.497
701.500	430.754	80.010	19.995	103.179	19.871	8.388	0.435
702.000	430.993	80.000	19.996	103.177	19.870	8.471	0.474
702.500	431.294	80.002	19.994	103.176	19.868	8.544	0.529
703.000	431.510	80.002	19.994	103.177	19.870	8.419	0.529
703.500	431.775	79.999	19.995	103.176	19.872	8.294	0.499
704.000	432.023	79.999	19.994	103.176	19.873	8.238	0.497
704.500	432.265	80.008	19.995	103.180	19.873	8.259	0.501
705.000	432.501	79.994	19.994	103.180	19.871	8.363	0.483
705.500	432.750	80.002	19.994	103.179	19.872	8.300	0.481
706.000	433.005	80.004	19.994	103.179	19.869	8.493	0.495
706.500	433.260	80.008	19.996	103.180	19.876	8.091	0.507
707.000	433.512	79.999	19.994	103.177	19.874	8.177	0.508
707.500	433.775	80.001	19.995	103.177	19.873	8.265	0.511
708.000	433.991	80.001	19.994	103.179	19.875	8.098	0.497
708.500	434.295	80.004	19.993	103.179	19.874	8.157	0.500
709.000	434.546	79.999	19.993	103.179	19.877	8.024	0.538
709.500	434.804	79.997	19.994	103.180	19.879	7.881	0.532
710.000	435.076	80.000	19.994	103.178	19.876	8.043	0.519
710.500	435.295	80.002	19.993	103.178	19.877	7.980	0.510
711.000	435.571	80.001	19.994	103.178	19.877	7.999	0.493
711.500	435.799	79.997	19.994	103.178	19.879	7.886	0.500
712.000	436.043	79.997	19.993	103.180	19.882	7.643	0.488
712.500	436.332	80.002	19.994	103.180	19.875	8.129	0.502
713.000	436.547	79.996	19.994	103.179	19.884	7.556	0.518
713.500	436.786	79.992	19.994	103.177	19.880	7.783	0.479
714.000	437.064	80.003	19.993	103.176	19.875	8.136	0.485
714.500	437.292	79.995	19.995	103.175	19.876	8.050	0.511
715.000	437.569	80.000	19.994	103.174	19.874	8.189	0.505
715.500	437.809	79.997	19.994	103.174	19.878	7.904	0.511
716.000	438.096	79.997	19.993	103.175	19.878	7.951	0.522
716.500	438.301	80.001	19.993	103.177	19.875	8.136	0.509
717.000	438.551	79.999	19.993	103.177	19.878	7.960	0.474
717.500	438.812	80.001	19.994	103.179	19.875	8.096	0.483
718.000	439.084	80.004	19.994	103.180	19.881	7.768	0.522
718.500	439.349	80.004	19.994	103.182	19.880	7.811	0.535
719.000	439.556	79.996	19.994	103.181	19.883	7.629	0.505
719.500	439.834	80.007	19.994	103.180	19.880	7.821	0.479
720.000	440.104	79.990	19.995	103.180	19.893	6.945	0.516
720.500	440.346	79.997	19.994	103.179	19.885	7.473	0.530
721.000	440.615	80.000	19.994	103.178	19.881	7.718	0.512
721.500	440.863	79.999	19.993	103.177	19.878	7.911	0.514
722.000	441.112	80.001	19.995	103.177	19.874	8.175	0.507
722.500	441.389	80.009	19.995	103.175	19.875	8.106	0.511
723.000	441.618	79.996	19.995	103.177	19.877	8.027	0.516
723.500	441.878	80.002	19.994	103.178	19.877	8.001	0.498
724.000	442.131	80.001	19.994	103.180	19.877	7.969	0.501
724.500	442.409	79.991	19.996	103.179	19.881	7.764	0.522
725.000	442.601	80.000	19.994	103.178	19.879	7.859	0.500
725.500	442.879	79.999	19.995	103.177	19.883	7.586	0.470
726.000	443.130	80.005	19.995	103.176	19.876	8.038	0.499
726.500	443.402	79.998	19.994	103.174	19.883	7.577	0.526
727.000	443.607	80.005	19.994	103.175	19.877	7.982	0.500
727.500	443.906	79.999	19.995	103.179	19.882	7.670	0.490
728.000	444.155	79.994	19.995	103.177	19.882	7.665	0.526
728.500	444.382	80.003	19.994	103.177	19.883	7.598	0.512
729.000	444.685	79.992	19.996	103.178	19.885	7.508	0.503
729.500	444.904	79.997	19.996	103.177	19.880	7.773	0.526
730.000	445.155	79.995	19.995	103.173	19.882	7.650	0.496
730.500	445.454	80.007	19.993	103.174	19.881	7.713	0.510
731.000	445.683	79.997	19.994	103.178	19.881	7.710	0.539
731.500	445.929	80.000	19.994	103.178	19.891	7.101	0.501
732.000	446.169	79.994	19.995	103.179	19.881	7.755	0.480
732.500	446.470	80.003	19.995	103.179	19.881	7.718	0.514
733.000	446.690	79.996	19.994	103.180	19.882	7.702	0.531
733.500	446.921	79.995	19.995	103.179	19.881	7.731	0.486
734.000	447.176	79.998	19.994	103.180	19.883	7.594	0.469
734.500	447.437	80.009	19.993	103.180	19.882	7.661	0.501
735.000	447.691	80.000	19.995	103.183	19.887	7.371	0.516
735.500	447.969	80.001	19.994	103.183	19.879	7.835	0.524
736.000	448.219	80.000	19.994	103.183	19.882	7.652	0.530
736.500	448.503	79.995	19.993	103.183	19.885	7.459	0.531
737.000	448.777	80.002	19.992	103.182	19.886	7.383	0.546
737.500	448.995	79.999	19.994	103.180	19.886	7.402	0.525
738.000	449.235	80.002	19.993	103.180	19.887	7.333	0.475
738.500	449.528	80.001	19.992	103.181	19.883	7.633	0.496
739.000	449.739	79.974	19.996	103.180	19.885	7.495	0.518
739.500	450.060	80.007	19.994	103.175	19.886	7.416	0.517
740.000	450.322	79.995	19.992	103.173	19.886	7.425	0.557
740.500	450.569	80.013	19.993	103.174	19.886	7.399	0.546
741.000	450.796	80.004	19.994	103.172	19.883	7.583	0.491
741.500	451.047	80.002	19.994	103.170	19.890	7.180	0.476
742.000	451.323	79.992	19.994	103.172	19.889	7.210	0.502
742.500	451.571	79.999	19.994	103.171	19.892	7.027	0.526
743.000	451.830	80.005	19.993	103.163	19.897	6.689	0.516
743.500	452.072	80.001	19.993	103.159	19.900	6.512	0.504
744.000	452.320	79.992	19.994	103.155	19.891	7.057	0.495
744.500	452.557	80.003	19.993	103.154	19.884	7.524	0.487
745.000	452.818	80.000	19.994	103.155	19.886	7.381	0.492
745.500	453.094	80.000	19.995	103.158	19.890	7.156	0.518
746.000	453.316	79.995	19.995	103.163	19.888	7.265	0.517
746.500	453.532	80.002	19.993	103.167	19.888	7.303	0.469
747.000	453.857	80.007	19.993	103.173	19.889	7.192	0.490
747.500	454.109	80.003	19.994	103.174	19.890	7.157	0.559
748.000	454.334	80.004	19.993	103.177	19.886	7.444	0.527
748.500	454.637	80.008	19.993	103.173	19.886	7.406	0.503
749.000	454.922	80.009	19.992	103.172	19.886	7.428	0.558
749.500	455.112	79.984	19.994	103.173	19.888	7.257	0.531
750.000	455.418	79.995	19.993	103.170	19.885	7.482	0.485
750.500	455.654	80.007	19.993	103.171	19.890	7.180	0.519
751.000	455.924	79.999	19.994	103.174	19.887	7.347	0.524
751.500	456.157	80.006	19.993	103.174	19.888	7.312	0.504
752.000	456.408	79.995	19.995	103.172	19.889	7.217	0.494
752.500	456.674	79.998	19.996	103.171	19.887	7.356	0.501
753.000	456.916	79.995	19.993	103.168	19.889	7.212	0.513
753.500	457.149	80.003	19.994	103.169	19.889	7.187	0.491
754.000	457.429	80.004	19.994	103.171	19.889	7.248	0.494
754.500	457.689	80.012	19.993	103.169	19.892	7.018	0.527
755.000	457.933	79.998	19.994	103.172	19.890	7.169	0.522
755.500	458.182	79.998	19.994	103.174	19.892	7.018	0.499
756.000	458.468	80.004	19.994	103.174	19.893	6.978	0.514
756.500	458.688	79.994	19.993	103.172	19.893	6.934	0.520
757.000	458.947	79.998	19.993	103.171	19.891	7.075	0.492
757.500	459.184	79.995	19.994	103.170	19.892	7.008	0.488
758.000	459.483	80.012	19.992	103.167	19.893	6.945	0.516
758.500	459.697	79.991	19.994	103.168	19.894	6.892	0.524
759.000	459.974	80.008	19.993	103.167	19.898	6.659	0.502
759.500	460.244	80.006	19.993	103.171	19.893	6.960	0.519
760.000	460.455	79.990	19.996	103.169	19.896	6.786	0.514
760.500	460.775	80.020	19.991	103.165	19.893	6.951	0.505
761.000	461.005	80.012	19.992	103.162	19.896	6.765	0.541
761.500	461.238	80.011	19.992	103.162	19.899	6.595	0.507
762.000	461.481	79.992	19.995	103.165	19.895	6.814	0.469
762.500	461.769	79.995	19.994	103.166	19.894	6.866	0.503
763.000	461.987	79.993	19.994	103.171	19.894	6.885	0.518
763.500	462.201	80.006	19.992	103.169	19.897	6.723	0.469
764.000	462.559	79.999	19.992	103.170	19.899	6.570	0.502
764.500	462.811	80.013	19.992	103.165	19.899	6.588	0.591
765.000	463.023	80.005	19.992	103.164	19.896	6.744	0.537
765.500	463.288	80.002	19.994	103.166	19.900	6.484	0.471
766.000	463.503	79.991	19.994	103.167	19.899	6.561	0.479
766.500	463.801	80.002	19.993	103.167	19.898	6.658	0.496
767.000	464.034	80.003	19.994	103.168	19.898	6.658	0.521
767.500	464.258	80.007	19.993	103.170	19.902	6.398	0.494
768.000	464.536	79.990	19.993	103.171	19.898	6.646	0.480
768.500	464.799	80.006	19.994	103.172	19.899	6.572	0.521
769.000	465.032	79.999	19.994	103.172	19.899	6.547	0.519
769.500	465.292	80.002	19.994	103.172	19.900	6.510	0.495
770.000	465.552	80.002	19.994	103.169	19.900	6.526	0.507
770.500	465.792	80.001	19.993	103.171	19.902	6.399	0.510
771.000	466.074	80.004	19.993	103.170	19.899	6.559	0.511
771.500	466.310	80.009	19.993	103.170	19.900	6.477	0.520
772.000	466.563	80.009	19.992	103.171	19.902	6.392	0.504
772.500	466.853	80.001	19.994	103.173	19.900	6.496	0.516
773.000	467.066	80.015	19.991	103.169	19.899	6.558	0.523
773.500	467.291	80.000	19.994	103.174	19.902	6.401	0.470
774.000	467.566	80.004	19.992	103.177	19.901	6.470	0.469
774.500	467.836	79.986	19.993	103.178	19.901	6.426	0.523
775.000	468.115	80.012	19.993	103.176	19.903	6.318	0.547
775.500	468.346	80.003	19.994	103.180	19.902	6.405	0.529
776.000	468.572	80.012	19.993	103.175	19.899	6.572	0.483
776.500	468.805	79.994	19.994	103.174	19.900	6.530	0.459
777.000	469.087	80.010	19.993	103.173	19.902	6.361	0.487
777.500	469.364	80.010	19.992	103.176	19.900	6.489	0.537
778.000	469.598	80.008	19.992	103.176	19.903	6.324	0.535
778.500	469.880	80.006	19.992	103.179	19.902	6.376	0.514
779.000	470.140	79.995	19.995	103.180	19.901	6.448	0.528
779.500	470.382	80.005	19.992	103.178	19.899	6.542	0.521
780.000	470.625	80.010	19.994	103.177	19.900	6.480	0.494
780.500	470.880	80.007	19.993	103.173	19.902	6.357	0.492
781.000	471.158	79.999	19.994	103.172	19.904	6.270	0.515
781.500	471.397	80.000	19.993	103.170	19.903	6.303	0.525
782.000	471.679	79.997	19.993	103.173	19.907	6.029	0.519
782.500	471.904	80.001	19.996	103.172	19.904	6.240	0.514
783.000	472.162	79.997	19.994	103.174	19.906	6.093	0.495
783.500	472.422	80.005	19.993	103.174	19.907	6.025	0.500
784.000	472.671	79.997	19.992	103.174	19.905	6.199	0.514
784.500	472.948	79.995	19.993	103.173	19.902	6.391	0.518
785.000	473.178	80.004	19.994	103.175	19.903	6.342	0.516
785.500	473.485	79.999	19.994	103.176	19.904	6.228	0.521
786.000	473.707	79.999	19.995	103.176	19.905	6.163	0.533
786.500	473.988	80.004	19.993	103.176	19.903	6.321	0.516
787.000	474.249	80.004	19.993	103.177	19.905	6.170	0.522
787.500	474.503	80.010	19.992	103.178	19.910	5.885	0.528
788.000	474.733	80.002	19.994	103.177	19.906	6.113	0.500
788.500	474.991	79.997	19.996	103.175	19.908	5.975	0.486
789.000	475.257	80.003	19.994	103.173	19.910	5.885	0.506
789.500	475.489	79.985	19.996	103.172	19.906	6.115	0.511
790.000	475.783	80.010	19.992	103.166	19.908	5.988	0.512
790.500	475.979	79.986	19.995	103.170	19.909	5.958	0.508
791.000	476.289	80.012	19.991	103.171	19.908	5.960	0.498
791.500	476.549	80.013	19.992	103.178	19.908	5.997	0.538
792.000	476.778	80.005	19.993	103.183	19.909	5.900	0.529
792.500	477.043	80.002	19.993	103.189	19.908	5.986	0.492
793.000	477.323	80.004	19.993	103.184	19.910	5.861	0.520
793.500	477.528	79.997	19.994	103.182	19.912	5.747	0.515
794.000	477.821	79.994	19.995	103.170	19.905	6.160	0.491
794.500	478.078	79.999	19.995	103.159	19.907	6.083	0.524
795.000	478.289	79.993	19.995	103.153	19.908	5.961	0.509
795.500	478.601	79.997	19.995	103.155	19.907	6.078	0.496
796.000	478.847	80.013	19.995	103.158	19.910	5.887	0.541
796.500	479.125	79.994	19.995	103.166	19.910	5.884	0.541
797.000	479.323	79.996	19.994	103.169	19.909	5.926	0.500
797.500	479.618	80.006	19.993	103.165	19.912	5.738	0.484
798.000	479.886	80.008	19.991	103.161	19.908	5.981	0.528
798.500	480.105	79.990	19.994	103.160	19.907	6.028	0.526
799.000	480.387	79.993	19.995	103.160	19.909	5.921	0.494
799.500	480.638	79.992	19.993	103.162	19.912	5.738	0.516
800.000	480.960	80.013	19.992	103.172	19.910	5.842	0.553
800.500	481.170	79.992	19.995	103.180	19.913	5.690	0.553
801.000	481.426	80.004	19.993	103.178	19.912	5.710	0.499
801.500	481.680	80.005	19.993	103.178	19.913	5.637	0.488
802.000	481.946	79.999	19.993	103.178	19.910	5.841	0.515
802.500	482.213	80.006	19.994	103.177	19.910	5.836	0.527
803.000	482.494	80.002	19.994	103.174	19.908	5.961	0.541
803.500	482.698	79.996	19.997	103.178	19.914	5.611	0.517
804.000	482.982	80.012	19.992	103.175	19.913	5.679	0.486
804.500	483.237	79.997	19.993	103.180	19.911	5.825	0.514
805.000	483.472	79.998	19.995	103.180	19.911	5.781	0.515
805.500	483.747	80.009	19.993	103.179	19.919	5.308	0.500
806.000	484.018	80.009	19.993	103.178	19.914	5.582	0.528
806.500	484.262	80.001	19.997	103.183	19.914	5.625	0.531
807.000	484.526	80.003	19.995	103.175	19.916	5.484	0.512
807.500	484.768	80.010	19.995	103.174	19.913	5.643	0.507
808.000	485.035	79.999	19.995	103.177	19.915	5.532	0.507
808.500	485.276	79.999	19.994	103.175	19.913	5.650	0.508
809.000	485.543	80.004	19.993	103.174	19.916	5.493	0.508
809.500	485.835	79.998	19.994	103.179	19.915	5.548	0.534
810.000	486.092	80.009	19.993	103.179	19.915	5.543	0.554
810.500	486.347	80.003	19.993	103.181	19.917	5.424	0.531
811.000	486.585	79.999	19.993	103.179	19.916	5.479	0.503
811.500	486.846	80.011	19.993	103.176	19.917	5.436	0.496
812.000	487.054	79.988	19.995	103.176	19.920	5.245	0.484
812.500	487.348	79.989	19.997	103.171	19.922	5.063	0.485
813.000	487.636	79.994	19.995	103.165	19.918	5.368	0.542
813.500	487.906	80.010	19.995	103.166	19.919	5.311	0.570
814.000	488.147	80.000	19.995	103.167	19.919	5.271	0.535
814.500	488.372	79.999	19.995	103.165	19.917	5.425	0.489
815.000	488.657	80.000	19.995	103.166	19.917	5.426	0.488
815.500	488.937	80.002	19.994	103.165	19.917	5.421	0.538
816.000	489.172	80.000	19.995	103.165	19.919	5.305	0.540
816.500	489.376	79.992	19.995	103.165	19.915	5.559	0.476
817.000	489.672	79.995	19.995	103.164	19.920	5.211	0.469
817.500	489.917	79.998	19.995	103.163	19.919	5.271	0.521
818.000	490.193	80.003	19.994	103.160	19.918	5.334	0.531
818.500	490.453	79.997	19.994	103.155	19.920	5.201	0.528
819.000	490.694	79.998	19.997	103.149	19.920	5.244	0.518
819.500	490.976	80.012	19.994	103.145	19.918	5.348	0.512
820.000	491.182	80.000	19.995	103.146	19.921	5.151	0.506
820.500	491.504	79.997	19.996	103.150	19.922	5.082	0.508
821.000	491.716	80.010	19.994	103.154	19.923	5.003	0.531
821.500	491.992	79.993	19.994	103.158	19.922	5.098	0.511
822.001	492.246	80.003	19.995	103.164	19.922	5.058	0.509
822.500	492.497	80.004	19.994	103.164	19.922	5.079	0.518
823.000	492.751	79.996	19.995	103.166	19.922	5.057	0.505
823.500	493.025	80.002	19.995	103.165	19.921	5.178	0.516
824.000	493.289	80.008	19.994	103.164	19.921	5.145	0.533
824.500	493.538	79.990	19.995	103.160	19.920	5.227	0.526
825.000	493.821	79.986	19.997	103.155	19.922	5.104	0.523
825.500	494.115	80.000	19.996	103.148	19.922	5.113	0.555
826.000	494.379	80.012	19.994	103.144	19.922	5.113	0.568
826.500	494.636	80.017	19.993	103.146	19.919	5.257	0.539
827.000	494.928	80.014	19.993	103.147	19.921	5.146	0.535
827.500	495.148	80.008	19.994	103.154	19.920	5.244	0.530
828.000	495.400	80.014	19.994	103.164	19.922	5.105	0.492
828.500	495.641	79.991	19.995	103.167	19.919	5.276	0.483
829.000	495.891	79.995	19.996	103.165	19.924	4.928	0.492
829.500	496.159	80.006	19.993	103.165	19.919	5.290	0.504
830.000	496.436	80.003	19.994	103.162	19.925	4.922	0.531
830.500	496.643	80.003	19.994	103.159	19.925	4.917	0.515
831.000	496.931	80.004	19.995	103.156	19.924	4.952	0.489
831.500	497.193	80.008	19.994	103.157	19.919	5.253	0.523
832.000	497.484	79.985	19.995	103.160	19.925	4.911	0.551
832.500	497.755	80.002	19.993	103.161	19.922	5.055	0.557
833.000	497.959	80.010	19.992	103.165	19.922	5.110	0.518
833.500	498.206	79.996	19.995	103.170	19.920	5.204	0.463
834.000	498.488	80.006	19.993	103.172	19.920	5.236	0.490
834.500	498.780	80.009	19.994	103.170	19.923	5.042	0.552
835.000	499.002	80.008	19.994	103.170	19.920	5.199	0.544
835.500	499.286	80.015	19.991	103.164	19.922	5.058	0.509
836.000	499.512	80.008	19.993	103.167	19.921	5.148	0.508
836.500	499.779	80.004	19.994	103.168	19.924	4.975	0.502
837.000	500.013	80.010	19.994	103.165	19.921	5.131	0.497
837.500	500.279	80.000	19.993	103.161	19.923	5.009	0.501
838.000	500.560	80.004	19.992	103.165	19.921	5.154	0.523
838.500	500.823	80.006	19.993	103.159	19.923	5.041	0.545
839.000	501.044	79.988	19.995	103.158	19.922	5.086	0.514
839.500	501.315	80.010	19.993	103.158	19.923	5.012	0.488
840.000	501.550	80.002	19.993	103.158	19.923	5.030	0.499
840.500	501.851	79.999	19.992	103.154	19.926	4.806	0.521
841.000	502.116	79.998	19.993	103.152	19.926	4.838	0.551
841.500	502.344	80.006	19.993	103.152	19.926	4.846	0.529
842.000	502.619	80.009	19.994	103.157	19.922	5.089	0.498
842.500	502.894	80.013	19.992	103.161	19.925	4.904	0.527
843.000	503.096	80.007	19.993	103.170	19.924	4.967	0.513
843.500	503.359	79.995	19.994	103.172	19.925	4.864	0.471
844.000	503.655	80.001	19.994	103.175	19.926	4.836	0.512
844.500	503.887	80.002	19.993	103.170	19.924	4.982	0.543
845.000	504.160	80.008	19.991	103.167	19.924	4.970	0.516
845.500	504.439	79.999	19.992	103.165	19.925	4.864	0.529
846.000	504.689	80.008	19.996	103.169	19.925	4.864	0.541
846.500	504.861	80.004	19.995	103.162	19.925	4.896	0.476
847.000	505.148	79.994	19.995	103.159	19.927	4.762	0.440
847.500	505.404	79.982	19.995	103.156	19.926	4.809	0.501
848.000	505.691	79.997	19.992	103.147	19.920	5.219	0.544
848.500	505.943	80.006	19.993	103.140	19.926	4.857	0.541
849.000	506.178	79.988	19.995	103.140	19.925	4.858	0.513
849.500	506.430	80.001	19.995	103.148	19.922	5.110	0.487
850.000	506.690	79.999	19.995	103.155	19.924	4.978	0.499
850.500	506.936	80.009	19.994	103.158	19.924	4.964	0.509
851.000	507.216	80.002	19.994	103.160	19.925	4.859	0.516
851.500	507.461	80.008	19.993	103.162	19.919	5.260	0.526
852.000	507.687	80.004	19.994	103.158	19.922	5.068	0.498
852.500	507.945	80.004	19.993	103.153	19.923	5.030	0.477
853.000	508.159	79.999	19.994	103.152	19.923	5.015	0.478
853.500	508.466	80.003	19.994	103.148	19.920	5.197	0.497
854.000	508.723	80.004	19.993	103.144	19.921	5.170	0.542
854.500	508.968	80.016	19.992	103.144	19.921	5.139	0.533
855.000	509.248	80.011	19.993	103.147	19.922	5.054	0.513
855.500	509.456	80.024	19.991	103.151	19.919	5.302	0.507
856.000	509.746	80.002	19.993	103.161	19.919	5.285	0.493
856.500	509.998	79.998	19.994	103.162	19.923	5.042	0.520
857.000	510.281	79.996	19.994	103.160	19.922	5.106	0.538
857.500	510.509	79.989	19.995	103.158	19.921	5.166	0.523
858.000	510.770	80.000	19.992	103.151	19.926	4.844	0.500
858.500	511.038	80.009	19.993	103.144	19.920	5.229	0.509
859.000	511.270	80.001	19.993	103.143	19.923	5.008	0.514
859.500	511.535	80.009	19.994	103.146	19.921	5.129	0.499
860.000	511.792	79.998	19.994	103.146	19.922	5.074	0.510
860.500	512.059	80.001	19.991	103.146	19.924	4.981	0.523
861.000	512.315	79.997	19.994	103.147	19.917	5.399	0.523
861.500	512.551	80.005	19.993	103.149	19.925	4.873	0.507
862.000	512.796	80.007	19.993	103.151	19.923	5.035	0.487
862.500	513.066	80.005	19.993	103.152	19.923	5.019	0.498
863.000	513.333	80.012	19.991	103.153	19.925	4.889	0.526
863.500	513.558	80.002	19.995	103.157	19.923	5.021	0.514
864.000	513.811	79.997	19.994	103.154	19.921	5.181	0.485
864.500	514.074	80.000	19.991	103.153	19.926	4.827	0.497
865.000	514.340	80.010	19.993	103.156	19.922	5.114	0.523
865.500	514.606	80.000	19.995	103.157	19.922	5.067	0.530
866.000	514.907	80.003	19.993	103.153	19.924	4.951	0.549
866.500	515.151	79.995	19.993	103.158	19.925	4.872	0.556
867.000	515.396	80.020	19.992	103.159	19.926	4.812	0.517
867.500	515.630	80.002	19.993	103.163	19.927	4.738	0.484
868.000	515.918	79.996	19.994	103.170	19.927	4.789	0.500
868.500	516.148	80.002	19.993	103.172	19.925	4.875	0.520
869.000	516.394	79.999	19.994	103.174	19.926	4.831	0.497
869.500	516.674	79.995	19.995	103.179	19.927	4.771	0.501
870.000	516.925	79.981	19.996	103.176	19.926	4.808	0.528
870.500	517.190	80.019	19.992	103.166	19.928	4.723	0.523
871.000	517.448	80.001	19.994	103.168	19.925	4.862	0.520
871.500	517.681	80.008	19.993	103.168	19.926	4.800	0.507
872.000	517.959	80.010	19.993	103.161	19.928	4.670	0.501
872.500	518.227	79.991	19.996	103.157	19.925	4.862	0.528
873.000	518.468	80.005	19.993	103.158	19.924	4.932	0.528
873.500	518.723	80.006	19.994	103.153	19.923	5.012	0.502
874.000	518.981	80.001	19.994	103.154	19.920	5.193	0.504
874.500	519.244	79.994	19.996	103.154	19.925	4.903	0.517
875.000	519.538	79.982	19.995	103.153	19.926	4.807	0.539
875.500	519.803	80.002	19.994	103.154	19.925	4.907	0.558
876.000	520.058	79.998	19.995	103.157	19.926	4.858	0.540
876.500	520.326	80.001	19.994	103.158	19.926	4.840	0.522
877.000	520.526	80.012	19.992	103.164	19.926	4.840	0.496
877.500	520.835	80.003	19.995	103.169	19.924	4.975	0.488
878.000	521.048	79.998	19.995	103.169	19.925	4.895	0.515
878.500	521.321	79.997	19.993	103.166	19.926	4.846	0.503
879.000	521.612	79.998	19.994	103.166	19.927	4.751	0.525
879.500	521.822	80.000	19.994	103.166	19.933	4.390	0.533
880.000	522.055	79.996	19.994	103.163	19.924	4.955	0.472
880.500	522.391	80.007	19.995	103.164	19.925	4.860	0.506
881.000	522.673	80.006	19.993	103.161	19.925	4.858	0.594
881.500	522.892	79.996	19.994	103.157	19.927	4.777	0.560
882.000	523.132	80.000	19.996	103.149	19.928	4.686	0.480
882.500	523.413	80.001	19.994	103.146	19.924	4.983	0.490
883.000	523.684	80.018	19.992	103.145	19.930	4.577	0.537
883.500	523.910	80.003	19.994	103.151	19.929	4.647	0.524
884.000	524.201	80.000	19.995	103.149	19.925	4.881	0.507
884.500	524.451	80.010	19.992	103.152	19.925	4.876	0.529
885.000	524.737	80.003	19.994	103.162	19.928	4.700	0.538
885.500	524.916	80.011	19.993	103.166	19.926	4.809	0.501
886.000	525.229	80.010	19.994	103.171	19.925	4.907	0.479
886.500	525.448	80.001	19.993	103.176	19.921	5.166	0.512
887.000	525.714	80.000	19.995	103.176	19.924	4.941	0.508
887.500	525.945	80.002	19.995	103.168	19.921	5.117	0.491
888.000	526.215	79.999	19.995	103.162	19.924	4.974	0.499
888.500	526.485	80.002	19.995	103.152	19.926	4.850	0.520
889.000	526.688	80.003	19.995	103.145	19.928	4.684	0.507
889.500	526.975	79.999	19.997	103.142	19.927	4.756	0.482
890.000	527.242	79.999	19.994	103.142	19.925	4.863	0.521
890.500	527.493	80.009	19.994	103.144	19.924	4.955	0.536
891.000	527.736	80.011	19.995	103.144	19.927	4.764	0.506
891.500	528.022	80.009	19.993	103.144	19.924	4.966	0.511
892.000	528.279	79.996	19.996	103.147	19.923	5.035	0.536
892.500	528.574	80.005	19.995	103.144	19.925	4.917	0.548
893.000	528.792	80.006	19.995	103.143	19.927	4.789	0.533
893.500	529.017	80.011	19.994	103.141	19.923	5.015	0.478
894.000	529.302	79.993	19.996	103.142	19.928	4.697	0.476
894.500	529.562	80.002	19.994	103.135	19.923	5.005	0.528
895.000	529.832	80.004	19.995	103.136	19.926	4.830	0.538
895.500	530.066	79.995	19.995	103.137	19.924	4.948	0.517
896.000	530.369	80.000	19.994	103.138	19.925	4.864	0.521
896.500	530.592	80.000	19.996	103.138	19.926	4.853	0.531
897.000	530.836	80.000	19.994	103.140	19.925	4.881	0.496
897.500	531.099	80.001	19.993	103.143	19.926	4.807	0.487
898.000	531.334	80.008	19.993	103.144	19.927	4.776	0.503
898.500	531.581	79.997	19.994	103.146	19.925	4.899	0.491
899.000	531.826	80.006	19.993	103.144	19.925	4.872	0.487
899.500	532.129	80.000	19.996	103.147	19.926	4.835	0.520
900.000	532.371	80.004	19.993	103.143	19.926	4.830	0.546
900.500	532.621	79.988	19.995	103.141	19.924	4.962	0.518
901.000	532.865	80.015	19.993	103.140	19.928	4.688	0.493
901.500	533.126	79.989	19.995	103.149	19.925	4.909	0.500
902.000	533.395	80.004	19.993	103.152	19.927	4.777	0.518
902.500	533.688	80.000	19.994	103.158	19.927	4.788	0.546
903.000	533.889	80.008	19.993	103.162	19.927	4.769	0.528
903.500	534.154	80.011	19.992	103.166	19.927	4.745	0.480
904.000	534.439	80.004	19.994	103.159	19.930	4.542	0.508
904.500	534.675	79.991	19.994	103.155	19.925	4.886	0.536
905.000	534.996	80.005	19.993	103.151	19.928	4.711	0.539
905.500	535.218	79.988	19.994	103.149	19.927	4.769	0.550
906.000	535.460	79.998	19.994	103.146	19.928	4.671	0.504
906.500	535.720	79.992	19.994	103.144	19.926	4.832	0.483
907.000	535.975	80.003	19.994	103.144	19.926	4.816	0.509
907.500	536.230	79.994	19.994	103.145	19.927	4.783	0.513
908.000	536.522	80.002	19.994	103.143	19.930	4.551	0.528
908.500	536.751	80.002	19.994	103.141	19.926	4.797	0.534
909.000	537.020	80.004	19.994	103.142	19.929	4.636	0.509
909.500	537.244	80.000	19.995	103.144	19.929	4.649	0.496
910.000	537.527	80.002	19.995	103.142	19.926	4.857	0.500
910.500	537.799	80.014	19.993	103.139	19.927	4.734	0.531
911.000	537.983	80.006	19.992	103.142	19.929	4.637	0.505
911.500	538.267	79.997	19.994	103.143	19.928	4.693	0.462
912.000	538.563	80.001	19.995	103.143	19.931	4.480	0.524
912.500	538.797	79.999	19.995	103.142	19.931	4.485	0.555
913.000	539.051	79.990	19.995	103.146	19.926	4.807	0.509
913.500	539.339	80.005	19.993	103.146	19.926	4.835	0.515
914.000	539.611	79.997	19.996	103.152	19.929	4.644	0.551
914.500	539.805	79.994	19.994	103.156	19.927	4.749	0.513
915.000	540.110	80.012	19.994	103.162	19.931	4.519	0.483
915.500	540.341	79.998	19.995	103.166	19.927	4.751	0.518
916.000	540.620	80.006	19.993	103.163	19.926	4.807	0.522
916.500	540.842	80.020	19.993	103.158	19.928	4.677	0.505
917.000	541.108	80.013	19.992	103.155	19.927	4.744	0.495
917.500	541.360	80.004	19.994	103.154	19.928	4.672	0.503
918.000	541.648	80.001	19.993	103.146	19.926	4.800	0.529
918.500	541.924	79.994	19.996	103.147	19.931	4.533	0.552
919.000	542.130	79.998	19.995	103.144	19.927	4.758	0.523
919.500	542.414	80.007	19.994	103.141	19.928	4.718	0.486
920.000	542.674	80.005	19.994	103.139	19.927	4.749	0.517
920.501	542.955	80.007	19.993	103.140	19.924	4.950	0.543
921.000	543.207	79.999	19.994	103.144	19.929	4.649	0.536
921.500	543.395	79.994	19.994	103.146	19.927	4.737	0.486
922.000	543.665	80.002	19.994	103.148	19.930	4.582	0.450
922.500	543.935	79.998	19.995	103.149	19.928	4.719	0.499
923.000	544.196	80.008	19.994	103.145	19.932	4.431	0.535
923.500	544.458	80.003	19.992	103.144	19.928	4.677	0.526
924.000	544.675	79.989	19.995	103.144	19.930	4.547	0.501
924.500	544.930	79.995	19.994	103.142	19.930	4.587	0.476
925.000	545.164	80.003	19.994	103.140	19.929	4.617	0.480
925.500	545.460	80.004	19.994	103.144	19.924	4.928	0.509
926.000	545.722	79.994	19.994	103.143	19.931	4.525	0.544
926.500	545.978	79.998	19.995	103.140	19.928	4.673	0.538
927.000	546.239	79.995	19.993	103.139	19.926	4.821	0.518
927.500	546.487	79.994	19.993	103.141	19.929	4.647	0.513
928.000	546.710	80.006	19.994	103.139	19.934	4.288	0.490
928.500	546.961	80.001	19.993	103.138	19.930	4.582	0.472
929.000	547.265	80.021	19.993	103.141	19.932	4.431	0.515
929.500	547.501	80.008	19.992	103.144	19.931	4.485	0.547
930.000	547.743	79.999	19.994	103.145	19.930	4.538	0.509
930.500	548.017	80.005	19.995	103.143	19.929	4.640	0.497
931.000	548.268	79.997	19.995	103.142	19.927	4.790	0.521
931.500	548.553	79.992	19.992	103.139	19.930	4.549	0.531
932.000	548.801	79.998	19.994	103.138	19.931	4.500	0.534
932.500	549.036	80.007	19.994	103.137	19.929	4.637	0.508
933.000	549.282	79.999	19.994	103.138	19.928	4.674	0.483
933.500	549.515	80.016	19.992	103.136	19.926	4.805	0.480
934.000	549.787	80.003	19.994	103.140	19.929	4.614	0.492
934.500	550.022	80.004	19.993	103.142	19.932	4.461	0.506
935.000	550.324	79.994	19.994	103.140	19.928	4.671	0.522
935.500	550.554	79.997	19.994	103.140	19.926	4.811	0.534
936.000	550.876	79.994	19.993	103.139	19.931	4.505	0.542
936.500	551.074	79.994	19.996	103.136	19.929	4.615	0.536
937.000	551.330	80.026	19.992	103.131	19.928	4.672	0.486
937.500	551.590	79.996	19.996	103.137	19.925	4.858	0.485
938.000	551.851	80.008	19.993	103.135	19.925	4.916	0.519
938.500	552.156	79.996	19.993	103.138	19.930	4.550	0.543
939.000	552.308	80.015	19.992	103.139	19.927	4.760	0.512
939.500	552.656	79.992	19.993	103.142	19.927	4.770	0.479
940.000	552.897	79.994	19.994	103.139	19.928	4.718	0.545
940.501	553.143	79.998	19.994	103.142	19.928	4.686	0.538
941.000	553.360	79.993	19.994	103.140	19.926	4.841	0.475
941.500	553.688	80.009	19.993	103.142	19.925	4.864	0.503
942.000	553.912	80.028	19.990	103.143	19.929	4.649	0.549
942.500	554.223	80.002	19.995	103.148	19.931	4.500	0.544
943.000	554.436	80.001	19.995	103.147	19.931	4.531	0.529
943.500	554.668	80.014	19.994	103.152	19.932	4.443	0.484
944.000	554.964	80.002	19.993	103.156	19.927	4.774	0.487
944.500	555.207	79.993	19.995	103.159	19.929	4.610	0.533
945.000	555.454	80.007	19.993	103.154	19.930	4.594	0.515
945.500	555.790	80.006	19.993	103.157	19.932	4.415	0.537
946.000	556.015	80.010	19.994	103.157	19.932	4.469	0.572
946.500	556.238	79.992	19.994	103.153	19.929	4.615	0.505
947.000	556.534	79.993	19.995	103.147	19.929	4.612	0.484
947.500	556.730	80.008	19.993	103.141	19.929	4.647	0.505
948.000	557.006	80.009	19.994	103.139	19.931	4.529	0.481
948.500	557.264	79.996	19.995	103.137	19.930	4.584	0.503
949.000	557.524	80.004	19.994	103.134	19.933	4.370	0.526
949.500	557.805	80.010	19.995	103.137	19.920	5.207	0.530
950.000	558.012	80.008	19.992	103.139	19.933	4.391	0.514
950.500	558.269	79.999	19.994	103.144	19.933	4.354	0.476
951.000	558.593	80.009	19.992	103.146	19.931	4.495	0.522
951.500	558.750	79.998	19.993	103.151	19.933	4.387	0.531
952.000	559.030	80.007	19.993	103.152	19.942	3.761	0.459
952.500	559.334	80.013	19.991	103.154	19.926	4.841	0.510
953.000	559.498	80.004	19.994	103.154	19.928	4.721	0.525
953.500	559.806	80.001	19.994	103.151	19.930	4.547	0.470
954.000	560.100	80.004	19.994	103.148	19.935	4.234	0.537
954.500	560.303	80.003	19.993	103.143	19.923	5.034	0.550
955.001	560.623	79.995	19.994	103.142	19.922	5.113	0.510
955.501	560.793	79.988	19.994	103.137	19.938	4.044	0.507
956.000	561.147	79.993	19.992	103.138	19.931	4.524	0.507
956.500	561.392	79.991	19.996	103.141	19.926	4.823	0.562
957.000	561.542	79.994	19.994	103.141	19.931	4.482	0.497
957.500	561.885	80.004	19.992	103.140	19.932	4.436	0.444
958.000	562.143	80.002	19.993	103.142	19.934	4.297	0.546
958.500	562.452	79.999	19.995	103.143	19.928	4.673	0.584
959.000	562.670	80.008	19.994	103.142	19.932	4.418	0.547
959.500	562.905	80.017	19.993	103.146	19.934	4.325	0.490
960.000	563.141	80.005	19.994	103.150	19.929	4.631	0.462
960.500	563.383	79.994	19.994	103.152	19.930	4.586	0.475
961.000	563.727	79.999	19.994	103.153	19.928	4.726	0.532
961.500	563.774	80.010	19.993	103.155	19.930	4.587	0.489
962.000	564.126	80.014	19.993	103.155	19.929	4.631	0.395
962.501	564.392	80.002	19.994	103.154	19.931	4.499	0.509
963.001	564.734	79.999	19.994	103.154	19.935	4.246	0.613
963.500	564.502	80.004	19.993	103.152	19.929	4.656	0.359
964.000	565.236	80.002	19.993	103.150	19.932	4.450	0.306
964.500	565.783	80.004	19.993	103.148	19.930	4.551	0.891
965.000	565.442	79.999	19.995	103.144	19.929	4.659	0.744
965.500	566.343	80.002	19.994	103.138	19.928	4.709	0.383
966.000	566.487	80.017	19.992	103.137	19.932	4.438	0.803
966.500	566.028	79.999	19.995	103.138	19.927	4.753	0.365
967.000	566.588	80.006	19.994	103.137	19.930	4.558	-0.107
967.500	567.087	80.013	19.992	103.139	19.930	4.563	0.580
968.000	567.831	79.988	19.994	103.142	19.931	4.503	1.150
968.500	567.658	79.998	19.994	103.141	19.928	4.721	0.907
969.000	567.323	79.993	19.993	103.139	19.933	4.343	0.032
969.500	568.252	80.014	19.992	103.141	19.932	4.413	0.043
970.000	568.088	79.986	19.994	103.141	19.931	4.531	0.679
970.500	568.403	80.002	19.993	103.139	19.929	4.624	0.458
971.000	568.831	80.001	19.994	103.142	19.932	4.424	0.447
971.500	569.057	80.013	19.994	103.143	19.930	4.596	0.699
972.000	569.459	80.003	19.995	103.142	19.930	4.596	0.641
972.500	569.483	79.997	19.994	103.141	19.931	4.524	0.527
973.000	569.807	80.012	19.992	103.143	19.931	4.519	0.387
973.500	570.127	80.001	19.993	103.144	19.928	4.724	0.496
974.000	570.265	80.004	19.994	103.142	19.930	4.583	0.551
974.500	570.604	79.999	19.993	103.143	19.932	4.427	0.467
975.000	570.718	80.000	19.994	103.143	19.930	4.549	0.465
975.500	571.092	79.997	19.995	103.144	19.933	4.383	0.471
976.000	571.411	80.011	19.991	103.142	19.930	4.558	0.590
976.500	571.642	80.002	19.992	103.149	19.931	4.503	0.621
977.000	571.890	80.023	19.992	103.148	19.928	4.693	0.515
977.500	572.241	79.999	19.994	103.149	19.934	4.288	0.539
978.000	572.349	79.987	19.996	103.147	19.930	4.550	0.529
978.500	572.713	80.005	19.994	103.146	19.931	4.526	0.466
979.000	572.972	80.004	19.994	103.143	19.933	4.368	0.547
979.500	573.190	79.998	19.994	103.146	19.931	4.521	0.550
980.000	573.506	79.995	19.994	103.145	19.932	4.456	0.506
980.500	573.705	80.007	19.994	103.146	19.929	4.625	0.524
981.000	574.071	79.990	19.996	103.149	19.929	4.651	0.540
981.500	574.285	80.016	19.992	103.144	19.929	4.624	0.573
982.000	574.620	79.995	19.995	103.144	19.931	4.498	0.564
982.500	574.845	80.007	19.995	103.143	19.932	4.454	0.554
983.000	575.099	79.998	19.998	103.142	19.929	4.617	0.519
983.500	575.388	80.002	19.995	103.136	19.929	4.616	0.511
984.000	575.666	80.004	19.994	103.138	19.934	4.297	0.555
984.500	575.902	80.003	19.992	103.133	19.933	4.343	0.541
985.000	576.224	80.001	19.995	103.134	19.930	4.556	0.536
985.500	576.448	80.008	19.994	103.134	19.932	4.445	0.552
986.000	576.748	80.002	19.995	103.142	19.933	4.368	0.535
986.500	576.999	80.000	19.996	103.144	19.932	4.466	0.538
987.000	577.251	80.004	19.995	103.145	19.932	4.434	0.527
987.500	577.484	79.999	19.994	103.145	19.932	4.412	0.494
988.000	577.786	80.005	19.993	103.145	19.931	4.477	0.510
988.500	578.018	80.007	19.995	103.143	19.933	4.366	0.535
989.000	578.318	80.003	19.995	103.142	19.931	4.483	0.533
989.500	578.611	80.021	19.992	103.143	19.931	4.503	0.562
990.000	578.804	79.995	19.995	103.146	19.932	4.425	0.539
990.500	579.126	80.003	19.994	103.147	19.931	4.496	0.500
991.000	579.390	80.005	19.992	103.147	19.930	4.543	0.551
991.500	579.641	79.995	19.995	103.147	19.929	4.649	0.551
992.000	579.893	80.000	19.994	103.147	19.932	4.427	0.509
992.500	580.207	80.001	19.994	103.142	19.933	4.362	0.535
993.000	580.502	80.006	19.994	103.141	19.930	4.541	0.587
993.500	580.724	80.001	19.996	103.141	19.930	4.573	0.563
994.000	580.981	80.013	19.992	103.138	19.933	4.385	0.498
994.500	581.269	80.001	19.994	103.144	19.933	4.381	0.512
995.000	581.480	79.988	19.995	103.145	19.935	4.244	0.522
995.500	581.767	79.999	19.994	103.148	19.934	4.300	0.498
996.000	582.035	80.005	19.994	103.151	19.930	4.538	0.526
996.500	582.275	80.011	19.993	103.154	19.930	4.557	0.532
997.000	582.536	80.000	19.993	103.150	19.931	4.517	0.504
997.500	582.820	79.999	19.994	103.149	19.932	4.415	0.522
998.000	583.114	80.015	19.992	103.145	19.931	4.485	0.561
998.500	583.355	80.000	19.994	103.146	19.933	4.392	0.557
999.001	583.671	79.995	19.994	103.143	19.933	4.381	0.547
999.500	583.910	79.986	19.997	103.140	19.932	4.416	0.556
1000.000	584.191	79.990	19.996	103.137	19.930	4.562	0.537
1000.500	584.435	79.994	19.994	103.136	19.933	4.344	0.522
1001.000	584.729	80.009	19.994	103.135	19.934	4.320	0.531
1001.500	584.995	80.001	19.994	103.139	19.934	4.336	0.549
1002.000	585.201	79.989	19.994	103.140	19.932	4.432	0.516
1002.500	585.521	80.004	19.995	103.142	19.933	4.399	0.499
1003.000	585.741	80.007	19.995	103.144	19.928	4.673	0.534
1003.500	586.048	79.997	19.995	103.142	19.930	4.541	0.534
1004.000	586.278	80.009	19.994	103.138	19.928	4.708	0.532
1004.500	586.554	79.992	19.996	103.140	19.929	4.615	0.521
1005.000	586.824	79.987	19.996	103.140	19.935	4.255	0.526
1005.500	587.110	79.993	19.995	103.137	19.931	4.481	0.551
1006.000	587.355	79.992	19.997	103.134	19.933	4.402	0.544
1006.500	587.661	79.991	19.996	103.132	19.931	4.494	0.541
1007.000	587.912	79.987	19.994	103.129	19.930	4.541	0.553
1007.500	588.194	80.004	19.994	103.130	19.932	4.431	0.545
1008.000	588.431	80.004	19.996	103.132	19.926	4.809	0.527
1008.500	588.676	79.985	19.998	103.133	19.931	4.477	0.501
1009.000	588.926	80.002	19.994	103.131	19.932	4.436	0.488
1009.500	589.231	80.005	19.995	103.133	19.933	4.369	0.525
1010.000	589.474	79.999	19.994	103.132	19.931	4.535	0.552
1010.500	589.769	80.013	19.993	103.131	19.930	4.593	0.543
1011.000	590.015	80.005	19.995	103.134	19.931	4.491	0.539
1011.500	590.278	79.998	19.995	103.139	19.934	4.332	0.525
1012.000	590.542	80.005	19.995	103.138	19.932	4.434	0.518
1012.500	590.799	80.007	19.995	103.139	19.930	4.598	0.524
1013.000	591.097	80.001	19.995	103.136	19.932	4.415	0.538
1013.500	591.342	80.001	19.995	103.133	19.937	4.139	0.549
1014.000	591.605	79.999	19.994	103.131	19.929	4.614	0.526
1014.500	591.897	80.000	19.994	103.131	19.933	4.374	0.532
1015.000	592.152	80.000	19.994	103.132	19.928	4.668	0.551
1015.500	592.418	79.991	19.995	103.135	19.930	4.548	0.534
1016.000	592.697	80.000	19.994	103.133	19.927	4.765	0.533
1016.500	592.971	80.004	19.994	103.132	19.931	4.488	0.549
1017.000	593.237	80.001	19.993	103.133	19.928	4.673	0.547
1017.500	593.465	80.010	19.992	103.134	19.933	4.380	0.517
1018.000	593.723	79.996	19.994	103.135	19.931	4.475	0.490
1018.500	594.068	79.995	19.992	103.136	19.928	4.666	0.544
1019.000	594.323	80.014	19.991	103.141	19.929	4.631	0.601
1019.500	594.555	80.015	19.992	103.143	19.932	4.466	0.543
1020.000	594.836	80.007	19.993	103.143	19.931	4.510	0.500
1020.500	595.072	79.991	19.994	103.142	19.929	4.649	0.515
1021.000	595.332	80.003	19.992	103.142	19.930	4.566	0.506
1021.500	595.639	80.011	19.991	103.143	19.931	4.524	0.532
1022.000	595.853	79.995	19.994	103.142	19.930	4.568	0.544
1022.500	596.145	80.004	19.992	103.140	19.933	4.344	0.513
1023.000	596.383	80.003	19.993	103.141	19.931	4.510	0.518
1023.500	596.669	80.000	19.993	103.142	19.933	4.343	0.527
1024.001	596.959	80.010	19.993	103.139	19.931	4.471	0.550
1024.501	597.206	79.999	19.994	103.138	19.930	4.577	0.556
1025.001	597.480	80.001	19.996	103.138	19.929	4.640	0.529
1025.501	597.730	80.003	19.994	103.135	19.929	4.605	0.522
1026.001	597.976	80.000	19.994	103.136	19.931	4.475	0.510
1026.500	598.247	80.002	19.993	103.135	19.929	4.637	0.507
1027.000	598.488	79.991	19.993	103.135	19.931	4.508	0.515
1027.500	598.788	80.009	19.993	103.133	19.932	4.441	0.527
1028.000	599.061	79.995	19.993	103.137	19.932	4.436	0.557
1028.500	599.304	79.996	19.994	103.138	19.932	4.424	0.545
1029.000	599.582	79.997	19.991	103.138	19.933	4.348	0.518
1029.500	599.847	79.999	19.992	103.140	19.931	4.501	0.532
1030.000	600.061	80.000	19.993	103.144	19.932	4.445	0.511
1030.500	600.336	79.999	19.994	103.144	19.934	4.336	0.484
1031.000	600.603	80.011	19.992	103.143	19.932	4.420	0.515
1031.500	600.870	80.006	19.995	103.145	19.930	4.570	0.538
1032.000	601.122	80.000	19.994	103.143	19.932	4.449	0.527
1032.500	601.400	80.004	19.992	103.141	19.930	4.570	0.524
1033.000	601.599	79.989	19.994	103.140	19.929	4.604	0.504
1033.500	601.921	80.002	19.993	103.138	19.930	4.544	0.499
1034.000	602.139	80.006	19.994	103.138	19.928	4.705	0.530
1034.500	602.455	80.006	19.994	103.137	19.929	4.663	0.537
1035.000	602.708	79.999	19.992	103.138	19.927	4.790	0.552
1035.500	602.960	80.006	19.993	103.140	19.930	4.571	0.537
1036.000	603.222	80.003	19.993	103.146	19.933	4.397	0.509
1036.500	603.456	80.009	19.993	103.146	19.934	4.329	0.505
1037.000	603.727	79.999	19.993	103.147	19.927	4.742	0.500
1037.500	603.974	80.000	19.993	103.147	19.931	4.478	0.511
1038.000	604.251	80.005	19.994	103.146	19.929	4.643	0.521
1038.500	604.466	80.001	19.993	103.143	19.927	4.730	0.508
1039.001	604.739	80.003	19.994	103.142	19.930	4.543	0.490
1039.501	605.001	80.002	19.993	103.141	19.929	4.622	0.511
1040.000	605.220	80.001	19.993	103.140	19.930	4.559	0.508
1040.500	605.515	79.996	19.993	103.139	19.929	4.612	0.497
1041.000	605.773	79.996	19.994	103.138	19.929	4.626	0.533
1041.500	606.016	80.007	19.992	103.137	19.929	4.633	0.527
1042.000	606.291	80.004	19.994	103.140	19.931	4.511	0.510
1042.500	606.587	80.003	19.993	103.145	19.930	4.596	0.544
1043.000	606.835	80.017	19.993	103.145	19.933	4.364	0.557
1043.500	607.049	80.016	19.990	103.147	19.928	4.677	0.503
1044.000	607.341	80.005	19.993	103.153	19.932	4.464	0.485
1044.500	607.586	80.005	19.993	103.151	19.929	4.645	0.522
1045.000	607.834	80.015	19.992	103.146	19.933	4.403	0.515
1045.500	608.069	79.993	19.996	103.147	19.927	4.749	0.488
1046.000	608.337	80.000	19.994	103.144	19.928	4.684	0.493
1046.500	608.599	80.003	19.992	103.140	19.927	4.733	0.516
1047.000	608.871	79.997	19.995	103.140	19.934	4.304	0.532
1047.500	609.114	79.994	19.993	103.141	19.932	4.427	0.524
1048.001	609.343	79.991	19.995	103.141	19.930	4.584	0.493
1048.501	609.628	79.998	19.995	103.140	19.928	4.728	0.493
1049.000	609.869	79.990	19.995	103.138	19.934	4.331	0.520
1049.500	610.123	80.002	19.994	103.136	19.932	4.464	0.510
1050.000	610.389	80.026	19.993	103.136	19.927	4.769	0.508
1050.500	610.671	80.015	19.995	103.138	19.930	4.580	0.534
1051.000	610.896	80.009	19.992	103.141	19.929	4.652	0.527
1051.500	611.132	79.993	19.995	103.142	19.932	4.459	0.484
1052.000	611.416	79.994	19.994	103.140	19.931	4.510	0.491
1052.500	611.626	79.993	19.994	103.140	19.930	4.548	0.507
1053.000	611.892	79.996	19.994	103.137	19.932	4.464	0.485
1053.500	612.212	80.007	19.994	103.136	19.927	4.782	0.531
1054.000	612.463	79.998	19.993	103.135	19.930	4.545	0.578
1054.500	612.733	79.991	19.994	103.139	19.932	4.448	0.546
1055.000	612.981	80.008	19.993	103.138	19.933	4.404	0.520
1055.500	613.258	80.007	19.992	103.139	19.927	4.781	0.522
1056.000	613.500	80.005	19.993	103.142	19.933	4.388	0.522
1056.501	613.741	79.990	19.994	103.143	19.933	4.394	0.501
1057.001	614.029	80.005	19.994	103.142	19.931	4.472	0.506
1057.500	614.275	79.992	19.996	103.145	19.929	4.643	0.532
1058.000	614.543	79.997	19.993	103.145	19.934	4.327	0.524
1058.501	614.823	79.993	19.995	103.145	19.934	4.302	0.531
1059.001	615.054	80.004	19.996	103.145	19.930	4.592	0.529
1059.500	615.316	79.999	19.993	103.142	19.933	4.346	0.501
1060.000	615.581	79.988	19.993	103.142	19.933	4.388	0.509
1060.500	615.812	79.997	19.994	103.144	19.930	4.539	0.511
1061.000	616.096	79.998	19.996	103.143	19.934	4.337	0.506
1061.500	616.339	79.995	19.995	103.141	19.933	4.386	0.521
1062.000	616.606	80.001	19.994	103.143	19.931	4.516	0.518
1062.500	616.870	79.995	19.994	103.141	19.931	4.479	0.521
1063.000	617.143	80.012	19.992	103.137	19.930	4.542	0.534
1063.500	617.391	80.002	19.995	103.138	19.931	4.516	0.529
1064.000	617.652	79.994	19.994	103.138	19.932	4.456	0.515
1064.500	617.868	80.003	19.994	103.138	19.929	4.600	0.493
1065.000	618.161	80.002	19.994	103.136	19.934	4.277	0.493
1065.501	618.402	80.000	19.998	103.138	19.932	4.435	0.521
1066.001	618.688	79.999	19.995	103.135	19.930	4.578	0.531
1066.500	618.949	79.991	19.996	103.136	19.933	4.397	0.537
1067.000	619.187	80.003	19.994	103.135	19.933	4.376	0.523
1067.500	619.475	79.991	19.995	103.134	19.932	4.467	0.512
1068.000	619.731	80.006	19.994	103.130	19.932	4.459	0.535
1068.500	619.992	80.002	19.994	103.132	19.934	4.330	0.531
1069.000	620.273	80.005	19.995	103.132	19.933	4.378	0.530
1069.500	620.491	79.986	19.995	103.133	19.935	4.237	0.520
1070.000	620.756	80.009	19.995	103.130	19.932	4.423	0.491
1070.500	620.990	79.998	19.993	103.132	19.934	4.323	0.490
1071.000	621.303	80.000	19.994	103.131	19.935	4.237	0.523
1071.501	621.560	79.992	19.994	103.125	19.932	4.410	0.559
1072.001	621.844	80.019	19.992	103.120	19.929	4.614	0.556
1072.500	622.063	80.006	19.995	103.127	19.930	4.545	0.522
1073.000	622.317	80.002	19.995	103.122	19.934	4.308	0.488
1073.500	622.560	80.012	19.993	103.117	19.931	4.528	0.486
1074.000	622.851	80.008	19.992	103.119	19.929	4.624	0.516
1074.500	623.084	79.996	19.995	103.123	19.929	4.659	0.529
1075.000	623.355	79.995	19.994	103.119	19.932	4.413	0.513
1075.500	623.604	80.002	19.994	103.121	19.931	4.529	0.512
1076.000	623.871	79.995	19.995	103.124	19.930	4.543	0.518
1076.501	624.148	79.999	19.995	103.123	19.929	4.617	0.531
1077.001	624.418	80.011	19.994	103.122	19.929	4.640	0.546
1077.500	624.653	80.006	19.995	103.129	19.931	4.482	0.526
1078.000	624.879	80.008	19.993	103.130	19.932	4.420	0.483
1078.500	625.147	80.001	19.995	103.133	19.932	4.429	0.478
1079.000	625.419	80.001	19.996	103.137	19.932	4.429	0.517
1079.500	625.660	79.990	19.994	103.138	19.932	4.452	0.526
1080.000	625.915	80.007	19.994	103.134	19.932	4.434	0.505
1080.501	626.180	79.991	19.996	103.137	19.931	4.517	0.508
1081.001	626.429	79.991	19.995	103.135	19.926	4.809	0.517
1081.500	626.678	80.001	19.993	103.135	19.928	4.685	0.506
1082.000	626.968	80.002	19.993	103.137	19.932	4.457	0.518
1082.500	627.188	80.007	19.994	103.140	19.932	4.461	0.525
1083.000	627.511	80.002	19.993	103.137	19.931	4.480	0.526
1083.500	627.746	80.006	19.994	103.139	19.934	4.330	0.551
1084.000	628.023	80.003	19.992	103.141	19.933	4.381	0.535
1084.500	628.227	80.006	19.994	103.143	19.933	4.367	0.497
1085.000	628.517	80.006	19.994	103.140	19.935	4.276	0.488
1085.500	628.729	80.006	19.993	103.140	19.932	4.427	0.498
1086.000	629.022	79.999	19.994	103.140	19.936	4.167	0.503
1086.501	629.249	80.022	19.991	103.139	19.931	4.526	0.513
1087.001	629.516	80.014	19.993	103.142	19.930	4.559	0.507
1087.500	629.756	79.992	19.996	103.145	19.933	4.367	0.501
1088.000	630.073	80.010	19.995	103.142	19.931	4.487	0.532
1088.500	630.278	80.012	19.993	103.142	19.932	4.459	0.539
1089.000	630.544	80.004	19.995	103.144	19.932	4.413	0.496
1089.500	630.778	80.004	19.993	103.138	19.934	4.294	0.486
1090.000	631.039	80.004	19.995	103.139	19.934	4.292	0.497
1090.500	631.355	79.989	19.994	103.138	19.932	4.422	0.536
1091.000	631.607	79.999	19.994	103.138	19.936	4.174	0.573
1091.500	631.826	80.007	19.994	103.137	19.933	4.392	0.520
1092.000	632.083	80.008	19.993	103.138	19.933	4.342	0.474
1092.500	632.346	80.014	19.994	103.134	19.934	4.327	0.498
1093.000	632.612	80.008	19.993	103.140	19.932	4.448	0.524
1093.500	632.846	80.003	19.993	103.140	19.936	4.200	0.515
1094.000	633.093	79.996	19.994	103.140	19.936	4.163	0.491
1094.500	633.368	80.005	19.993	103.138	19.934	4.314	0.502
1095.000	633.613	80.010	19.992	103.138	19.933	4.348	0.521
1095.500	633.820	79.996	19.995	103.137	19.936	4.156	0.486
1096.000	634.132	80.006	19.993	103.135	19.937	4.123	0.485
1096.501	634.388	80.008	19.994	103.134	19.934	4.318	0.544
1097.001	634.661	80.011	19.992	103.137	19.935	4.272	0.548
1097.500	634.900	80.009	19.994	103.139	19.934	4.279	0.520
1098.000	635.225	80.006	19.993	103.138	19.937	4.102	0.539
1098.500	635.423	80.022	19.993	103.141	19.934	4.327	0.544
1099.001	635.726	80.002	19.995	103.144	19.931	4.485	0.512
1099.501	635.950	79.999	19.996	103.143	19.934	4.330	0.514
1100.001	636.180	80.009	19.995	103.141	19.931	4.478	0.490
1100.500	636.457	80.000	19.996	103.141	19.934	4.286	0.481
1101.000	636.709	80.000	19.995	103.138	19.933	4.366	0.518
1101.500	636.932	80.004	19.994	103.133	19.934	4.320	0.502
1102.000	637.205	80.003	19.995	103.132	19.934	4.309	0.486
1102.500	637.433	80.005	19.995	103.132	19.935	4.264	0.499
1103.000	637.713	80.005	19.995	103.133	19.935	4.225	0.505
1103.501	637.969	80.000	19.995	103.134	19.933	4.346	0.522
1104.001	638.238	79.996	19.995	103.135	19.934	4.325	0.530
1104.501	638.529	80.009	19.993	103.136	19.937	4.121	0.542
1105.000	638.745	80.002	19.996	103.137	19.936	4.156	0.534
1105.500	638.998	80.008	19.994	103.136	19.936	4.195	0.489
1106.000	639.249	80.003	19.995	103.137	19.933	4.343	0.486
1106.500	639.503	80.000	19.994	103.138	19.935	4.264	0.504
1107.000	639.750	79.995	19.994	103.139	19.934	4.327	0.503
1107.500	639.983	80.005	19.993	103.137	19.934	4.302	0.491
1108.000	640.284	80.000	19.994	103.140	19.933	4.364	0.507
1108.500	640.528	79.999	19.995	103.138	19.934	4.311	0.540
1109.000	640.739	79.996	19.995	103.138	19.934	4.322	0.500
1109.500	641.041	80.002	19.993	103.138	19.933	4.341	0.484
1110.001	641.261	79.998	19.993	103.140	19.937	4.142	0.518
1110.501	641.472	79.995	19.994	103.139	19.939	3.961	0.476
1111.000	641.758	80.002	19.994	103.138	19.935	4.229	0.463
1111.500	642.017	80.003	19.993	103.139	19.936	4.151	0.521
1112.000	642.266	80.001	19.993	103.139	19.936	4.188	0.527
1112.500	642.546	80.002	19.993	103.139	19.936	4.158	0.518
1113.000	642.784	80.003	19.994	103.140	19.935	4.214	0.524
1113.501	643.025	79.999	19.994	103.142	19.934	4.318	0.499
1114.001	643.311	80.002	19.993	103.142	19.938	4.021	0.503
1114.501	643.528	80.001	19.993	103.142	19.937	4.132	0.515
1115.000	643.823	79.996	19.995	103.142	19.935	4.264	0.508
1115.500	644.035	80.002	19.992	103.141	19.936	4.176	0.509
1116.000	644.283	80.001	19.993	103.141	19.933	4.350	0.484
1116.500	644.543	80.005	19.993	103.141	19.938	4.030	0.484
1117.000	644.824	80.000	19.993	103.142	19.935	4.220	0.525
1117.500	645.079	80.001	19.994	103.141	19.938	4.065	0.539
1118.000	645.276	80.001	19.994	103.143	19.936	4.211	0.494
1118.500	645.558	80.001	19.993	103.142	19.935	4.234	0.465
1119.000	645.817	80.001	19.993	103.142	19.934	4.283	0.510
1119.500	646.078	80.002	19.993	103.142	19.939	3.989	0.531
1120.000	646.304	80.000	19.993	103.145	19.937	4.128	0.504
1120.500	646.590	80.004	19.993	103.145	19.937	4.114	0.500
1121.000	646.834	80.001	19.994	103.146	19.938	4.068	0.521
1121.500	647.071	80.002	19.994	103.146	19.937	4.103	0.505
1122.000	647.336	80.001	19.995	103.146	19.936	4.158	0.492
1122.500	647.609	80.002	19.992	103.142	19.937	4.084	0.520
1123.000	647.831	80.002	19.993	103.142	19.936	4.165	0.517
1123.500	648.056	80.003	19.993	103.142	19.935	4.213	0.471
1124.000	648.377	80.004	19.993	103.141	19.937	4.116	0.497
1124.500	648.616	79.999	19.993	103.142	19.934	4.281	0.553
1125.000	648.869	80.002	19.994	103.144	19.934	4.293	0.526
1125.500	649.138	80.003	19.993	103.142	19.935	4.242	0.507
1126.000	649.374	80.002	19.993	103.143	19.936	4.195	0.513
1126.501	649.659	80.001	19.993	103.144	19.938	4.079	0.513
1127.001	649.896	79.990	19.995	103.142	19.936	4.167	0.522
1127.500	650.192	80.006	19.992	103.140	19.934	4.295	0.528
1128.000	650.443	80.003	19.994	103.141	19.932	4.462	0.540
1128.500	650.684	79.997	19.994	103.139	19.934	4.327	0.519
1129.000	650.935	80.004	19.994	103.136	19.938	4.061	0.492
1129.501	651.178	80.000	19.994	103.137	19.933	4.380	0.493
1130.001	651.465	79.984	19.993	103.137	19.934	4.294	0.512
1130.501	651.727	80.009	19.993	103.134	19.936	4.160	0.540
1131.001	651.954	80.004	19.994	103.134	19.937	4.132	0.519
1131.500	652.216	79.998	19.993	103.135	19.935	4.215	0.489
1132.000	652.487	80.001	19.994	103.133	19.935	4.259	0.511
1132.500	652.798	79.997	19.993	103.132	19.937	4.144	0.557
1133.000	653.014	79.999	19.995	103.134	19.936	4.171	0.555
1133.500	653.280	79.999	19.995	103.135	19.934	4.329	0.505
1134.000	653.550	79.997	19.994	103.135	19.930	4.538	0.509
1134.500	653.803	79.994	19.996	103.138	19.932	4.411	0.529
1135.000	654.059	80.004	19.994	103.138	19.933	4.399	0.516
1135.500	654.325	79.995	19.995	103.138	19.936	4.207	0.516
1136.000	654.581	79.998	19.994	103.138	19.931	4.482	0.522
1136.500	654.834	80.001	19.993	103.137	19.933	4.343	0.515
1137.000	655.111	80.004	19.992	103.138	19.932	4.443	0.519
1137.500	655.323	80.003	19.992	103.140	19.931	4.522	0.510
1138.000	655.618	80.004	19.993	103.139	19.932	4.448	0.498
1138.501	655.863	80.003	19.995	103.140	19.945	3.583	0.523
1139.001	656.168	79.999	19.992	103.140	19.932	4.432	0.545
1139.500	656.406	80.002	19.992	103.143	19.932	4.469	0.547
1140.000	656.641	80.010	19.993	103.142	19.930	4.555	0.508
1140.500	656.947	80.002	19.994	103.143	19.933	4.399	0.507
1141.000	657.206	79.994	19.993	103.144	19.936	4.149	0.553
1141.500	657.435	80.003	19.993	103.145	19.933	4.355	0.526
1142.000	657.711	79.991	19.994	103.144	19.935	4.239	0.497
1142.501	657.975	80.013	19.993	103.144	19.934	4.329	0.523
1143.001	658.211	79.995	19.994	103.145	19.936	4.177	0.520
1143.500	658.497	80.004	19.993	103.143	19.935	4.253	0.511
1144.000	658.767	80.008	19.992	103.143	19.936	4.209	0.539
1144.500	659.009	80.004	19.993	103.144	19.934	4.306	0.534
1145.000	659.316	80.005	19.993	103.143	19.934	4.281	0.530
1145.500	659.543	80.004	19.993	103.142	19.935	4.228	0.541
1146.000	659.794	79.997	19.994	103.144	19.935	4.246	0.506
1146.500	660.083	80.006	19.994	103.143	19.934	4.302	0.509
1147.000	660.343	80.001	19.993	103.140	19.936	4.166	0.544
1147.500	660.599	79.998	19.994	103.139	19.936	4.147	0.532
1148.000	660.851	79.988	19.995	103.138	19.934	4.327	0.512
1148.501	661.050	79.998	19.995	103.136	19.933	4.364	0.480
1149.001	661.315	80.004	19.993	103.136	19.936	4.188	0.457
1149.500	661.654	79.998	19.995	103.139	19.934	4.313	0.534
1150.000	661.802	80.008	19.993	103.138	19.934	4.292	0.546
1150.500	662.104	80.003	19.995	103.137	19.932	4.410	0.469
1151.000	662.347	80.008	19.993	103.137	19.934	4.288	0.497
1151.500	662.614	79.999	19.995	103.138	19.934	4.287	0.527
1152.000	662.901	79.993	19.993	103.134	19.937	4.127	0.532
1152.500	663.427	80.012	19.993	103.136	19.933	4.367	0.683
1153.000	663.806	79.997	19.994	103.137	19.936	4.195	0.859
1153.500	663.579	80.005	19.993	103.136	19.933	4.360	0.528
1154.000	663.939	80.003	19.994	103.135	19.935	4.246	0.143
1154.500	664.158	79.999	19.994	103.137	19.933	4.356	0.356
1155.000	664.537	80.012	19.993	103.137	19.934	4.293	0.588
1155.500	664.620	80.003	19.994	103.134	19.935	4.220	0.530
1156.000	665.017	80.005	19.995	103.133	19.936	4.175	0.471
1156.500	665.130	80.005	19.993	103.132	19.938	4.074	0.495
1157.000	665.447	80.000	19.994	103.131	19.938	4.044	0.470
1157.500	665.639	80.002	19.994	103.127	19.936	4.156	0.470
1158.000	665.914	80.009	19.992	103.128	19.936	4.160	0.488
1158.500	666.145	80.000	19.994	103.133	19.936	4.205	0.487
1159.000	666.428	80.000	19.995	103.132	19.936	4.191	0.510
1159.500	666.671	80.005	19.994	103.132	19.933	4.357	0.520
1160.000	666.914	79.998	19.995	103.134	19.935	4.265	0.506
1160.500	667.190	80.011	19.991	103.137	19.933	4.402	0.503
1161.001	667.428	80.006	19.995	103.137	19.933	4.358	0.516
1161.501	667.670	80.011	19.992	103.139	19.933	4.371	0.497
1162.001	667.892	80.002	19.995	103.141	19.935	4.271	0.472
1162.501	668.155	80.002	19.994	103.143	19.933	4.385	0.475
1163.001	668.439	79.995	19.995	103.143	19.932	4.427	0.516
1163.501	668.632	80.010	19.996	103.138	19.933	4.343	0.511
1164.000	668.897	79.998	19.994	103.135	19.932	4.432	0.467
1164.500	669.106	79.991	19.996	103.134	19.934	4.304	0.467
1165.000	669.400	80.001	19.999	103.131	19.935	4.251	0.489
1165.500	669.644	79.998	19.994	103.130	19.934	4.321	0.520
1166.000	669.954	80.006	19.995	103.133	19.935	4.226	0.546
1166.500	670.136	79.994	19.995	103.137	19.933	4.365	0.524
1167.000	670.371	80.003	19.996	103.135	19.947	3.471	0.455
1167.500	670.620	80.001	19.996	103.137	19.935	4.234	0.450
1168.000	670.904	80.001	19.994	103.136	19.935	4.263	0.508
1168.500	671.116	79.999	19.994	103.137	19.935	4.261	0.515
1169.000	671.369	80.002	19.994	103.133	19.932	4.427	0.481
1169.500	671.666	80.004	19.995	103.134	19.933	4.381	0.508
1170.000	671.878	80.003	19.993	103.131	19.933	4.383	0.529
1170.500	672.162	80.002	19.995	103.132	19.936	4.181	0.503
1171.000	672.359	80.003	19.994	103.132	19.932	4.406	0.489
1171.500	672.631	80.002	19.995	103.136	19.931	4.485	0.475
1172.000	672.902	80.005	19.994	103.136	19.932	4.445	0.506
1172.500	673.100	80.005	19.994	103.139	19.932	4.455	0.506
1173.001	673.391	80.002	19.994	103.139	19.935	4.228	0.479
1173.501	673.619	79.999	19.994	103.140	19.936	4.211	0.504
1174.001	673.883	80.002	19.993	103.139	19.933	4.348	0.505
1174.500	674.116	80.003	19.991	103.139	19.935	4.250	0.495
1175.000	674.327	80.003	19.993	103.138	19.935	4.220	0.470
1175.500	674.585	80.007	19.992	103.137	19.934	4.327	0.456
1176.000	674.880	80.004	19.993	103.136	19.930	4.540	0.511
1176.500	675.115	80.003	19.994	103.131	19.931	4.471	0.542
1177.000	675.336	80.004	19.993	103.124	19.934	4.302	0.493
1177.500	675.617	80.003	19.993	103.121	19.934	4.293	0.479
1178.000	675.919	80.004	19.993	103.116	19.934	4.321	0.542
1178.500	676.091	80.002	19.994	103.115	19.930	4.539	0.528
1179.000	676.386	80.001	19.990	103.119	19.930	4.594	0.471
1179.500	676.567	80.001	19.993	103.124	19.934	4.310	0.472
1180.000	676.880	80.004	19.991	103.124	19.932	4.465	0.485
1180.500	677.099	80.004	19.993	103.131	19.930	4.585	0.513
1181.000	677.943	80.003	19.993	103.133	19.933	4.347	0.797
1181.500	677.577	80.002	19.994	103.133	19.933	4.381	0.770
1182.000	677.977	80.005	19.993	103.135	19.933	4.400	0.256
1182.500	678.103	80.003	19.994	103.139	19.935	4.270	0.280
1183.000	678.311	80.001	19.994	103.139	19.933	4.383	0.430
1183.500	678.595	80.002	19.993	103.140	19.934	4.286	0.413
1184.000	678.828	80.002	19.993	103.140	19.936	4.205	0.505
1184.500	679.185	80.004	19.994	103.141	19.934	4.281	0.554
1185.000	679.309	80.001	19.994	103.141	19.934	4.292	0.535
1185.500	679.579	79.998	19.995	103.141	19.935	4.272	0.437
1186.000	679.841	80.001	19.997	103.141	19.935	4.234	0.463
1186.500	680.086	80.000	19.994	103.141	19.934	4.299	0.519
1187.000	680.342	80.002	19.994	103.140	19.932	4.445	0.504
1187.500	680.594	80.004	19.994	103.140	19.933	4.404	0.504
1188.000	680.880	80.000	19.994	103.137	19.933	4.350	0.523
1188.500	681.122	80.000	19.995	103.135	19.930	4.547	0.533
1189.000	681.385	79.999	19.995	103.132	19.935	4.244	0.517
1189.500	681.618	80.003	19.995	103.127	19.937	4.103	0.501
1190.000	681.870	80.000	19.995	103.126	19.936	4.198	0.490
1190.500	682.111	80.002	19.995	103.124	19.937	4.117	0.489
1191.001	682.372	80.001	19.995	103.122	19.937	4.116	0.497
1191.501	682.597	80.002	19.995	103.123	19.936	4.200	0.494
1192.000	682.860	80.001	19.995	103.125	19.939	3.987	0.487
1192.500	683.092	80.000	19.996	103.125	19.934	4.302	0.491
1193.000	683.377	80.001	19.995	103.129	19.934	4.295	0.506
1193.501	683.622	80.000	19.996	103.134	19.938	4.068	0.523
1194.001	683.861	80.000	19.996	103.134	19.935	4.241	0.507
1194.501	684.125	80.001	19.995	103.137	19.932	4.415	0.494
1195.001	684.351	79.999	19.996	103.137	19.938	4.040	0.497
1195.500	684.643	80.002	19.995	103.137	19.937	4.130	0.504
1196.000	684.909	79.995	19.995	103.137	19.937	4.105	0.538
1196.500	685.153	80.001	19.995	103.137	19.937	4.142	0.534
1197.000	685.390	80.002	19.994	103.135	19.934	4.279	0.495
1197.500	685.685	79.998	19.995	103.136	19.937	4.103	0.506
1198.000	685.906	80.000	19.996	103.136	19.934	4.297	0.524
1198.500	686.177	80.003	19.994	103.136	19.936	4.197	0.504
1199.001	686.441	79.995	19.995	103.138	19.934	4.279	0.514
1199.501	686.694	80.003	19.995	103.137	19.934	4.297	0.526
1200.000	686.959	80.002	19.994	103.137	19.936	4.186	0.517
1200.500	687.183	80.001	19.995	103.136	19.934	4.328	0.503
1201.000	687.319	79.998	19.995	103.135	19.934	4.300	0.425
1201.500	687.658	80.006	19.994	103.131	19.933	4.344	0.418
1202.000	687.977	80.007	19.994	103.132	19.936	4.205	0.567
1202.500	688.197	80.002	19.995	103.129	19.933	4.346	0.598
1203.000	688.481	80.002	19.993	103.129	19.936	4.184	0.521
1203.500	688.720	80.009	19.992	103.130	19.933	4.395	0.513
1204.000	689.020	80.009	19.994	103.134	19.933	4.360	0.531
1204.500	689.248	80.005	19.994	103.136	19.933	4.399	0.533
1205.000	689.525	79.991	19.994	103.138	19.935	4.272	0.517
1205.500	689.761	79.999	19.993	103.137	19.933	4.399	0.509
1206.000	690.086	80.003	19.993	103.137	19.933	4.397	0.537
1206.500	690.307	80.000	19.993	103.131	19.932	4.441	0.553
1207.000	690.508	80.004	19.993	103.130	19.932	4.429	0.484
1207.500	690.789	80.004	19.993	103.129	19.935	4.218	0.452
1208.000	691.044	80.002	19.993	103.132	19.937	4.142	0.509
1208.500	691.306	80.002	19.994	103.131	19.937	4.119	0.527
1209.000	691.567	80.004	19.993	103.132	19.933	4.351	0.520
1209.500	691.809	80.006	19.993	103.133	19.933	4.397	0.513
1210.000	692.082	80.003	19.993	103.132	19.934	4.326	0.509
1210.501	692.351	80.002	19.994	103.130	19.934	4.318	0.529
1211.001	692.614	80.000	19.994	103.132	19.934	4.277	0.537
1211.501	692.853	80.001	19.993	103.135	19.934	4.334	0.517
1212.001	693.129	80.002	19.994	103.135	19.936	4.183	0.509
1212.501	693.372	80.001	19.994	103.136	19.935	4.262	0.517
1213.000	693.651	80.001	19.994	103.138	19.933	4.355	0.521
1213.500	693.961	80.001	19.994	103.134	19.934	4.277	0.556
1214.000	694.200	80.008	19.992	103.134	19.933	4.342	0.569
1214.500	694.472	80.004	19.993	103.133	19.932	4.428	0.530
1215.000	694.679	80.000	19.994	103.132	19.936	4.147	0.496
1215.500	694.949	80.001	19.993	103.130	19.934	4.311	0.478
1216.000	695.232	80.000	19.995	103.129	19.935	4.271	0.515
1216.501	695.499	80.005	19.993	103.129	19.934	4.309	0.551
1217.001	695.758	80.001	19.993	103.129	19.937	4.146	0.538
1217.500	696.051	79.999	19.995	103.128	19.933	4.343	0.539
1218.000	696.279	80.010	19.992	103.130	19.933	4.348	0.536
1218.500	696.578	80.001	19.995	103.134	19.936	4.168	0.524
1219.000	696.821	80.012	19.993	103.132	19.931	4.488	0.534
1219.500	697.087	80.000	19.994	103.132	19.932	4.458	0.525
1220.000	697.362	80.003	19.995	103.129	19.930	4.562	0.525
1220.500	697.617	79.999	19.996	103.126	19.933	4.377	0.536
1221.000	697.906	79.998	19.994	103.125	19.934	4.309	0.537
1221.500	698.139	79.996	19.995	103.127	19.933	4.358	0.533
1222.001	698.435	80.011	19.993	103.128	19.930	4.545	0.525
1222.501	698.748	80.012	19.992	103.134	19.931	4.534	0.569
1223.000	698.950	79.993	19.995	103.141	19.936	4.159	0.563
1223.500	699.216	79.998	19.995	103.136	19.930	4.586	0.491
1224.000	699.492	79.999	19.994	103.131	19.934	4.277	0.505
1224.500	699.706	79.999	19.993	103.129	19.936	4.164	0.516
1225.000	699.976	80.001	19.994	103.125	19.934	4.328	0.487
1225.500	700.267	79.999	19.996	103.122	19.931	4.470	0.523
1226.001	700.534	80.007	19.994	103.128	19.933	4.377	0.559
1226.502	700.752	79.999	19.995	103.134	19.935	4.267	0.521
1227.001	701.016	80.000	19.995	103.137	19.933	4.355	0.483
1227.500	701.330	80.004	19.994	103.139	19.934	4.313	0.530
1228.000	701.581	80.002	19.995	103.137	19.931	4.520	0.572
1228.500	701.811	80.003	19.994	103.134	19.931	4.473	0.523
1229.000	702.157	80.003	19.994	103.132	19.933	4.351	0.529
1229.500	702.370	80.001	19.995	103.126	19.934	4.299	0.567
1230.001	702.655	80.001	19.993	103.123	19.933	4.341	0.528
1230.502	702.905	80.005	19.993	103.124	19.934	4.282	0.517
1231.001	703.179	80.006	19.994	103.127	19.932	4.448	0.530
1231.500	703.411	80.004	19.994	103.129	19.931	4.495	0.515
1232.000	703.658	80.007	19.993	103.135	19.932	4.421	0.492
1232.500	703.930	80.005	19.993	103.136	19.929	4.611	0.499
1233.000	704.193	80.004	19.993	103.134	19.933	4.347	0.527
1233.501	704.462	80.007	19.993	103.126	19.936	4.209	0.533
1234.001	704.705	80.006	19.993	103.122	19.934	4.297	0.522
1234.500	704.981	80.002	19.994	103.118	19.934	4.285	0.516
1235.000	705.245	80.004	19.993	103.114	19.929	4.631	0.530
1235.500	705.504	80.002	19.992	103.113	19.935	4.240	0.531
1236.000	705.750	79.999	19.994	103.121	19.931	4.520	0.514
1236.500	705.980	80.008	19.994	103.121	19.935	4.270	0.491
1237.000	706.275	80.015	19.992	103.122	19.931	4.492	0.501
1237.500	706.519	80.002	19.993	103.130	19.930	4.569	0.532
1238.000	706.818	80.007	19.992	103.135	19.932	4.414	0.541
1238.500	707.064	80.005	19.992	103.135	19.931	4.527	0.544
1239.000	707.354	79.999	19.994	103.140	19.929	4.663	0.541
1239.500	707.555	80.001	19.994	103.141	19.932	4.425	0.514
1240.000	707.844	80.005	19.993	103.138	19.931	4.490	0.491
1240.500	708.108	80.007	19.994	103.134	19.930	4.594	0.521
1241.000	708.362	79.998	19.993	103.129	19.932	4.423	0.535
1241.500	708.620	80.008	19.992	103.127	19.930	4.543	0.515
1242.000	708.888	80.006	19.992	103.131	19.926	4.831	0.519
1242.500	709.129	79.996	19.995	103.129	19.930	4.550	0.517
1243.001	709.407	80.003	19.994	103.125	19.931	4.492	0.514
1243.501	709.653	80.006	19.994	103.125	19.933	4.351	0.522
1244.001	709.997	80.012	19.992	103.126	19.932	4.455	0.557
1244.500	710.189	80.003	19.993	103.128	19.931	4.501	0.563
1245.000	710.448	80.001	19.993	103.130	19.928	4.664	0.493
1245.500	710.697	80.004	19.993	103.136	19.933	4.378	0.479
1246.000	710.966	80.001	19.994	103.138	19.926	4.800	0.513
1246.500	711.238	80.003	19.992	103.132	19.929	4.639	0.530
1247.000	711.476	80.000	19.994	103.127	19.930	4.539	0.526
1247.500	711.778	80.003	19.993	103.126	19.931	4.488	0.525
1248.000	712.051	80.004	19.993	103.123	19.930	4.562	0.557
1248.500	712.291	79.999	19.994	103.124	19.929	4.606	0.544
1249.000	712.543	79.993	19.994	103.128	19.929	4.654	0.503
1249.500	712.820	80.005	19.996	103.131	19.929	4.609	0.510
1250.000	713.077	80.003	19.992	103.133	19.929	4.639	0.531
1250.500	713.331	80.004	19.995	103.137	19.930	4.579	0.523
1251.000	713.565	80.002	19.993	103.134	19.929	4.629	0.500
1251.500	713.829	80.006	19.993	103.133	19.934	4.316	0.493
1252.000	714.092	80.003	19.994	103.130	19.931	4.495	0.513
1252.500	714.384	80.004	19.995	103.128	19.929	4.602	0.541
1253.000	714.626	80.005	19.991	103.128	19.929	4.634	0.544
1253.500	714.901	80.003	19.997	103.133	19.931	4.523	0.525
1254.000	715.131	80.003	19.994	103.134	19.930	4.597	0.511
1254.500	715.451	80.004	19.993	103.135	19.930	4.544	0.528
1255.000	715.722	80.002	19.995	103.137	19.928	4.687	0.570
1255.500	715.935	80.006	19.993	103.136	19.929	4.646	0.537
1256.000	716.217	80.003	19.994	103.132	19.929	4.655	0.489
1256.500	716.465	80.006	19.994	103.130	19.931	4.502	0.513
1257.000	716.786	80.004	19.994	103.131	19.930	4.545	0.550
1257.500	717.020	80.002	19.997	103.128	19.932	4.409	0.562
1258.000	717.280	80.009	19.993	103.127	19.931	4.499	0.524
1258.500	717.567	80.006	19.993	103.129	19.931	4.522	0.521
1259.000	717.814	80.005	19.994	103.132	19.929	4.655	0.541
1259.501	718.088	80.003	19.993	103.129	19.929	4.620	0.528
1260.001	718.233	80.005	19.993	103.127	19.929	4.604	0.470
1260.500	718.539	80.003	19.994	103.123	19.928	4.725	0.435
1261.000	718.831	80.003	19.993	103.120	19.927	4.757	0.525
1261.500	719.093	80.005	19.993	103.121	19.931	4.524	0.576
1262.000	719.319	80.005	19.994	103.123	19.931	4.502	0.520
1262.500	719.607	80.010	19.991	103.126	19.927	4.744	0.501
1263.000	719.823	79.991	19.996	103.129	19.927	4.741	0.509
1263.500	720.147	80.001	19.995	103.127	19.930	4.541	0.522
1264.000	720.403	80.006	19.993	103.125	19.933	4.354	0.560
1264.500	720.632	80.003	19.995	103.123	19.933	4.403	0.533
1265.000	720.910	80.005	19.995	103.121	19.931	4.491	0.496
1265.500	721.162	80.007	19.994	103.120	19.932	4.443	0.518
1266.000	721.440	79.999	19.995	103.125	19.932	4.466	0.531
1266.500	721.674	80.000	19.994	103.122	19.927	4.753	0.521
1267.000	721.922	80.002	19.994	103.121	19.929	4.654	0.497
1267.500	722.163	80.001	19.995	103.125	19.932	4.452	0.486
1268.000	722.459	80.002	19.993	103.128	19.928	4.691	0.513
1268.500	722.682	80.001	19.994	103.127	19.929	4.614	0.528
1269.000	722.969	80.001	19.993	103.126	19.928	4.725	0.514
1269.500	723.237	80.002	19.994	103.126	19.928	4.692	0.532
1270.000	723.485	80.001	19.994	103.125	19.927	4.759	0.536
1270.500	723.735	80.002	19.994	103.121	19.929	4.655	0.507
1271.000	723.961	80.001	19.994	103.118	19.930	4.592	0.487
1271.500	724.265	80.003	19.994	103.117	19.931	4.529	0.503
1272.000	724.489	80.001	19.994	103.113	19.928	4.700	0.529
1272.500	724.768	80.003	19.992	103.112	19.930	4.582	0.515
1273.001	725.003	80.002	19.995	103.113	19.928	4.678	0.509
1273.501	725.240	80.002	19.994	103.115	19.931	4.504	0.493
1274.000	725.485	80.002	19.993	103.117	19.924	4.972	0.477
1274.500	725.745	80.002	19.995	103.118	19.927	4.756	0.494
1275.000	726.005	80.001	19.995	103.119	19.924	4.933	0.513
1275.500	726.267	80.004	19.994	103.117	19.926	4.821	0.521
1276.000	726.509	80.001	19.995	103.113	19.925	4.896	0.513
1276.500	726.748	80.003	19.996	103.110	19.929	4.636	0.492
1277.000	726.994	80.001	19.995	103.109	19.933	4.342	0.483
1277.500	727.278	80.002	19.994	103.104	19.929	4.645	0.508
1278.001	727.529	80.001	19.993	103.104	19.928	4.701	0.533
1278.501	727.777	80.001	19.994	103.105	19.929	4.657	0.517
1279.001	728.062	80.000	19.996	103.106	19.928	4.668	0.515
1279.500	728.282	80.002	19.995	103.109	19.931	4.517	0.519
1280.000	728.507	80.002	19.994	103.115	19.927	4.793	0.475
1280.500	728.773	79.999	19.996	103.118	19.929	4.654	0.468
1281.000	729.019	80.002	19.994	103.124	19.928	4.725	0.502
1281.500	729.289	80.002	19.996	103.130	19.928	4.709	0.514
1282.000	729.494	80.002	19.997	103.133	19.928	4.685	0.495
1282.500	729.732	80.000	19.995	103.134	19.928	4.711	0.459
1283.000	730.003	80.002	19.993	103.136	19.929	4.640	0.477
1283.500	730.261	80.005	19.993	103.134	19.928	4.709	0.519
1284.000	730.524	80.000	19.994	103.134	19.930	4.563	0.525
1284.500	730.776	80.000	19.995	103.134	19.931	4.505	0.518
1285.000	731.023	80.007	19.993	103.133	19.933	4.351	0.507
1285.500	731.274	80.000	19.998	103.133	19.933	4.366	0.498
1286.000	731.499	80.004	19.996	103.134	19.932	4.440	0.487
1286.500	731.754	80.004	19.993	103.134	19.926	4.795	0.478
1287.000	732.024	80.001	19.995	103.131	19.925	4.869	0.503
1287.500	732.241	80.001	19.995	103.128	19.929	4.660	0.506
1288.000	732.495	80.001	19.994	103.124	19.928	4.663	0.479
1288.501	732.711	80.000	19.994	103.125	19.926	4.801	0.470
1289.001	732.974	80.001	19.994	103.124	19.928	4.673	0.475
1289.500	733.233	80.003	19.994	103.127	19.927	4.771	0.500
1290.000	733.483	80.001	19.992	103.132	19.928	4.677	0.516
1290.500	733.746	80.000	19.995	103.135	19.927	4.789	0.511
1291.000	733.990	80.001	19.994	103.133	19.929	4.643	0.510
1291.500	734.212	80.003	19.994	103.132	19.929	4.642	0.486
1292.000	734.446	79.999	19.994	103.124	19.928	4.698	0.461
1292.500	734.702	80.003	19.993	103.116	19.928	4.687	0.473
1293.000	734.975	80.004	19.993	103.113	19.928	4.700	0.510
1293.500	735.170	80.001	19.995	103.110	19.927	4.779	0.499
1294.000	735.425	79.998	19.994	103.106	19.927	4.768	0.459
1294.500	735.682	80.003	19.994	103.106	19.924	4.923	0.481
1295.000	735.906	80.007	19.993	103.108	19.926	4.830	0.497
1295.500	736.124	79.998	19.996	103.113	19.925	4.863	0.461
1296.001	736.366	80.001	19.995	103.117	19.927	4.775	0.451
1296.501	736.617	80.002	19.992	103.116	19.927	4.754	0.477
1297.001	736.876	80.001	19.996	103.118	19.928	4.722	0.502
1297.501	737.106	80.001	19.993	103.116	19.929	4.619	0.499
1298.000	737.341	80.002	19.993	103.111	19.926	4.805	0.477
1298.500	737.596	79.998	19.996	103.107	19.927	4.773	0.478
1299.000	737.846	79.998	19.994	103.113	19.926	4.822	0.498
1299.500	738.098	80.003	19.992	103.116	19.926	4.812	0.503
1300.000	738.339	80.002	19.993	103.123	19.928	4.708	0.497
1300.500	738.559	80.001	19.993	103.128	19.926	4.815	0.477
1301.000	738.801	80.002	19.993	103.132	19.927	4.750	0.462
1301.500	739.064	80.003	19.993	103.133	19.929	4.643	0.484
1302.000	739.326	79.998	19.990	103.136	19.929	4.634	0.515
1302.501	739.537	80.002	19.992	103.136	19.932	4.424	0.499
1303.001	739.807	80.002	19.993	103.135	19.931	4.474	0.477
1303.501	740.057	80.003	19.995	103.137	19.931	4.528	0.501
1304.001	740.336	80.000	19.993	103.133	19.931	4.483	0.525
1304.500	740.564	80.001	19.994	103.134	19.932	4.457	0.518
1305.001	740.795	80.003	19.993	103.133	19.930	4.589	0.483
1305.501	741.086	80.001	19.997	103.136	19.928	4.677	0.491
1306.000	741.268	80.000	19.993	103.136	19.929	4.628	0.497
1306.500	741.555	79.999	19.994	103.138	19.931	4.495	0.471
1307.000	741.804	80.000	19.997	103.135	19.932	4.406	0.502
1307.500	742.028	80.001	19.993	103.133	19.932	4.457	0.504
1308.000	742.307	80.003	19.992	103.133	19.928	4.696	0.488
1308.500	742.550	80.004	19.993	103.134	19.930	4.535	0.512
1309.000	742.815	79.999	19.993	103.132	19.930	4.576	0.515
1309.500	743.062	80.004	19.993	103.128	19.931	4.497	0.510
1310.000	743.308	80.002	19.999	103.127	19.928	4.683	0.503
1310.500	743.546	79.993	19.995	103.125	19.928	4.708	0.488
