Sample ID:	C:\MCC\MCC Cal\Test\Vinyl Siding\Vinyl_Siding_30_3.txt
Sample Weight (mg):	4.69
Heating Rate (C/s):	0.5
Combustor Temp (C):	900
N2 Flow Rate (cc/min):	80
O2 Flow Rate (cc/min):	20
Calibration File:	C:\MCC\MCC Cal\Coeff1 JN10440_30_210304.txt.txt
T Correction Coefficients:	0	1.024463	0
Time Shift (s):	14
*
Time (s)	Temperature (C)	N2 flow rate (cc/min)	O2 flow rate (cc/min)	Flow Rate (cc/min)	Oxygen (%)	HRR (W/g)	Heating rate (C/s)
0.000	111.309	79.982	19.992	99.889	20.077	0.040	0.023
0.500	111.297	79.981	19.993	99.895	20.080	-0.152	-0.003
1.000	111.283	79.981	19.992	99.896	20.079	-0.049	-0.025
1.500	111.299	79.981	19.992	99.898	20.081	-0.225	-0.012
2.000	111.291	79.982	19.992	99.904	20.079	-0.041	0.005
2.500	111.265	79.982	19.992	99.902	20.085	-0.449	-0.013
3.001	111.291	79.980	19.992	99.897	20.078	-0.016	-0.017
3.501	111.287	79.981	19.992	99.896	20.082	-0.258	0.011
4.000	111.261	79.982	19.992	99.896	20.079	-0.087	-0.004
4.500	111.243	79.983	19.993	99.892	20.081	-0.170	-0.037
5.000	111.257	79.982	19.993	99.889	20.076	0.139	-0.024
5.500	111.263	79.981	19.993	99.889	20.077	0.041	0.008
6.000	111.250	79.981	19.991	99.892	20.076	0.125	0.006
6.500	111.255	79.981	19.992	99.889	20.077	0.038	-0.008
7.000	111.238	79.982	19.992	99.887	20.077	0.088	-0.010
7.500	111.234	79.980	19.992	99.890	20.078	-0.018	-0.016
8.000	111.241	79.980	19.993	99.896	20.077	0.070	-0.009
8.500	111.213	79.982	19.995	99.896	20.074	0.249	-0.009
9.000	111.216	79.982	19.993	99.898	20.076	0.139	-0.023
9.500	111.212	79.982	19.993	99.898	20.077	0.094	-0.013
10.001	111.191	79.981	19.994	99.894	20.072	0.376	-0.012
10.501	111.216	79.982	19.994	99.886	20.077	0.087	-0.010
11.000	111.215	79.981	19.993	99.881	20.077	0.060	0.014
11.500	111.207	79.980	19.993	99.882	20.077	0.036	0.008
12.000	111.211	79.982	19.993	99.888	20.075	0.191	-0.006
12.501	111.176	79.983	19.995	99.895	20.075	0.193	-0.018
13.001	111.182	79.982	19.993	99.902	20.076	0.152	-0.030
13.500	111.182	79.982	19.993	99.909	20.075	0.179	-0.011
14.000	111.172	79.983	19.993	99.914	20.075	0.181	-0.002
14.500	111.189	79.981	19.993	99.913	20.074	0.231	-0.002
15.000	111.163	79.982	19.993	99.913	20.079	-0.045	-0.001
15.500	111.164	79.981	19.993	99.913	20.073	0.305	-0.017
16.000	111.161	79.982	19.994	99.913	20.072	0.367	-0.014
16.500	111.150	79.981	19.994	99.915	20.070	0.515	-0.008
17.000	111.175	79.982	19.993	99.922	20.070	0.562	0.000
17.500	111.171	79.982	19.994	99.931	20.063	1.010	0.018
18.000	111.154	79.982	19.993	99.943	20.066	0.799	0.000
18.500	111.182	79.979	19.993	99.958	20.067	0.763	-0.005
19.000	111.235	79.980	19.993	99.974	20.065	0.850	0.046
19.500	111.179	79.980	19.993	99.984	20.063	0.983	0.039
20.000	111.173	79.980	19.992	99.992	20.063	0.993	-0.033
20.500	111.168	79.981	19.993	99.997	20.060	1.186	-0.036
21.001	111.206	79.980	19.994	100.000	20.057	1.390	0.011
21.500	111.218	79.982	19.993	100.007	20.057	1.414	0.041
22.000	111.214	79.983	19.993	100.017	20.054	1.629	0.029
22.500	111.230	79.980	19.992	100.027	20.055	1.540	0.010
23.000	111.259	79.982	19.992	100.036	20.051	1.817	0.028
23.500	111.289	79.980	19.993	100.045	20.051	1.777	0.052
24.000	111.287	79.980	19.994	100.047	20.051	1.788	0.044
24.500	111.315	79.982	19.993	100.050	20.051	1.820	0.027
25.000	111.344	79.983	19.994	100.054	20.046	2.120	0.041
25.500	111.405	79.980	19.991	100.061	20.049	1.901	0.074
26.000	111.411	79.983	19.993	100.065	20.047	2.048	0.079
26.500	111.439	79.980	19.993	100.071	20.046	2.136	0.051
27.000	111.490	79.983	19.993	100.073	20.047	2.063	0.057
27.500	111.541	79.981	19.994	100.076	20.047	2.064	0.090
28.000	111.546	79.980	19.993	100.077	20.043	2.330	0.079
28.500	111.603	79.983	19.994	100.078	20.041	2.493	0.059
29.000	111.654	79.981	19.994	100.084	20.042	2.406	0.085
29.500	111.696	79.983	19.994	100.092	20.040	2.513	0.100
30.000	111.781	79.980	19.994	100.099	20.040	2.502	0.110
30.500	111.817	79.982	19.993	100.106	20.044	2.290	0.124
31.000	111.859	79.983	19.994	100.113	20.039	2.570	0.099
31.500	111.906	79.981	19.993	100.115	20.039	2.574	0.083
32.000	111.956	79.983	19.994	100.114	20.034	2.926	0.093
32.500	112.042	79.984	19.993	100.114	20.034	2.924	0.117
33.001	112.097	79.980	19.994	100.115	20.033	2.977	0.139
33.501	112.181	79.982	19.993	100.115	20.035	2.845	0.140
34.000	112.250	79.982	19.993	100.114	20.030	3.178	0.145
34.500	112.311	79.984	19.993	100.111	20.035	2.833	0.141
35.000	112.394	79.982	19.994	100.108	20.037	2.759	0.137
35.501	112.464	79.983	19.993	100.100	20.029	3.290	0.148
36.001	112.535	79.981	19.993	100.092	20.038	2.670	0.147
36.501	112.606	79.979	19.993	100.087	20.035	2.838	0.141
37.000	112.725	79.982	19.994	100.090	20.035	2.873	0.166
37.500	112.771	79.983	19.994	100.093	20.035	2.842	0.178
38.001	112.865	79.982	19.993	100.100	20.032	3.030	0.152
38.501	112.960	79.981	19.994	100.107	20.036	2.781	0.164
39.000	113.050	79.980	19.993	100.111	20.039	2.625	0.187
39.500	113.136	79.982	19.994	100.107	20.035	2.882	0.181
40.000	113.219	79.982	19.993	100.101	20.035	2.893	0.172
40.500	113.329	79.982	19.993	100.098	20.040	2.519	0.181
41.000	113.393	79.980	19.993	100.096	20.041	2.488	0.184
41.500	113.494	79.982	19.993	100.097	20.039	2.580	0.170
42.001	113.580	79.981	19.993	100.097	20.034	2.925	0.176
42.501	113.687	79.981	19.993	100.097	20.038	2.638	0.190
43.000	113.804	79.981	19.993	100.092	20.038	2.665	0.208
43.500	113.905	79.981	19.993	100.091	20.037	2.728	0.221
44.000	114.001	79.980	19.993	100.086	20.036	2.770	0.207
44.501	114.100	79.980	19.993	100.084	20.040	2.540	0.196
45.001	114.205	79.983	19.992	100.090	20.032	3.084	0.200
45.501	114.339	79.981	19.993	100.098	20.037	2.732	0.221
46.001	114.413	79.982	19.992	100.103	20.037	2.708	0.223
46.500	114.494	79.981	19.993	100.109	20.035	2.858	0.182
47.000	114.637	79.983	19.992	100.115	20.037	2.717	0.190
47.500	114.731	79.982	19.992	100.116	20.034	2.898	0.230
48.001	114.863	79.983	19.993	100.116	20.038	2.652	0.232
48.501	114.981	79.981	19.993	100.116	20.034	2.945	0.238
49.000	115.092	79.983	19.992	100.116	20.033	2.997	0.239
49.500	115.256	79.983	19.992	100.117	20.032	3.048	0.252
50.000	115.367	79.983	19.993	100.117	20.030	3.225	0.275
50.500	115.494	79.983	19.993	100.118	20.036	2.808	0.257
51.000	115.570	79.984	19.992	100.123	20.032	3.086	0.220
51.500	115.711	79.983	19.992	100.127	20.034	2.914	0.210
52.000	115.847	79.982	19.992	100.127	20.035	2.882	0.247
52.500	115.999	79.985	19.993	100.126	20.032	3.062	0.283
53.000	116.089	79.983	19.992	100.124	20.035	2.856	0.265
53.500	116.251	79.983	19.992	100.118	20.031	3.142	0.247
54.000	116.351	79.984	19.993	100.113	20.035	2.884	0.257
54.500	116.524	79.983	19.992	100.113	20.027	3.363	0.267
55.000	116.644	79.983	19.991	100.113	20.031	3.153	0.283
55.500	116.787	79.984	19.993	100.113	20.034	2.947	0.278
56.000	116.937	79.984	19.992	100.113	20.033	2.983	0.278
56.500	117.073	79.985	19.992	100.114	20.039	2.609	0.290
57.000	117.211	79.985	19.992	100.114	20.033	3.017	0.280
57.500	117.355	79.984	19.991	100.113	20.032	3.050	0.278
58.000	117.495	79.981	19.992	100.113	20.031	3.128	0.283
58.500	117.648	79.982	19.991	100.112	20.037	2.728	0.289
59.001	117.805	79.983	19.991	100.110	20.036	2.821	0.301
59.501	117.882	79.984	19.993	100.110	20.034	2.935	0.272
60.000	118.092	79.983	19.993	100.107	20.032	3.074	0.261
60.500	118.207	79.985	19.992	100.108	20.031	3.105	0.306
61.000	118.386	79.984	19.992	100.109	20.029	3.230	0.309
61.500	118.501	79.983	19.992	100.109	20.034	2.930	0.294
62.000	118.665	79.984	19.992	100.110	20.032	3.091	0.287
62.500	118.790	79.981	19.991	100.112	20.034	2.919	0.284
63.000	118.965	79.983	19.991	100.111	20.035	2.845	0.295
63.500	119.085	79.982	19.992	100.110	20.035	2.861	0.297
64.000	119.217	79.982	19.992	100.110	20.035	2.861	0.273
64.500	119.396	79.981	19.993	100.112	20.034	2.941	0.281
65.000	119.561	79.982	19.993	100.113	20.037	2.713	0.328
65.500	119.694	79.981	19.992	100.114	20.032	3.031	0.321
66.000	119.883	79.982	19.993	100.115	20.034	2.924	0.310
66.500	120.013	79.983	19.993	100.115	20.035	2.868	0.321
67.000	120.147	79.981	19.994	100.114	20.034	2.962	0.292
67.500	120.322	79.983	19.993	100.115	20.032	3.040	0.286
68.000	120.464	79.981	19.993	100.116	20.038	2.691	0.313
68.500	120.639	79.982	19.992	100.118	20.035	2.839	0.317
69.000	120.770	79.981	19.994	100.119	20.034	2.912	0.311
69.500	120.960	79.982	19.993	100.121	20.035	2.892	0.313
70.000	121.126	79.982	19.993	100.125	20.034	2.959	0.338
70.500	121.294	79.981	19.993	100.129	20.032	3.084	0.346
71.000	121.483	79.980	19.994	100.131	20.032	3.093	0.346
71.500	121.621	79.981	19.992	100.136	20.038	2.637	0.342
72.001	121.786	79.982	19.993	100.141	20.028	3.308	0.315
72.501	121.985	79.983	19.992	100.143	20.031	3.143	0.333
73.000	122.154	79.982	19.992	100.143	20.032	3.049	0.366
73.500	122.322	79.980	19.993	100.144	20.029	3.245	0.353
74.000	122.488	79.983	19.995	100.143	20.030	3.190	0.336
74.501	122.657	79.982	19.993	100.143	20.031	3.158	0.334
75.001	122.860	79.983	19.992	100.143	20.027	3.391	0.353
75.501	123.016	79.980	19.992	100.147	20.026	3.487	0.366
76.000	123.178	79.981	19.993	100.149	20.026	3.488	0.339
76.500	123.363	79.982	19.993	100.151	20.029	3.290	0.333
77.000	123.552	79.982	19.993	100.151	20.031	3.134	0.360
77.500	123.721	79.983	19.992	100.152	20.024	3.620	0.366
78.000	123.915	79.983	19.992	100.152	20.023	3.648	0.361
78.500	124.076	79.984	19.993	100.152	20.023	3.665	0.359
79.000	124.288	79.982	19.992	100.152	20.025	3.536	0.364
79.500	124.461	79.983	19.992	100.151	20.024	3.580	0.379
80.000	124.652	79.984	19.991	100.151	20.026	3.470	0.375
80.501	124.841	79.980	19.992	100.150	20.027	3.388	0.372
81.001	125.036	79.980	19.991	100.152	20.024	3.600	0.382
81.500	125.212	79.982	19.992	100.152	20.024	3.574	0.377
82.000	125.442	79.982	19.992	100.153	20.024	3.578	0.388
82.500	125.622	79.983	19.992	100.155	20.022	3.759	0.408
83.000	125.798	79.981	19.992	100.156	20.025	3.540	0.383
83.500	125.955	79.982	19.993	100.156	20.025	3.545	0.344
84.000	126.197	79.983	19.993	100.156	20.025	3.524	0.366
84.501	126.358	79.979	19.992	100.155	20.025	3.554	0.401
85.001	126.568	79.981	19.993	100.154	20.022	3.719	0.387
85.500	126.747	79.980	19.992	100.155	20.024	3.592	0.380
86.000	126.941	79.981	19.993	100.155	20.022	3.746	0.381
86.500	127.139	79.981	19.992	100.157	20.022	3.711	0.382
87.000	127.359	79.982	19.992	100.130	20.023	3.684	0.405
87.500	127.541	79.980	19.993	100.106	20.023	3.648	0.410
88.000	127.754	79.981	19.992	100.092	20.022	3.731	0.398
88.500	127.923	79.982	19.993	100.087	20.026	3.484	0.388
89.000	128.168	79.982	19.993	100.106	20.022	3.735	0.398
89.500	128.320	79.982	19.992	100.170	20.023	3.643	0.406
90.000	128.545	79.982	19.992	100.208	20.022	3.724	0.387
90.500	128.757	79.983	19.993	100.227	20.024	3.626	0.407
91.000	128.941	79.981	19.992	100.235	20.022	3.760	0.416
91.501	129.167	79.979	19.991	100.214	20.021	3.795	0.403
92.001	129.389	79.982	19.993	100.179	20.023	3.659	0.429
92.501	129.605	79.979	19.993	100.169	20.018	4.026	0.443
93.000	129.833	79.979	19.993	100.164	20.021	3.807	0.441
93.500	130.019	79.979	19.993	100.165	20.020	3.887	0.429
94.000	130.223	79.981	19.993	100.167	20.019	3.914	0.402
94.500	130.444	79.981	19.993	100.168	20.026	3.458	0.408
95.000	130.673	79.981	19.994	100.164	20.017	4.082	0.438
95.500	130.871	79.980	19.994	100.163	20.020	3.836	0.438
96.000	131.088	79.982	19.995	100.159	20.021	3.767	0.421
96.500	131.328	79.981	19.994	100.158	20.022	3.744	0.436
97.000	131.500	79.980	19.994	100.156	20.021	3.809	0.434
97.500	131.734	79.979	19.994	100.159	20.023	3.670	0.409
98.000	131.944	79.979	19.994	100.162	20.023	3.679	0.425
98.501	132.185	79.979	19.994	100.162	20.020	3.858	0.447
99.001	132.403	79.980	19.994	100.162	20.021	3.782	0.455
99.501	132.643	79.977	19.993	100.161	20.023	3.677	0.459
100.000	132.852	79.981	19.993	100.158	20.021	3.822	0.454
100.500	133.081	79.983	19.994	100.156	20.019	3.946	0.443
101.000	133.299	79.981	19.993	100.156	20.017	4.088	0.442
101.500	133.518	79.983	19.993	100.155	20.023	3.690	0.441
102.000	133.742	79.979	19.993	100.155	20.022	3.749	0.440
102.500	133.975	79.981	19.993	100.156	20.024	3.605	0.450
103.000	134.204	79.979	19.993	100.157	20.021	3.776	0.460
103.500	134.420	79.981	19.993	100.158	20.020	3.845	0.454
104.000	134.611	79.981	19.993	100.159	20.023	3.637	0.426
104.501	134.848	79.979	19.993	100.159	20.018	4.002	0.417
105.001	135.101	79.982	19.992	100.160	20.020	3.883	0.459
105.500	135.331	79.981	19.992	100.159	20.021	3.820	0.487
106.000	135.562	79.983	19.994	100.158	20.019	3.899	0.472
106.500	135.777	79.983	19.993	100.158	20.021	3.787	0.453
107.000	135.998	79.981	19.992	100.158	20.022	3.747	0.441
107.500	136.250	79.980	19.992	100.156	20.020	3.849	0.455
108.000	136.441	79.983	19.993	100.156	20.014	4.254	0.458
108.501	136.655	79.982	19.993	100.156	20.019	3.925	0.424
109.001	136.919	79.984	19.992	100.156	20.016	4.140	0.442
109.500	137.156	79.982	19.994	100.156	20.017	4.082	0.490
110.000	137.422	79.981	19.993	100.156	20.017	4.064	0.502
110.500	137.655	79.980	19.992	100.156	20.022	3.740	0.500
111.000	137.868	79.981	19.992	100.155	20.018	4.000	0.473
111.500	138.132	79.983	19.992	100.155	20.021	3.793	0.462
112.000	138.391	79.982	19.993	100.155	20.018	4.010	0.500
112.500	138.601	79.982	19.993	100.155	20.021	3.816	0.496
113.000	138.846	79.981	19.992	100.154	20.019	3.936	0.462
113.500	139.077	79.983	19.992	100.154	20.023	3.690	0.465
114.000	139.308	79.981	19.993	100.154	20.019	3.928	0.469
114.500	139.550	79.982	19.994	100.153	20.017	4.066	0.468
115.000	139.775	79.982	19.992	100.152	20.018	4.024	0.471
115.500	140.011	79.982	19.993	100.152	20.023	3.642	0.464
116.001	140.315	79.983	19.993	100.151	20.026	3.458	0.500
116.501	140.551	79.983	19.992	100.151	20.022	3.760	0.540
117.000	140.785	79.982	19.993	100.151	20.022	3.758	0.505
117.500	141.029	79.981	19.992	100.151	20.021	3.812	0.474
118.000	141.260	79.981	19.993	100.151	20.021	3.823	0.476
118.501	141.528	79.981	19.993	100.154	20.023	3.680	0.487
119.001	141.758	79.983	19.994	100.154	20.024	3.628	0.499
119.501	141.982	79.982	19.993	100.154	20.019	3.905	0.476
120.001	142.220	79.981	19.994	100.153	20.022	3.717	0.458
120.500	142.471	79.982	19.993	100.152	20.026	3.463	0.475
121.000	142.753	79.981	19.992	100.149	20.027	3.378	0.511
121.500	142.945	79.982	19.993	100.149	20.025	3.557	0.504
122.000	143.213	79.979	19.993	100.149	20.024	3.568	0.467
122.500	143.467	79.982	19.995	100.151	20.025	3.498	0.491
123.000	143.738	79.980	19.993	100.154	20.022	3.720	0.523
123.500	143.974	79.979	19.993	100.154	20.023	3.644	0.516
124.000	144.188	79.981	19.992	100.155	20.025	3.530	0.479
124.500	144.484	79.982	19.993	100.153	20.020	3.877	0.480
125.000	144.733	79.980	19.993	100.152	20.019	3.939	0.527
125.500	144.974	79.981	19.994	100.152	20.023	3.660	0.518
126.000	145.224	79.983	19.994	100.151	20.018	3.964	0.490
126.500	145.477	79.982	19.995	100.152	20.019	3.935	0.497
127.000	145.774	79.982	19.994	100.152	20.026	3.441	0.527
127.500	146.011	79.982	19.993	100.151	20.022	3.756	0.542
128.000	146.242	79.981	19.994	100.149	20.028	3.315	0.501
128.500	146.459	79.982	19.993	100.148	20.020	3.890	0.458
129.000	146.721	79.981	19.994	100.149	20.021	3.819	0.463
129.500	146.978	79.983	19.993	100.150	20.021	3.796	0.499
130.000	147.228	79.981	19.994	100.150	20.017	4.056	0.514
130.500	147.489	79.982	19.994	100.150	20.021	3.825	0.509
131.000	147.762	79.981	19.993	100.151	20.020	3.894	0.522
131.500	147.973	79.982	19.993	100.149	20.021	3.823	0.509
132.000	148.250	79.982	19.993	100.149	20.020	3.890	0.486
132.501	148.530	79.983	19.994	100.149	20.019	3.895	0.522
133.000	148.789	79.986	19.994	100.149	20.020	3.845	0.548
133.500	149.091	79.986	19.992	100.149	20.024	3.583	0.550
134.000	149.281	79.985	19.993	100.149	20.028	3.340	0.526
134.500	149.539	79.983	19.992	100.150	20.021	3.787	0.469
135.000	149.825	79.985	19.992	100.150	20.022	3.734	0.496
135.500	150.035	79.983	19.992	100.149	20.018	4.020	0.520
136.000	150.326	79.984	19.992	100.149	20.021	3.819	0.499
136.500	150.578	79.984	19.993	100.144	20.023	3.691	0.522
137.000	150.801	79.983	19.993	100.138	20.022	3.714	0.509
137.500	151.061	79.983	19.993	100.138	20.023	3.674	0.479
138.000	151.337	79.986	19.992	100.137	20.019	3.929	0.509
138.500	151.570	79.985	19.992	100.136	20.020	3.884	0.522
139.000	151.809	79.983	19.992	100.139	20.022	3.753	0.491
139.500	152.076	79.983	19.992	100.143	20.020	3.847	0.489
140.000	152.308	79.985	19.992	100.144	20.024	3.614	0.502
140.500	152.584	79.984	19.992	100.145	20.015	4.179	0.504
141.000	152.865	79.983	19.992	100.146	20.024	3.584	0.533
141.500	153.085	79.983	19.993	100.148	20.021	3.808	0.529
142.000	153.356	79.984	19.992	100.148	20.018	3.982	0.496
142.500	153.611	79.983	19.993	100.145	20.017	4.036	0.509
143.000	153.858	79.982	19.994	100.144	20.021	3.776	0.514
143.500	154.082	79.981	19.991	100.145	20.023	3.678	0.487
144.000	154.350	79.982	19.993	100.144	20.023	3.638	0.482
144.500	154.574	79.983	19.993	100.145	20.024	3.600	0.492
145.000	154.821	79.981	19.992	100.147	20.020	3.889	0.481
145.500	155.102	79.981	19.994	100.146	20.017	4.079	0.499
146.000	155.360	79.984	19.992	100.143	20.019	3.907	0.534
146.500	155.639	79.982	19.993	100.139	20.026	3.475	0.538
147.000	155.884	79.982	19.992	100.136	20.024	3.611	0.530
147.500	156.094	79.982	19.993	100.135	20.024	3.593	0.490
148.000	156.418	79.982	19.994	100.132	20.021	3.775	0.495
148.500	156.684	79.981	19.992	100.129	20.026	3.492	0.562
149.000	156.887	79.981	19.992	100.127	20.021	3.808	0.530
149.500	157.120	79.983	19.992	100.124	20.029	3.285	0.453
150.000	157.406	79.981	19.993	100.121	20.019	3.904	0.477
150.500	157.677	79.981	19.993	100.120	20.022	3.707	0.537
151.000	157.906	79.981	19.993	100.123	20.026	3.434	0.528
151.500	158.188	79.981	19.993	100.126	20.020	3.866	0.506
152.000	158.420	79.982	19.993	100.134	20.027	3.396	0.512
152.500	158.669	79.980	19.993	100.137	20.027	3.370	0.498
153.000	158.946	79.980	19.992	100.143	20.025	3.508	0.504
153.500	159.211	79.982	19.993	100.142	20.025	3.560	0.534
154.000	159.481	79.980	19.992	100.144	20.023	3.663	0.539
154.500	159.733	79.982	19.992	100.143	20.020	3.893	0.529
155.000	159.959	79.981	19.992	100.140	20.024	3.601	0.500
155.500	160.242	79.982	19.992	100.134	20.019	3.930	0.493
156.000	160.493	79.980	19.992	100.131	20.025	3.524	0.522
156.500	160.750	79.979	19.994	100.126	20.028	3.350	0.521
157.000	161.002	79.981	19.993	100.122	20.022	3.752	0.508
157.500	161.259	79.980	19.994	100.120	20.024	3.580	0.509
158.000	161.493	79.981	19.993	100.123	20.026	3.444	0.500
158.500	161.784	79.981	19.993	100.124	20.022	3.712	0.508
159.000	162.015	79.980	19.993	100.130	20.020	3.839	0.523
159.500	162.267	79.981	19.992	100.129	20.021	3.784	0.502
160.000	162.519	79.979	19.992	100.129	20.025	3.533	0.493
160.500	162.785	79.981	19.993	100.128	20.025	3.502	0.511
161.000	163.070	79.981	19.994	100.128	20.028	3.356	0.535
161.500	163.316	79.981	19.993	100.125	20.023	3.677	0.541
162.000	163.598	79.979	19.993	100.128	20.023	3.645	0.530
162.500	163.868	79.983	19.993	100.130	20.023	3.676	0.540
163.000	164.084	79.981	19.993	100.129	20.020	3.858	0.519
163.500	164.371	79.982	19.992	100.129	20.022	3.726	0.494
164.000	164.622	79.979	19.992	100.127	20.022	3.703	0.520
164.500	164.869	79.982	19.992	100.122	20.024	3.618	0.518
165.000	165.143	79.980	19.993	100.121	20.020	3.862	0.510
165.500	165.431	79.982	19.992	100.122	20.024	3.583	0.542
166.000	165.640	79.981	19.992	100.119	20.025	3.556	0.530
166.500	165.913	79.981	19.992	100.117	20.025	3.527	0.490
167.000	166.173	79.980	19.992	100.118	20.022	3.717	0.507
167.500	166.458	79.982	19.992	100.120	20.022	3.755	0.539
168.000	166.696	79.982	19.993	100.123	20.020	3.880	0.533
168.500	166.968	79.981	19.992	100.124	20.022	3.715	0.516
169.000	167.202	79.982	19.992	100.127	20.024	3.616	0.508
169.500	167.458	79.981	19.992	100.127	20.019	3.907	0.499
170.000	167.699	79.982	19.992	100.125	20.024	3.574	0.494
170.500	167.939	79.980	19.991	100.122	20.024	3.565	0.488
171.000	168.169	79.983	19.992	100.122	20.022	3.699	0.476
171.500	168.450	79.980	19.992	100.120	20.024	3.594	0.491
172.000	168.715	79.981	19.992	100.120	20.023	3.675	0.528
172.500	168.977	79.981	19.994	100.120	20.025	3.523	0.537
173.000	169.196	79.981	19.993	100.119	20.019	3.952	0.505
173.500	169.456	79.982	19.994	100.118	20.022	3.759	0.480
174.000	169.742	79.981	19.993	100.120	20.025	3.516	0.512
174.500	169.985	79.979	19.993	100.124	20.027	3.373	0.538
175.000	170.237	79.980	19.992	100.124	20.021	3.800	0.512
175.500	170.491	79.980	19.993	100.123	20.027	3.404	0.500
176.000	170.751	79.981	19.993	100.124	20.027	3.377	0.510
176.500	170.950	79.981	19.992	100.121	20.025	3.522	0.487
177.000	171.228	79.979	19.993	100.116	20.023	3.634	0.468
177.500	171.536	79.983	19.994	100.115	20.021	3.822	0.531
178.000	171.729	79.980	19.993	100.115	20.022	3.726	0.543
178.500	171.976	79.981	19.993	100.114	20.021	3.789	0.470
179.000	172.235	79.980	19.992	100.113	20.023	3.670	0.473
179.500	172.535	79.980	19.992	100.113	20.022	3.717	0.533
180.000	172.782	79.980	19.992	100.113	20.023	3.635	0.553
180.500	173.034	79.981	19.994	100.113	20.027	3.386	0.523
181.000	173.282	79.981	19.994	100.114	20.025	3.545	0.499
181.500	173.542	79.981	19.992	100.113	20.019	3.914	0.504
182.000	173.802	79.981	19.993	100.113	20.023	3.670	0.514
182.500	174.025	79.982	19.993	100.112	20.021	3.800	0.502
183.000	174.337	79.980	19.993	100.111	20.023	3.644	0.509
183.500	174.546	79.981	19.993	100.110	20.023	3.666	0.528
184.000	174.790	79.981	19.994	100.111	20.021	3.814	0.487
184.500	175.074	79.981	19.994	100.112	20.029	3.254	0.491
185.000	175.313	79.980	19.992	100.113	20.028	3.330	0.525
185.500	175.531	79.982	19.993	100.113	20.024	3.574	0.490
186.000	175.856	79.981	19.993	100.113	20.028	3.339	0.500
186.500	176.061	79.981	19.994	100.113	20.027	3.422	0.537
187.000	176.302	79.983	19.993	100.113	20.024	3.572	0.488
187.500	176.546	79.982	19.994	100.112	20.025	3.523	0.466
188.000	176.835	79.981	19.993	100.112	20.027	3.389	0.509
188.500	177.080	79.983	19.994	100.112	20.027	3.418	0.533
189.000	177.328	79.983	19.992	100.112	20.025	3.527	0.513
189.500	177.574	79.983	19.993	100.110	20.023	3.691	0.494
190.000	177.835	79.982	19.993	100.109	20.027	3.369	0.501
190.500	178.100	79.982	19.993	100.107	20.026	3.478	0.517
191.000	178.354	79.981	19.993	100.106	20.032	3.046	0.522
191.500	178.583	79.984	19.994	100.106	20.024	3.576	0.501
192.000	178.855	79.983	19.993	100.107	20.024	3.592	0.492
192.501	179.070	79.981	19.993	100.108	20.029	3.283	0.494
193.000	179.305	79.981	19.993	100.109	20.023	3.668	0.468
193.500	179.549	79.982	19.993	100.106	20.028	3.351	0.464
194.000	179.802	79.981	19.993	100.104	20.025	3.541	0.488
194.500	180.072	79.981	19.993	100.104	20.023	3.631	0.510
195.000	180.300	79.982	19.992	100.104	20.020	3.882	0.511
195.500	180.579	79.985	19.994	100.104	20.026	3.472	0.503
196.000	180.826	79.984	19.993	100.107	20.024	3.595	0.516
196.500	181.094	79.983	19.993	100.110	20.028	3.351	0.521
197.000	181.313	79.982	19.993	100.108	20.024	3.584	0.501
197.500	181.561	79.983	19.992	100.103	20.023	3.693	0.477
198.000	181.835	79.982	19.993	100.101	20.024	3.570	0.494
198.500	182.070	79.982	19.993	100.102	20.021	3.810	0.515
199.000	182.366	79.983	19.992	100.101	20.022	3.716	0.520
199.500	182.597	79.983	19.993	100.098	20.021	3.771	0.529
200.000	182.841	79.982	19.994	100.096	20.025	3.539	0.501
200.500	183.117	79.983	19.993	100.096	20.024	3.593	0.497
201.000	183.366	79.982	19.993	100.096	20.024	3.613	0.522
201.500	183.605	79.982	19.993	100.094	20.027	3.407	0.507
202.000	183.821	79.978	19.992	100.095	20.027	3.389	0.472
202.500	184.088	79.981	19.994	100.100	20.022	3.725	0.469
203.000	184.323	79.982	19.994	100.098	20.023	3.676	0.492
203.500	184.568	79.981	19.993	100.096	20.030	3.199	0.491
204.000	184.857	79.981	19.994	100.098	20.027	3.381	0.508
204.500	185.084	79.981	19.992	100.097	20.025	3.519	0.525
205.000	185.359	79.980	19.993	100.091	20.023	3.651	0.509
205.500	185.591	79.981	19.993	100.088	20.021	3.797	0.505
206.000	185.839	79.982	19.992	100.084	20.025	3.519	0.494
206.500	186.065	79.980	19.994	100.078	20.026	3.460	0.477
207.000	186.331	79.980	19.993	100.077	20.025	3.531	0.483
207.500	186.615	79.981	19.994	100.084	20.025	3.526	0.521
208.000	186.842	79.982	19.993	100.090	20.021	3.790	0.530
208.500	187.072	79.981	19.993	100.094	20.021	3.816	0.484
209.000	187.286	79.981	19.994	100.093	20.025	3.549	0.451
209.500	187.547	79.982	19.994	100.096	20.027	3.394	0.459
210.000	187.810	79.981	19.993	100.096	20.023	3.644	0.499
210.500	188.068	79.981	19.992	100.094	20.027	3.387	0.522
211.000	188.270	79.983	19.993	100.090	20.023	3.672	0.490
211.500	188.515	79.982	19.994	100.092	20.029	3.280	0.454
212.000	188.755	79.984	19.993	100.093	20.023	3.687	0.466
212.500	188.983	79.982	19.993	100.091	20.020	3.844	0.476
213.000	189.252	79.983	19.993	100.090	20.026	3.477	0.482
213.500	189.504	79.981	19.994	100.090	20.020	3.866	0.509
214.000	189.754	79.980	19.992	100.088	20.027	3.401	0.512
214.500	189.986	79.984	19.993	100.081	20.021	3.826	0.492
215.000	190.217	79.982	19.994	100.077	20.022	3.703	0.473
215.500	190.494	79.984	19.993	100.080	20.021	3.808	0.486
216.000	190.735	79.985	19.993	100.086	20.021	3.772	0.513
216.500	190.979	79.985	19.993	100.088	20.020	3.866	0.501
217.000	191.222	79.984	19.993	100.086	20.025	3.542	0.485
217.500	191.468	79.984	19.993	100.055	20.021	3.826	0.488
218.000	191.711	79.985	19.993	100.029	20.024	3.613	0.489
218.500	191.950	79.983	19.993	100.020	20.020	3.828	0.486
219.000	192.137	79.984	19.993	100.024	20.022	3.701	0.454
219.500	192.410	79.983	19.993	100.053	20.028	3.333	0.443
220.000	192.684	79.983	19.992	100.117	20.024	3.604	0.503
220.500	192.933	79.982	19.993	100.146	20.024	3.571	0.535
221.000	193.194	79.983	19.993	100.149	20.025	3.510	0.517
221.500	193.409	79.985	19.993	100.144	20.021	3.793	0.493
222.000	193.640	79.981	19.992	100.118	20.022	3.743	0.461
222.500	193.891	79.983	19.993	100.084	20.025	3.557	0.464
223.000	194.093	79.983	19.992	100.075	20.024	3.580	0.468
223.500	194.364	79.982	19.992	100.076	20.025	3.524	0.463
224.000	194.577	79.980	19.993	100.078	20.028	3.335	0.478
224.500	194.854	79.981	19.992	100.078	20.026	3.483	0.487
225.000	195.050	79.981	19.992	100.079	20.023	3.671	0.482
225.500	195.336	79.982	19.992	100.080	20.023	3.682	0.478
226.000	195.550	79.980	19.991	100.080	20.022	3.728	0.491
226.500	195.811	79.982	19.993	100.078	20.022	3.727	0.487
227.000	196.019	79.980	19.993	100.078	20.025	3.549	0.472
227.500	196.262	79.981	19.992	100.078	20.025	3.508	0.460
228.000	196.525	79.981	19.994	100.077	20.025	3.555	0.478
228.500	196.750	79.981	19.992	100.077	20.025	3.508	0.497
229.000	197.013	79.981	19.992	100.078	20.019	3.933	0.488
229.500	197.246	79.982	19.992	100.081	20.027	3.370	0.492
230.000	197.451	79.983	19.992	100.084	20.022	3.732	0.467
230.500	197.717	79.982	19.992	100.085	20.021	3.806	0.455
231.000	197.980	79.980	19.992	100.084	20.023	3.672	0.500
231.500	198.211	79.980	19.993	100.085	20.024	3.580	0.512
232.000	198.463	79.981	19.993	100.082	20.022	3.736	0.489
232.500	198.703	79.981	19.992	100.079	20.023	3.672	0.487
233.000	198.947	79.981	19.993	100.081	20.024	3.562	0.488
233.500	199.206	79.981	19.993	100.083	20.024	3.598	0.493
234.000	199.437	79.981	19.993	100.085	20.018	4.010	0.496
234.500	199.706	79.981	19.992	100.087	20.024	3.622	0.495
235.000	199.886	79.981	19.992	100.087	20.018	3.965	0.474
235.500	200.165	79.982	19.993	100.085	20.024	3.616	0.454
236.000	200.397	79.983	19.993	100.083	20.022	3.716	0.485
236.500	200.660	79.982	19.992	100.082	20.025	3.528	0.503
237.000	200.899	79.982	19.993	100.080	20.023	3.641	0.499
237.500	201.130	79.982	19.993	100.079	20.021	3.777	0.486
238.000	201.380	79.983	19.994	100.078	20.022	3.712	0.475
238.500	201.626	79.981	19.993	100.079	20.027	3.389	0.488
239.000	201.870	79.982	19.992	100.077	20.025	3.501	0.493
239.500	202.085	79.983	19.993	100.076	20.023	3.669	0.475
240.000	202.330	79.983	19.992	100.077	20.021	3.765	0.459
240.500	202.580	79.983	19.993	100.076	20.029	3.282	0.477
241.000	202.810	79.983	19.992	100.077	20.020	3.857	0.487
241.500	203.096	79.983	19.993	100.077	20.021	3.799	0.498
242.001	203.289	79.982	19.992	100.079	20.026	3.475	0.498
242.500	203.541	79.983	19.993	100.079	20.021	3.777	0.462
243.000	203.739	79.982	19.993	100.079	20.024	3.598	0.447
243.500	204.002	79.984	19.991	100.077	20.018	3.999	0.456
244.000	204.214	79.982	19.993	100.077	20.024	3.625	0.469
244.500	204.486	79.984	19.993	100.074	20.018	4.025	0.479
245.000	204.726	79.982	19.992	100.073	20.020	3.840	0.498
245.500	204.967	79.984	19.992	100.073	20.020	3.842	0.497
246.000	205.233	79.981	19.993	100.073	20.021	3.820	0.494
246.500	205.464	79.982	19.993	100.073	20.024	3.560	0.502
247.000	205.717	79.983	19.993	100.074	20.020	3.849	0.491
247.500	205.958	79.983	19.994	100.074	20.019	3.940	0.489
248.000	206.150	79.983	19.992	100.075	20.017	4.055	0.463
248.500	206.438	79.982	19.993	100.076	20.022	3.755	0.456
249.000	206.675	79.982	19.994	100.077	20.019	3.958	0.502
249.500	206.932	79.982	19.992	100.081	20.018	3.969	0.510
250.000	207.185	79.982	19.993	100.082	20.023	3.685	0.502
250.500	207.405	79.980	19.993	100.082	20.020	3.829	0.491
251.000	207.645	79.983	19.993	100.081	20.023	3.663	0.467
251.500	207.864	79.982	19.993	100.082	20.020	3.873	0.460
252.000	208.148	79.982	19.993	100.079	20.019	3.922	0.481
252.500	208.392	79.981	19.993	100.077	20.023	3.683	0.515
253.000	208.646	79.980	19.993	100.078	20.019	3.922	0.513
253.500	208.844	79.982	19.993	100.077	20.017	4.086	0.475
254.000	209.088	79.984	19.992	100.076	20.019	3.943	0.447
254.500	209.327	79.981	19.992	100.075	20.018	4.014	0.462
255.000	209.572	79.981	19.993	100.077	20.017	4.032	0.483
255.500	209.859	79.981	19.993	100.077	20.019	3.916	0.508
256.000	210.088	79.980	19.993	100.076	20.020	3.878	0.524
256.500	210.316	79.981	19.993	100.075	20.023	3.683	0.487
257.000	210.522	79.981	19.993	100.075	20.020	3.828	0.446
257.500	210.776	79.982	19.994	100.075	20.017	4.064	0.447
258.000	211.012	79.982	19.993	100.075	20.020	3.838	0.475
258.500	211.280	79.981	19.993	100.076	20.015	4.182	0.497
259.000	211.479	79.983	19.993	100.077	20.015	4.171	0.485
259.500	211.766	79.981	19.992	100.077	20.018	4.023	0.477
260.000	212.013	79.983	19.993	100.076	20.016	4.113	0.510
260.500	212.252	79.981	19.992	100.076	20.012	4.420	0.510
261.001	212.493	79.981	19.993	100.075	20.017	4.048	0.482
261.500	212.752	79.981	19.992	100.075	20.018	4.008	0.490
262.000	213.001	79.980	19.993	100.075	20.016	4.093	0.504
262.500	213.226	79.983	19.993	100.076	20.016	4.144	0.491
263.000	213.477	79.982	19.992	100.076	20.019	3.893	0.475
263.500	213.717	79.982	19.992	100.076	20.017	4.041	0.484
264.000	214.006	79.985	19.993	100.076	20.013	4.305	0.510
264.500	214.242	79.985	19.994	100.076	20.017	4.070	0.527
265.000	214.452	79.982	19.994	100.075	20.016	4.124	0.485
265.500	214.742	79.980	19.993	100.075	20.015	4.218	0.472
266.000	214.987	79.983	19.993	100.075	20.017	4.043	0.517
266.500	215.206	79.983	19.994	100.075	20.015	4.184	0.500
267.000	215.437	79.983	19.993	100.074	20.017	4.070	0.457
267.500	215.709	79.985	19.994	100.073	20.015	4.211	0.476
268.000	215.937	79.985	19.994	100.073	20.019	3.940	0.501
268.500	216.140	79.984	19.993	100.073	20.016	4.148	0.465
269.000	216.425	79.984	19.994	100.072	20.012	4.383	0.460
269.500	216.676	79.984	19.993	100.072	20.018	3.961	0.512
270.000	216.922	79.982	19.992	100.074	20.017	4.028	0.516
270.500	217.182	79.984	19.993	100.073	20.018	4.021	0.501
271.000	217.383	79.984	19.994	100.074	20.017	4.045	0.484
271.500	217.665	79.984	19.992	100.074	20.017	4.072	0.472
272.000	217.883	79.981	19.993	100.074	20.016	4.099	0.492
272.500	218.111	79.983	19.993	100.074	20.014	4.276	0.473
273.000	218.374	79.983	19.993	100.073	20.012	4.422	0.468
273.500	218.644	79.983	19.994	100.071	20.014	4.278	0.512
274.000	218.843	79.983	19.993	100.071	20.016	4.144	0.501
274.500	219.103	79.984	19.994	100.072	20.008	4.645	0.464
275.000	219.327	79.981	19.994	100.072	20.013	4.339	0.471
275.501	219.605	79.982	19.994	100.075	20.011	4.439	0.493
276.000	219.851	79.984	19.995	100.079	20.012	4.381	0.514
276.500	220.109	79.983	19.993	100.079	20.016	4.153	0.514
277.000	220.347	79.981	19.993	100.078	20.012	4.404	0.500
277.500	220.551	79.982	19.993	100.079	20.014	4.243	0.469
278.000	220.845	79.984	19.993	100.077	20.016	4.111	0.470
278.500	221.048	79.983	19.993	100.076	20.011	4.469	0.497
279.000	221.308	79.982	19.993	100.076	20.012	4.402	0.480
279.500	221.554	79.983	19.993	100.078	20.010	4.543	0.485
280.000	221.832	79.983	19.993	100.078	20.014	4.276	0.515
280.500	222.062	79.983	19.993	100.078	20.009	4.583	0.516
281.000	222.280	79.980	19.993	100.079	20.010	4.543	0.478
281.500	222.505	79.982	19.993	100.079	20.006	4.760	0.446
282.000	222.871	79.983	19.993	100.078	20.009	4.605	0.516
282.500	223.041	79.982	19.993	100.078	20.009	4.579	0.564
283.000	223.268	79.982	19.993	100.080	20.007	4.708	0.467
283.500	223.525	79.981	19.993	100.080	20.005	4.872	0.440
284.000	223.765	79.984	19.993	100.081	20.009	4.623	0.491
284.500	224.051	79.981	19.992	100.081	20.007	4.749	0.512
285.000	224.308	79.982	19.992	100.080	20.005	4.863	0.534
285.500	224.499	79.982	19.994	100.077	20.007	4.729	0.496
286.000	224.737	79.983	19.994	100.077	20.006	4.767	0.439
286.500	224.988	79.982	19.991	100.076	20.004	4.919	0.459
287.000	225.269	79.982	19.994	100.076	20.006	4.816	0.510
287.500	225.502	79.982	19.993	100.075	20.004	4.914	0.523
288.000	225.766	79.982	19.993	100.076	20.000	5.212	0.505
288.500	226.014	79.982	19.994	100.076	20.003	4.982	0.504
289.000	226.247	79.983	19.992	100.075	20.003	5.019	0.497
289.500	226.520	79.982	19.993	100.076	20.001	5.149	0.494
290.000	226.735	79.983	19.993	100.077	20.002	5.082	0.497
290.500	227.002	79.984	19.992	100.077	19.996	5.432	0.485
291.000	227.252	79.983	19.993	100.077	20.000	5.219	0.499
291.500	227.472	79.983	19.992	100.077	20.002	5.071	0.494
292.000	227.811	79.983	19.992	100.077	19.997	5.392	0.515
292.500	228.008	79.984	19.993	100.076	20.003	4.988	0.547
293.000	228.279	79.982	19.993	100.076	20.000	5.206	0.502
293.501	228.508	79.984	19.992	100.076	20.000	5.214	0.485
294.001	228.846	79.984	19.994	100.076	19.997	5.385	0.534
294.500	228.982	79.983	19.994	100.077	19.993	5.633	0.520
295.000	229.264	79.983	19.993	100.076	19.996	5.436	0.446
295.500	229.537	79.984	19.993	100.077	19.993	5.687	0.487
296.000	229.752	79.984	19.993	100.077	19.994	5.615	0.521
296.500	230.024	79.983	19.993	100.076	19.996	5.434	0.487
297.000	230.250	79.984	19.993	100.075	19.995	5.541	0.493
297.500	230.509	79.983	19.992	100.073	19.993	5.676	0.491
298.000	230.794	79.983	19.993	100.071	19.995	5.508	0.514
298.500	231.060	79.983	19.994	100.071	19.989	5.893	0.548
299.000	231.286	79.984	19.993	100.072	19.990	5.828	0.522
299.500	231.512	79.982	19.993	100.072	19.987	6.059	0.472
300.000	231.740	79.984	19.994	100.074	19.986	6.137	0.453
300.500	232.011	79.982	19.993	100.075	19.988	6.009	0.477
301.000	232.284	79.982	19.993	100.075	19.987	6.076	0.522
301.500	232.506	79.984	19.994	100.074	19.983	6.350	0.520
302.000	232.758	79.982	19.994	100.073	19.984	6.236	0.484
302.500	233.011	79.982	19.994	100.073	19.984	6.244	0.489
303.000	233.237	79.981	19.993	100.072	19.980	6.522	0.492
303.500	233.521	79.983	19.994	100.071	19.982	6.403	0.494
304.000	233.749	79.981	19.993	100.071	19.982	6.376	0.511
304.500	234.013	79.983	19.994	100.070	19.980	6.526	0.502
305.000	234.272	79.982	19.994	100.072	19.982	6.421	0.508
305.500	234.520	79.980	19.995	100.072	19.980	6.538	0.515
306.000	234.744	79.983	19.995	100.073	19.980	6.515	0.489
306.500	234.995	79.980	19.993	100.073	19.982	6.370	0.473
307.000	235.255	79.981	19.994	100.073	19.980	6.542	0.493
307.500	235.500	79.984	19.994	100.072	19.977	6.739	0.508
308.000	235.728	79.980	19.994	100.072	19.976	6.789	0.489
308.500	235.975	79.981	19.994	100.072	19.974	6.925	0.474
309.000	236.214	79.980	19.994	100.072	19.978	6.672	0.480
309.501	236.446	79.982	19.993	100.072	19.978	6.648	0.478
310.000	236.727	79.982	19.994	100.072	19.974	6.944	0.492
310.500	236.989	79.983	19.993	100.072	19.970	7.204	0.528
311.000	237.238	79.981	19.993	100.072	19.968	7.304	0.527
311.500	237.440	79.982	19.993	100.072	19.969	7.242	0.481
312.000	237.734	79.981	19.992	100.072	19.969	7.246	0.473
312.500	237.965	79.982	19.993	100.073	19.969	7.251	0.510
313.000	238.230	79.981	19.992	100.073	19.963	7.634	0.511
313.500	238.429	79.983	19.994	100.073	19.968	7.333	0.480
314.000	238.686	79.983	19.993	100.073	19.964	7.615	0.460
314.500	238.952	79.981	19.992	100.071	19.967	7.392	0.490
315.000	239.164	79.982	19.994	100.073	19.961	7.790	0.501
315.500	239.436	79.981	19.994	100.073	19.958	7.991	0.481
316.000	239.697	79.982	19.993	100.073	19.961	7.768	0.508
316.500	239.907	79.983	19.993	100.073	19.957	8.028	0.502
317.000	240.172	79.981	19.993	100.074	19.958	7.953	0.473
317.500	240.446	79.982	19.993	100.073	19.962	7.751	0.507
318.000	240.692	79.982	19.992	100.072	19.955	8.159	0.530
318.500	240.964	79.982	19.994	100.073	19.954	8.245	0.519
319.000	241.183	79.982	19.992	100.073	19.956	8.124	0.504
319.500	241.417	79.983	19.994	100.073	19.954	8.273	0.472
320.000	241.707	79.981	19.993	100.072	19.960	7.841	0.489
320.500	241.976	79.983	19.993	100.069	19.955	8.190	0.542
321.000	242.197	79.982	19.994	100.066	19.954	8.229	0.525
321.500	242.453	79.983	19.994	100.062	19.951	8.426	0.483
322.000	242.718	79.981	19.993	100.059	19.954	8.251	0.499
322.500	242.959	79.983	19.994	100.060	19.956	8.090	0.514
323.000	243.246	79.982	19.994	100.062	19.951	8.442	0.517
323.500	243.480	79.983	19.993	100.062	19.951	8.451	0.524
324.000	243.748	79.983	19.993	100.062	19.950	8.489	0.512
324.500	243.974	79.982	19.993	100.065	19.949	8.559	0.498
325.000	244.201	79.982	19.994	100.064	19.952	8.364	0.473
325.500	244.458	79.983	19.993	100.064	19.952	8.401	0.469
326.000	244.735	79.982	19.993	100.066	19.955	8.188	0.510
326.500	244.980	79.982	19.993	100.067	19.954	8.271	0.528
327.000	245.224	79.983	19.994	100.064	19.955	8.184	0.505
327.500	245.437	79.982	19.992	100.058	19.952	8.409	0.473
328.000	245.685	79.982	19.993	100.053	19.957	8.045	0.459
328.500	245.941	79.983	19.993	100.046	19.953	8.350	0.482
329.000	246.153	79.983	19.993	100.044	19.955	8.208	0.486
329.500	246.433	79.983	19.994	100.041	19.956	8.141	0.480
330.000	246.673	79.983	19.994	100.044	19.959	7.913	0.506
330.500	246.906	79.982	19.993	100.047	19.956	8.148	0.496
331.000	247.166	79.983	19.993	100.051	19.957	8.074	0.483
331.500	247.392	79.981	19.993	100.054	19.962	7.749	0.490
332.000	247.648	79.982	19.992	100.060	19.959	7.912	0.484
332.500	247.900	79.982	19.993	100.064	19.956	8.098	0.495
333.000	248.139	79.982	19.994	100.062	19.958	7.961	0.500
333.500	248.399	79.980	19.993	100.064	19.957	8.047	0.495
334.000	248.675	79.980	19.993	100.064	19.956	8.114	0.518
334.500	248.907	79.981	19.993	100.061	19.960	7.876	0.522
335.000	249.174	79.980	19.993	100.060	19.958	7.979	0.503
335.500	249.417	79.981	19.994	100.061	19.960	7.838	0.505
336.000	249.683	79.981	19.992	100.062	19.961	7.802	0.510
336.500	249.946	79.981	19.993	100.064	19.963	7.648	0.519
337.000	250.133	79.980	19.993	100.068	19.961	7.798	0.489
337.501	250.390	79.981	19.993	100.068	19.960	7.841	0.447
338.000	250.653	79.981	19.993	100.071	19.964	7.575	0.482
338.500	250.911	79.981	19.994	100.071	19.965	7.540	0.521
339.000	251.123	79.981	19.993	100.068	19.965	7.518	0.496
339.500	251.388	79.983	19.992	100.065	19.966	7.442	0.473
340.000	251.632	79.981	19.993	100.066	19.965	7.554	0.492
340.500	251.897	79.982	19.994	100.066	19.966	7.435	0.509
341.000	252.133	79.982	19.993	100.068	19.964	7.576	0.505
341.500	252.433	79.981	19.993	100.072	19.967	7.381	0.519
342.000	252.629	79.982	19.992	100.074	19.969	7.283	0.516
342.500	252.839	79.982	19.993	100.073	19.967	7.418	0.451
343.000	253.127	79.983	19.994	100.074	19.964	7.563	0.452
343.500	253.297	79.981	19.992	100.073	19.964	7.603	0.478
344.000	253.597	79.983	19.993	100.073	19.966	7.485	0.464
344.500	253.829	79.982	19.994	100.074	19.970	7.182	0.501
345.000	254.077	79.984	19.993	100.077	19.969	7.272	0.506
345.500	254.374	79.982	19.993	100.077	19.965	7.532	0.512
346.001	254.615	79.983	19.993	100.077	19.966	7.480	0.542
346.500	254.818	79.983	19.993	100.077	19.967	7.388	0.491
347.000	255.068	79.983	19.992	100.074	19.966	7.462	0.448
347.500	255.305	79.983	19.992	100.073	19.962	7.753	0.470
348.000	255.574	79.983	19.992	100.073	19.964	7.587	0.496
348.500	255.824	79.982	19.992	100.072	19.965	7.522	0.513
349.000	256.031	79.981	19.992	100.072	19.962	7.712	0.488
349.500	256.270	79.984	19.993	100.074	19.962	7.699	0.451
350.000	256.492	79.983	19.992	100.076	19.962	7.703	0.454
350.500	256.788	79.983	19.992	100.075	19.967	7.404	0.490
351.000	257.029	79.985	19.992	100.075	19.966	7.464	0.527
351.500	257.236	79.984	19.993	100.075	19.962	7.719	0.492
352.000	257.511	79.983	19.993	100.075	19.962	7.700	0.465
352.500	257.733	79.982	19.992	100.074	19.963	7.662	0.490
353.000	258.028	79.982	19.991	100.074	19.960	7.858	0.507
353.500	258.274	79.982	19.993	100.075	19.964	7.598	0.529
354.000	258.503	79.982	19.992	100.075	19.957	8.024	0.508
354.500	258.761	79.983	19.993	100.075	19.958	7.961	0.481
355.000	259.010	79.981	19.993	100.076	19.957	8.026	0.497
355.500	259.273	79.983	19.993	100.076	19.954	8.281	0.509
356.000	259.493	79.982	19.992	100.074	19.953	8.288	0.498
356.500	259.726	79.981	19.993	100.073	19.956	8.125	0.468
357.000	259.976	79.982	19.993	100.073	19.956	8.125	0.468
357.500	260.220	79.982	19.993	100.073	19.953	8.340	0.489
358.000	260.489	79.981	19.993	100.074	19.953	8.318	0.504
358.500	260.720	79.981	19.994	100.076	19.952	8.411	0.506
359.000	260.932	79.982	19.993	100.076	19.954	8.259	0.471
359.500	261.228	79.982	19.993	100.077	19.952	8.418	0.476
360.000	261.464	79.981	19.993	100.078	19.952	8.362	0.520
360.500	261.667	79.985	19.993	100.079	19.951	8.483	0.486
361.000	261.939	79.981	19.993	100.079	19.952	8.379	0.457
361.500	262.186	79.982	19.994	100.078	19.948	8.675	0.497
362.000	262.419	79.983	19.993	100.077	19.949	8.588	0.500
362.500	262.658	79.982	19.994	100.076	19.949	8.609	0.476
363.000	262.942	79.983	19.993	100.075	19.952	8.395	0.497
363.500	263.155	79.982	19.994	100.074	19.950	8.541	0.510
364.000	263.419	79.983	19.993	100.075	19.946	8.800	0.488
364.500	263.677	79.983	19.994	100.076	19.947	8.720	0.500
365.000	263.913	79.983	19.993	100.079	19.946	8.793	0.508
365.500	264.166	79.983	19.994	100.079	19.941	9.124	0.491
366.000	264.410	79.983	19.993	100.080	19.942	9.051	0.493
366.501	264.670	79.982	19.994	100.080	19.943	8.961	0.500
367.000	264.906	79.984	19.994	100.080	19.940	9.162	0.500
367.500	265.138	79.984	19.994	100.078	19.942	9.021	0.482
368.000	265.387	79.983	19.993	100.078	19.939	9.273	0.474
368.500	265.628	79.983	19.993	100.076	19.938	9.333	0.485
369.000	265.856	79.982	19.993	100.075	19.937	9.389	0.479
369.500	266.074	79.985	19.993	100.076	19.937	9.395	0.457
370.000	266.331	79.984	19.994	100.075	19.936	9.440	0.461
370.500	266.597	79.985	19.993	100.074	19.937	9.361	0.500
371.000	266.842	79.985	19.992	100.075	19.935	9.542	0.517
371.500	267.062	79.985	19.993	100.078	19.934	9.609	0.488
372.000	267.341	79.984	19.993	100.080	19.933	9.665	0.482
372.500	267.595	79.986	19.994	100.082	19.935	9.507	0.516
373.000	267.810	79.985	19.993	100.083	19.930	9.827	0.501
373.500	268.101	79.984	19.994	100.085	19.931	9.797	0.487
374.000	268.323	79.984	19.992	100.081	19.933	9.651	0.509
374.500	268.550	79.985	19.992	100.080	19.930	9.841	0.481
375.000	268.779	79.983	19.993	100.079	19.927	10.038	0.452
375.500	269.022	79.984	19.993	100.082	19.928	9.969	0.464
376.000	269.277	79.984	19.992	100.085	19.929	9.893	0.485
376.500	269.538	79.984	19.993	100.085	19.926	10.108	0.507
377.000	269.779	79.984	19.993	100.086	19.928	9.974	0.509
377.500	270.017	79.983	19.992	100.091	19.928	10.001	0.490
378.000	270.309	79.984	19.993	100.094	19.928	9.985	0.504
378.500	270.530	79.985	19.994	100.095	19.925	10.213	0.522
379.000	270.806	79.984	19.992	100.101	19.925	10.156	0.505
379.500	271.058	79.983	19.993	100.104	19.926	10.109	0.512
380.000	271.277	79.984	19.993	100.105	19.924	10.256	0.500
380.500	271.578	79.983	19.993	100.106	19.923	10.342	0.496
381.000	271.750	79.981	19.992	100.108	19.924	10.245	0.496
381.500	272.028	79.984	19.994	100.109	19.924	10.243	0.461
382.000	272.289	79.983	19.994	100.111	19.921	10.480	0.495
382.500	272.481	79.982	19.994	100.111	19.921	10.439	0.496
383.000	272.741	79.982	19.993	100.112	19.918	10.672	0.453
383.500	273.003	79.982	19.994	100.112	19.920	10.497	0.487
384.000	273.265	79.982	19.994	100.112	19.922	10.403	0.523
384.500	273.478	79.981	19.994	100.116	19.919	10.607	0.500
385.000	273.738	79.981	19.994	100.116	19.916	10.766	0.474
385.500	273.933	79.982	19.994	100.117	19.919	10.622	0.464
386.000	274.190	79.981	19.993	100.119	19.915	10.843	0.453
386.500	274.490	79.981	19.994	100.119	19.916	10.814	0.505
387.000	274.746	79.982	19.994	100.117	19.914	10.920	0.557
387.500	275.015	79.982	19.993	100.117	19.912	11.058	0.541
388.000	275.259	79.980	19.994	100.117	19.909	11.240	0.519
388.500	275.492	79.981	19.993	100.115	19.909	11.264	0.495
389.000	275.716	79.982	19.995	100.115	19.909	11.251	0.467
389.500	275.999	79.981	19.994	100.118	19.912	11.080	0.481
390.000	276.218	79.981	19.994	100.124	19.910	11.159	0.504
390.500	276.448	79.981	19.995	100.127	19.908	11.342	0.476
391.000	276.728	79.982	19.994	100.133	19.912	11.031	0.480
391.500	276.966	79.982	19.995	100.140	19.909	11.265	0.514
392.000	277.205	79.982	19.994	100.144	19.908	11.316	0.498
392.500	277.459	79.982	19.995	100.144	19.908	11.300	0.485
393.000	277.690	79.981	19.993	100.149	19.909	11.289	0.489
393.500	277.958	79.982	19.994	100.150	19.909	11.283	0.492
394.000	278.197	79.981	19.995	100.150	19.913	11.010	0.503
394.500	278.426	79.982	19.995	100.149	19.908	11.299	0.487
395.000	278.676	79.982	19.995	100.149	19.910	11.183	0.474
395.500	278.955	79.980	19.993	100.149	19.906	11.427	0.504
396.000	279.194	79.981	19.995	100.150	19.906	11.474	0.523
396.500	279.464	79.981	19.993	100.152	19.906	11.443	0.514
397.000	279.674	79.981	19.994	100.154	19.902	11.747	0.495
397.500	279.892	79.981	19.992	100.155	19.905	11.545	0.454
398.000	280.182	79.982	19.993	100.154	19.903	11.635	0.468
398.500	280.428	79.982	19.992	100.154	19.904	11.626	0.522
399.000	280.657	79.982	19.993	100.153	19.902	11.748	0.506
399.500	280.890	79.982	19.992	100.153	19.902	11.754	0.469
400.000	281.103	79.982	19.992	100.154	19.900	11.845	0.454
400.500	281.421	79.983	19.993	100.155	19.901	11.776	0.488
401.000	281.589	79.982	19.993	100.156	19.902	11.726	0.508
401.500	281.866	79.982	19.993	100.157	19.899	11.945	0.466
402.000	282.108	79.982	19.993	100.161	19.900	11.832	0.482
402.500	282.350	79.982	19.993	100.162	19.898	11.984	0.502
403.000	282.587	79.983	19.993	100.168	19.904	11.572	0.482
403.500	282.848	79.983	19.992	100.169	19.901	11.794	0.488
404.000	283.096	79.982	19.992	100.167	19.905	11.501	0.503
404.500	283.351	79.982	19.992	100.164	19.910	11.176	0.506
405.000	283.623	79.981	19.992	100.164	19.903	11.661	0.515
405.500	283.847	79.981	19.992	100.160	19.904	11.616	0.512
406.000	284.101	79.983	19.993	100.160	19.900	11.843	0.487
406.500	284.342	79.981	19.993	100.168	19.903	11.652	0.486
407.000	284.593	79.982	19.992	100.172	19.903	11.632	0.493
407.500	284.837	79.981	19.993	100.172	19.905	11.520	0.494
408.000	285.141	79.980	19.992	100.173	19.905	11.526	0.522
408.500	285.381	79.982	19.992	100.174	19.904	11.594	0.546
409.000	285.604	79.981	19.992	100.173	19.906	11.493	0.503
409.500	285.843	79.982	19.993	100.175	19.907	11.401	0.463
410.000	286.068	79.981	19.993	100.181	19.907	11.417	0.463
410.500	286.335	79.980	19.993	100.184	19.903	11.660	0.478
411.000	286.569	79.981	19.993	100.188	19.907	11.429	0.497
411.500	286.837	79.983	19.992	100.189	19.910	11.172	0.501
412.000	287.048	79.982	19.993	100.190	19.908	11.336	0.491
412.500	287.343	79.982	19.993	100.189	19.910	11.168	0.492
413.000	287.592	79.982	19.993	100.189	19.908	11.342	0.525
413.500	287.835	79.980	19.993	100.189	19.912	11.054	0.518
414.000	288.067	79.980	19.993	100.188	19.913	10.963	0.484
414.500	288.336	79.982	19.993	100.188	19.914	10.914	0.488
415.000	288.583	79.982	19.993	100.188	19.916	10.827	0.508
415.500	288.795	79.982	19.993	100.191	19.912	11.093	0.488
416.000	289.071	79.981	19.993	100.190	19.915	10.889	0.474
416.500	289.320	79.980	19.993	100.190	19.915	10.887	0.506
417.000	289.578	79.981	19.993	100.190	19.913	10.985	0.516
417.500	289.815	79.981	19.992	100.192	19.920	10.511	0.501
418.000	290.111	79.983	19.993	100.191	19.921	10.487	0.514
418.500	290.348	79.981	19.993	100.195	19.922	10.407	0.533
419.000	290.603	79.982	19.992	100.195	19.920	10.523	0.512
419.500	290.821	79.981	19.994	100.195	19.923	10.307	0.483
420.000	291.089	79.983	19.993	100.194	19.922	10.413	0.479
420.500	291.346	79.982	19.994	100.197	19.919	10.580	0.505
421.000	291.592	79.981	19.994	100.198	19.923	10.299	0.514
421.500	291.865	79.981	19.993	100.200	19.923	10.336	0.511
422.000	292.130	79.981	19.992	100.200	19.924	10.272	0.528
422.500	292.350	79.981	19.993	100.201	19.924	10.274	0.512
423.000	292.628	79.982	19.993	100.199	19.932	9.733	0.492
423.500	292.850	79.984	19.992	100.199	19.928	9.990	0.499
424.000	293.100	79.983	19.993	100.199	19.926	10.148	0.486
424.500	293.340	79.981	19.993	100.200	19.926	10.108	0.481
425.000	293.591	79.983	19.994	100.200	19.927	10.084	0.491
425.501	293.864	79.983	19.993	100.199	19.931	9.819	0.508
426.001	294.103	79.983	19.992	100.197	19.929	9.899	0.518
426.500	294.342	79.982	19.992	100.195	19.927	10.078	0.495
427.000	294.638	79.983	19.993	100.194	19.925	10.170	0.506
427.500	294.884	79.982	19.993	100.194	19.924	10.253	0.539
428.000	295.115	79.984	19.992	100.194	19.929	9.950	0.510
428.500	295.364	79.983	19.993	100.196	19.926	10.111	0.479
429.000	295.603	79.982	19.993	100.196	19.930	9.880	0.484
429.500	295.871	79.985	19.993	100.194	19.926	10.145	0.497
430.000	296.131	79.983	19.992	100.189	19.927	10.067	0.517
430.500	296.339	79.986	19.993	100.186	19.926	10.119	0.498
431.000	296.596	79.984	19.992	100.183	19.927	10.090	0.466
431.500	296.868	79.983	19.992	100.180	19.922	10.388	0.497
432.000	297.130	79.982	19.992	100.181	19.920	10.508	0.532
432.500	297.350	79.983	19.992	100.184	19.922	10.425	0.508
433.000	297.635	79.984	19.993	100.185	19.924	10.271	0.494
433.500	297.881	79.983	19.993	100.184	19.922	10.385	0.518
434.000	298.130	79.984	19.992	100.186	19.921	10.445	0.513
434.500	298.419	79.983	19.993	100.186	19.923	10.300	0.516
435.000	298.657	79.983	19.994	100.187	19.925	10.178	0.532
435.500	298.889	79.984	19.993	100.183	19.925	10.205	0.498
436.000	299.148	79.983	19.993	100.178	19.920	10.516	0.480
436.500	299.384	79.983	19.994	100.170	19.921	10.459	0.493
437.000	299.682	79.983	19.993	100.163	19.922	10.381	0.514
437.500	299.921	79.982	19.994	100.157	19.921	10.484	0.536
438.000	300.181	79.982	19.993	100.154	19.923	10.355	0.518
438.500	300.427	79.984	19.993	100.157	19.922	10.361	0.503
439.000	300.632	79.982	19.993	100.161	19.919	10.616	0.479
439.500	300.934	79.983	19.993	100.164	19.920	10.540	0.480
440.000	301.160	79.983	19.993	100.163	19.918	10.625	0.518
440.500	301.410	79.982	19.993	100.162	19.917	10.696	0.502
441.000	301.694	79.983	19.993	100.159	19.917	10.726	0.504
441.500	301.956	79.985	19.993	100.156	19.918	10.670	0.540
442.000	302.218	79.981	19.993	100.152	19.918	10.622	0.535
442.500	302.474	79.980	19.993	100.152	19.915	10.823	0.522
443.000	302.726	79.981	19.992	100.152	19.914	10.932	0.513
443.500	302.965	79.981	19.994	100.154	19.917	10.727	0.499
444.000	303.211	79.981	19.993	100.154	19.918	10.621	0.488
444.500	303.443	79.983	19.993	100.154	19.916	10.790	0.481
445.000	303.655	79.982	19.993	100.153	19.917	10.683	0.461
445.500	303.930	79.983	19.994	100.152	19.921	10.446	0.466
446.000	304.185	79.983	19.993	100.145	19.921	10.454	0.509
446.500	304.459	79.983	19.993	100.141	19.916	10.751	0.529
447.000	304.697	79.983	19.993	100.139	19.915	10.823	0.520
447.500	304.940	79.981	19.994	100.138	19.912	11.017	0.497
448.000	305.202	79.982	19.993	100.131	19.912	11.014	0.493
448.500	305.481	79.982	19.994	100.127	19.917	10.703	0.523
449.000	305.741	79.982	19.994	100.124	19.919	10.596	0.540
449.500	306.006	79.983	19.993	100.118	19.920	10.544	0.532
450.000	306.222	79.981	19.993	100.112	19.921	10.416	0.503
450.500	306.478	79.985	19.994	100.111	19.915	10.842	0.477
451.000	306.739	79.984	19.993	100.111	19.918	10.641	0.495
451.500	306.992	79.985	19.993	100.104	19.917	10.728	0.516
452.000	307.226	79.984	19.993	100.098	19.921	10.419	0.501
452.500	307.483	79.984	19.992	100.091	19.918	10.676	0.489
453.000	307.735	79.985	19.993	100.083	19.916	10.768	0.500
453.500	307.982	79.984	19.993	100.075	19.917	10.725	0.504
454.000	308.214	79.985	19.992	100.074	19.920	10.510	0.489
454.500	308.478	79.985	19.993	100.073	19.921	10.457	0.487
455.000	308.759	79.985	19.993	100.072	19.926	10.102	0.520
455.500	308.998	79.986	19.994	100.069	19.924	10.263	0.533
456.000	309.264	79.983	19.992	100.065	19.924	10.269	0.512
456.500	309.543	79.984	19.992	100.057	19.928	9.979	0.525
457.000	309.777	79.985	19.994	100.049	19.922	10.392	0.529
457.500	310.004	79.987	19.994	100.042	19.926	10.135	0.487
458.000	310.286	79.985	19.993	100.037	19.929	9.905	0.485
458.500	310.499	79.984	19.993	100.034	19.929	9.889	0.502
459.000	310.767	79.984	19.993	100.033	19.930	9.856	0.488
459.500	311.014	79.984	19.993	100.032	19.932	9.701	0.498
460.000	311.288	79.985	19.993	100.032	19.933	9.641	0.518
460.500	311.530	79.982	19.993	100.032	19.930	9.825	0.518
461.000	311.799	79.983	19.994	100.032	19.938	9.304	0.513
461.500	312.062	79.985	19.993	100.030	19.936	9.463	0.522
462.000	312.308	79.982	19.993	100.026	19.935	9.507	0.521
462.500	312.566	79.980	19.994	100.026	19.935	9.483	0.506
463.000	312.819	79.982	19.994	100.024	19.936	9.447	0.507
463.500	313.075	79.983	19.993	100.019	19.939	9.225	0.510
464.000	313.291	79.981	19.993	100.015	19.944	8.936	0.491
464.500	313.607	79.981	19.992	100.014	19.939	9.268	0.502
465.000	313.854	79.981	19.993	100.013	19.941	9.109	0.547
465.500	314.107	79.980	19.993	100.014	19.941	9.131	0.531
466.000	314.366	79.982	19.993	100.019	19.944	8.910	0.506
466.500	314.571	79.981	19.994	100.022	19.945	8.863	0.488
467.001	314.820	79.981	19.994	100.025	19.949	8.563	0.459
467.501	315.108	79.980	19.994	100.020	19.947	8.680	0.495
468.001	315.356	79.982	19.993	100.014	19.948	8.675	0.537
468.500	315.610	79.982	19.993	100.007	19.952	8.359	0.519
469.000	315.886	79.980	19.993	100.002	19.949	8.545	0.516
469.500	316.121	79.980	19.993	99.999	19.950	8.511	0.520
470.000	316.372	79.980	19.993	99.998	19.954	8.228	0.499
470.500	316.651	79.982	19.994	99.997	19.954	8.242	0.508
471.000	316.878	79.981	19.995	99.997	19.954	8.226	0.517
471.500	317.113	79.979	19.994	99.991	19.956	8.122	0.484
472.000	317.376	79.981	19.994	99.989	19.954	8.260	0.480
472.500	317.673	79.981	19.994	99.989	19.957	8.075	0.529
473.000	317.944	79.980	19.994	99.988	19.958	7.951	0.564
473.500	318.170	79.979	19.994	99.987	19.959	7.895	0.532
474.000	318.429	79.981	19.995	99.991	19.957	8.052	0.491
474.500	318.669	79.980	19.995	99.991	19.963	7.676	0.492
475.000	318.922	79.980	19.994	99.992	19.961	7.788	0.496
475.500	319.178	79.980	19.994	99.989	19.961	7.790	0.501
476.000	319.413	79.979	19.994	99.988	19.958	7.980	0.500
476.500	319.653	79.979	19.994	99.985	19.962	7.708	0.483
477.000	319.956	79.981	19.995	99.981	19.963	7.652	0.509
477.500	320.207	79.982	19.994	99.978	19.961	7.766	0.548
478.000	320.442	79.981	19.993	99.976	19.965	7.542	0.520
478.500	320.711	79.983	19.994	99.974	19.964	7.590	0.495
479.000	320.974	79.982	19.994	99.973	19.968	7.325	0.518
479.500	321.245	79.982	19.994	99.976	19.967	7.406	0.533
480.000	321.506	79.982	19.993	99.974	19.967	7.384	0.533
480.500	321.751	79.981	19.995	99.975	19.970	7.162	0.519
481.000	322.000	79.982	19.994	99.980	19.967	7.360	0.500
481.500	322.233	79.981	19.994	99.985	19.970	7.183	0.488
482.000	322.450	79.981	19.993	99.986	19.969	7.250	0.466
482.500	322.763	79.981	19.993	99.991	19.970	7.158	0.490
483.000	322.986	79.983	19.994	99.996	19.971	7.095	0.533
483.500	323.256	79.980	19.994	99.996	19.970	7.199	0.514
484.000	323.495	79.983	19.993	99.996	19.969	7.225	0.501
484.500	323.731	79.983	19.993	99.997	19.972	7.042	0.492
485.000	324.012	79.981	19.993	99.998	19.972	7.064	0.496
485.500	324.248	79.980	19.993	99.996	19.972	7.021	0.517
486.000	324.488	79.981	19.992	99.996	19.976	6.781	0.497
486.500	324.768	79.982	19.993	99.996	19.976	6.763	0.498
487.000	325.012	79.981	19.993	99.997	19.974	6.884	0.522
487.500	325.235	79.981	19.992	100.003	19.975	6.820	0.495
488.000	325.510	79.981	19.993	100.006	19.978	6.643	0.482
488.500	325.758	79.981	19.994	100.008	19.975	6.833	0.510
489.000	325.984	79.981	19.993	100.009	19.978	6.651	0.499
489.500	326.232	79.981	19.994	100.007	19.978	6.652	0.474
490.000	326.499	79.982	19.994	100.001	19.978	6.649	0.494
490.500	326.718	79.982	19.993	100.000	19.980	6.521	0.501
491.000	327.006	79.981	19.993	99.998	19.979	6.558	0.497
491.500	327.269	79.981	19.993	99.998	19.980	6.542	0.529
492.000	327.480	79.982	19.993	99.997	19.979	6.604	0.512
492.501	327.794	79.982	19.993	99.998	19.977	6.727	0.499
493.001	328.005	79.981	19.994	99.997	19.978	6.646	0.525
493.500	328.236	79.981	19.994	99.996	19.981	6.474	0.484
494.000	328.498	79.981	19.994	99.994	19.982	6.396	0.468
494.500	328.766	79.980	19.992	99.994	19.979	6.615	0.511
495.000	329.047	79.982	19.993	99.993	19.981	6.432	0.539
495.500	329.312	79.981	19.993	99.993	19.978	6.645	0.547
496.000	329.481	79.982	19.993	99.994	19.983	6.344	0.490
496.500	329.775	79.980	19.993	99.996	19.983	6.292	0.448
497.000	330.019	79.981	19.993	99.996	19.983	6.314	0.501
497.500	330.263	79.982	19.994	99.996	19.981	6.446	0.513
498.000	330.539	79.982	19.994	99.996	19.984	6.256	0.504
498.500	330.740	79.981	19.994	99.996	19.980	6.505	0.499
499.000	331.069	79.981	19.994	99.995	19.980	6.516	0.503
499.500	331.267	79.982	19.994	99.996	19.979	6.589	0.528
500.000	331.530	79.981	19.993	99.996	19.981	6.479	0.494
500.500	331.808	79.982	19.994	99.996	19.983	6.335	0.501
501.000	332.058	79.983	19.993	99.995	19.980	6.545	0.535
501.500	332.256	79.983	19.993	99.995	19.984	6.265	0.489
502.000	332.556	79.983	19.992	99.994	19.984	6.272	0.473
502.500	332.815	79.982	19.994	99.997	19.986	6.139	0.528
503.000	333.061	79.983	19.994	100.000	19.985	6.219	0.532
503.500	333.305	79.982	19.994	100.001	19.982	6.407	0.497
504.000	333.587	79.982	19.994	100.004	19.981	6.448	0.508
504.500	333.811	79.983	19.993	100.004	19.982	6.401	0.516
505.000	334.094	79.980	19.993	100.001	19.980	6.550	0.507
505.500	334.332	79.982	19.993	99.998	19.980	6.519	0.514
506.000	334.572	79.983	19.993	99.999	19.981	6.437	0.500
506.500	334.855	79.982	19.993	100.000	19.981	6.479	0.500
507.000	335.075	79.984	19.992	100.002	19.981	6.483	0.513
507.500	335.357	79.983	19.993	100.005	19.979	6.609	0.503
508.000	335.610	79.983	19.992	100.009	19.979	6.564	0.519
508.500	335.862	79.983	19.992	100.008	19.978	6.651	0.520
509.000	336.134	79.982	19.992	100.005	19.981	6.445	0.515
509.500	336.374	79.982	19.993	100.002	19.977	6.693	0.518
510.000	336.657	79.983	19.991	100.001	19.981	6.423	0.517
510.500	336.879	79.983	19.993	100.000	19.977	6.701	0.514
511.000	337.123	79.982	19.993	100.000	19.981	6.468	0.486
511.500	337.383	79.983	19.993	100.001	19.982	6.364	0.485
512.000	337.670	79.984	19.992	100.004	19.977	6.727	0.525
512.500	337.894	79.981	19.992	100.007	19.976	6.787	0.529
513.000	338.168	79.982	19.993	100.012	19.979	6.569	0.504
513.500	338.384	79.983	19.993	100.018	19.974	6.931	0.494
514.001	338.635	79.983	19.993	100.024	19.980	6.548	0.479
514.500	338.879	79.983	19.992	100.027	19.974	6.926	0.481
515.000	339.158	79.982	19.992	100.026	19.978	6.674	0.509
515.500	339.395	79.983	19.993	100.025	19.978	6.645	0.519
516.000	339.643	79.982	19.992	100.024	19.975	6.878	0.500
516.500	339.889	79.983	19.993	100.023	19.979	6.597	0.489
517.000	340.159	79.983	19.993	100.019	19.977	6.731	0.505
517.500	340.443	79.984	19.992	100.021	19.976	6.762	0.535
518.001	340.660	79.983	19.993	100.021	19.973	6.995	0.528
518.500	340.939	79.982	19.992	100.022	19.975	6.854	0.499
519.000	341.186	79.983	19.992	100.023	19.974	6.900	0.511
519.500	341.427	79.981	19.992	100.027	19.973	7.000	0.507
520.000	341.676	79.983	19.994	100.028	19.972	7.042	0.489
520.500	341.933	79.982	19.993	100.028	19.970	7.188	0.498
521.000	342.183	79.983	19.992	100.028	19.968	7.327	0.507
521.500	342.397	79.982	19.992	100.026	19.974	6.893	0.486
522.000	342.700	79.984	19.992	100.026	19.973	6.956	0.491
522.500	342.883	79.981	19.992	100.028	19.961	7.783	0.501
523.000	343.182	79.983	19.993	100.030	19.973	6.982	0.484
523.500	343.400	79.983	19.992	100.031	19.972	7.049	0.500
524.000	343.681	79.983	19.993	100.011	19.965	7.495	0.508
524.500	343.898	79.983	19.992	99.982	19.965	7.524	0.498
525.000	344.156	79.983	19.992	99.968	19.968	7.336	0.486
525.500	344.424	79.983	19.993	99.963	19.970	7.177	0.501
526.000	344.657	79.983	19.992	99.964	19.964	7.576	0.514
526.500	344.896	79.984	19.993	99.986	19.965	7.517	0.487
527.000	345.198	79.982	19.992	100.015	19.965	7.521	0.507
527.500	345.396	79.982	19.992	100.030	19.962	7.716	0.520
528.000	345.696	79.982	19.993	100.035	19.970	7.194	0.499
528.500	345.944	79.984	19.993	100.035	19.967	7.413	0.523
529.000	346.232	79.983	19.992	100.040	19.967	7.391	0.542
529.500	346.402	79.984	19.992	100.065	19.966	7.475	0.497
530.000	346.778	79.984	19.993	100.101	19.968	7.343	0.502
530.500	346.931	79.985	19.994	100.110	19.963	7.674	0.537
531.000	347.274	79.983	19.991	100.118	19.965	7.550	0.513
531.500	347.382	79.984	19.992	100.114	19.966	7.446	0.474
532.000	347.719	79.982	19.992	100.088	19.965	7.535	0.448
532.500	347.948	79.983	19.992	100.052	19.964	7.601	0.505
533.000	348.303	79.983	19.994	100.047	19.966	7.471	0.575
533.500	348.570	79.984	19.993	100.040	19.964	7.592	0.603
534.000	348.548	79.984	19.992	100.040	19.964	7.606	0.434
534.500	349.199	79.985	19.992	100.041	19.960	7.834	0.437
535.000	349.131	79.983	19.993	100.040	19.961	7.755	0.606
535.500	349.715	79.984	19.994	100.037	19.963	7.681	0.549
536.000	349.554	79.985	19.994	100.036	19.961	7.815	0.470
536.500	349.687	79.983	19.993	100.036	19.958	7.969	0.197
537.000	350.110	79.983	19.993	100.036	19.961	7.813	0.264
537.500	350.681	79.983	19.992	100.037	19.961	7.773	0.775
538.000	350.657	79.984	19.993	100.038	19.956	8.144	0.771
538.500	350.974	79.984	19.993	100.042	19.964	7.606	0.420
539.000	351.269	79.985	19.993	100.043	19.958	7.981	0.452
539.500	351.547	79.984	19.993	100.046	19.960	7.842	0.592
540.000	351.825	79.983	19.993	100.049	19.959	7.924	0.565
540.500	352.056	79.983	19.993	100.055	19.958	7.971	0.533
541.000	352.274	79.981	19.993	100.057	19.960	7.832	0.479
541.500	352.537	79.983	19.994	100.063	19.959	7.924	0.465
542.000	352.830	79.982	19.993	100.063	19.957	8.031	0.519
542.500	353.107	79.982	19.994	100.062	19.958	7.955	0.563
543.000	353.262	79.981	19.993	100.060	19.959	7.950	0.501
543.500	353.554	79.983	19.992	100.055	19.958	7.988	0.440
544.000	353.805	79.982	19.993	100.049	19.957	8.062	0.495
544.500	354.100	79.981	19.993	100.050	19.960	7.863	0.544
545.000	354.275	79.983	19.992	100.049	19.954	8.223	0.508
545.500	354.637	79.982	19.993	100.048	19.954	8.226	0.504
546.000	354.851	79.981	19.993	100.054	19.959	7.941	0.557
546.501	355.069	79.982	19.993	100.058	19.957	8.029	0.504
547.001	355.325	79.981	19.993	100.059	19.957	8.085	0.453
547.501	355.608	79.982	19.993	100.063	19.952	8.398	0.506
548.000	355.824	79.980	19.993	100.063	19.954	8.286	0.519
548.500	356.038	79.981	19.993	100.059	19.955	8.190	0.464
549.000	356.315	79.982	19.993	100.060	19.954	8.239	0.460
549.500	356.574	79.982	19.993	100.062	19.957	8.042	0.514
550.000	356.807	79.981	19.993	100.062	19.955	8.183	0.514
550.500	357.061	79.981	19.993	100.065	19.954	8.260	0.490
551.000	357.334	79.982	19.994	100.070	19.954	8.262	0.507
551.500	357.609	79.980	19.992	100.071	19.956	8.124	0.537
552.000	357.816	79.981	19.993	100.068	19.954	8.234	0.515
552.500	358.114	79.981	19.993	100.068	19.957	8.086	0.493
553.000	358.363	79.981	19.992	100.070	19.955	8.208	0.526
553.500	358.563	79.982	19.993	100.071	19.955	8.183	0.498
554.000	358.850	79.982	19.994	100.071	19.950	8.506	0.468
554.500	359.090	79.981	19.993	100.074	19.956	8.118	0.507
555.000	359.338	79.981	19.993	100.076	19.951	8.452	0.507
555.500	359.609	79.982	19.992	100.075	19.950	8.515	0.503
556.000	359.846	79.983	19.993	100.074	19.949	8.609	0.514
556.500	360.100	79.981	19.993	100.073	19.952	8.396	0.499
557.000	360.362	79.981	19.993	100.073	19.952	8.371	0.504
557.500	360.623	79.982	19.994	100.072	19.952	8.394	0.520
558.000	360.828	79.982	19.994	100.073	19.952	8.382	0.494
558.500	361.089	79.983	19.994	100.074	19.952	8.367	0.465
559.000	361.319	79.981	19.994	100.074	19.951	8.430	0.478
559.500	361.615	79.982	19.994	100.073	19.953	8.300	0.509
560.000	361.827	79.982	19.994	100.073	19.952	8.364	0.517
560.500	362.071	79.982	19.994	100.073	19.950	8.515	0.482
561.000	362.343	79.983	19.994	100.072	19.954	8.244	0.486
561.500	362.552	79.982	19.994	100.073	19.951	8.472	0.499
562.000	362.822	79.982	19.995	100.073	19.954	8.259	0.480
562.500	363.051	79.980	19.994	100.078	19.954	8.251	0.489
563.000	363.323	79.982	19.994	100.078	19.954	8.262	0.500
563.500	363.569	79.981	19.993	100.078	19.951	8.421	0.510
564.000	363.806	79.980	19.994	100.077	19.950	8.497	0.500
564.500	364.090	79.982	19.994	100.077	19.950	8.499	0.502
565.000	364.309	79.981	19.995	100.072	19.950	8.521	0.512
565.500	364.557	79.982	19.993	100.071	19.950	8.523	0.485
566.000	364.815	79.983	19.993	100.071	19.948	8.642	0.487
566.500	365.047	79.981	19.994	100.072	19.948	8.622	0.499
567.000	365.336	79.981	19.993	100.073	19.947	8.747	0.506
567.500	365.575	79.980	19.993	100.073	19.946	8.790	0.524
568.000	365.854	79.981	19.994	100.073	19.944	8.938	0.523
568.500	366.084	79.981	19.993	100.074	19.946	8.816	0.513
569.000	366.317	79.982	19.994	100.074	19.945	8.845	0.487
569.500	366.564	79.982	19.993	100.073	19.945	8.870	0.472
570.000	366.822	79.982	19.994	100.074	19.943	9.018	0.492
570.500	367.064	79.982	19.994	100.074	19.944	8.928	0.502
571.000	367.317	79.980	19.994	100.074	19.942	9.038	0.497
571.500	367.565	79.981	19.994	100.074	19.944	8.888	0.498
572.000	367.814	79.981	19.993	100.074	19.941	9.132	0.499
572.500	368.050	79.983	19.993	100.074	19.943	8.973	0.491
573.000	368.288	79.982	19.992	100.074	19.941	9.139	0.479
573.500	368.553	79.982	19.993	100.072	19.942	9.034	0.488
574.000	368.811	79.983	19.994	100.073	19.942	9.031	0.513
574.500	369.034	79.983	19.993	100.074	19.937	9.377	0.502
575.000	369.340	79.981	19.993	100.075	19.935	9.517	0.505
575.500	369.584	79.982	19.993	100.076	19.935	9.537	0.539
576.000	369.771	79.982	19.993	100.077	19.939	9.268	0.490
576.500	370.069	79.982	19.992	100.078	19.937	9.385	0.458
577.000	370.336	79.982	19.994	100.077	19.939	9.235	0.524
577.500	370.588	79.980	19.992	100.077	19.937	9.407	0.542
578.000	370.778	79.981	19.993	100.076	19.940	9.205	0.481
578.500	371.061	79.981	19.993	100.076	19.934	9.553	0.457
579.000	371.339	79.983	19.993	100.076	19.934	9.582	0.517
579.500	371.554	79.982	19.993	100.076	19.932	9.724	0.527
580.000	371.783	79.983	19.993	100.077	19.934	9.571	0.469
580.500	372.091	79.984	19.993	100.076	19.934	9.605	0.490
581.000	372.345	79.983	19.993	100.077	19.928	9.967	0.550
581.500	372.557	79.984	19.994	100.077	19.929	9.946	0.514
582.000	372.798	79.984	19.992	100.077	19.930	9.851	0.459
582.500	373.070	79.983	19.993	100.076	19.929	9.899	0.483
583.000	373.298	79.984	19.992	100.077	19.927	10.024	0.507
583.500	373.584	79.984	19.993	100.077	19.926	10.136	0.507
584.000	373.822	79.984	19.993	100.076	19.934	9.589	0.519
584.500	374.101	79.985	19.992	100.076	19.927	10.028	0.521
585.000	374.336	79.984	19.993	100.076	19.924	10.274	0.516
585.500	374.601	79.983	19.993	100.075	19.920	10.545	0.507
586.000	374.823	79.984	19.993	100.074	19.921	10.462	0.493
586.500	375.071	79.984	19.992	100.075	19.919	10.583	0.478
587.001	375.308	79.982	19.992	100.080	19.918	10.659	0.478
587.500	375.579	79.984	19.993	100.082	19.919	10.587	0.497
588.000	375.812	79.983	19.993	100.083	19.914	10.916	0.506
588.500	376.065	79.983	19.993	100.083	19.917	10.738	0.494
589.000	376.306	79.983	19.993	100.081	19.915	10.872	0.490
589.500	376.601	79.983	19.992	100.075	19.912	11.031	0.515
590.000	376.858	79.983	19.992	100.073	19.908	11.347	0.544
590.500	377.074	79.983	19.993	100.073	19.910	11.205	0.512
591.000	377.369	79.983	19.992	100.073	19.910	11.214	0.492
591.500	377.602	79.983	19.993	100.075	19.907	11.382	0.520
592.000	377.863	79.983	19.993	100.079	19.904	11.591	0.511
592.500	378.110	79.983	19.992	100.085	19.903	11.676	0.501
593.000	378.346	79.983	19.992	100.089	19.903	11.644	0.496
593.500	378.599	79.985	19.994	100.090	19.907	11.397	0.486
594.000	378.861	79.982	19.993	100.088	19.900	11.854	0.501
594.500	379.142	79.983	19.993	100.085	19.901	11.797	0.529
595.000	379.346	79.984	19.993	100.079	19.898	11.967	0.514
595.500	379.625	79.981	19.993	100.076	19.897	12.060	0.483
596.001	379.881	79.982	19.991	100.078	19.897	12.043	0.509
596.501	380.125	79.983	19.993	100.078	19.897	12.050	0.518
597.001	380.386	79.983	19.993	100.079	19.891	12.447	0.503
597.501	380.623	79.981	19.993	100.080	19.891	12.418	0.501
598.000	380.897	79.980	19.992	100.079	19.890	12.505	0.504
598.500	381.154	79.981	19.991	100.081	19.886	12.805	0.521
599.000	381.368	79.982	19.992	100.083	19.887	12.708	0.501
599.500	381.636	79.983	19.992	100.086	19.890	12.540	0.477
600.000	381.869	79.985	19.993	100.087	19.885	12.872	0.492
600.500	382.138	79.983	19.993	100.088	19.886	12.802	0.502
601.000	382.389	79.982	19.992	100.084	19.881	13.135	0.511
601.500	382.643	79.982	19.993	100.081	19.883	12.980	0.513
602.000	382.907	79.983	19.993	100.076	19.879	13.221	0.511
602.500	383.141	79.982	19.992	100.074	19.875	13.527	0.508
603.000	383.378	79.982	19.993	100.073	19.874	13.592	0.484
603.500	383.620	79.982	19.992	100.075	19.874	13.583	0.475
604.000	383.906	79.982	19.992	100.079	19.871	13.754	0.504
604.500	384.157	79.982	19.992	100.080	19.868	13.958	0.533
605.000	384.387	79.983	19.993	100.081	19.869	13.882	0.509
605.500	384.662	79.983	19.991	100.084	19.863	14.330	0.493
606.000	384.917	79.984	19.991	100.086	19.863	14.309	0.517
606.500	385.172	79.982	19.992	100.084	19.861	14.428	0.520
607.000	385.409	79.983	19.991	100.085	19.862	14.385	0.501
607.500	385.672	79.982	19.991	100.091	19.858	14.613	0.497
608.000	385.930	79.983	19.991	100.095	19.858	14.663	0.511
608.500	386.166	79.984	19.992	100.098	19.855	14.875	0.507
609.000	386.413	79.984	19.992	100.100	19.855	14.814	0.488
609.500	386.668	79.984	19.992	100.098	19.854	14.925	0.492
610.000	386.949	79.985	19.991	100.092	19.848	15.311	0.519
610.500	387.202	79.986	19.992	100.085	19.850	15.168	0.535
611.000	387.435	79.986	19.992	100.080	19.850	15.157	0.510
611.500	387.689	79.984	19.992	100.077	19.846	15.444	0.486
612.000	387.916	79.985	19.992	100.080	19.843	15.664	0.484
612.500	388.215	79.985	19.992	100.082	19.846	15.443	0.503
613.000	388.455	79.985	19.993	100.086	19.840	15.857	0.533
613.500	388.707	79.985	19.992	100.087	19.838	16.008	0.516
614.000	388.948	79.984	19.991	100.089	19.835	16.151	0.492
614.500	389.198	79.984	19.992	100.092	19.834	16.262	0.492
615.000	389.431	79.985	19.992	100.096	19.832	16.378	0.488
615.500	389.726	79.983	19.993	100.097	19.825	16.846	0.506
616.000	389.931	79.985	19.994	100.098	19.824	16.907	0.514
616.500	390.251	79.985	19.993	100.096	19.823	16.959	0.512
617.000	390.468	79.985	19.993	100.088	19.819	17.242	0.531
617.500	390.744	79.983	19.993	100.082	19.819	17.274	0.515
618.000	390.980	79.984	19.993	100.076	19.820	17.164	0.502
618.500	391.261	79.983	19.992	100.075	19.818	17.335	0.515
619.000	391.474	79.984	19.994	100.074	19.812	17.711	0.506
619.500	391.729	79.982	19.992	100.076	19.809	17.917	0.481
620.000	392.013	79.983	19.993	100.079	19.813	17.631	0.503
620.500	392.226	79.983	19.993	100.084	19.806	18.122	0.518
621.000	392.507	79.984	19.993	100.091	19.807	18.022	0.495
621.500	392.758	79.981	19.993	100.092	19.800	18.478	0.513
622.000	393.019	79.981	19.992	100.090	19.797	18.720	0.522
622.501	393.310	79.983	19.993	100.087	19.802	18.367	0.532
623.000	393.571	79.981	19.993	100.082	19.793	18.947	0.552
623.500	393.812	79.982	19.994	100.077	19.792	19.009	0.527
624.000	394.070	79.981	19.993	100.080	19.789	19.210	0.500
624.500	394.316	79.982	19.993	100.083	19.784	19.564	0.502
625.000	394.571	79.981	19.993	100.086	19.786	19.446	0.503
625.500	394.828	79.981	19.992	100.091	19.784	19.557	0.506
626.000	395.076	79.981	19.993	100.095	19.784	19.597	0.508
626.500	395.331	79.981	19.993	100.092	19.778	19.942	0.504
627.000	395.595	79.980	19.994	100.090	19.779	19.906	0.511
627.500	395.829	79.982	19.993	100.088	19.775	20.197	0.508
628.000	396.070	79.981	19.993	100.082	19.774	20.231	0.487
628.501	396.340	79.981	19.992	100.081	19.771	20.421	0.493
629.000	396.590	79.981	19.993	100.084	19.767	20.730	0.515
629.500	396.824	79.980	19.993	100.087	19.766	20.746	0.502
630.000	397.089	79.981	19.993	100.088	19.762	21.024	0.491
630.500	397.348	79.983	19.993	100.089	19.758	21.290	0.511
631.000	397.616	79.981	19.993	100.085	19.757	21.393	0.526
631.500	397.856	79.983	19.993	100.081	19.754	21.559	0.518
632.000	398.147	79.981	19.993	100.077	19.751	21.740	0.520
632.500	398.398	79.983	19.993	100.075	19.748	21.973	0.536
633.000	398.646	79.982	19.992	100.073	19.745	22.151	0.520
633.500	398.889	79.982	19.993	100.079	19.743	22.313	0.495
634.000	399.164	79.981	19.993	100.079	19.740	22.481	0.505
634.500	399.389	79.981	19.993	100.080	19.738	22.637	0.509
635.000	399.653	79.982	19.993	100.081	19.734	22.870	0.494
635.500	399.859	79.982	19.993	100.081	19.731	23.078	0.479
636.000	400.133	79.982	19.992	100.076	19.729	23.265	0.475
636.500	400.387	79.982	19.993	100.074	19.728	23.278	0.504
637.000	400.677	79.982	19.992	100.074	19.728	23.318	0.536
637.500	400.916	79.982	19.993	100.073	19.723	23.628	0.536
638.000	401.148	79.981	19.993	100.073	19.720	23.843	0.500
638.500	401.418	79.982	19.992	100.072	19.719	23.870	0.487
639.000	401.705	79.982	19.992	100.073	19.717	24.043	0.530
639.500	401.916	79.982	19.992	100.073	19.714	24.210	0.528
640.000	402.169	79.982	19.993	100.073	19.710	24.520	0.481
640.500	402.457	79.983	19.993	100.075	19.705	24.804	0.503
641.000	402.685	79.983	19.993	100.077	19.705	24.826	0.528
641.501	402.939	79.982	19.993	100.080	19.704	24.907	0.499
642.000	403.180	79.983	19.993	100.081	19.701	25.079	0.489
642.500	403.442	79.982	19.993	100.081	19.697	25.339	0.499
643.000	403.690	79.984	19.994	100.081	19.695	25.477	0.506
643.500	403.904	79.983	19.993	100.082	19.691	25.737	0.486
644.000	404.203	79.981	19.993	100.083	19.690	25.852	0.487
644.500	404.430	79.983	19.994	100.082	19.687	26.049	0.519
645.000	404.691	79.982	19.993	100.081	19.686	26.093	0.507
645.500	404.953	79.982	19.993	100.083	19.685	26.149	0.506
646.000	405.186	79.983	19.993	100.082	19.679	26.583	0.509
646.500	405.447	79.980	19.994	100.082	19.680	26.522	0.494
647.000	405.655	79.980	19.994	100.081	19.676	26.791	0.481
647.500	405.946	79.980	19.994	100.082	19.673	26.936	0.484
648.000	406.197	79.980	19.994	100.080	19.669	27.202	0.521
648.500	406.472	79.982	19.994	100.078	19.670	27.133	0.534
649.000	406.689	79.982	19.994	100.076	19.664	27.545	0.508
649.500	406.974	79.982	19.993	100.076	19.661	27.765	0.497
650.000	407.229	79.980	19.993	100.075	19.659	27.900	0.521
650.500	407.501	79.982	19.995	100.077	19.659	27.907	0.534
651.000	407.745	79.980	19.994	100.077	19.654	28.231	0.522
651.500	407.977	79.980	19.994	100.077	19.655	28.166	0.496
652.000	408.216	79.981	19.994	100.077	19.653	28.308	0.473
652.500	408.510	79.980	19.994	100.078	19.648	28.651	0.502
653.000	408.751	79.981	19.993	100.078	19.643	28.953	0.534
653.500	409.002	79.981	19.995	100.077	19.644	28.892	0.514
654.000	409.251	79.982	19.993	100.078	19.639	29.257	0.495
654.500	409.462	79.980	19.994	100.078	19.638	29.318	0.480
655.000	409.771	79.981	19.994	100.078	19.635	29.482	0.490
655.500	410.012	79.980	19.994	100.076	19.637	29.336	0.535
656.000	410.288	79.981	19.994	100.079	19.634	29.587	0.533
656.500	410.555	79.980	19.994	100.079	19.631	29.728	0.530
657.000	410.775	79.980	19.993	100.080	19.632	29.724	0.515
657.500	411.038	79.980	19.994	100.079	19.633	29.653	0.485
658.000	411.290	79.981	19.993	100.079	19.624	30.215	0.499
658.500	411.533	79.981	19.993	100.076	19.625	30.135	0.505
659.000	411.778	79.981	19.992	100.076	19.624	30.191	0.491
659.500	412.040	79.982	19.993	100.076	19.623	30.294	0.497
660.000	412.295	79.981	19.992	100.076	19.622	30.345	0.512
660.500	412.535	79.983	19.992	100.079	19.615	30.829	0.506
661.000	412.778	79.981	19.992	100.084	19.618	30.639	0.489
661.500	413.057	79.982	19.992	100.084	19.616	30.730	0.503
662.000	413.271	79.981	19.991	100.085	19.614	30.921	0.507
662.500	413.515	79.982	19.992	100.085	19.615	30.818	0.475
663.000	413.753	79.982	19.992	100.082	19.613	30.950	0.470
663.500	414.031	79.982	19.993	100.080	19.614	30.868	0.499
664.001	414.260	79.982	19.992	100.080	19.608	31.271	0.511
664.500	414.520	79.983	19.993	100.081	19.609	31.247	0.498
665.000	414.790	79.984	19.992	100.084	19.607	31.326	0.510
665.500	414.969	79.982	19.992	100.086	19.605	31.480	0.490
666.000	415.274	79.983	19.993	100.085	19.605	31.465	0.466
666.500	415.458	79.983	19.992	100.085	19.606	31.437	0.487
667.000	415.717	79.982	19.992	100.085	19.602	31.690	0.466
667.500	415.992	79.983	19.992	100.081	19.598	31.956	0.488
668.000	416.235	79.983	19.992	100.078	19.600	31.840	0.526
668.500	416.487	79.983	19.993	100.078	19.597	32.037	0.507
669.000	416.745	79.984	19.991	100.077	19.600	31.789	0.502
669.500	417.032	79.984	19.991	100.076	19.599	31.866	0.528
670.000	417.254	79.982	19.993	100.075	19.594	32.189	0.528
670.500	417.513	79.984	19.993	100.076	19.597	32.025	0.495
671.001	417.796	79.982	19.992	100.077	19.596	32.090	0.511
671.500	418.046	79.982	19.992	100.076	19.592	32.352	0.537
672.000	418.280	79.983	19.992	100.076	19.591	32.411	0.509
672.500	418.531	79.982	19.991	100.076	19.588	32.621	0.484
673.000	418.776	79.982	19.992	100.079	19.586	32.775	0.490
673.500	419.083	79.983	19.992	100.080	19.589	32.522	0.524
674.000	419.278	79.983	19.992	100.080	19.589	32.543	0.527
674.500	419.543	79.983	19.992	100.084	19.588	32.646	0.481
675.000	419.795	79.982	19.992	100.086	19.590	32.501	0.488
675.500	420.069	79.982	19.992	100.083	19.584	32.901	0.522
676.000	420.328	79.982	19.992	100.082	19.586	32.772	0.530
676.500	420.596	79.982	19.992	100.082	19.581	33.105	0.530
677.000	420.839	79.982	19.991	100.080	19.579	33.240	0.519
677.500	421.083	79.981	19.992	100.078	19.578	33.276	0.499
678.000	421.350	79.982	19.992	100.078	19.577	33.341	0.499
678.500	421.576	79.982	19.993	100.079	19.575	33.499	0.501
679.000	421.876	79.982	19.993	100.078	19.578	33.273	0.509
679.500	422.084	79.983	19.993	100.077	19.575	33.504	0.517
680.000	422.350	79.982	19.993	100.076	19.574	33.558	0.492
680.500	422.609	79.982	19.992	100.076	19.575	33.497	0.500
681.000	422.859	79.983	19.993	100.074	19.568	33.949	0.517
681.500	423.089	79.983	19.994	100.073	19.572	33.690	0.494
682.000	423.350	79.983	19.992	100.073	19.573	33.620	0.485
682.500	423.587	79.983	19.993	100.073	19.571	33.735	0.495
683.000	423.888	79.982	19.993	100.073	19.568	33.979	0.519
683.500	424.124	79.984	19.992	100.074	19.567	33.995	0.538
684.000	424.362	79.982	19.992	100.074	19.566	34.053	0.505
684.500	424.656	79.984	19.993	100.074	19.564	34.209	0.503
685.000	424.899	79.984	19.992	100.073	19.567	33.997	0.534
685.500	425.121	79.983	19.992	100.073	19.561	34.384	0.501
686.000	425.346	79.983	19.993	100.072	19.561	34.398	0.456
686.500	425.600	79.984	19.992	100.072	19.564	34.189	0.462
687.000	425.882	79.984	19.993	100.072	19.556	34.717	0.507
687.500	426.155	79.985	19.991	100.072	19.561	34.410	0.546
688.001	426.404	79.984	19.992	100.072	19.563	34.307	0.539
688.500	426.610	79.985	19.992	100.072	19.557	34.715	0.488
689.000	426.897	79.985	19.992	100.071	19.553	34.965	0.474
689.500	427.150	79.986	19.992	100.071	19.555	34.789	0.516
690.000	427.360	79.985	19.993	100.071	19.554	34.909	0.501
690.500	427.645	79.983	19.991	100.071	19.554	34.889	0.479
691.000	427.892	79.984	19.992	100.071	19.548	35.267	0.514
691.500	428.154	79.986	19.991	100.072	19.548	35.268	0.520
692.000	428.389	79.985	19.991	100.071	19.545	35.487	0.503
692.500	428.643	79.985	19.992	100.070	19.542	35.671	0.493
693.000	428.906	79.984	19.992	100.071	19.544	35.570	0.503
693.500	429.122	79.984	19.992	100.071	19.541	35.731	0.498
694.000	429.396	79.985	19.991	100.070	19.538	35.941	0.485
694.500	429.641	79.984	19.992	100.070	19.536	36.045	0.504
695.000	429.924	79.985	19.992	100.071	19.534	36.212	0.524
695.500	430.172	79.984	19.992	100.071	19.533	36.251	0.530
696.000	430.392	79.984	19.992	100.070	19.529	36.542	0.500
696.500	430.681	79.985	19.991	100.070	19.526	36.758	0.489
697.000	430.920	79.984	19.992	100.071	19.523	36.973	0.519
697.500	431.182	79.986	19.992	100.071	19.519	37.236	0.515
698.000	431.465	79.985	19.993	100.071	19.515	37.494	0.523
698.500	431.716	79.983	19.991	100.072	19.515	37.457	0.539
699.000	431.949	79.984	19.992	100.073	19.514	37.560	0.509
699.500	432.192	79.983	19.993	100.072	19.515	37.491	0.480
700.000	432.452	79.983	19.993	100.068	19.507	38.028	0.490
700.500	432.700	79.982	19.992	100.066	19.507	38.030	0.505
701.000	432.957	79.983	19.992	100.063	19.500	38.464	0.506
701.500	433.227	79.982	19.993	100.062	19.498	38.614	0.516
702.000	433.519	79.982	19.993	100.060	19.496	38.711	0.545
702.500	433.740	79.983	19.990	100.062	19.492	39.020	0.538
703.000	434.017	79.982	19.993	100.062	19.492	39.025	0.506
703.500	434.299	79.982	19.993	100.061	19.489	39.208	0.529
704.000	434.534	79.982	19.993	100.061	19.482	39.690	0.538
704.500	434.796	79.983	19.993	100.062	19.475	40.134	0.507
705.000	435.051	79.983	19.993	100.063	19.478	39.970	0.507
705.500	435.282	79.982	19.992	100.066	19.470	40.459	0.502
706.000	435.522	79.981	19.993	100.070	19.467	40.696	0.478
706.500	435.807	79.981	19.993	100.070	19.461	41.076	0.498
707.000	436.088	79.981	19.993	100.071	19.459	41.207	0.546
707.500	436.288	79.982	19.993	100.071	19.456	41.409	0.524
708.000	436.574	79.982	19.994	100.070	19.452	41.691	0.483
708.500	436.797	79.982	19.993	100.067	19.446	42.037	0.497
709.000	437.115	79.980	19.995	100.065	19.444	42.164	0.525
709.500	437.312	79.982	19.994	100.062	19.439	42.499	0.528
710.000	437.567	79.981	19.992	100.059	19.439	42.557	0.483
710.500	437.835	79.983	19.994	100.054	19.432	42.974	0.488
711.000	438.043	79.981	19.993	100.050	19.429	43.177	0.500
711.500	438.311	79.982	19.993	100.045	19.427	43.331	0.475
712.000	438.549	79.980	19.993	100.043	19.420	43.827	0.491
712.500	438.801	79.981	19.993	100.041	19.418	43.900	0.499
713.000	439.068	79.981	19.994	100.045	19.413	44.265	0.505
713.500	439.325	79.982	19.993	100.049	19.409	44.525	0.521
714.000	439.558	79.981	19.993	100.054	19.404	44.855	0.507
714.500	439.841	79.982	19.993	100.059	19.398	45.260	0.503
715.000	440.117	79.983	19.994	100.062	19.394	45.520	0.537
715.500	440.378	79.982	19.992	100.062	19.393	45.608	0.548
716.000	440.616	79.982	19.993	100.062	19.389	45.887	0.518
716.500	440.850	79.981	19.993	100.056	19.381	46.380	0.486
717.000	441.092	79.980	19.993	100.052	19.379	46.521	0.474
717.500	441.332	79.982	19.992	100.049	19.372	46.976	0.479
718.000	441.593	79.982	19.993	100.048	19.366	47.415	0.491
718.500	441.864	79.981	19.993	100.046	19.364	47.504	0.517
719.000	442.084	79.982	19.993	100.048	19.362	47.626	0.512
719.500	442.360	79.982	19.993	100.048	19.355	48.111	0.493
720.000	442.608	79.981	19.992	100.051	19.351	48.407	0.510
720.500	442.850	79.981	19.994	100.053	19.346	48.699	0.507
721.000	443.092	79.980	19.993	100.057	19.342	48.989	0.487
721.500	443.363	79.983	19.993	100.059	19.336	49.409	0.499
722.000	443.620	79.982	19.992	100.062	19.329	49.881	0.521
722.500	443.856	79.981	19.992	100.063	19.325	50.146	0.511
723.000	444.128	79.982	19.992	100.061	19.321	50.378	0.501
723.500	444.376	79.982	19.992	100.058	19.320	50.427	0.514
724.000	444.631	79.981	19.992	100.054	19.310	51.128	0.511
724.500	444.907	79.982	19.993	100.050	19.306	51.364	0.517
725.000	445.130	79.982	19.992	100.047	19.299	51.809	0.515
725.500	445.395	79.981	19.992	100.048	19.297	51.989	0.494
726.000	445.656	79.981	19.994	100.048	19.292	52.294	0.507
726.501	445.908	79.981	19.992	100.051	19.289	52.525	0.519
727.000	446.157	79.981	19.993	100.053	19.284	52.846	0.507
727.500	446.416	79.980	19.994	100.057	19.278	53.215	0.505
728.000	446.675	79.980	19.992	100.057	19.278	53.266	0.513
728.500	446.916	79.981	19.993	100.055	19.268	53.873	0.509
729.000	447.204	79.981	19.993	100.052	19.265	54.133	0.515
729.500	447.443	79.981	19.994	100.049	19.259	54.480	0.528
730.000	447.681	79.981	19.993	100.043	19.257	54.637	0.502
730.500	447.960	79.980	19.993	100.038	19.252	54.986	0.497
731.000	448.183	79.979	19.992	100.037	19.251	55.066	0.509
731.500	448.471	79.980	19.993	100.038	19.246	55.386	0.507
732.000	448.705	79.979	19.993	100.038	19.236	56.019	0.517
732.500	448.981	79.980	19.994	100.042	19.234	56.163	0.516
733.000	449.234	79.979	19.993	100.049	19.230	56.407	0.519
733.500	449.453	79.979	19.992	100.050	19.225	56.786	0.501
734.000	449.750	79.980	19.993	100.051	19.223	56.908	0.494
734.501	449.991	79.979	19.993	100.052	19.224	56.822	0.527
735.001	450.261	79.979	19.994	100.048	19.214	57.492	0.525
735.500	450.495	79.980	19.995	100.043	19.213	57.532	0.507
736.000	450.754	79.981	19.993	100.042	19.204	58.144	0.498
736.500	451.016	79.979	19.994	100.041	19.203	58.220	0.507
737.000	451.294	79.980	19.995	100.039	19.201	58.333	0.531
737.500	451.541	79.980	19.994	100.038	19.201	58.330	0.533
738.000	451.798	79.980	19.994	100.038	19.199	58.462	0.514
738.500	452.053	79.980	19.993	100.038	19.192	58.963	0.508
739.000	452.313	79.982	19.993	100.039	19.189	59.132	0.513
739.500	452.541	79.981	19.994	100.039	19.188	59.233	0.502
740.001	452.813	79.981	19.994	100.039	19.184	59.522	0.494
740.500	453.067	79.982	19.995	100.039	19.181	59.675	0.512
741.000	453.301	79.981	19.994	100.038	19.176	60.000	0.507
741.500	453.631	79.981	19.994	100.037	19.175	60.122	0.526
742.000	453.852	79.982	19.994	100.038	19.171	60.344	0.558
742.500	454.125	79.982	19.993	100.039	19.173	60.230	0.523
743.000	454.364	79.981	19.991	100.038	19.168	60.584	0.503
743.500	454.629	79.983	19.993	100.038	19.163	60.869	0.508
744.001	454.889	79.983	19.993	100.038	19.165	60.782	0.514
744.500	455.139	79.982	19.993	100.037	19.166	60.682	0.518
745.000	455.377	79.984	19.994	100.036	19.161	61.021	0.499
745.500	455.603	79.985	19.994	100.035	19.156	61.346	0.476
746.000	455.895	79.983	19.994	100.035	19.156	61.326	0.491
746.500	456.148	79.983	19.994	100.035	19.157	61.279	0.532
747.000	456.387	79.984	19.993	100.034	19.155	61.431	0.519
747.500	456.647	79.984	19.992	100.034	19.150	61.780	0.496
748.000	456.933	79.983	19.992	100.033	19.153	61.564	0.523
748.500	457.157	79.983	19.992	100.034	19.151	61.719	0.528
749.000	457.391	79.984	19.994	100.033	19.146	62.003	0.484
749.501	457.685	79.984	19.993	100.036	19.145	62.107	0.493
750.000	457.925	79.983	19.993	100.037	19.142	62.291	0.531
750.500	458.189	79.984	19.992	100.037	19.144	62.167	0.519
751.000	458.476	79.983	19.992	100.036	19.144	62.156	0.527
751.500	458.746	79.983	19.993	100.036	19.141	62.380	0.554
752.000	458.968	79.983	19.993	100.034	19.135	62.751	0.525
752.500	459.222	79.982	19.992	100.033	19.136	62.708	0.484
753.000	459.477	79.983	19.994	100.034	19.138	62.526	0.492
753.500	459.749	79.983	19.993	100.035	19.132	62.975	0.518
754.000	460.004	79.982	19.993	100.035	19.128	63.229	0.527
754.500	460.237	79.983	19.992	100.035	19.131	62.999	0.508
755.000	460.477	79.983	19.993	100.035	19.130	63.058	0.480
755.500	460.722	79.984	19.993	100.034	19.125	63.380	0.479
756.000	460.962	79.982	19.993	100.032	19.126	63.325	0.485
756.500	461.221	79.981	19.993	100.032	19.122	63.602	0.492
757.000	461.452	79.983	19.993	100.032	19.126	63.344	0.494
757.500	461.725	79.982	19.993	100.033	19.123	63.529	0.497
758.000	461.987	79.983	19.993	100.033	19.120	63.762	0.519
758.500	462.263	79.983	19.991	100.034	19.119	63.789	0.536
759.000	462.524	79.983	19.992	100.034	19.119	63.843	0.537
759.500	462.742	79.983	19.993	100.035	19.119	63.789	0.508
760.000	462.975	79.983	19.991	100.031	19.122	63.628	0.465
760.500	463.259	79.984	19.993	100.030	19.124	63.478	0.484
761.000	463.496	79.984	19.993	100.028	19.123	63.515	0.519
761.500	463.755	79.984	19.993	100.027	19.126	63.326	0.509
762.000	463.962	79.984	19.992	100.027	19.126	63.377	0.481
762.500	464.245	79.983	19.992	100.030	19.131	63.038	0.478
763.000	464.505	79.983	19.994	100.031	19.127	63.249	0.516
763.500	464.772	79.983	19.993	100.030	19.133	62.892	0.535
764.000	465.038	79.982	19.992	100.028	19.135	62.761	0.530
764.500	465.280	79.982	19.993	100.025	19.141	62.377	0.520
765.000	465.502	79.983	19.993	100.025	19.143	62.250	0.486
765.500	465.747	79.983	19.993	100.023	19.146	62.002	0.466
766.000	466.010	79.984	19.994	100.023	19.153	61.586	0.488
766.500	466.273	79.984	19.992	100.023	19.159	61.142	0.517
767.000	466.527	79.984	19.992	100.025	19.159	61.140	0.521
767.500	466.773	79.983	19.993	100.026	19.165	60.729	0.509
768.000	467.012	79.983	19.992	100.027	19.169	60.520	0.493
768.500	467.262	79.984	19.992	100.030	19.175	60.102	0.487
769.000	467.498	79.985	19.992	100.031	19.180	59.732	0.488
769.500	467.782	79.986	19.993	100.031	19.187	59.273	0.503
770.000	468.041	79.986	19.993	100.028	19.194	58.849	0.531
770.500	468.275	79.985	19.993	100.028	19.195	58.785	0.518
771.000	468.554	79.984	19.992	100.028	19.201	58.357	0.503
771.500	468.815	79.984	19.992	100.025	19.210	57.787	0.526
772.000	469.077	79.984	19.993	100.024	19.209	57.789	0.532
772.500	469.314	79.985	19.993	100.026	19.217	57.267	0.511
773.000	469.533	79.984	19.993	100.028	19.227	56.632	0.477
773.500	469.829	79.985	19.992	100.029	19.229	56.490	0.485
774.000	470.060	79.984	19.992	100.031	19.235	56.090	0.521
774.500	470.324	79.984	19.992	100.033	19.242	55.615	0.512
775.000	470.556	79.984	19.992	100.033	19.249	55.136	0.496
775.500	470.806	79.983	19.992	100.031	19.253	54.920	0.489
776.000	471.086	79.984	19.991	100.031	19.255	54.756	0.506
776.500	471.328	79.983	19.991	100.033	19.261	54.381	0.526
777.001	471.523	79.983	19.992	100.035	19.268	53.890	0.479
777.500	471.816	79.982	19.992	100.035	19.270	53.756	0.463
778.000	472.082	79.982	19.992	100.036	19.273	53.547	0.524
778.500	472.352	79.982	19.992	100.036	19.280	53.121	0.547
779.000	472.614	79.982	19.992	100.035	19.284	52.843	0.534
779.500	472.849	79.982	19.993	100.033	19.292	52.279	0.514
780.000	473.126	79.982	19.993	100.034	19.294	52.196	0.504
780.500	473.347	79.981	19.992	100.037	19.300	51.756	0.505
781.000	473.653	79.981	19.991	100.038	19.307	51.307	0.512
781.500	473.900	79.982	19.993	100.037	19.310	51.116	0.540
782.000	474.148	79.981	19.993	100.034	19.313	50.930	0.525
782.500	474.413	79.981	19.992	100.029	19.318	50.556	0.504
783.000	474.668	79.982	19.992	100.023	19.325	50.122	0.516
783.500	474.917	79.980	19.992	100.023	19.329	49.810	0.512
784.000	475.175	79.981	19.993	100.024	19.334	49.519	0.505
784.500	475.424	79.980	19.992	100.028	19.335	49.470	0.507
785.000	475.644	79.981	19.991	100.033	19.338	49.228	0.488
785.500	475.906	79.982	19.993	100.036	19.344	48.814	0.476
786.000	476.182	79.982	19.992	100.036	19.346	48.686	0.510
786.500	476.426	79.981	19.990	100.035	19.352	48.345	0.529
787.000	476.709	79.980	19.992	100.032	19.353	48.265	0.524
787.500	476.954	79.981	19.993	100.031	19.361	47.738	0.528
788.000	477.212	79.981	19.993	100.030	19.364	47.501	0.515
788.500	477.467	79.981	19.992	100.030	19.370	47.127	0.508
789.000	477.746	79.981	19.993	100.031	19.376	46.692	0.523
789.500	477.977	79.981	19.992	100.034	19.379	46.535	0.522
790.000	478.243	79.981	19.993	100.035	19.382	46.340	0.504
790.500	478.479	79.981	19.994	100.035	19.391	45.731	0.500
791.000	478.711	79.981	19.993	100.035	19.391	45.742	0.485
791.500	478.991	79.982	19.993	100.032	19.397	45.285	0.490
792.000	479.224	79.982	19.992	100.027	19.403	44.911	0.513
792.500	479.489	79.981	19.992	100.025	19.406	44.692	0.506
793.000	479.764	79.981	19.994	100.025	19.413	44.241	0.519
793.500	480.016	79.981	19.993	100.025	19.415	44.103	0.533
794.000	480.274	79.982	19.992	100.027	19.420	43.771	0.519
794.500	480.503	79.982	19.993	100.032	19.425	43.468	0.498
795.000	480.805	79.981	19.993	100.034	19.428	43.287	0.509
795.500	481.066	79.981	19.993	100.034	19.433	42.927	0.547
796.000	481.308	79.982	19.993	100.035	19.439	42.508	0.533
796.500	481.579	79.982	19.993	100.035	19.446	42.060	0.508
797.000	481.801	79.981	19.993	100.035	19.447	41.994	0.503
797.500	482.043	79.982	19.993	100.035	19.454	41.516	0.478
798.000	482.277	79.981	19.993	100.035	19.456	41.367	0.470
798.500	482.540	79.982	19.993	100.035	19.458	41.219	0.486
799.000	482.773	79.981	19.992	100.036	19.464	40.869	0.496
799.500	483.040	79.981	19.992	100.035	19.471	40.351	0.498
800.000	483.288	79.980	19.993	100.035	19.473	40.239	0.508
800.500	483.531	79.982	19.992	100.035	19.485	39.476	0.503
801.000	483.769	79.982	19.993	100.035	19.486	39.417	0.487
801.500	484.035	79.981	19.992	100.035	19.493	38.900	0.493
802.000	484.283	79.980	19.993	100.036	19.495	38.774	0.509
802.500	484.547	79.981	19.993	100.036	19.503	38.289	0.513
803.000	484.770	79.981	19.993	100.035	19.505	38.114	0.500
803.500	485.044	79.981	19.993	100.035	19.506	38.035	0.492
804.000	485.330	79.982	19.993	100.036	19.515	37.475	0.528
804.500	485.565	79.981	19.993	100.036	19.519	37.218	0.541
805.000	485.837	79.982	19.992	100.036	19.523	36.906	0.514
805.500	486.097	79.981	19.993	100.036	19.525	36.761	0.519
806.000	486.311	79.981	19.992	100.036	19.534	36.217	0.503
806.500	486.598	79.979	19.991	100.034	19.535	36.117	0.488
807.000	486.858	79.982	19.993	100.027	19.541	35.761	0.524
807.500	487.095	79.980	19.992	100.026	19.546	35.379	0.522
808.000	487.367	79.981	19.992	100.025	19.548	35.285	0.503
808.500	487.591	79.981	19.992	100.020	19.554	34.876	0.503
809.000	487.861	79.981	19.992	100.020	19.559	34.552	0.495
809.500	488.118	79.981	19.993	100.020	19.561	34.424	0.511
810.000	488.382	79.980	19.993	100.016	19.565	34.139	0.524
810.500	488.639	79.981	19.993	100.013	19.573	33.579	0.521
811.000	488.879	79.980	19.994	100.017	19.577	33.324	0.509
811.500	489.119	79.981	19.993	100.019	19.582	32.976	0.489
812.000	489.402	79.981	19.993	100.024	19.584	32.848	0.502
812.500	489.652	79.983	19.994	100.029	19.589	32.535	0.528
813.000	489.890	79.980	19.993	100.030	19.592	32.320	0.511
813.500	490.164	79.982	19.992	100.024	19.599	31.870	0.500
814.000	490.419	79.981	19.992	100.024	19.606	31.378	0.520
814.500	490.683	79.980	19.992	100.024	19.606	31.408	0.524
815.000	490.950	79.979	19.993	100.024	19.610	31.135	0.525
815.500	491.151	79.981	19.993	100.023	19.614	30.869	0.499
816.000	491.452	79.982	19.993	100.025	19.620	30.473	0.485
816.500	491.715	79.981	19.992	100.018	19.624	30.238	0.533
817.000	491.988	79.981	19.993	100.017	19.629	29.859	0.550
817.500	492.223	79.983	19.994	100.016	19.635	29.467	0.522
818.000	492.508	79.982	19.993	100.020	19.643	28.956	0.514
818.500	492.786	79.981	19.993	100.022	19.643	28.928	0.542
819.000	493.004	79.983	19.995	100.028	19.648	28.611	0.529
819.500	493.248	79.982	19.994	100.030	19.652	28.375	0.479
820.000	493.550	79.982	19.993	100.029	19.656	28.107	0.504
820.500	493.760	79.982	19.992	100.029	19.659	27.880	0.529
821.000	494.056	79.981	19.994	100.030	19.663	27.624	0.509
821.500	494.322	79.981	19.994	100.031	19.666	27.380	0.533
822.000	494.593	79.982	19.994	100.031	19.673	26.934	0.549
822.500	494.859	79.982	19.994	100.033	19.677	26.650	0.537
823.000	495.091	79.982	19.993	100.032	19.684	26.225	0.518
823.500	495.331	79.982	19.993	100.030	19.685	26.162	0.485
824.000	495.590	79.982	19.993	100.030	19.691	25.757	0.486
824.500	495.849	79.982	19.994	100.030	19.693	25.649	0.509
825.000	496.106	79.984	19.994	100.030	19.696	25.412	0.517
825.500	496.407	79.982	19.994	100.031	19.702	25.027	0.537
826.000	496.652	79.982	19.993	100.032	19.705	24.847	0.552
826.501	496.898	79.984	19.993	100.028	19.710	24.469	0.518
827.001	497.154	79.983	19.994	100.022	19.716	24.109	0.496
827.500	497.423	79.983	19.993	100.020	19.722	23.670	0.514
828.000	497.704	79.982	19.995	100.016	19.719	23.908	0.538
828.500	497.898	79.983	19.993	100.015	19.727	23.335	0.513
829.000	498.172	79.982	19.994	100.017	19.730	23.154	0.471
829.500	498.418	79.983	19.993	100.020	19.734	22.915	0.494
830.000	498.732	79.983	19.992	100.021	19.737	22.657	0.540
830.500	498.945	79.982	19.993	100.024	19.740	22.507	0.543
831.000	499.229	79.983	19.994	100.022	19.741	22.428	0.512
831.500	499.452	79.981	19.994	100.024	19.748	21.950	0.502
832.000	499.776	79.982	19.993	100.026	19.752	21.664	0.527
832.500	499.973	79.981	19.994	100.025	19.756	21.427	0.534
833.000	500.230	79.983	19.993	100.025	19.757	21.346	0.488
833.500	500.485	79.983	19.993	100.026	19.760	21.182	0.483
834.000	500.763	79.981	19.992	100.022	19.768	20.647	0.523
834.500	501.020	79.983	19.993	100.022	19.771	20.450	0.534
835.000	501.261	79.982	19.994	100.023	19.776	20.111	0.516
835.500	501.544	79.983	19.993	100.022	19.775	20.135	0.511
836.000	501.758	79.983	19.992	100.023	19.783	19.645	0.510
836.500	502.060	79.983	19.993	100.029	19.786	19.422	0.506
837.000	502.308	79.982	19.992	100.030	19.787	19.380	0.533
837.500	502.549	79.981	19.992	100.030	19.790	19.126	0.520
838.000	502.817	79.981	19.992	100.028	19.788	19.288	0.499
838.500	503.097	79.983	19.993	100.026	19.794	18.914	0.529
839.000	503.329	79.983	19.992	100.019	19.795	18.785	0.530
839.500	503.603	79.982	19.993	100.015	19.801	18.415	0.509
840.000	503.877	79.982	19.993	100.014	19.805	18.193	0.527
840.500	504.118	79.982	19.992	100.017	19.809	17.934	0.532
841.000	504.355	79.984	19.992	100.020	19.813	17.617	0.496
841.500	504.619	79.982	19.992	100.026	19.816	17.463	0.489
842.000	504.889	79.983	19.994	100.029	19.820	17.198	0.517
842.500	505.121	79.983	19.993	100.026	19.822	17.029	0.518
843.000	505.401	79.983	19.993	100.023	19.823	16.974	0.507
843.500	505.653	79.985	19.993	100.023	19.825	16.862	0.522
844.000	505.915	79.984	19.993	100.023	19.828	16.612	0.523
844.500	506.146	79.984	19.994	100.022	19.830	16.511	0.503
845.000	506.420	79.983	19.993	100.021	19.834	16.237	0.499
845.500	506.700	79.983	19.991	100.023	19.838	15.935	0.530
846.000	506.931	79.983	19.993	100.023	19.840	15.856	0.532
846.500	507.170	79.984	19.992	100.020	19.840	15.854	0.490
847.000	507.433	79.984	19.992	100.017	19.845	15.502	0.486
847.500	507.669	79.984	19.992	100.019	19.848	15.327	0.501
848.000	507.999	79.984	19.993	100.007	19.849	15.250	0.533
848.500	508.213	79.984	19.992	99.974	19.852	15.012	0.555
849.000	508.453	79.985	19.991	99.954	19.855	14.839	0.499
849.500	508.738	79.984	19.992	99.950	19.860	14.511	0.489
850.000	508.992	79.983	19.991	99.949	19.862	14.398	0.532
850.500	509.217	79.984	19.992	99.963	19.864	14.228	0.509
851.000	509.486	79.983	19.992	100.006	19.866	14.083	0.487
851.500	509.718	79.985	19.993	100.063	19.872	13.715	0.498
852.000	509.967	79.986	19.992	100.080	19.872	13.737	0.491
852.500	510.225	79.984	19.992	100.083	19.876	13.438	0.493
853.000	510.488	79.984	19.992	100.082	19.877	13.404	0.514
853.500	510.769	79.983	19.992	100.074	19.881	13.076	0.533
854.000	511.033	79.984	19.993	100.038	19.880	13.199	0.544
854.500	511.270	79.983	19.993	100.028	19.883	12.957	0.523
855.000	511.536	79.984	19.993	100.025	19.887	12.680	0.503
855.500	511.777	79.983	19.994	100.026	19.888	12.659	0.505
856.000	512.012	79.982	19.992	100.024	19.890	12.518	0.491
856.500	512.287	79.982	19.991	100.022	19.896	12.103	0.493
857.000	512.545	79.982	19.992	100.025	19.898	11.951	0.521
857.500	512.775	79.982	19.993	100.026	19.899	11.933	0.510
858.000	513.024	79.983	19.992	100.025	19.898	11.966	0.484
858.500	513.300	79.983	19.993	100.021	19.901	11.785	0.503
859.000	513.538	79.981	19.993	100.021	19.904	11.582	0.519
859.500	513.828	79.980	19.993	100.016	19.907	11.362	0.521
860.000	514.096	79.982	19.993	100.014	19.907	11.374	0.543
860.500	514.372	79.982	19.992	100.011	19.907	11.392	0.551
861.000	514.615	79.980	19.992	100.015	19.910	11.168	0.531
861.500	514.886	79.980	19.992	100.012	19.912	11.074	0.517
862.000	515.119	79.981	19.992	100.011	19.913	11.002	0.510
862.500	515.382	79.981	19.992	100.010	19.913	10.973	0.500
863.000	515.592	79.981	19.992	100.016	19.914	10.911	0.484
863.500	515.894	79.982	19.991	100.017	19.918	10.655	0.493
864.000	516.146	79.982	19.993	100.021	19.919	10.571	0.533
864.500	516.394	79.980	19.991	100.026	19.922	10.380	0.527
865.001	516.661	79.981	19.992	100.029	19.926	10.131	0.507
865.500	516.891	79.981	19.992	100.025	19.924	10.252	0.506
866.000	517.160	79.981	19.992	100.020	19.925	10.147	0.498
866.500	517.403	79.983	19.993	100.016	19.927	10.064	0.506
867.000	517.649	79.981	19.992	100.016	19.927	10.071	0.500
867.500	517.916	79.982	19.991	100.016	19.930	9.832	0.501
868.000	518.173	79.981	19.993	100.013	19.929	9.880	0.519
868.500	518.408	79.981	19.993	100.017	19.932	9.690	0.508
869.000	518.694	79.981	19.992	100.018	19.934	9.592	0.506
869.500	518.951	79.981	19.993	100.018	19.938	9.338	0.532
870.000	519.185	79.982	19.992	100.014	19.936	9.421	0.517
870.500	519.449	79.982	19.992	100.014	19.937	9.382	0.494
871.000	519.703	79.982	19.992	100.010	19.941	9.127	0.508
871.500	519.977	79.983	19.992	100.009	19.943	8.999	0.523
872.000	520.203	79.981	19.993	100.004	19.941	9.103	0.514
872.500	520.448	79.983	19.993	100.006	19.943	8.992	0.485
873.000	520.722	79.982	19.993	100.007	19.945	8.859	0.495
873.500	521.019	79.981	19.992	100.011	19.944	8.919	0.545
874.000	521.264	79.983	19.993	100.015	19.949	8.576	0.556
874.500	521.487	79.982	19.992	100.020	19.949	8.568	0.505
875.000	521.750	79.983	19.992	100.018	19.951	8.460	0.477
875.500	521.997	79.982	19.993	100.015	19.953	8.323	0.498
876.000	522.237	79.981	19.992	100.016	19.950	8.496	0.499
876.500	522.502	79.983	19.993	100.016	19.952	8.396	0.496
877.000	522.773	79.983	19.992	100.016	19.953	8.343	0.521
877.500	523.001	79.983	19.993	100.014	19.954	8.238	0.517
878.000	523.285	79.982	19.993	100.014	19.958	7.982	0.505
878.500	523.529	79.981	19.993	100.010	19.959	7.920	0.521
879.000	523.737	79.983	19.992	100.003	19.954	8.258	0.491
879.500	524.058	79.981	19.992	99.997	19.960	7.818	0.491
880.000	524.321	79.980	19.992	99.999	19.964	7.597	0.556
880.500	524.544	79.980	19.991	100.004	19.962	7.729	0.535
881.000	524.799	79.981	19.994	100.004	19.960	7.857	0.482
881.500	525.014	79.981	19.993	100.004	19.963	7.636	0.474
882.000	525.288	79.981	19.993	100.003	19.963	7.640	0.479
882.500	525.564	79.982	19.994	100.000	19.966	7.427	0.520
883.000	525.811	79.981	19.994	99.994	19.964	7.550	0.537
883.500	526.061	79.983	19.993	99.993	19.967	7.386	0.510
884.000	526.320	79.982	19.993	99.993	19.970	7.171	0.503
884.500	526.577	79.981	19.994	99.995	19.968	7.347	0.513
885.000	526.819	79.982	19.993	100.001	19.972	7.065	0.507
885.500	527.091	79.981	19.994	100.009	19.969	7.243	0.506
886.000	527.295	79.981	19.994	100.013	19.968	7.294	0.495
886.500	527.575	79.981	19.994	100.015	19.969	7.236	0.480
887.000	527.845	79.981	19.994	100.016	19.972	7.024	0.517
887.500	528.071	79.981	19.993	100.012	19.971	7.140	0.524
888.000	528.390	79.981	19.993	100.005	19.971	7.094	0.521
888.500	528.627	79.982	19.993	100.002	19.972	7.079	0.550
889.000	528.887	79.981	19.995	100.000	19.977	6.749	0.527
889.500	529.142	79.982	19.994	100.000	19.974	6.909	0.506
890.001	529.382	79.981	19.992	100.001	19.976	6.797	0.505
890.501	529.650	79.981	19.993	100.001	19.976	6.756	0.502
891.000	529.893	79.980	19.992	100.001	19.976	6.765	0.509
891.500	530.144	79.981	19.992	100.001	19.977	6.694	0.502
892.000	530.428	79.979	19.992	99.997	19.978	6.622	0.514
892.500	530.670	79.981	19.993	99.995	19.978	6.680	0.531
893.000	530.920	79.981	19.994	99.995	19.979	6.600	0.509
893.500	531.173	79.979	19.993	99.997	19.983	6.342	0.497
894.000	531.463	79.981	19.994	99.998	19.979	6.588	0.523
894.500	531.658	79.980	19.993	100.003	19.982	6.414	0.514
895.000	531.938	79.980	19.993	100.007	19.985	6.183	0.480
895.500	532.183	79.982	19.994	100.010	19.985	6.155	0.500
896.000	532.478	79.981	19.993	100.014	19.985	6.158	0.532
896.500	532.718	79.981	19.993	100.020	19.983	6.290	0.537
897.000	532.973	79.982	19.993	100.022	19.983	6.324	0.515
897.500	533.236	79.982	19.993	100.019	19.983	6.299	0.507
898.000	533.494	79.981	19.993	100.018	19.987	6.032	0.519
898.500	533.767	79.982	19.993	100.015	19.987	6.064	0.526
899.000	534.032	79.981	19.993	100.008	19.989	5.902	0.535
899.500	534.257	79.982	19.993	100.002	19.989	5.950	0.514
900.000	534.474	79.982	19.993	100.003	19.989	5.938	0.466
900.500	534.749	79.984	19.993	100.001	19.987	6.053	0.467
901.000	535.015	79.983	19.993	100.000	19.988	6.017	0.516
901.500	535.266	79.983	19.993	100.003	19.988	5.965	0.529
902.000	535.514	79.982	19.993	100.004	19.988	5.990	0.508
902.500	535.801	79.982	19.993	100.001	19.993	5.679	0.517
903.000	536.067	79.983	19.993	100.001	19.988	5.954	0.544
903.500	536.317	79.983	19.992	100.000	19.992	5.719	0.535
904.000	536.581	79.983	19.993	99.995	19.994	5.573	0.515
904.500	536.832	79.983	19.993	99.997	19.991	5.766	0.514
905.000	537.117	79.984	19.993	99.999	19.994	5.595	0.526
905.500	537.353	79.983	19.993	100.001	19.996	5.445	0.529
906.000	537.582	79.982	19.993	100.003	19.995	5.506	0.493
906.500	537.851	79.982	19.993	100.004	19.994	5.564	0.481
907.000	538.111	79.982	19.993	100.003	19.993	5.647	0.513
907.500	538.343	79.981	19.993	100.004	19.997	5.400	0.510
908.000	538.612	79.982	19.993	100.004	19.996	5.458	0.497
908.500	538.888	79.982	19.994	100.004	19.995	5.498	0.523
909.000	539.128	79.983	19.992	100.004	19.999	5.276	0.530
909.500	539.382	79.981	19.994	100.003	19.996	5.478	0.506
910.000	539.632	79.981	19.994	100.001	19.998	5.345	0.500
910.500	539.863	79.980	19.994	99.998	19.997	5.356	0.492
911.000	540.116	79.982	19.994	99.999	19.996	5.455	0.482
911.500	540.375	79.982	19.994	100.000	19.998	5.351	0.498
912.000	540.636	79.982	19.994	99.998	19.997	5.388	0.516
912.500	540.888	79.980	19.994	99.998	19.999	5.284	0.516
913.000	541.144	79.981	19.994	99.998	19.999	5.224	0.511
913.500	541.430	79.982	19.993	99.996	19.998	5.298	0.525
914.001	541.663	79.980	19.993	99.996	20.000	5.204	0.530
914.500	541.913	79.982	19.993	99.996	20.002	5.087	0.501
915.000	542.147	79.982	19.993	99.998	19.999	5.253	0.484
915.500	542.422	79.981	19.994	100.002	19.999	5.248	0.497
916.000	542.690	79.982	19.993	100.002	20.002	5.080	0.526
916.500	542.940	79.983	19.993	100.002	20.002	5.071	0.530
917.000	543.199	79.982	19.993	100.003	20.005	4.838	0.514
917.500	543.439	79.982	19.994	100.005	20.001	5.104	0.504
918.000	543.673	79.981	19.993	100.006	20.003	4.983	0.487
918.500	543.937	79.982	19.993	100.011	20.006	4.802	0.486
919.000	544.205	79.983	19.993	100.015	20.003	4.972	0.514
919.500	544.442	79.982	19.993	100.016	20.006	4.775	0.519
920.000	544.725	79.982	19.993	100.013	20.004	4.939	0.513
920.500	544.956	79.982	19.993	100.009	20.006	4.769	0.517
921.000	545.212	79.982	19.992	100.004	20.006	4.784	0.501
921.500	545.460	79.982	19.992	99.999	20.004	4.932	0.495
922.000	545.688	79.983	19.993	99.998	20.007	4.723	0.490
922.500	545.970	79.981	19.993	99.998	20.004	4.889	0.493
923.000	546.220	79.983	19.993	99.998	20.006	4.808	0.521
923.500	546.497	79.985	19.992	99.998	20.007	4.696	0.530
924.000	546.721	79.984	19.993	99.998	20.006	4.811	0.514
924.500	546.975	79.984	19.993	100.002	20.005	4.854	0.490
925.000	547.241	79.984	19.992	100.002	20.005	4.883	0.499
925.500	547.505	79.984	19.992	100.004	20.010	4.540	0.525
926.000	547.769	79.983	19.991	100.006	20.006	4.778	0.529
926.500	547.999	79.984	19.992	100.007	20.005	4.874	0.511
927.000	548.228	79.985	19.991	100.003	20.009	4.620	0.476
927.500	548.494	79.984	19.992	100.005	20.008	4.627	0.476
928.000	548.762	79.984	19.992	100.005	20.010	4.490	0.514
928.500	548.994	79.984	19.992	100.009	20.010	4.529	0.517
929.000	549.241	79.984	19.992	100.011	20.008	4.683	0.490
929.500	549.530	79.984	19.992	100.014	20.011	4.470	0.508
930.000	549.810	79.986	19.992	100.012	20.013	4.340	0.553
930.500	550.051	79.983	19.992	100.011	20.010	4.546	0.546
931.000	550.260	79.984	19.992	100.006	20.006	4.786	0.486
931.500	550.494	79.984	19.991	100.005	20.009	4.594	0.446
932.000	550.781	79.984	19.992	100.004	20.006	4.760	0.482
932.500	551.019	79.984	19.992	100.007	20.008	4.664	0.523
933.000	551.292	79.983	19.993	100.012	20.014	4.267	0.517
933.500	551.529	79.984	19.992	100.017	20.017	4.086	0.510
934.000	551.766	79.983	19.993	100.020	20.013	4.303	0.492
934.500	552.044	79.983	19.992	100.016	20.017	4.038	0.494
935.000	552.294	79.984	19.993	100.013	20.016	4.126	0.521
935.500	552.498	79.984	19.993	100.007	20.019	3.901	0.491
936.000	552.799	79.981	19.993	100.000	20.015	4.167	0.480
936.500	553.032	79.981	19.992	99.999	20.019	3.939	0.520
937.000	553.298	79.981	19.993	100.005	20.018	3.995	0.516
937.500	553.580	79.981	19.993	100.009	20.012	4.376	0.523
938.000	553.828	79.982	19.993	100.010	20.014	4.258	0.540
938.500	554.054	79.982	19.992	100.010	20.011	4.433	0.502
939.000	554.324	79.980	19.993	100.007	20.014	4.233	0.485
939.500	554.566	79.982	19.993	100.003	20.016	4.144	0.504
940.000	554.827	79.983	19.992	100.004	20.013	4.341	0.507
940.500	555.067	79.981	19.992	100.009	20.012	4.358	0.502
941.000	555.354	79.981	19.992	100.013	20.012	4.414	0.514
941.500	555.591	79.981	19.993	100.014	20.017	4.042	0.525
942.000	555.850	79.982	19.993	100.013	20.013	4.311	0.510
942.500	556.111	79.981	19.993	100.008	20.014	4.250	0.508
943.000	556.308	79.981	19.993	100.002	20.014	4.233	0.489
943.500	556.638	79.981	19.993	99.998	20.015	4.184	0.492
944.000	556.849	79.983	19.994	99.997	20.012	4.378	0.534
944.500	557.121	79.982	19.993	99.996	20.016	4.109	0.512
945.000	557.379	79.981	19.993	99.997	20.015	4.170	0.506
945.500	557.586	79.981	19.993	99.997	20.016	4.156	0.497
946.000	557.881	79.981	19.993	100.003	20.015	4.194	0.484
946.500	558.110	79.980	19.992	100.008	20.015	4.161	0.514
947.000	558.418	79.982	19.993	100.012	20.016	4.149	0.530
947.500	558.673	79.983	19.993	100.017	20.017	4.037	0.549
948.000	558.854	79.982	19.992	100.018	20.017	4.086	0.499
948.500	559.167	79.981	19.992	100.012	20.018	3.965	0.465
949.000	559.426	79.982	19.992	100.007	20.015	4.223	0.533
949.500	559.671	79.982	19.993	100.002	20.016	4.116	0.538
950.000	559.880	79.982	19.993	99.998	20.016	4.149	0.479
950.500	560.159	79.981	19.993	99.997	20.019	3.952	0.471
951.000	560.422	79.979	19.993	99.998	20.016	4.095	0.515
951.500	560.746	79.983	19.993	100.004	20.016	4.113	0.565
952.000	560.985	79.982	19.993	100.006	20.019	3.932	0.575
952.500	561.244	79.982	19.993	100.005	20.016	4.111	0.530
953.000	561.479	79.982	19.992	100.005	20.018	3.995	0.496
953.500	561.686	79.981	19.993	100.010	20.018	3.982	0.468
954.000	561.920	79.982	19.993	100.006	20.016	4.112	0.441
954.500	562.186	79.982	19.992	100.005	20.017	4.080	0.470
955.000	562.430	79.981	19.993	100.006	20.016	4.109	0.505
955.500	562.717	79.982	19.993	100.007	20.018	3.979	0.520
956.000	562.932	79.982	19.992	100.005	20.018	3.957	0.516
956.500	563.198	79.982	19.992	100.008	20.016	4.145	0.491
957.000	563.416	79.983	19.992	100.014	20.015	4.192	0.482
957.500	563.708	79.983	19.992	100.019	20.018	4.018	0.497
958.000	563.963	79.982	19.991	100.024	20.021	3.821	0.529
958.500	564.199	79.983	19.992	100.024	20.019	3.946	0.520
959.000	564.465	79.983	19.993	100.024	20.022	3.725	0.497
959.500	564.707	79.982	19.992	100.022	20.020	3.837	0.505
960.000	564.947	79.982	19.992	100.020	20.022	3.738	0.494
960.500	565.217	79.982	19.992	100.016	20.017	4.052	0.496
961.000	565.452	79.981	19.992	100.016	20.021	3.783	0.508
961.500	565.744	79.981	19.993	100.017	20.020	3.877	0.516
962.000	565.995	79.982	19.992	100.017	20.023	3.637	0.535
962.500	566.219	79.980	19.993	100.017	20.021	3.803	0.510
963.000	566.480	79.979	19.993	100.016	20.020	3.834	0.480
963.500	566.732	79.981	19.993	100.013	20.023	3.642	0.499
964.000	567.014	79.981	19.994	100.007	20.025	3.538	0.524
964.500	567.236	79.981	19.992	100.007	20.021	3.823	0.519
965.000	567.524	79.982	19.992	100.006	20.021	3.819	0.507
965.501	567.766	79.981	19.993	100.010	20.020	3.837	0.520
966.000	568.013	79.980	19.993	100.016	20.022	3.713	0.509
966.500	568.265	79.981	19.993	100.019	20.019	3.946	0.494
967.000	568.532	79.981	19.993	100.015	20.021	3.818	0.509
967.500	568.770	79.981	19.993	100.014	20.019	3.944	0.512
968.000	569.046	79.980	19.992	100.011	20.021	3.814	0.510
968.500	569.318	79.979	19.993	100.006	20.018	3.994	0.531
969.000	569.544	79.981	19.993	100.004	20.016	4.146	0.523
969.500	569.818	79.982	19.993	100.004	20.020	3.888	0.499
970.000	570.076	79.981	19.993	100.002	20.020	3.868	0.516
970.500	570.319	79.981	19.993	99.999	20.022	3.746	0.516
971.000	570.578	79.980	19.993	99.998	20.024	3.583	0.502
971.500	570.816	79.981	19.993	100.001	20.024	3.621	0.499
972.000	571.104	79.980	19.993	100.003	20.019	3.910	0.511
972.500	571.351	79.981	19.993	100.004	20.020	3.867	0.531
973.000	571.620	79.981	19.993	100.004	20.023	3.675	0.526
973.500	571.861	79.981	19.993	100.007	20.024	3.586	0.513
974.000	572.113	79.981	19.993	100.006	20.022	3.706	0.501
974.500	572.337	79.981	19.993	100.003	20.024	3.574	0.485
975.000	572.591	79.980	19.993	100.002	20.027	3.362	0.477
975.500	572.882	79.981	19.993	100.003	20.024	3.601	0.511
976.001	573.135	79.981	19.993	100.000	20.023	3.666	0.545
976.501	573.421	79.981	19.993	99.999	20.024	3.608	0.542
977.000	573.679	79.983	19.993	100.000	20.026	3.482	0.541
977.500	573.933	79.982	19.993	100.000	20.025	3.525	0.528
978.000	574.153	79.982	19.993	99.999	20.024	3.616	0.493
978.500	574.453	79.982	19.993	99.999	20.025	3.500	0.497
979.000	574.688	79.983	19.993	99.997	20.023	3.683	0.527
979.500	574.943	79.983	19.992	99.996	20.024	3.569	0.513
980.000	575.202	79.982	19.993	99.997	20.028	3.339	0.502
980.500	575.434	79.983	19.993	100.001	20.025	3.516	0.502
981.000	575.686	79.983	19.992	100.007	20.028	3.296	0.487
981.500	575.940	79.982	19.993	100.011	20.031	3.132	0.495
982.000	576.228	79.984	19.993	100.014	20.027	3.372	0.524
982.500	576.464	79.982	19.992	100.014	20.029	3.273	0.533
983.000	576.682	79.983	19.992	100.011	20.027	3.390	0.489
983.500	576.980	79.982	19.993	100.010	20.028	3.312	0.485
984.000	577.211	79.982	19.993	100.006	20.032	3.086	0.523
984.500	577.431	79.983	19.992	100.003	20.031	3.155	0.490
985.000	577.736	79.983	19.993	100.002	20.032	3.084	0.488
985.500	577.957	79.982	19.994	100.000	20.030	3.180	0.526
986.000	578.244	79.983	19.992	99.999	20.031	3.099	0.517
986.500	578.483	79.983	19.992	100.000	20.032	3.075	0.517
987.000	578.765	79.982	19.993	100.000	20.031	3.121	0.524
987.500	579.021	79.982	19.992	100.002	20.029	3.231	0.529
988.000	579.232	79.983	19.993	100.004	20.030	3.218	0.502
988.500	579.529	79.981	19.993	100.008	20.029	3.278	0.488
989.000	579.774	79.982	19.993	100.011	20.029	3.261	0.525
989.500	580.023	79.981	19.994	100.012	20.033	3.018	0.518
990.000	580.286	79.981	19.993	100.012	20.029	3.236	0.503
990.500	580.518	79.981	19.992	100.011	20.030	3.173	0.503
991.000	580.773	79.981	19.993	100.006	20.030	3.224	0.491
991.500	581.006	79.980	19.992	100.005	20.029	3.256	0.488
992.000	581.292	79.981	19.993	100.010	20.029	3.291	0.504
992.500	581.561	79.981	19.993	100.012	20.031	3.101	0.537
993.000	581.831	79.981	19.992	100.012	20.031	3.121	0.546
993.500	582.040	79.982	19.994	100.011	20.030	3.184	0.509
994.000	582.333	79.981	19.992	100.008	20.028	3.346	0.491
994.500	582.603	79.981	19.993	100.002	20.033	3.009	0.533
995.000	582.837	79.981	19.994	100.000	20.031	3.149	0.533
995.500	583.069	79.980	19.993	100.000	20.026	3.464	0.485
996.000	583.357	79.982	19.993	100.001	20.030	3.213	0.493
996.500	583.575	79.981	19.992	100.002	20.028	3.310	0.513
997.000	583.817	79.980	19.993	100.004	20.028	3.339	0.483
997.500	584.096	79.982	19.994	100.004	20.031	3.135	0.490
998.000	584.385	79.982	19.993	100.002	20.032	3.083	0.544
998.500	584.598	79.983	19.993	100.002	20.033	2.996	0.535
999.000	584.910	79.982	19.993	99.999	20.031	3.153	0.513
999.500	585.133	79.983	19.994	99.998	20.028	3.314	0.530
1000.000	585.416	79.983	19.994	99.999	20.029	3.274	0.521
1000.500	585.615	79.982	19.993	100.004	20.031	3.128	0.494
1001.000	585.881	79.983	19.994	100.008	20.029	3.279	0.473
1001.500	586.124	79.982	19.993	100.010	20.028	3.299	0.487
1002.000	586.418	79.984	19.994	100.012	20.029	3.287	0.523
1002.500	586.669	79.983	19.993	100.015	20.026	3.439	0.541
1003.000	586.918	79.983	19.994	100.011	20.028	3.327	0.522
1003.500	587.153	79.983	19.993	100.006	20.032	3.090	0.492
1004.000	587.385	79.984	19.992	100.003	20.030	3.193	0.475
1004.500	587.646	79.983	19.993	100.001	20.028	3.326	0.480
1005.000	587.905	79.984	19.993	99.998	20.029	3.240	0.506
1005.500	588.185	79.984	19.994	100.001	20.031	3.119	0.529
1006.000	588.433	79.984	19.993	100.003	20.029	3.236	0.534
1006.500	588.690	79.985	19.993	100.003	20.031	3.094	0.517
1007.000	588.927	79.983	19.993	100.002	20.030	3.186	0.499
1007.500	589.200	79.986	19.993	100.004	20.029	3.287	0.502
1008.000	589.440	79.984	19.992	100.000	20.029	3.263	0.512
1008.500	589.713	79.983	19.993	100.001	20.030	3.202	0.513
1009.000	589.944	79.985	19.993	100.004	20.032	3.049	0.509
1009.500	590.211	79.983	19.993	100.005	20.031	3.130	0.501
1010.000	590.450	79.984	19.992	100.004	20.030	3.188	0.502
1010.500	590.727	79.984	19.992	100.001	20.031	3.117	0.511
1011.000	590.969	79.983	19.992	99.999	20.029	3.278	0.517
1011.500	591.261	79.983	19.992	99.997	20.030	3.182	0.526
1012.000	591.474	79.983	19.992	100.000	20.028	3.303	0.520
1012.501	591.719	79.982	19.992	100.001	20.029	3.237	0.482
1013.000	591.997	79.983	19.992	100.005	20.028	3.300	0.491
1013.500	592.270	79.983	19.992	100.009	20.028	3.339	0.536
1014.000	592.502	79.984	19.992	100.010	20.030	3.169	0.528
1014.500	592.732	79.983	19.993	100.007	20.028	3.312	0.484
1015.000	592.990	79.982	19.992	100.005	20.030	3.175	0.475
1015.500	593.271	79.983	19.992	100.001	20.031	3.151	0.513
1016.000	593.519	79.981	19.991	100.002	20.028	3.310	0.533
1016.500	593.804	79.983	19.992	100.004	20.030	3.213	0.531
1017.000	594.045	79.981	19.992	100.003	20.033	3.025	0.530
1017.500	594.328	79.983	19.993	100.007	20.033	2.996	0.525
1018.000	594.563	79.981	19.993	100.010	20.032	3.070	0.521
1018.500	594.829	79.982	19.993	100.009	20.030	3.171	0.510
1019.000	595.072	79.983	19.993	100.007	20.033	3.009	0.505
1019.500	595.348	79.982	19.992	100.009	20.030	3.164	0.513
1020.000	595.582	79.982	19.993	100.009	20.030	3.213	0.514
1020.500	595.840	79.983	19.994	100.010	20.033	3.011	0.501
1021.000	596.122	79.983	19.993	100.012	20.028	3.346	0.516
1021.500	596.341	79.984	19.992	100.011	20.031	3.151	0.520
1022.000	596.593	79.982	19.992	100.014	20.034	2.953	0.486
1022.500	596.852	79.982	19.992	100.016	20.031	3.122	0.491
1023.000	597.098	79.983	19.993	100.018	20.031	3.119	0.508
1023.500	597.383	79.982	19.993	100.015	20.032	3.076	0.518
1024.000	597.619	79.982	19.993	100.018	20.033	2.966	0.526
1024.501	597.893	79.982	19.993	100.013	20.029	3.231	0.516
1025.001	598.152	79.982	19.993	100.008	20.033	3.004	0.522
1025.501	598.385	79.982	19.993	100.004	20.030	3.177	0.512
1026.001	598.624	79.983	19.993	100.003	20.031	3.155	0.482
1026.500	598.893	79.982	19.992	99.999	20.029	3.289	0.491
1027.000	599.135	79.983	19.993	99.999	20.031	3.134	0.510
1027.500	599.398	79.982	19.993	100.002	20.032	3.085	0.508
1028.000	599.654	79.981	19.993	100.004	20.031	3.135	0.512
1028.500	599.916	79.982	19.992	100.003	20.028	3.307	0.519
1029.000	600.129	79.982	19.993	100.003	20.031	3.108	0.497
1029.500	600.447	79.982	19.993	100.007	20.029	3.225	0.503
1030.000	600.660	79.981	19.992	100.006	20.031	3.104	0.531
1030.500	600.927	79.980	19.992	100.006	20.030	3.186	0.506
1031.001	601.228	79.981	19.992	100.006	20.032	3.030	0.524
1031.501	601.451	79.983	19.992	100.006	20.033	2.994	0.546
1032.000	601.730	79.982	19.992	100.003	20.031	3.125	0.513
1032.500	601.961	79.983	19.993	100.004	20.032	3.056	0.506
1033.000	602.212	79.983	19.993	100.001	20.033	2.976	0.496
1033.500	602.508	79.982	19.992	100.002	20.034	2.904	0.514
1034.000	602.750	79.983	19.992	100.003	20.033	3.020	0.542
1034.500	603.023	79.983	19.993	100.008	20.033	2.987	0.527
1035.000	603.257	79.983	19.992	100.011	20.037	2.694	0.511
1035.500	603.499	79.982	19.992	100.015	20.035	2.879	0.492
1036.000	603.749	79.982	19.993	100.021	20.035	2.835	0.484
1036.500	604.030	79.983	19.992	100.022	20.038	2.649	0.511
1037.000	604.259	79.983	19.992	100.019	20.035	2.859	0.520
1037.500	604.519	79.982	19.993	100.020	20.034	2.951	0.500
1038.000	604.779	79.983	19.992	100.020	20.034	2.915	0.505
1038.501	605.025	79.983	19.992	100.019	20.035	2.848	0.513
1039.001	605.258	79.981	19.992	100.016	20.035	2.836	0.493
1039.501	605.507	79.982	19.991	100.015	20.035	2.829	0.480
1040.000	605.755	79.982	19.992	100.008	20.036	2.787	0.489
1040.500	606.050	79.982	19.992	100.006	20.033	3.004	0.520
1041.000	606.314	79.981	19.992	100.002	20.032	3.061	0.551
1041.500	606.527	79.983	19.993	100.005	20.032	3.036	0.518
1042.000	606.828	79.982	19.992	100.010	20.034	2.895	0.496
1042.500	607.080	79.983	19.992	100.013	20.035	2.866	0.534
1043.000	607.325	79.983	19.991	100.015	20.033	2.960	0.525
1043.500	607.573	79.982	19.992	100.016	20.032	3.070	0.495
1044.000	607.815	79.983	19.992	100.015	20.034	2.935	0.491
1044.500	608.101	79.983	19.992	100.013	20.035	2.871	0.509
1045.000	608.307	79.983	19.992	100.011	20.032	3.036	0.511
1045.500	608.551	79.982	19.992	100.008	20.034	2.958	0.471
1046.000	608.870	79.981	19.993	100.006	20.036	2.804	0.506
1046.500	609.106	79.983	19.992	100.007	20.033	3.010	0.559
1047.000	609.402	79.982	19.991	100.007	20.037	2.738	0.543
1047.500	609.635	79.982	19.992	100.007	20.032	3.059	0.531
1048.000	609.901	79.982	19.992	100.008	20.034	2.949	0.514
1048.500	610.110	79.982	19.992	100.013	20.034	2.906	0.487
1049.000	610.423	79.982	19.993	100.016	20.036	2.770	0.499
1049.500	610.677	79.981	19.992	100.019	20.038	2.671	0.544
1050.000	610.955	79.982	19.992	100.023	20.034	2.897	0.549
1050.500	611.215	79.981	19.992	100.023	20.036	2.770	0.535
1051.000	611.441	79.980	19.993	100.019	20.032	3.068	0.512
1051.500	611.654	79.981	19.993	100.018	20.034	2.893	0.462
1052.000	611.934	79.981	19.992	100.015	20.036	2.792	0.466
1052.500	612.210	79.982	19.992	100.012	20.036	2.818	0.525
1053.000	612.441	79.980	19.992	100.010	20.038	2.661	0.531
1053.500	612.713	79.981	19.992	100.011	20.040	2.498	0.505
1054.001	612.991	79.981	19.992	100.007	20.042	2.406	0.527
1054.501	613.234	79.981	19.992	100.005	20.037	2.727	0.535
1055.000	613.488	79.981	19.992	100.003	20.036	2.787	0.509
1055.500	613.701	79.981	19.992	100.003	20.035	2.828	0.482
1056.000	614.022	79.982	19.992	100.001	20.034	2.922	0.501
1056.500	614.255	79.981	19.993	100.001	20.038	2.667	0.544
1057.000	614.497	79.982	19.993	100.001	20.039	2.570	0.514
1057.500	614.758	79.983	19.993	100.001	20.034	2.951	0.489
1058.000	615.035	79.983	19.993	100.000	20.035	2.835	0.520
1058.500	615.313	79.983	19.993	99.999	20.037	2.718	0.546
1059.000	615.510	79.982	19.992	99.998	20.038	2.681	0.515
1059.501	615.788	79.983	19.993	99.998	20.034	2.923	0.475
1060.001	616.057	79.983	19.993	100.000	20.036	2.817	0.511
1060.500	616.318	79.983	19.993	100.000	20.035	2.849	0.538
1061.000	616.570	79.982	19.993	100.002	20.035	2.840	0.522
1061.500	616.856	79.984	19.993	100.006	20.032	3.075	0.525
1062.000	617.077	79.983	19.992	100.010	20.034	2.933	0.522
1062.500	617.319	79.984	19.993	100.012	20.033	2.967	0.485
1063.000	617.590	79.984	19.994	100.016	20.033	2.982	0.488
1063.500	617.858	79.983	19.993	100.018	20.036	2.812	0.526
1064.000	618.080	79.985	19.993	100.022	20.036	2.805	0.515
1064.500	618.337	79.985	19.993	100.021	20.035	2.866	0.484
1065.000	618.613	79.983	19.993	100.022	20.036	2.761	0.506
1065.501	618.873	79.984	19.993	100.020	20.035	2.830	0.535
1066.001	619.108	79.984	19.993	100.017	20.034	2.928	0.515
1066.500	619.393	79.985	19.992	100.010	20.034	2.953	0.507
1067.000	619.633	79.984	19.993	100.005	20.034	2.924	0.522
1067.500	619.918	79.983	19.993	99.998	20.034	2.949	0.525
1068.001	620.152	79.984	19.993	99.995	20.036	2.804	0.522
1068.501	620.397	79.983	19.992	99.993	20.031	3.100	0.499
1069.000	620.662	79.984	19.993	99.993	20.034	2.920	0.494
1069.500	620.907	79.982	19.993	99.992	20.034	2.893	0.510
1070.000	621.159	79.983	19.992	99.992	20.034	2.952	0.504
1070.501	621.440	79.983	19.993	99.992	20.031	3.135	0.515
1071.001	621.678	79.982	19.993	99.991	20.033	2.967	0.526
1071.501	621.910	79.983	19.992	99.991	20.037	2.729	0.494
1072.000	622.154	79.983	19.993	99.994	20.035	2.855	0.473
1072.500	622.444	79.983	19.992	100.000	20.036	2.813	0.505
1073.000	622.705	79.983	19.993	100.008	20.033	2.969	0.542
1073.500	622.944	79.982	19.992	100.014	20.036	2.822	0.526
1074.001	623.201	79.983	19.992	100.014	20.036	2.792	0.498
1074.501	623.445	79.981	19.992	100.013	20.036	2.821	0.498
1075.000	623.707	79.983	19.993	100.008	20.036	2.775	0.503
1075.500	623.920	79.982	19.993	100.006	20.034	2.952	0.491
1076.001	624.172	79.982	19.993	100.003	20.035	2.875	0.470
1076.501	624.431	79.982	19.993	100.006	20.032	3.048	0.488
1077.001	624.702	79.983	19.993	100.012	20.033	2.974	0.521
1077.501	624.938	79.982	19.992	100.011	20.035	2.839	0.518
1078.000	625.199	79.982	19.993	100.006	20.033	2.998	0.501
1078.500	625.462	79.984	19.994	100.003	20.035	2.882	0.510
1079.000	625.734	79.984	19.993	100.000	20.034	2.895	0.529
1079.500	625.969	79.983	19.993	99.996	20.034	2.927	0.521
1080.000	626.220	79.982	19.993	99.995	20.036	2.795	0.497
1080.501	626.470	79.983	19.993	99.994	20.035	2.860	0.494
1081.001	626.721	79.983	19.993	99.995	20.035	2.884	0.500
1081.500	626.954	79.983	19.993	99.996	20.036	2.774	0.493
1082.000	627.218	79.984	19.993	99.995	20.036	2.822	0.491
1082.500	627.492	79.983	19.993	99.997	20.032	3.073	0.518
1083.000	627.759	79.983	19.993	99.997	20.034	2.940	0.539
1083.500	627.993	79.984	19.994	99.997	20.034	2.904	0.521
1084.000	628.277	79.982	19.992	99.997	20.032	3.050	0.510
1084.500	628.492	79.984	19.993	99.996	20.036	2.819	0.509
1085.000	628.744	79.985	19.993	99.995	20.035	2.863	0.483
1085.500	629.036	79.985	19.994	99.997	20.033	2.967	0.506
1086.000	629.242	79.983	19.993	99.997	20.035	2.841	0.521
1086.500	629.536	79.983	19.994	99.997	20.033	2.984	0.499
1087.000	629.752	79.983	19.993	99.999	20.037	2.749	0.505
1087.500	630.033	79.984	19.993	100.001	20.038	2.673	0.504
1088.001	630.278	79.984	19.993	99.999	20.032	3.028	0.512
1088.501	630.535	79.984	19.994	100.001	20.036	2.790	0.514
1089.000	630.804	79.985	19.993	100.005	20.035	2.842	0.514
1089.500	631.042	79.984	19.994	100.003	20.038	2.635	0.517
1090.000	631.303	79.984	19.993	100.002	20.039	2.606	0.503
1090.501	631.566	79.983	19.994	100.002	20.038	2.689	0.511
1091.001	631.855	79.983	19.993	99.998	20.037	2.705	0.538
1091.501	632.068	79.984	19.993	99.993	20.040	2.544	0.527
1092.001	632.343	79.983	19.993	99.995	20.036	2.783	0.494
1092.500	632.570	79.982	19.993	99.995	20.039	2.593	0.495
1093.000	632.841	79.983	19.993	99.995	20.036	2.775	0.501
1093.500	633.109	79.983	19.993	99.997	20.039	2.564	0.519
1094.000	633.369	79.982	19.994	100.005	20.038	2.660	0.533
1094.500	633.614	79.982	19.993	100.006	20.038	2.675	0.516
1095.001	633.890	79.981	19.993	100.004	20.037	2.731	0.513
1095.501	634.167	79.981	19.993	100.011	20.037	2.741	0.537
1096.000	634.388	79.982	19.993	100.013	20.037	2.700	0.525
1096.500	634.658	79.982	19.993	100.013	20.036	2.801	0.494
1097.000	634.920	79.983	19.993	100.013	20.036	2.817	0.511
1097.500	635.184	79.982	19.992	100.014	20.039	2.566	0.529
1098.000	635.435	79.982	19.992	100.008	20.034	2.936	0.521
1098.500	635.711	79.982	19.993	100.007	20.037	2.723	0.521
1099.000	635.933	79.982	19.993	100.003	20.035	2.844	0.512
1099.500	636.182	79.981	19.992	100.002	20.036	2.777	0.484
1100.000	636.440	79.982	19.993	100.001	20.035	2.882	0.489
1100.500	636.695	79.982	19.993	100.002	20.037	2.745	0.510
1101.000	636.967	79.982	19.993	100.001	20.034	2.926	0.520
1101.500	637.219	79.983	19.992	100.000	20.033	3.001	0.526
1102.000	637.490	79.984	19.992	100.000	20.035	2.862	0.524
1102.500	637.722	79.983	19.993	100.000	20.037	2.723	0.512
1103.000	637.993	79.982	19.992	99.998	20.039	2.564	0.502
1103.500	638.251	79.982	19.993	99.997	20.031	3.130	0.516
1104.000	638.520	79.982	19.993	99.996	20.034	2.897	0.528
1104.500	638.776	79.982	19.993	99.997	20.036	2.783	0.526
1105.000	639.048	79.982	19.993	99.999	20.034	2.935	0.526
1105.501	639.310	79.982	19.993	100.003	20.035	2.891	0.531
1106.001	639.587	79.982	19.993	100.004	20.037	2.694	0.537
1106.500	639.831	79.982	19.992	100.006	20.040	2.559	0.530
1107.000	640.085	79.981	19.993	100.005	20.039	2.613	0.509
1107.500	640.286	79.982	19.992	100.004	20.040	2.514	0.477
1108.000	640.583	79.982	19.993	100.000	20.037	2.754	0.477
1108.501	640.814	79.982	19.992	99.999	20.040	2.536	0.513
1109.001	641.086	79.981	19.992	99.998	20.035	2.890	0.515
1109.500	641.337	79.981	19.992	99.997	20.036	2.790	0.513
1110.000	641.612	79.983	19.993	99.997	20.038	2.676	0.524
1110.500	641.881	79.982	19.993	99.997	20.035	2.832	0.535
1111.000	642.117	79.981	19.992	100.000	20.035	2.839	0.525
1111.500	642.363	79.983	19.993	100.000	20.037	2.704	0.494
1112.000	642.620	79.981	19.992	100.004	20.039	2.583	0.492
1112.500	642.876	79.982	19.992	100.005	20.041	2.469	0.508
1113.000	643.112	79.982	19.992	100.006	20.042	2.422	0.503
1113.501	643.388	79.983	19.992	100.003	20.041	2.467	0.502
1114.001	643.644	79.982	19.992	100.005	20.040	2.510	0.522
1114.500	643.887	79.982	19.992	100.006	20.041	2.432	0.516
1115.001	644.134	79.983	19.993	100.009	20.040	2.512	0.494
1115.501	644.400	79.982	19.993	100.010	20.041	2.469	0.501
1116.001	644.633	79.981	19.992	100.011	20.041	2.481	0.506
1116.501	644.934	79.982	19.992	100.009	20.046	2.142	0.517
1117.000	645.209	79.982	19.992	100.004	20.040	2.514	0.555
1117.500	645.406	79.984	19.992	100.002	20.041	2.450	0.524
1118.000	645.679	79.983	19.992	100.001	20.040	2.508	0.472
1118.500	645.922	79.982	19.993	100.004	20.041	2.490	0.493
1119.000	646.194	79.981	19.993	100.009	20.041	2.432	0.515
1119.500	646.448	79.983	19.993	100.010	20.042	2.423	0.520
1120.000	646.703	79.983	19.992	100.009	20.042	2.384	0.517
1120.500	647.005	79.983	19.992	100.010	20.040	2.503	0.533
1121.000	647.239	79.982	19.993	100.004	20.043	2.320	0.547
1121.500	647.479	79.982	19.992	100.000	20.043	2.358	0.505
1122.000	647.709	79.982	19.993	100.002	20.041	2.432	0.472
1122.500	647.971	79.983	19.992	100.008	20.040	2.543	0.481
1123.000	648.265	79.982	19.993	100.011	20.043	2.357	0.524
1123.500	648.482	79.982	19.993	100.011	20.042	2.366	0.533
1124.000	648.755	79.982	19.993	100.010	20.040	2.523	0.500
1124.500	649.034	79.982	19.993	100.006	20.040	2.548	0.521
1125.000	649.259	79.982	19.993	99.999	20.042	2.360	0.528
1125.500	649.521	79.982	19.992	99.999	20.043	2.331	0.496
1126.000	649.806	79.982	19.992	100.001	20.043	2.301	0.517
1126.500	650.068	79.981	19.992	100.001	20.040	2.555	0.547
1127.000	650.345	79.981	19.992	100.001	20.041	2.452	0.543
1127.500	650.539	79.982	19.992	100.001	20.040	2.521	0.505
1128.000	650.885	79.982	19.993	99.997	20.044	2.241	0.505
1128.500	651.089	79.982	19.992	99.995	20.044	2.284	0.545
1129.000	651.351	79.982	19.993	99.994	20.040	2.521	0.508
1129.500	651.600	79.981	19.993	99.995	20.040	2.512	0.488
1130.000	651.867	79.981	19.992	99.995	20.039	2.622	0.513
1130.500	652.130	79.983	19.993	99.996	20.040	2.497	0.524
1131.000	652.365	79.982	19.992	99.997	20.041	2.459	0.514
1131.500	652.626	79.982	19.992	99.997	20.043	2.297	0.497
1132.000	652.901	79.982	19.992	99.997	20.041	2.490	0.516
1132.500	653.102	79.983	19.993	99.999	20.042	2.389	0.506
1133.000	653.357	79.982	19.992	99.999	20.041	2.483	0.466
1133.500	653.643	79.982	19.992	99.999	20.040	2.542	0.498
1134.000	653.937	79.984	19.993	99.999	20.039	2.591	0.560
1134.500	654.199	79.983	19.992	99.998	20.038	2.647	0.568
1135.001	654.400	79.982	19.992	99.997	20.040	2.541	0.509
1135.501	654.682	79.984	19.993	99.997	20.039	2.606	0.473
1136.001	654.930	79.983	19.993	99.997	20.039	2.561	0.507
1136.500	655.204	79.983	19.992	99.997	20.041	2.470	0.526
1137.000	655.471	79.982	19.992	99.997	20.037	2.714	0.532
1137.500	655.724	79.983	19.993	99.997	20.038	2.678	0.530
1138.000	655.952	79.984	19.992	99.995	20.037	2.743	0.500
1138.500	656.237	79.983	19.993	99.993	20.040	2.519	0.497
1139.000	656.443	79.983	19.992	99.993	20.039	2.580	0.502
1139.500	656.722	79.983	19.992	99.993	20.040	2.505	0.488
1140.000	656.974	79.983	19.993	99.993	20.037	2.701	0.508
1140.500	657.254	79.983	19.992	99.993	20.040	2.496	0.532
1141.000	657.500	79.984	19.992	99.993	20.037	2.694	0.529
1141.500	657.740	79.984	19.993	99.992	20.039	2.582	0.506
1142.001	658.049	79.984	19.993	99.992	20.040	2.497	0.518
1142.501	658.296	79.983	19.992	99.992	20.036	2.813	0.552
1143.000	658.523	79.984	19.992	99.992	20.041	2.483	0.514
1143.500	658.782	79.984	19.993	99.992	20.039	2.595	0.479
1144.000	659.015	79.983	19.993	99.993	20.041	2.434	0.489
1144.500	659.303	79.983	19.993	99.994	20.039	2.624	0.507
1145.000	659.553	79.984	19.994	99.994	20.039	2.606	0.529
1145.500	659.814	79.984	19.993	99.995	20.037	2.698	0.525
1146.000	660.051	79.984	19.993	99.996	20.037	2.694	0.505
1146.500	660.339	79.982	19.993	99.996	20.040	2.506	0.511
1147.000	660.565	79.983	19.994	99.995	20.042	2.422	0.519
1147.501	660.803	79.981	19.994	99.995	20.041	2.485	0.489
1148.001	661.065	79.982	19.993	99.994	20.039	2.575	0.482
1148.500	661.342	79.982	19.993	99.993	20.040	2.534	0.520
1149.000	661.577	79.982	19.994	99.993	20.044	2.288	0.525
1149.501	661.871	79.983	19.994	99.994	20.039	2.618	0.520
1150.001	662.090	79.983	19.993	99.994	20.040	2.537	0.521
1150.500	662.357	79.983	19.994	99.994	20.039	2.568	0.499
1151.000	662.620	79.983	19.993	99.994	20.037	2.721	0.508
1151.500	662.864	79.983	19.994	99.996	20.043	2.329	0.519
1152.001	663.117	79.983	19.994	99.996	20.040	2.555	0.502
1152.501	663.366	79.982	19.993	99.996	20.040	2.505	0.499
1153.000	663.636	79.982	19.993	99.996	20.042	2.416	0.510
1153.500	663.875	79.983	19.993	99.997	20.040	2.515	0.515
1154.000	664.135	79.983	19.993	99.994	20.041	2.467	0.504
1154.500	664.368	79.982	19.993	99.995	20.040	2.546	0.496
1155.001	664.688	79.983	19.993	99.995	20.038	2.665	0.523
1155.501	664.901	79.984	19.993	99.994	20.039	2.568	0.543
1156.000	665.199	79.984	19.992	99.995	20.039	2.613	0.522
1156.500	665.421	79.982	19.993	99.995	20.041	2.492	0.515
1157.000	665.728	79.983	19.993	99.994	20.040	2.505	0.524
1157.500	665.953	79.983	19.993	99.996	20.043	2.330	0.530
1158.000	666.215	79.983	19.993	100.000	20.040	2.532	0.510
1158.500	666.453	79.984	19.992	100.000	20.038	2.635	0.493
1159.001	666.707	79.985	19.993	100.001	20.039	2.575	0.496
1159.501	666.956	79.984	19.992	100.003	20.040	2.533	0.498
1160.000	667.236	79.984	19.993	100.002	20.039	2.582	0.516
1160.500	667.496	79.985	19.993	99.999	20.043	2.326	0.534
1161.000	667.732	79.984	19.993	99.998	20.042	2.387	0.518
1161.500	667.998	79.984	19.993	99.997	20.041	2.427	0.499
1162.000	668.243	79.985	19.993	99.995	20.039	2.564	0.507
1162.500	668.492	79.985	19.993	99.995	20.041	2.440	0.502
1163.000	668.783	79.985	19.992	99.995	20.042	2.414	0.517
1163.500	669.046	79.984	19.992	99.995	20.039	2.566	0.547
1164.000	669.308	79.984	19.993	99.995	20.038	2.644	0.540
1164.500	669.575	79.985	19.993	99.996	20.044	2.270	0.527
1165.000	669.828	79.986	19.992	99.997	20.043	2.308	0.525
1165.500	670.064	79.985	19.993	99.997	20.040	2.534	0.505
1166.000	670.343	79.985	19.993	99.999	20.039	2.573	0.502
1166.500	670.591	79.983	19.993	100.004	20.040	2.512	0.521
1167.000	670.868	79.985	19.993	100.007	20.042	2.373	0.526
1167.501	671.146	79.985	19.992	100.006	20.038	2.655	0.540
1168.001	671.364	79.985	19.993	100.006	20.041	2.472	0.526
1168.500	671.611	79.985	19.993	100.003	20.042	2.405	0.481
1169.000	671.849	79.984	19.993	99.998	20.043	2.353	0.475
1169.500	672.115	79.983	19.992	99.994	20.038	2.649	0.495
1170.000	672.419	79.983	19.993	99.993	20.040	2.553	0.537
1170.500	672.670	79.984	19.993	99.993	20.040	2.501	0.562
1171.000	672.874	79.983	19.993	99.993	20.039	2.584	0.505
1171.500	673.201	79.983	19.993	99.993	20.038	2.669	0.493
1172.000	673.373	79.984	19.993	99.993	20.042	2.380	0.515
1172.500	673.681	79.982	19.994	99.993	20.041	2.445	0.490
1173.000	673.902	79.982	19.993	99.993	20.042	2.385	0.505
1173.500	674.165	79.981	19.993	99.994	20.038	2.691	0.507
1174.000	674.439	79.982	19.992	99.995	20.041	2.469	0.511
1174.500	674.714	79.982	19.994	99.997	20.041	2.441	0.543
1175.001	675.015	79.981	19.994	99.997	20.042	2.396	0.562
1175.501	675.256	79.982	19.992	99.998	20.040	2.528	0.559
1176.000	675.523	79.982	19.993	99.998	20.039	2.571	0.525
1176.500	675.803	79.982	19.994	99.998	20.041	2.488	0.527
1177.000	676.026	79.982	19.993	99.996	20.040	2.496	0.525
1177.500	676.273	79.982	19.993	99.997	20.043	2.295	0.487
1178.000	676.567	79.982	19.993	99.998	20.042	2.416	0.506
1178.500	676.778	79.980	19.993	99.998	20.040	2.514	0.523
1179.000	677.090	79.982	19.993	99.998	20.041	2.450	0.514
1179.500	677.322	79.981	19.993	99.998	20.040	2.506	0.533
1180.000	677.583	79.982	19.993	99.997	20.042	2.405	0.518
1180.500	677.819	79.980	19.993	99.998	20.041	2.476	0.495
1181.000	678.109	79.982	19.993	99.998	20.038	2.635	0.511
1181.500	678.340	79.981	19.993	99.998	20.039	2.561	0.523
1182.000	678.602	79.982	19.993	99.998	20.038	2.638	0.507
1182.501	678.911	79.982	19.993	99.998	20.044	2.274	0.532
1183.001	679.097	79.981	19.992	99.998	20.038	2.673	0.533
1183.500	679.362	79.983	19.993	99.997	20.036	2.794	0.473
1184.000	679.618	79.982	19.992	99.997	20.037	2.707	0.486
1184.500	679.897	79.982	19.992	99.997	20.037	2.716	0.528
1185.000	680.125	79.982	19.992	99.998	20.039	2.619	0.521
1185.500	680.374	79.982	19.992	99.999	20.040	2.514	0.492
1186.000	680.663	79.983	19.993	100.000	20.041	2.472	0.508
1186.500	680.912	79.982	19.992	100.000	20.037	2.745	0.538
1187.001	681.176	79.982	19.992	99.999	20.038	2.680	0.525
1187.501	681.412	79.983	19.991	99.997	20.038	2.651	0.506
1188.001	681.675	79.980	19.993	99.997	20.038	2.674	0.500
1188.500	681.928	79.983	19.993	99.996	20.039	2.572	0.508
1189.000	682.212	79.983	19.993	99.995	20.038	2.637	0.526
1189.500	682.443	79.982	19.992	99.995	20.040	2.523	0.525
1190.000	682.729	79.982	19.993	99.995	20.040	2.507	0.516
1190.500	682.952	79.983	19.993	99.995	20.039	2.570	0.513
1191.001	683.226	79.983	19.992	99.995	20.037	2.705	0.503
1191.502	683.547	79.984	19.993	99.996	20.039	2.561	0.546
1192.001	683.704	79.984	19.993	99.998	20.036	2.760	0.537
1192.500	683.955	79.983	19.992	100.004	20.035	2.854	0.443
1193.000	684.224	79.984	19.992	100.007	20.037	2.704	0.464
1193.500	684.473	79.982	19.992	100.007	20.039	2.604	0.519
1194.001	684.709	79.983	19.993	100.008	20.035	2.835	0.502
1194.501	684.941	79.983	19.992	100.009	20.038	2.667	0.476
1195.000	685.216	79.983	19.992	100.007	20.038	2.640	0.487
1195.500	685.478	79.982	19.993	100.004	20.039	2.599	0.522
1196.000	685.760	79.983	19.993	100.003	20.036	2.759	0.541
1196.500	686.015	79.983	19.993	100.002	20.041	2.447	0.541
1197.000	686.244	79.983	19.992	100.000	20.043	2.358	0.510
1197.500	686.464	79.983	19.993	99.996	20.039	2.591	0.466
1198.000	686.733	79.983	19.993	99.996	20.042	2.391	0.469
1198.500	687.001	79.984	19.993	99.998	20.036	2.779	0.514
1199.000	687.259	79.982	19.993	100.000	20.040	2.541	0.532
1199.501	687.486	79.981	19.993	100.003	20.038	2.635	0.505
1200.001	687.756	79.983	19.993	100.006	20.038	2.675	0.491
1200.501	688.028	79.982	19.993	100.005	20.040	2.505	0.520
1201.001	688.257	79.981	19.993	100.004	20.039	2.617	0.521
1201.501	688.537	79.982	19.993	100.005	20.040	2.508	0.505
1202.000	688.781	79.981	19.993	100.008	20.039	2.600	0.517
1202.500	689.033	79.982	19.992	100.008	20.034	2.915	0.510
1203.000	689.247	79.982	19.992	100.010	20.037	2.698	0.481
1203.500	689.510	79.981	19.993	100.011	20.037	2.738	0.472
1204.000	689.744	79.982	19.993	100.011	20.036	2.767	0.487
1204.501	690.026	79.983	19.993	100.006	20.039	2.624	0.506
1205.001	690.259	79.982	19.993	100.004	20.037	2.723	0.516
1205.500	690.477	79.983	19.993	100.003	20.036	2.803	0.483
1206.001	690.742	79.982	19.993	100.002	20.036	2.797	0.467
1206.501	690.990	79.983	19.993	100.001	20.036	2.814	0.498
1207.000	691.205	79.982	19.992	100.001	20.035	2.860	0.488
1207.500	691.519	79.982	19.993	100.001	20.035	2.851	0.496
1208.000	691.751	79.981	19.993	100.000	20.037	2.752	0.537
1208.500	692.024	79.983	19.994	100.002	20.037	2.721	0.525
1209.000	692.268	79.982	19.993	100.004	20.036	2.804	0.511
1209.500	692.533	79.981	19.993	100.003	20.034	2.951	0.513
1210.001	692.780	79.982	19.993	100.003	20.033	2.962	0.510
1210.501	693.079	79.982	19.993	100.006	20.036	2.792	0.529
1211.001	693.294	79.982	19.993	100.005	20.035	2.853	0.530
1211.501	693.518	79.981	19.993	100.002	20.036	2.803	0.476
1212.001	693.797	79.983	19.992	100.000	20.036	2.801	0.471
1212.501	694.022	79.982	19.993	99.999	20.036	2.759	0.504
1213.001	694.273	79.983	19.993	99.996	20.037	2.739	0.490
1213.501	694.561	79.982	19.993	99.997	20.036	2.794	0.507
1214.000	694.795	79.982	19.992	99.998	20.039	2.602	0.530
1214.500	695.054	79.983	19.993	99.997	20.036	2.761	0.507
1215.000	695.291	79.982	19.994	100.000	20.038	2.660	0.495
1215.500	695.566	79.983	19.993	100.001	20.037	2.700	0.504
1216.001	695.803	79.984	19.993	100.000	20.037	2.731	0.512
1216.501	696.028	79.983	19.994	100.002	20.039	2.588	0.487
1217.000	696.254	79.984	19.992	100.005	20.038	2.678	0.457
1217.500	696.545	79.984	19.992	100.002	20.041	2.432	0.484
1218.000	696.779	79.984	19.992	100.000	20.039	2.571	0.521
1218.501	697.031	79.984	19.992	100.001	20.042	2.376	0.505
1219.001	697.273	79.984	19.992	100.000	20.043	2.358	0.490
1219.500	697.530	79.983	19.992	99.999	20.041	2.438	0.497
1220.000	697.769	79.984	19.992	99.999	20.036	2.779	0.497
1220.500	698.015	79.985	19.992	100.000	20.039	2.604	0.490
1221.000	698.302	79.984	19.993	99.999	20.041	2.481	0.509
1221.500	698.540	79.983	19.992	99.999	20.039	2.582	0.529
1222.000	698.740	79.985	19.993	99.999	20.043	2.308	0.481
1222.500	698.979	79.985	19.993	99.999	20.040	2.525	0.439
1223.000	699.272	79.984	19.991	100.000	20.043	2.348	0.485
1223.500	699.501	79.983	19.991	100.000	20.042	2.382	0.527
1224.000	699.762	79.983	19.991	100.000	20.040	2.506	0.507
1224.500	700.007	79.984	19.992	100.000	20.037	2.720	0.499
1225.000	700.252	79.983	19.991	100.004	20.040	2.546	0.498
1225.500	700.495	79.982	19.991	100.004	20.042	2.398	0.488
1226.000	700.780	79.981	19.992	100.004	20.042	2.415	0.508
1226.500	701.000	79.983	19.992	100.004	20.044	2.247	0.516
1227.000	701.256	79.983	19.992	100.005	20.042	2.391	0.490
1227.500	701.526	79.981	19.993	100.001	20.041	2.436	0.501
1228.000	701.775	79.981	19.993	100.001	20.041	2.487	0.523
1228.500	702.026	79.982	19.992	99.999	20.043	2.320	0.510
1229.000	702.311	79.983	19.992	99.999	20.042	2.394	0.518
1229.501	702.551	79.982	19.994	99.996	20.042	2.369	0.530
1230.001	702.761	79.983	19.993	99.997	20.040	2.524	0.487
1230.501	703.034	79.983	19.992	100.000	20.043	2.324	0.466
1231.001	703.258	79.982	19.993	100.001	20.042	2.420	0.490
1231.500	703.551	79.982	19.993	100.002	20.046	2.145	0.507
1232.000	703.780	79.982	19.993	100.002	20.042	2.407	0.520
1232.500	704.052	79.983	19.993	100.002	20.042	2.378	0.512
1233.000	704.257	79.984	19.993	99.999	20.040	2.559	0.489
1233.500	704.508	79.981	19.993	99.998	20.040	2.501	0.466
1234.000	704.811	79.984	19.994	99.999	20.044	2.255	0.505
1234.500	705.031	79.983	19.994	99.997	20.042	2.405	0.538
1235.001	705.281	79.984	19.993	99.997	20.042	2.398	0.496
1235.501	705.530	79.982	19.993	99.998	20.042	2.396	0.484
1236.000	705.801	79.982	19.993	100.002	20.041	2.479	0.510
1236.500	706.019	79.984	19.993	100.002	20.039	2.608	0.505
1237.000	706.255	79.983	19.994	100.004	20.042	2.366	0.472
1237.500	706.498	79.984	19.993	100.005	20.041	2.427	0.466
1238.001	706.761	79.983	19.992	100.002	20.043	2.313	0.492
1238.501	706.996	79.984	19.992	99.999	20.038	2.637	0.502
1239.000	707.254	79.985	19.993	99.998	20.043	2.324	0.496
1239.501	707.497	79.985	19.993	99.998	20.039	2.609	0.498
1240.001	707.760	79.983	19.993	99.997	20.040	2.530	0.503
1240.500	708.003	79.986	19.993	99.998	20.042	2.403	0.506
1241.000	708.246	79.985	19.993	99.996	20.042	2.418	0.496
1241.500	708.512	79.984	19.993	99.996	20.041	2.477	0.498
1242.000	708.745	79.984	19.992	99.998	20.040	2.494	0.504
1242.500	708.986	79.985	19.992	99.999	20.040	2.525	0.486
1243.000	709.249	79.987	19.992	99.999	20.040	2.505	0.489
1243.500	709.538	79.985	19.993	100.000	20.042	2.397	0.528
1244.000	709.772	79.986	19.992	100.000	20.039	2.615	0.537
1244.500	710.027	79.984	19.993	99.997	20.040	2.536	0.506
1245.000	710.242	79.984	19.992	99.997	20.044	2.281	0.480
1245.500	710.493	79.984	19.993	99.998	20.041	2.470	0.468
1246.000	710.741	79.985	19.992	99.997	20.041	2.487	0.483
1246.500	711.018	79.986	19.992	99.998	20.044	2.259	0.512
1247.000	711.252	79.985	19.992	99.998	20.040	2.501	0.517
1247.500	711.452	79.985	19.993	99.998	20.039	2.580	0.472
1248.000	711.761	79.984	19.992	99.996	20.041	2.467	0.472
1248.500	712.024	79.984	19.993	99.996	20.041	2.492	0.541
1249.000	712.282	79.984	19.993	100.001	20.037	2.705	0.547
1249.500	712.477	79.983	19.993	100.002	20.041	2.429	0.487
1250.001	712.743	79.984	19.994	100.001	20.042	2.369	0.457
1250.501	712.954	79.983	19.992	100.001	20.038	2.649	0.469
1251.000	713.247	79.982	19.993	100.000	20.037	2.738	0.490
1251.500	713.474	79.983	19.993	99.994	20.036	2.815	0.512
1252.000	713.718	79.982	19.993	99.993	20.036	2.765	0.495
1252.500	713.964	79.982	19.993	99.993	20.037	2.754	0.481
1253.000	714.281	79.981	19.994	99.995	20.036	2.775	0.526
1253.501	714.496	79.982	19.994	100.000	20.036	2.759	0.547
1254.001	714.775	79.982	19.993	100.006	20.039	2.624	0.513
1254.501	715.008	79.982	19.994	100.011	20.039	2.617	0.503
1255.001	715.247	79.981	19.994	100.016	20.039	2.618	0.492
1255.501	715.522	79.982	19.993	100.016	20.040	2.550	0.493
1256.001	715.764	79.984	19.994	100.011	20.044	2.243	0.515
1256.500	716.041	79.982	19.994	100.004	20.039	2.606	0.518
1257.000	716.270	79.983	19.994	99.999	20.043	2.342	0.513
1257.500	716.542	79.982	19.993	99.995	20.038	2.644	0.503
1258.000	716.803	79.982	19.993	99.995	20.040	2.543	0.517
1258.500	717.016	79.981	19.994	99.997	20.039	2.588	0.504
1259.000	717.293	79.983	19.994	100.001	20.042	2.360	0.482
1259.500	717.542	79.982	19.994	100.004	20.041	2.487	0.508
1260.000	717.793	79.981	19.994	100.006	20.040	2.503	0.513
1260.501	718.049	79.981	19.994	100.007	20.043	2.335	0.504
1261.001	718.319	79.981	19.993	100.007	20.043	2.353	0.517
1261.501	718.540	79.981	19.994	100.006	20.043	2.344	0.508
1262.001	718.767	79.981	19.994	100.003	20.042	2.423	0.469
1262.500	719.052	79.981	19.994	100.001	20.041	2.465	0.480
1263.001	719.306	79.982	19.993	99.998	20.043	2.358	0.525
1263.501	719.515	79.981	19.994	99.996	20.042	2.402	0.501
1264.001	719.756	79.983	19.994	99.996	20.043	2.297	0.457
1264.501	720.039	79.982	19.994	99.998	20.042	2.392	0.487
1265.001	720.280	79.983	19.995	99.998	20.038	2.636	0.523
1265.500	720.514	79.982	19.993	99.999	20.040	2.503	0.500
1266.000	720.729	79.983	19.993	99.999	20.042	2.367	0.463
1266.500	720.991	79.981	19.993	99.997	20.040	2.533	0.463
1267.000	721.273	79.984	19.993	99.994	20.039	2.600	0.510
1267.500	721.522	79.982	19.993	99.993	20.042	2.375	0.537
1268.000	721.770	79.982	19.993	99.994	20.042	2.360	0.514
1268.500	722.021	79.984	19.993	99.997	20.040	2.548	0.499
1269.000	722.289	79.982	19.993	100.001	20.041	2.474	0.509
1269.500	722.543	79.984	19.993	100.001	20.040	2.499	0.520
1270.000	722.783	79.983	19.993	100.001	20.039	2.575	0.508
1270.500	723.070	79.981	19.993	99.998	20.037	2.723	0.511
1271.000	723.308	79.985	19.992	99.995	20.038	2.638	0.526
1271.501	723.561	79.984	19.993	99.993	20.039	2.597	0.508
1272.001	723.786	79.984	19.993	99.993	20.037	2.743	0.484
1272.500	724.071	79.984	19.993	99.993	20.041	2.427	0.494
1273.000	724.339	79.983	19.993	99.994	20.040	2.497	0.532
1273.501	724.597	79.984	19.992	99.994	20.040	2.510	0.540
1274.001	724.836	79.983	19.992	99.993	20.040	2.546	0.512
1274.501	725.081	79.985	19.993	99.991	20.041	2.440	0.490
1275.000	725.336	79.982	19.992	99.990	20.040	2.555	0.492
1275.500	725.577	79.983	19.992	99.990	20.040	2.521	0.498
1276.000	725.848	79.982	19.991	99.989	20.041	2.476	0.504
1276.500	726.124	79.984	19.993	99.989	20.038	2.647	0.529
1277.000	726.338	79.982	19.992	99.991	20.040	2.559	0.518
1277.500	726.594	79.982	19.993	99.993	20.041	2.432	0.480
1278.000	726.849	79.981	19.993	99.993	20.040	2.557	0.491
1278.500	727.104	79.983	19.992	99.993	20.037	2.752	0.510
1279.000	727.339	79.983	19.993	99.993	20.043	2.331	0.499
1279.500	727.618	79.982	19.993	99.994	20.042	2.378	0.502
1280.000	727.869	79.982	19.992	99.994	20.041	2.485	0.522
1280.500	728.146	79.982	19.992	99.995	20.041	2.434	0.529
1281.001	728.388	79.981	19.993	99.995	20.039	2.566	0.524
1281.501	728.659	79.979	19.993	99.996	20.042	2.360	0.516
1282.000	728.883	79.980	19.993	99.996	20.040	2.519	0.504
1282.500	729.151	79.982	19.993	99.994	20.038	2.638	0.493
1283.000	729.382	79.981	19.993	99.993	20.041	2.450	0.496
1283.501	729.670	79.982	19.992	99.993	20.042	2.423	0.509
1284.001	729.861	79.982	19.992	99.992	20.040	2.530	0.499
1284.500	730.141	79.982	19.992	99.992	20.039	2.573	0.475
1285.000	730.400	79.982	19.992	99.996	20.038	2.660	0.505
1285.500	730.662	79.981	19.993	99.997	20.037	2.694	0.530
1286.001	730.905	79.980	19.992	99.999	20.041	2.483	0.513
1286.501	731.193	79.983	19.992	100.000	20.038	2.635	0.518
1287.000	731.414	79.980	19.993	100.000	20.042	2.382	0.520
1287.500	731.689	79.983	19.992	99.998	20.038	2.669	0.503
1288.000	731.946	79.981	19.993	99.997	20.041	2.488	0.514
1288.500	732.217	79.981	19.993	99.996	20.039	2.607	0.530
1289.001	732.453	79.980	19.992	99.996	20.039	2.604	0.518
1289.501	732.704	79.981	19.992	99.995	20.037	2.707	0.497
1290.001	732.974	79.985	19.992	99.995	20.038	2.649	0.504
1290.501	733.222	79.982	19.993	99.995	20.039	2.617	0.519
1291.000	733.503	79.981	19.992	99.995	20.037	2.712	0.523
1291.500	733.765	79.982	19.993	99.995	20.038	2.678	0.536
1292.000	733.984	79.983	19.991	99.995	20.039	2.607	0.512
1292.500	734.243	79.984	19.993	99.995	20.036	2.779	0.480
1293.000	734.510	79.984	19.992	99.995	20.042	2.396	0.502
1293.500	734.759	79.984	19.992	99.995	20.041	2.488	0.521
1294.000	735.023	79.983	19.993	99.994	20.040	2.519	0.515
1294.501	735.263	79.985	19.992	99.996	20.038	2.644	0.509
1295.001	735.495	79.984	19.992	99.996	20.039	2.586	0.488
1295.500	735.747	79.983	19.992	99.997	20.043	2.342	0.478
1296.000	736.004	79.982	19.992	99.997	20.040	2.512	0.497
1296.501	736.266	79.981	19.993	99.997	20.041	2.441	0.514
1297.001	736.527	79.985	19.992	99.997	20.039	2.613	0.521
1297.500	736.793	79.986	19.993	99.998	20.037	2.698	0.525
1298.000	737.024	79.984	19.992	99.998	20.038	2.653	0.512
1298.500	737.259	79.988	19.991	99.998	20.039	2.593	0.481
1299.000	737.553	79.984	19.991	99.997	20.039	2.575	0.498
1299.500	737.795	79.986	19.992	99.995	20.039	2.589	0.533
1300.000	738.021	79.985	19.992	99.994	20.038	2.676	0.501
1300.500	738.294	79.984	19.992	99.994	20.042	2.393	0.483
1301.000	738.559	79.983	19.992	99.994	20.036	2.759	0.518
1301.500	738.780	79.984	19.992	99.995	20.039	2.579	0.512
1302.000	739.070	79.984	19.992	99.996	20.041	2.461	0.499
1302.500	739.286	79.984	19.991	99.995	20.039	2.562	0.509
1303.000	739.574	79.986	19.991	99.995	20.037	2.735	0.504
1303.500	739.814	79.983	19.991	99.995	20.040	2.557	0.516
1304.000	740.067	79.981	19.991	99.995	20.039	2.595	0.511
1304.500	740.366	79.986	19.991	99.995	20.037	2.728	0.523
1305.000	740.581	79.983	19.991	99.996	20.038	2.678	0.533
1305.500	740.857	79.983	19.992	99.997	20.037	2.748	0.502
1306.000	741.120	79.982	19.992	99.997	20.039	2.616	0.515
1306.500	741.371	79.983	19.992	99.997	20.036	2.774	0.527
1307.000	741.634	79.982	19.992	99.997	20.040	2.528	0.514
1307.500	741.886	79.984	19.992	99.997	20.041	2.488	0.514
1308.000	742.149	79.983	19.991	99.997	20.040	2.539	0.515
1308.501	742.388	79.984	19.993	99.997	20.039	2.614	0.509
1309.001	742.648	79.985	19.992	99.998	20.039	2.587	0.500
1309.501	742.910	79.983	19.993	99.997	20.040	2.557	0.511
1310.000	743.163	79.982	19.993	99.997	20.042	2.410	0.518
1310.500	743.396	79.985	19.992	99.997	20.044	2.291	0.500
