Sample ID:	C:\MCC\MCC Cal\Test\Vinyl Siding\Vinyl_Siding_30_2.txt
Sample Weight (mg):	3.72
Heating Rate (C/s):	0.5
Combustor Temp (C):	900
N2 Flow Rate (cc/min):	80
O2 Flow Rate (cc/min):	20
Calibration File:	C:\MCC\MCC Cal\Coeff1 JN10440_30_210304.txt.txt
T Correction Coefficients:	0	1.024463	0
Time Shift (s):	14
*
Time (s)	Temperature (C)	N2 flow rate (cc/min)	O2 flow rate (cc/min)	Flow Rate (cc/min)	Oxygen (%)	HRR (W/g)	Heating rate (C/s)
0.000	111.185	79.981	19.993	99.879	20.067	0.434	0.009
0.499	111.170	79.983	19.993	99.878	20.069	0.259	-0.020
1.000	111.193	79.983	19.993	99.878	20.073	-0.052	-0.021
1.500	111.183	79.981	19.993	99.879	20.069	0.266	0.011
2.000	111.156	79.983	19.994	99.880	20.065	0.587	-0.012
2.500	111.148	79.983	19.993	99.880	20.074	-0.100	-0.036
3.000	111.200	79.982	19.993	99.881	20.069	0.312	0.005
3.500	111.188	79.981	19.993	99.881	20.066	0.541	0.042
4.000	111.155	79.984	19.993	99.881	20.071	0.107	-0.002
4.500	111.180	79.981	19.993	99.883	20.068	0.409	-0.027
5.000	111.145	79.982	19.994	99.883	20.070	0.189	-0.009
5.500	111.203	79.982	19.991	99.883	20.071	0.116	0.006
6.000	111.137	79.980	19.992	99.881	20.067	0.439	0.008
6.500	111.113	79.981	19.993	99.877	20.068	0.337	-0.048
7.000	111.119	79.980	19.994	99.875	20.069	0.287	-0.054
7.500	111.160	79.980	19.992	99.874	20.073	-0.025	0.014
8.000	111.138	79.981	19.993	99.874	20.069	0.307	0.033
8.500	111.140	79.981	19.994	99.875	20.068	0.416	0.000
9.000	111.130	79.980	19.992	99.878	20.066	0.573	-0.014
9.500	111.110	79.981	19.993	99.879	20.073	-0.014	-0.019
10.001	111.085	79.982	19.992	99.880	20.067	0.462	-0.037
10.501	111.095	79.980	19.992	99.880	20.067	0.437	-0.030
11.000	111.081	79.982	19.993	99.881	20.066	0.512	-0.010
11.500	111.097	79.980	19.992	99.883	20.066	0.582	-0.001
12.000	111.119	79.980	19.993	99.883	20.068	0.344	0.020
12.500	111.109	79.980	19.991	99.883	20.072	0.041	0.025
13.000	111.096	79.981	19.994	99.885	20.067	0.471	-0.005
13.500	111.102	79.981	19.993	99.886	20.067	0.437	-0.015
14.000	111.093	79.981	19.993	99.886	20.070	0.175	-0.005
14.500	111.083	79.981	19.992	99.887	20.067	0.487	-0.011
15.000	111.064	79.982	19.993	99.887	20.068	0.335	-0.024
15.500	111.083	79.981	19.993	99.886	20.067	0.464	-0.015
16.000	111.080	79.980	19.992	99.885	20.071	0.107	0.008
16.500	111.100	79.980	19.994	99.885	20.068	0.362	0.017
17.000	111.070	79.982	19.992	99.885	20.068	0.335	0.003
17.500	111.102	79.980	19.992	99.884	20.068	0.367	-0.005
18.000	111.083	79.981	19.994	99.887	20.072	0.043	0.008
18.500	111.073	79.981	19.992	99.894	20.070	0.251	-0.008
19.000	111.084	79.981	19.992	99.901	20.064	0.731	-0.014
19.500	111.087	79.981	19.993	99.908	20.061	0.986	0.007
20.000	111.091	79.980	19.992	99.916	20.064	0.745	0.010
20.500	111.036	79.982	19.993	99.918	20.067	0.478	-0.022
21.000	111.077	79.980	19.992	99.918	20.065	0.601	-0.033
21.500	111.074	79.982	19.992	99.917	20.060	1.064	0.012
22.000	111.080	79.981	19.994	99.918	20.061	0.952	0.021
22.500	111.079	79.981	19.993	99.917	20.060	1.053	0.004
23.000	111.090	79.982	19.993	99.918	20.058	1.189	0.007
23.500	111.114	79.981	19.994	99.926	20.062	0.843	0.022
24.000	111.095	79.980	19.993	99.935	20.063	0.797	0.020
24.500	111.092	79.981	19.993	99.943	20.059	1.119	-0.008
25.000	111.125	79.982	19.993	99.951	20.059	1.132	0.004
25.500	111.146	79.980	19.993	99.958	20.057	1.276	0.042
26.000	111.158	79.981	19.992	99.958	20.055	1.490	0.043
26.500	111.149	79.980	19.992	99.963	20.051	1.766	0.018
27.000	111.157	79.982	19.993	99.971	20.055	1.454	0.001
27.500	111.184	79.980	19.992	99.984	20.048	2.096	0.018
28.000	111.178	79.982	19.993	99.999	20.055	1.472	0.028
28.500	111.196	79.983	19.993	100.015	20.049	2.003	0.016
29.000	111.244	79.981	19.992	100.027	20.052	1.725	0.039
29.500	111.237	79.981	19.993	100.036	20.050	1.925	0.054
30.000	111.309	79.981	19.994	100.043	20.051	1.830	0.053
30.500	111.343	79.981	19.993	100.044	20.044	2.392	0.086
31.000	111.378	79.980	19.991	100.045	20.047	2.176	0.088
31.500	111.413	79.983	19.994	100.049	20.043	2.472	0.070
32.000	111.403	79.982	19.993	100.056	20.038	2.924	0.048
32.499	111.453	79.982	19.992	100.060	20.038	2.908	0.032
32.999	111.487	79.981	19.992	100.066	20.039	2.796	0.062
33.499	111.512	79.983	19.993	100.073	20.037	2.944	0.071
33.999	111.579	79.982	19.993	100.075	20.037	2.942	0.076
34.499	111.657	79.982	19.992	100.075	20.036	3.094	0.119
34.999	111.708	79.981	19.992	100.076	20.032	3.359	0.137
35.499	111.698	79.981	19.994	100.076	20.034	3.256	0.085
35.999	111.780	79.981	19.993	100.076	20.035	3.149	0.056
36.499	111.804	79.981	19.993	100.079	20.035	3.119	0.089
36.999	111.870	79.980	19.992	100.079	20.031	3.511	0.098
37.500	111.947	79.982	19.993	100.083	20.036	3.087	0.116
38.000	111.984	79.982	19.994	100.084	20.037	2.978	0.128
38.499	112.082	79.982	19.992	100.085	20.035	3.140	0.125
38.999	112.142	79.981	19.994	100.083	20.031	3.441	0.146
39.499	112.189	79.981	19.994	100.082	20.026	3.921	0.132
39.999	112.269	79.980	19.993	100.079	20.035	3.183	0.117
40.499	112.359	79.981	19.992	100.078	20.034	3.194	0.149
40.999	112.417	79.981	19.993	100.077	20.035	3.133	0.159
41.499	112.554	79.982	19.992	100.080	20.032	3.434	0.171
41.999	112.600	79.981	19.992	100.085	20.032	3.416	0.189
42.499	112.715	79.981	19.993	100.090	20.035	3.174	0.172
42.999	112.766	79.982	19.993	100.094	20.030	3.571	0.164
43.499	112.860	79.981	19.993	100.098	20.035	3.179	0.155
43.999	112.920	79.982	19.992	100.097	20.035	3.143	0.149
44.499	113.036	79.982	19.993	100.094	20.032	3.430	0.165
45.000	113.124	79.982	19.993	100.088	20.036	3.056	0.190
45.500	113.225	79.981	19.992	100.086	20.035	3.179	0.197
46.000	113.305	79.981	19.992	100.083	20.035	3.143	0.185
46.500	113.419	79.982	19.992	100.082	20.034	3.207	0.188
46.999	113.502	79.985	19.994	100.080	20.035	3.161	0.195
47.499	113.576	79.981	19.992	100.080	20.031	3.483	0.177
47.999	113.669	79.982	19.992	100.078	20.034	3.271	0.162
48.499	113.759	79.982	19.992	100.078	20.037	2.992	0.175
48.999	113.890	79.982	19.991	100.078	20.028	3.744	0.202
49.499	113.999	79.981	19.990	100.079	20.030	3.555	0.231
49.999	114.076	79.985	19.994	100.078	20.033	3.309	0.213
50.500	114.194	79.984	19.992	100.080	20.031	3.450	0.190
51.001	114.296	79.982	19.992	100.080	20.034	3.232	0.208
51.500	114.421	79.982	19.992	100.079	20.029	3.656	0.223
51.999	114.537	79.984	19.992	100.079	20.028	3.702	0.234
52.499	114.597	79.984	19.993	100.082	20.029	3.656	0.208
52.999	114.761	79.982	19.991	100.089	20.032	3.410	0.200
53.499	114.859	79.982	19.991	100.094	20.028	3.747	0.243
54.000	114.968	79.982	19.992	100.097	20.033	3.341	0.235
54.501	115.072	79.982	19.993	100.102	20.030	3.533	0.210
55.000	115.209	79.983	19.993	100.103	20.033	3.355	0.227
55.499	115.321	79.983	19.993	100.103	20.032	3.423	0.245
55.999	115.435	79.983	19.992	100.101	20.027	3.852	0.238
56.499	115.584	79.984	19.993	100.106	20.030	3.551	0.244
56.999	115.700	79.982	19.993	100.108	20.027	3.847	0.264
57.499	115.825	79.982	19.993	100.111	20.028	3.699	0.253
57.999	115.952	79.983	19.993	100.110	20.029	3.670	0.246
58.499	116.050	79.983	19.993	100.110	20.032	3.437	0.238
58.999	116.212	79.982	19.994	100.107	20.030	3.576	0.243
59.499	116.349	79.981	19.993	100.103	20.030	3.576	0.279
59.999	116.462	79.982	19.994	100.099	20.032	3.360	0.274
60.499	116.615	79.981	19.992	100.099	20.027	3.850	0.258
60.999	116.763	79.981	19.993	100.101	20.029	3.645	0.283
61.499	116.898	79.981	19.994	100.100	20.028	3.722	0.292
61.999	117.037	79.982	19.993	100.104	20.037	3.018	0.279
62.499	117.134	79.981	19.993	100.111	20.028	3.752	0.255
62.999	117.297	79.982	19.993	100.113	20.028	3.743	0.248
63.499	117.434	79.982	19.993	100.114	20.030	3.531	0.280
63.999	117.558	79.981	19.993	100.116	20.028	3.706	0.280
64.499	117.724	79.982	19.993	100.117	20.026	3.909	0.276
64.999	117.831	79.982	19.993	100.114	20.031	3.495	0.282
65.499	118.023	79.983	19.993	100.112	20.029	3.620	0.286
65.999	118.163	79.981	19.993	100.108	20.028	3.775	0.315
66.499	118.298	79.981	19.992	100.108	20.024	4.094	0.303
66.999	118.453	79.982	19.993	100.108	20.028	3.736	0.282
67.499	118.570	79.981	19.993	100.111	20.030	3.581	0.281
67.999	118.711	79.981	19.993	100.110	20.031	3.508	0.265
68.499	118.891	79.982	19.992	100.114	20.027	3.818	0.289
68.999	119.045	79.983	19.994	100.114	20.022	4.199	0.327
69.499	119.209	79.980	19.992	100.114	20.030	3.538	0.326
69.999	119.335	79.982	19.993	100.114	20.026	3.871	0.304
70.499	119.494	79.982	19.993	100.117	20.025	3.946	0.287
70.999	119.625	79.982	19.992	100.119	20.026	3.933	0.287
71.500	119.792	79.982	19.992	100.119	20.026	3.944	0.294
72.000	119.948	79.981	19.994	100.119	20.024	4.099	0.311
72.499	120.117	79.982	19.993	100.121	20.025	3.965	0.324
72.999	120.264	79.982	19.993	100.121	20.028	3.757	0.320
73.499	120.448	79.982	19.993	100.120	20.021	4.343	0.323
73.999	120.589	79.982	19.992	100.120	20.021	4.350	0.329
74.499	120.759	79.983	19.992	100.120	20.025	4.020	0.319
74.999	120.914	79.983	19.993	100.123	20.021	4.284	0.318
75.499	121.080	79.983	19.993	100.126	20.023	4.182	0.323
75.999	121.255	79.982	19.993	100.127	20.023	4.127	0.331
76.499	121.455	79.983	19.993	100.127	20.021	4.330	0.358
76.999	121.591	79.981	19.993	100.127	20.022	4.225	0.355
77.499	121.775	79.983	19.993	100.123	20.017	4.697	0.328
78.000	121.928	79.982	19.992	100.120	20.015	4.852	0.328
78.500	122.134	79.984	19.993	100.121	20.023	4.197	0.348
79.000	122.308	79.985	19.994	100.121	20.019	4.487	0.370
79.500	122.485	79.983	19.993	100.123	20.018	4.589	0.366
79.999	122.631	79.983	19.992	100.124	20.020	4.414	0.337
80.499	122.847	79.982	19.992	100.122	20.014	4.952	0.343
80.999	122.996	79.984	19.993	100.126	20.018	4.617	0.364
81.499	123.196	79.982	19.993	100.131	20.012	5.089	0.357
81.999	123.361	79.984	19.994	100.135	20.016	4.770	0.357
82.499	123.524	79.983	19.993	100.140	20.022	4.218	0.346
82.999	123.744	79.982	19.993	100.145	20.016	4.709	0.355
83.499	123.922	79.982	19.993	100.143	20.015	4.797	0.390
83.999	124.089	79.982	19.994	100.141	20.015	4.809	0.372
84.499	124.283	79.983	19.994	100.142	20.018	4.565	0.354
84.999	124.481	79.982	19.993	100.140	20.022	4.214	0.377
85.499	124.636	79.982	19.993	100.142	20.013	5.032	0.372
85.999	124.818	79.980	19.994	100.146	20.010	5.228	0.345
86.500	125.045	79.982	19.993	100.148	20.013	4.959	0.373
87.000	125.196	79.981	19.993	100.148	20.012	5.117	0.394
87.499	125.390	79.980	19.994	100.149	20.011	5.178	0.362
87.999	125.595	79.981	19.994	100.149	20.020	4.394	0.372
88.499	125.790	79.981	19.995	100.149	20.013	4.987	0.399
88.999	125.975	79.980	19.994	100.144	20.017	4.674	0.390
89.499	126.183	79.981	19.994	100.140	20.015	4.815	0.387
89.999	126.396	79.981	19.994	100.138	20.019	4.525	0.407
90.499	126.540	79.981	19.994	100.136	20.013	4.961	0.389
90.999	126.753	79.978	19.994	100.136	20.011	5.164	0.357
91.499	126.942	79.980	19.994	100.140	20.013	5.034	0.380
91.999	127.149	79.981	19.994	100.144	20.018	4.537	0.399
92.499	127.367	79.979	19.994	100.149	20.017	4.640	0.410
92.999	127.559	79.980	19.994	100.151	20.014	4.891	0.418
93.499	127.766	79.981	19.994	100.151	20.012	5.098	0.405
93.999	127.947	79.982	19.994	100.151	20.015	4.839	0.393
94.499	128.167	79.981	19.994	100.151	20.016	4.722	0.395
95.000	128.360	79.980	19.993	100.151	20.013	4.957	0.407
95.500	128.565	79.980	19.993	100.151	20.014	4.877	0.405
96.000	128.757	79.981	19.994	100.151	20.012	5.096	0.397
96.500	129.003	79.980	19.995	100.152	20.025	3.977	0.417
96.999	129.200	79.981	19.994	100.152	20.012	5.055	0.441
97.499	129.404	79.980	19.992	100.153	20.014	4.875	0.422
97.999	129.610	79.981	19.993	100.153	20.020	4.408	0.405
98.499	129.841	79.981	19.994	100.153	20.012	5.046	0.423
98.999	130.051	79.982	19.993	100.153	20.015	4.848	0.439
99.499	130.212	79.981	19.992	100.151	20.014	4.896	0.406
99.999	130.436	79.980	19.992	100.146	20.017	4.690	0.378
100.499	130.670	79.982	19.992	100.142	20.015	4.793	0.421
100.999	130.919	79.979	19.992	100.138	20.016	4.768	0.470
101.500	131.094	79.981	19.992	100.136	20.015	4.804	0.454
102.000	131.291	79.981	19.993	100.136	20.018	4.556	0.399
102.500	131.549	79.982	19.993	100.141	20.018	4.585	0.414
103.000	131.761	79.982	19.994	100.145	20.016	4.731	0.462
103.499	131.960	79.982	19.993	100.149	20.012	5.062	0.441
103.999	132.180	79.983	19.994	100.152	20.010	5.263	0.415
104.499	132.375	79.982	19.994	100.153	20.018	4.608	0.417
104.999	132.628	79.981	19.992	100.152	20.018	4.535	0.432
105.499	132.873	79.981	19.993	100.152	20.013	4.982	0.473
105.999	133.059	79.981	19.992	100.151	20.016	4.747	0.464
106.499	133.273	79.982	19.994	100.151	20.019	4.496	0.415
106.999	133.483	79.981	19.993	100.152	20.016	4.749	0.412
107.499	133.780	79.981	19.991	100.152	20.019	4.498	0.465
107.999	133.996	79.982	19.993	100.153	20.015	4.836	0.510
108.499	134.194	79.983	19.993	100.153	20.010	5.208	0.464
108.999	134.391	79.983	19.993	100.153	20.014	4.916	0.405
109.499	134.629	79.982	19.993	100.154	20.015	4.850	0.415
110.000	134.895	79.981	19.992	100.152	20.015	4.847	0.469
110.500	135.089	79.982	19.995	100.151	20.016	4.777	0.482
110.999	135.300	79.981	19.992	100.150	20.013	4.968	0.432
111.499	135.540	79.983	19.993	100.147	20.018	4.574	0.428
111.999	135.760	79.981	19.994	100.146	20.017	4.674	0.456
112.499	136.006	79.981	19.993	100.147	20.017	4.645	0.463
112.999	136.233	79.981	19.993	100.146	20.015	4.861	0.470
113.499	136.488	79.980	19.992	100.149	20.018	4.606	0.477
113.999	136.674	79.983	19.994	100.152	20.019	4.471	0.461
114.500	136.960	79.982	19.994	100.153	20.013	4.982	0.456
115.000	137.153	79.980	19.994	100.152	20.019	4.496	0.476
115.499	137.381	79.981	19.992	100.153	20.019	4.519	0.450
115.999	137.615	79.981	19.994	100.149	20.013	5.009	0.441
116.500	137.808	79.981	19.994	100.145	20.019	4.507	0.444
117.000	138.090	79.979	19.992	100.141	20.017	4.647	0.451
117.499	138.322	79.980	19.993	100.140	20.014	4.895	0.495
117.999	138.541	79.980	19.993	100.141	20.021	4.364	0.482
118.500	138.778	79.980	19.992	100.145	20.019	4.464	0.453
119.000	139.054	79.981	19.994	100.150	20.017	4.638	0.485
119.499	139.262	79.979	19.992	100.151	20.016	4.786	0.499
119.999	139.523	79.981	19.994	100.151	20.013	5.009	0.477
120.499	139.746	79.980	19.993	100.149	20.011	5.123	0.476
120.999	140.021	79.981	19.992	100.147	20.013	5.025	0.491
121.499	140.255	79.980	19.992	100.147	20.017	4.663	0.504
121.999	140.494	79.981	19.993	100.149	20.018	4.605	0.491
122.499	140.747	79.980	19.992	100.151	20.017	4.667	0.482
122.999	140.941	79.981	19.993	100.151	20.013	4.958	0.470
123.499	141.198	79.980	19.993	100.153	20.018	4.602	0.449
123.999	141.430	79.981	19.993	100.151	20.019	4.502	0.470
124.499	141.711	79.981	19.993	100.147	20.016	4.716	0.501
124.999	141.928	79.982	19.993	100.143	20.015	4.833	0.506
125.499	142.163	79.981	19.993	100.139	20.022	4.204	0.475
125.999	142.401	79.983	19.993	100.136	20.021	4.293	0.462
126.499	142.626	79.982	19.993	100.137	20.016	4.710	0.468
126.999	142.882	79.982	19.992	100.138	20.019	4.528	0.472
127.499	143.159	79.982	19.993	100.142	20.017	4.642	0.507
127.999	143.403	79.983	19.994	100.147	20.015	4.810	0.527
128.500	143.685	79.981	19.991	100.150	20.022	4.206	0.524
129.000	143.889	79.982	19.993	100.149	20.017	4.665	0.506
129.500	144.184	79.982	19.993	100.149	20.019	4.451	0.492
130.000	144.403	79.982	19.992	100.148	20.013	5.032	0.506
130.500	144.662	79.984	19.993	100.149	20.016	4.718	0.496
131.000	144.936	79.983	19.992	100.149	20.012	5.048	0.505
131.500	145.135	79.983	19.993	100.151	20.019	4.478	0.503
132.000	145.418	79.984	19.993	100.150	20.020	4.432	0.477
132.500	145.675	79.983	19.992	100.146	20.020	4.425	0.511
133.000	145.856	79.982	19.992	100.142	20.013	5.004	0.489
133.500	146.114	79.981	19.992	100.134	20.016	4.714	0.439
134.000	146.397	79.981	19.991	100.127	20.017	4.685	0.490
134.500	146.608	79.982	19.991	100.126	20.018	4.541	0.517
135.000	146.854	79.982	19.992	100.126	20.014	4.924	0.476
135.500	147.093	79.983	19.992	100.126	20.018	4.573	0.471
136.000	147.359	79.983	19.994	100.132	20.021	4.318	0.495
136.500	147.603	79.982	19.992	100.136	20.019	4.496	0.508
137.000	147.876	79.981	19.991	100.139	20.014	4.892	0.514
137.500	148.134	79.984	19.993	100.139	20.015	4.813	0.524
138.000	148.345	79.983	19.992	100.140	20.012	5.054	0.500
138.500	148.593	79.980	19.991	100.137	20.015	4.806	0.464
139.000	148.883	79.982	19.992	100.136	20.016	4.726	0.499
139.500	149.100	79.983	19.993	100.137	20.016	4.723	0.522
140.000	149.369	79.980	19.993	100.141	20.015	4.789	0.497
140.500	149.634	79.982	19.993	100.143	20.015	4.814	0.510
141.000	149.868	79.982	19.992	100.147	20.015	4.796	0.516
141.500	150.093	79.982	19.993	100.148	20.020	4.427	0.479
142.000	150.339	79.981	19.992	100.147	20.017	4.698	0.465
142.500	150.605	79.984	19.994	100.142	20.017	4.687	0.492
143.000	150.857	79.982	19.993	100.137	20.016	4.780	0.515
143.500	151.077	79.983	19.994	100.134	20.015	4.823	0.495
144.000	151.381	79.981	19.993	100.132	20.017	4.629	0.498
144.500	151.617	79.982	19.994	100.131	20.014	4.942	0.532
145.000	151.889	79.983	19.993	100.130	20.019	4.466	0.524
145.500	152.121	79.983	19.993	100.129	20.015	4.865	0.506
146.000	152.367	79.982	19.993	100.134	20.017	4.655	0.491
146.500	152.649	79.983	19.993	100.132	20.019	4.497	0.503
147.000	152.891	79.981	19.993	100.131	20.021	4.347	0.526
147.500	153.108	79.981	19.993	100.133	20.012	5.067	0.491
148.000	153.380	79.981	19.994	100.135	20.019	4.502	0.474
148.500	153.621	79.983	19.994	100.136	20.015	4.812	0.501
149.000	153.878	79.982	19.993	100.136	20.014	4.885	0.505
149.500	154.139	79.983	19.993	100.134	20.019	4.520	0.508
150.001	154.360	79.981	19.994	100.131	20.017	4.663	0.500
150.501	154.662	79.982	19.994	100.127	20.022	4.221	0.502
151.000	154.853	79.983	19.992	100.126	20.016	4.784	0.508
151.500	155.105	79.982	19.993	100.126	20.019	4.454	0.468
152.000	155.395	79.982	19.993	100.128	20.018	4.563	0.493
152.500	155.629	79.983	19.992	100.130	20.015	4.789	0.533
153.000	155.898	79.984	19.993	100.128	20.015	4.848	0.514
153.500	156.152	79.983	19.993	100.121	20.016	4.718	0.513
154.000	156.398	79.984	19.993	100.118	20.018	4.611	0.512
154.500	156.660	79.984	19.994	100.117	20.015	4.828	0.504
155.000	156.894	79.983	19.994	100.115	20.013	4.974	0.502
155.500	157.134	79.983	19.994	100.118	20.013	4.992	0.485
156.000	157.405	79.984	19.994	100.123	20.017	4.686	0.493
156.500	157.700	79.986	19.993	100.124	20.018	4.545	0.539
157.000	157.961	79.984	19.993	100.124	20.020	4.438	0.561
157.500	158.177	79.985	19.993	100.123	20.020	4.433	0.516
158.000	158.437	79.985	19.993	100.120	20.015	4.839	0.476
158.500	158.708	79.984	19.992	100.115	20.015	4.825	0.504
159.000	158.919	79.985	19.993	100.113	20.020	4.415	0.506
159.500	159.201	79.985	19.992	100.113	20.016	4.748	0.487
160.000	159.456	79.983	19.993	100.113	20.015	4.814	0.515
160.500	159.674	79.985	19.994	100.114	20.016	4.736	0.505
161.000	159.925	79.984	19.994	100.114	20.017	4.627	0.471
161.500	160.201	79.984	19.992	100.116	20.014	4.875	0.498
162.000	160.482	79.984	19.993	100.117	20.017	4.695	0.542
162.500	160.707	79.982	19.993	100.117	20.021	4.323	0.532
163.000	160.957	79.984	19.993	100.117	20.018	4.606	0.490
163.500	161.224	79.984	19.995	100.115	20.016	4.773	0.496
164.000	161.470	79.982	19.994	100.116	20.016	4.718	0.515
164.500	161.738	79.984	19.994	100.115	20.012	5.060	0.514
165.000	161.996	79.983	19.994	100.116	20.017	4.647	0.520
165.500	162.209	79.982	19.993	100.115	20.018	4.590	0.499
166.000	162.496	79.981	19.993	100.117	20.015	4.864	0.485
166.500	162.762	79.982	19.992	100.119	20.016	4.724	0.526
167.000	163.004	79.982	19.993	100.119	20.016	4.713	0.530
167.500	163.260	79.980	19.993	100.118	20.017	4.620	0.503
168.000	163.531	79.982	19.993	100.115	20.018	4.592	0.513
168.500	163.782	79.980	19.993	100.111	20.013	5.030	0.524
169.000	164.039	79.981	19.994	100.108	20.018	4.613	0.515
169.500	164.340	79.980	19.993	100.108	20.017	4.681	0.533
170.000	164.571	79.980	19.995	100.108	20.015	4.832	0.545
170.500	164.832	79.983	19.996	100.111	20.012	5.074	0.512
171.000	165.075	79.980	19.994	100.115	20.016	4.738	0.498
171.500	165.358	79.980	19.994	100.116	20.017	4.690	0.515
172.000	165.604	79.981	19.995	100.115	20.014	4.914	0.527
172.500	165.865	79.981	19.993	100.110	20.016	4.713	0.517
173.000	166.119	79.981	19.995	100.106	20.015	4.841	0.511
173.500	166.394	79.981	19.993	100.106	20.016	4.748	0.523
174.000	166.601	79.980	19.994	100.105	20.012	5.114	0.505
174.500	166.870	79.979	19.992	100.106	20.020	4.440	0.479
175.000	167.104	79.981	19.994	100.111	20.022	4.227	0.490
175.500	167.368	79.980	19.993	100.114	20.019	4.482	0.501
176.000	167.611	79.980	19.993	100.113	20.019	4.466	0.503
176.500	167.892	79.980	19.994	100.107	20.027	3.806	0.515
177.000	168.113	79.979	19.994	100.104	20.022	4.230	0.512
177.500	168.355	79.979	19.995	100.103	20.016	4.774	0.482
178.000	168.601	79.979	19.994	100.101	20.018	4.547	0.476
178.500	168.902	79.980	19.995	100.102	20.020	4.394	0.518
179.000	169.161	79.980	19.994	100.106	20.018	4.571	0.554
179.500	169.395	79.981	19.994	100.109	20.013	4.986	0.526
180.000	169.648	79.979	19.994	100.108	20.013	5.020	0.490
180.500	169.913	79.981	19.994	100.109	20.014	4.877	0.502
181.000	170.170	79.981	19.994	100.109	20.017	4.654	0.520
181.500	170.379	79.981	19.994	100.112	20.018	4.615	0.494
182.000	170.686	79.980	19.994	100.108	20.019	4.515	0.491
182.500	170.952	79.981	19.994	100.106	20.015	4.822	0.545
183.000	171.178	79.979	19.993	100.105	20.017	4.672	0.533
183.500	171.452	79.980	19.993	100.105	20.019	4.499	0.496
184.000	171.645	79.980	19.993	100.106	20.018	4.542	0.484
184.500	171.894	79.981	19.993	100.109	20.017	4.665	0.455
185.000	172.181	79.981	19.993	100.106	20.019	4.469	0.489
185.500	172.420	79.980	19.993	100.102	20.012	5.068	0.531
186.000	172.643	79.981	19.992	100.099	20.016	4.727	0.494
186.500	172.908	79.980	19.992	100.092	20.016	4.752	0.475
187.000	173.178	79.981	19.992	100.093	20.019	4.504	0.511
187.500	173.442	79.982	19.992	100.098	20.016	4.723	0.535
188.000	173.702	79.980	19.992	100.102	20.019	4.467	0.529
188.500	173.963	79.982	19.992	100.100	20.015	4.862	0.522
189.000	174.184	79.982	19.993	100.104	20.012	5.099	0.502
189.500	174.443	79.981	19.993	100.099	20.014	4.950	0.481
190.000	174.726	79.983	19.994	100.095	20.020	4.406	0.511
190.500	174.968	79.982	19.994	100.095	20.023	4.177	0.534
191.000	175.247	79.981	19.994	100.098	20.022	4.248	0.523
191.500	175.475	79.982	19.992	100.101	20.015	4.811	0.514
192.000	175.754	79.981	19.992	100.101	20.019	4.519	0.507
192.500	175.964	79.981	19.993	100.102	20.015	4.806	0.498
193.000	176.213	79.982	19.992	100.100	20.021	4.289	0.474
193.500	176.429	79.982	19.993	100.101	20.018	4.532	0.462
194.000	176.698	79.980	19.991	100.099	20.019	4.517	0.475
194.500	176.950	79.981	19.992	100.099	20.018	4.580	0.504
195.000	177.185	79.982	19.993	100.097	20.021	4.346	0.504
195.500	177.458	79.980	19.993	100.099	20.019	4.519	0.497
196.000	177.721	79.981	19.992	100.098	20.024	4.063	0.522
196.500	177.926	79.980	19.993	100.099	20.024	4.063	0.502
197.000	178.182	79.980	19.993	100.103	20.017	4.658	0.465
197.500	178.447	79.980	19.992	100.107	20.018	4.597	0.491
198.000	178.690	79.980	19.994	100.107	20.018	4.551	0.514
198.500	178.935	79.980	19.991	100.110	20.024	4.056	0.498
199.000	179.178	79.981	19.992	100.110	20.021	4.339	0.488
199.500	179.403	79.980	19.993	100.111	20.023	4.154	0.478
200.000	179.662	79.979	19.993	100.109	20.022	4.231	0.476
200.500	179.925	79.980	19.993	100.108	20.022	4.279	0.503
201.000	180.212	79.978	19.992	100.106	20.022	4.275	0.536
201.500	180.459	79.980	19.991	100.101	20.023	4.193	0.542
202.000	180.741	79.980	19.992	100.097	20.019	4.457	0.531
202.500	180.978	79.980	19.993	100.095	20.021	4.350	0.524
203.000	181.239	79.979	19.992	100.092	20.023	4.115	0.508
203.500	181.492	79.980	19.993	100.088	20.021	4.341	0.506
204.000	181.744	79.980	19.993	100.088	20.019	4.500	0.510
204.500	181.970	79.980	19.993	100.090	20.018	4.566	0.492
205.000	182.215	79.982	19.994	100.092	20.019	4.525	0.475
205.500	182.479	79.983	19.993	100.093	20.019	4.468	0.490
206.000	182.704	79.981	19.992	100.097	20.020	4.366	0.499
206.500	182.958	79.981	19.993	100.100	20.020	4.398	0.484
207.000	183.234	79.979	19.993	100.097	20.027	3.780	0.504
207.500	183.461	79.980	19.992	100.098	20.019	4.500	0.517
208.000	183.686	79.980	19.993	100.101	20.018	4.539	0.477
208.500	183.973	79.981	19.992	100.098	20.020	4.441	0.482
209.000	184.223	79.982	19.993	100.094	20.016	4.742	0.525
209.500	184.482	79.983	19.993	100.092	20.019	4.491	0.523
210.000	184.716	79.983	19.993	100.089	20.014	4.908	0.501
210.500	184.968	79.983	19.994	100.085	20.015	4.831	0.490
211.000	185.216	79.983	19.993	100.083	20.018	4.535	0.493
211.500	185.510	79.983	19.992	100.084	20.018	4.610	0.521
212.000	185.753	79.982	19.992	100.083	20.020	4.403	0.540
212.500	186.005	79.983	19.993	100.081	20.019	4.453	0.516
213.000	186.235	79.983	19.991	100.078	20.018	4.557	0.488
213.500	186.488	79.981	19.992	100.079	20.017	4.666	0.482
214.000	186.748	79.983	19.993	100.078	20.019	4.493	0.498
214.500	187.062	79.984	19.993	100.079	20.017	4.650	0.544
215.000	187.246	79.983	19.993	100.079	20.021	4.341	0.536
215.500	187.512	79.984	19.994	100.079	20.021	4.318	0.474
216.000	187.745	79.984	19.993	100.079	20.017	4.676	0.474
216.500	187.995	79.985	19.992	100.082	20.019	4.500	0.491
217.000	188.220	79.983	19.993	100.082	20.018	4.589	0.479
217.500	188.468	79.982	19.994	100.081	20.017	4.619	0.474
218.000	188.730	79.984	19.993	100.082	20.019	4.509	0.491
218.500	189.004	79.983	19.992	100.081	20.021	4.354	0.523
219.000	189.192	79.982	19.992	100.077	20.019	4.479	0.499
219.500	189.442	79.982	19.991	100.078	20.019	4.530	0.450
220.000	189.717	79.983	19.992	100.078	20.018	4.609	0.482
220.500	189.972	79.983	19.993	100.078	20.015	4.853	0.528
221.000	190.255	79.984	19.993	100.080	20.019	4.482	0.534
221.500	190.447	79.984	19.992	100.083	20.014	4.944	0.506
222.000	190.666	79.982	19.993	100.089	20.014	4.931	0.443
222.500	190.935	79.984	19.994	100.092	20.019	4.450	0.450
223.000	191.193	79.983	19.992	100.092	20.020	4.400	0.508
223.500	191.393	79.984	19.994	100.090	20.014	4.933	0.492
224.000	191.699	79.982	19.992	100.086	20.014	4.926	0.482
224.500	191.951	79.982	19.991	100.081	20.014	4.949	0.532
225.000	192.173	79.983	19.993	100.077	20.016	4.767	0.516
225.500	192.396	79.984	19.993	100.077	20.018	4.539	0.460
226.000	192.692	79.982	19.995	100.079	20.019	4.466	0.482
226.500	192.905	79.984	19.994	100.082	20.019	4.489	0.514
227.000	193.165	79.982	19.993	100.081	20.019	4.489	0.491
227.500	193.429	79.983	19.993	100.082	20.017	4.632	0.499
228.000	193.667	79.983	19.992	100.082	20.016	4.783	0.513
228.500	193.931	79.982	19.993	100.081	20.016	4.764	0.502
229.000	194.168	79.982	19.993	100.078	20.010	5.278	0.501
229.500	194.385	79.983	19.994	100.078	20.017	4.637	0.477
230.000	194.661	79.983	19.994	100.077	20.012	5.058	0.474
230.500	194.914	79.982	19.991	100.078	20.010	5.251	0.511
231.000	195.185	79.983	19.993	100.078	20.014	4.946	0.527
231.500	195.357	79.983	19.992	100.078	20.009	5.314	0.483
232.000	195.635	79.982	19.994	100.079	20.019	4.501	0.446
232.500	195.865	79.981	19.992	100.078	20.011	5.205	0.479
233.000	196.117	79.982	19.992	100.076	20.015	4.834	0.495
233.500	196.363	79.984	19.993	100.075	20.016	4.768	0.490
234.000	196.605	79.983	19.993	100.075	20.016	4.752	0.493
234.500	196.846	79.984	19.994	100.076	20.019	4.477	0.486
235.000	197.074	79.984	19.994	100.076	20.020	4.402	0.476
235.500	197.317	79.983	19.993	100.076	20.007	5.484	0.470
236.000	197.591	79.983	19.993	100.076	20.015	4.819	0.494
236.500	197.838	79.983	19.994	100.077	20.013	4.981	0.519
237.000	198.039	79.983	19.993	100.078	20.009	5.334	0.484
237.500	198.293	79.986	19.993	100.080	20.015	4.792	0.451
238.000	198.552	79.984	19.994	100.080	20.015	4.831	0.484
238.500	198.804	79.983	19.993	100.079	20.013	5.000	0.512
239.000	199.023	79.983	19.994	100.079	20.011	5.136	0.491
239.500	199.246	79.983	19.994	100.077	20.012	5.052	0.456
240.000	199.514	79.985	19.993	100.060	20.019	4.471	0.466
240.500	199.765	79.983	19.994	100.035	20.016	4.767	0.505
241.000	200.001	79.981	19.993	100.025	20.018	4.587	0.503
241.500	200.248	79.983	19.993	100.023	20.009	5.318	0.485
242.000	200.485	79.983	19.993	100.025	20.017	4.653	0.484
242.500	200.768	79.985	19.993	100.049	20.018	4.539	0.502
243.000	200.997	79.982	19.992	100.110	20.017	4.666	0.516
243.500	201.224	79.983	19.995	100.149	20.015	4.840	0.484
244.000	201.436	79.982	19.995	100.158	20.013	4.972	0.447
244.500	201.703	79.984	19.994	100.157	20.019	4.480	0.459
245.000	201.972	79.983	19.992	100.150	20.013	5.031	0.508
245.500	202.204	79.983	19.992	100.114	20.010	5.261	0.519
246.000	202.463	79.982	19.994	100.087	20.012	5.095	0.496
246.500	202.698	79.980	19.993	100.080	20.014	4.922	0.493
247.000	202.973	79.982	19.994	100.078	20.010	5.279	0.501
247.500	203.201	79.982	19.993	100.081	20.014	4.874	0.506
248.000	203.455	79.981	19.993	100.084	20.014	4.913	0.493
248.500	203.671	79.982	19.994	100.087	20.013	4.988	0.476
249.000	203.948	79.981	19.993	100.089	20.013	4.988	0.482
249.500	204.178	79.980	19.993	100.094	20.011	5.182	0.500
250.000	204.423	79.980	19.993	100.092	20.015	4.837	0.491
250.500	204.658	79.980	19.992	100.090	20.008	5.409	0.478
251.000	204.895	79.980	19.993	100.087	20.015	4.789	0.476
251.500	205.138	79.982	19.993	100.086	20.013	5.006	0.476
252.000	205.449	79.982	19.994	100.083	20.011	5.156	0.517
252.500	205.676	79.981	19.994	100.082	20.014	4.947	0.546
253.000	205.909	79.981	19.994	100.081	20.010	5.263	0.500
253.500	206.173	79.981	19.993	100.081	20.014	4.908	0.479
254.000	206.404	79.980	19.993	100.081	20.013	5.013	0.496
254.500	206.657	79.981	19.993	100.080	20.016	4.762	0.489
255.000	206.910	79.981	19.994	100.080	20.016	4.739	0.495
255.500	207.178	79.981	19.993	100.085	20.009	5.359	0.513
256.000	207.373	79.981	19.993	100.085	20.012	5.072	0.492
256.500	207.661	79.980	19.994	100.084	20.017	4.632	0.473
257.000	207.910	79.982	19.994	100.085	20.013	4.953	0.510
257.500	208.120	79.981	19.993	100.085	20.006	5.578	0.498
258.000	208.380	79.980	19.993	100.080	20.013	5.033	0.464
258.500	208.600	79.982	19.994	100.080	20.009	5.350	0.475
259.000	208.872	79.980	19.993	100.082	20.013	4.960	0.486
259.500	209.100	79.979	19.992	100.081	20.014	4.928	0.496
260.000	209.346	79.982	19.994	100.081	20.013	4.969	0.487
260.500	209.572	79.981	19.994	100.083	20.014	4.917	0.473
261.000	209.840	79.981	19.993	100.083	20.013	5.024	0.483
261.500	210.115	79.980	19.993	100.080	20.015	4.846	0.519
262.000	210.310	79.980	19.993	100.080	20.018	4.602	0.506
262.500	210.529	79.981	19.994	100.080	20.013	5.017	0.442
263.000	210.769	79.982	19.994	100.078	20.014	4.946	0.436
263.500	211.063	79.979	19.993	100.078	20.011	5.149	0.497
264.000	211.289	79.981	19.995	100.078	20.010	5.281	0.527
264.500	211.529	79.980	19.994	100.077	20.012	5.046	0.493
265.000	211.795	79.981	19.994	100.077	20.015	4.855	0.486
265.500	212.009	79.980	19.994	100.077	20.016	4.771	0.493
266.000	212.271	79.979	19.992	100.077	20.014	4.942	0.478
266.500	212.520	79.979	19.995	100.077	20.011	5.158	0.494
267.000	212.806	79.980	19.992	100.077	20.007	5.489	0.524
267.500	213.001	79.980	19.994	100.078	20.010	5.231	0.508
268.000	213.262	79.980	19.994	100.077	20.013	5.006	0.468
268.500	213.543	79.980	19.995	100.077	20.008	5.377	0.499
269.000	213.753	79.981	19.994	100.077	20.008	5.455	0.516
269.500	213.984	79.981	19.993	100.077	20.009	5.318	0.466
270.000	214.244	79.982	19.993	100.076	20.007	5.459	0.466
270.500	214.515	79.982	19.994	100.075	20.010	5.277	0.511
271.000	214.772	79.980	19.994	100.075	20.011	5.170	0.530
271.500	215.008	79.981	19.993	100.072	20.011	5.190	0.510
272.000	215.225	79.982	19.993	100.071	20.010	5.218	0.473
272.500	215.455	79.980	19.991	100.071	20.009	5.370	0.450
273.000	215.704	79.980	19.993	100.069	20.010	5.245	0.463
273.500	215.993	79.980	19.992	100.067	20.011	5.156	0.508
274.000	216.231	79.982	19.992	100.069	20.010	5.279	0.533
274.500	216.455	79.981	19.993	100.070	20.010	5.256	0.495
275.000	216.700	79.982	19.993	100.071	20.008	5.402	0.465
275.500	216.953	79.981	19.992	100.069	20.008	5.416	0.483
276.000	217.223	79.982	19.994	100.071	20.010	5.231	0.511
276.500	217.470	79.980	19.992	100.072	20.007	5.457	0.520
277.000	217.728	79.981	19.993	100.072	20.009	5.318	0.511
277.500	217.990	79.980	19.994	100.072	20.005	5.678	0.512
278.000	218.233	79.980	19.992	100.076	20.005	5.698	0.513
278.500	218.461	79.980	19.993	100.077	20.008	5.432	0.489
279.000	218.672	79.980	19.993	100.077	20.010	5.284	0.455
279.500	218.911	79.981	19.993	100.079	20.008	5.404	0.444
280.000	219.197	79.980	19.994	100.078	20.007	5.498	0.487
280.500	219.403	79.981	19.992	100.078	20.007	5.473	0.508
281.000	219.686	79.981	19.994	100.078	20.007	5.500	0.490
281.500	219.917	79.981	19.994	100.077	20.005	5.657	0.502
282.000	220.140	79.980	19.993	100.076	20.010	5.229	0.484
282.500	220.431	79.980	19.993	100.076	20.009	5.320	0.484
283.000	220.635	79.981	19.992	100.076	20.002	5.908	0.505
283.500	220.887	79.982	19.994	100.076	20.003	5.830	0.476
284.000	221.154	79.982	19.993	100.076	20.008	5.429	0.487
284.500	221.380	79.980	19.994	100.076	20.008	5.420	0.506
285.000	221.674	79.981	19.993	100.076	20.002	5.917	0.507
285.500	221.892	79.981	19.994	100.077	19.999	6.179	0.516
286.000	222.164	79.981	19.994	100.076	20.002	5.892	0.501
286.500	222.416	79.982	19.993	100.075	20.006	5.598	0.507
287.000	222.639	79.981	19.994	100.075	20.006	5.555	0.500
287.500	222.904	79.982	19.994	100.074	20.005	5.657	0.482
288.000	223.140	79.982	19.993	100.073	20.003	5.814	0.495
288.500	223.428	79.982	19.993	100.073	20.004	5.782	0.513
289.000	223.632	79.982	19.992	100.074	20.006	5.602	0.508
289.500	223.901	79.981	19.994	100.075	20.002	5.953	0.482
290.000	224.170	79.981	19.992	100.075	20.000	6.063	0.505
290.500	224.408	79.982	19.993	100.075	20.007	5.514	0.522
291.000	224.618	79.982	19.993	100.074	20.002	5.890	0.478
291.500	224.909	79.982	19.994	100.073	20.002	5.894	0.474
292.000	225.137	79.983	19.994	100.073	20.004	5.787	0.510
292.500	225.415	79.982	19.992	100.072	20.005	5.678	0.512
293.000	225.638	79.982	19.993	100.071	19.998	6.273	0.503
293.500	225.894	79.983	19.993	100.073	20.002	5.892	0.490
294.000	226.132	79.983	19.994	100.073	20.002	5.912	0.486
294.500	226.414	79.982	19.993	100.071	19.997	6.324	0.507
295.000	226.640	79.983	19.994	100.072	20.000	6.065	0.514
295.500	226.922	79.982	19.993	100.073	19.999	6.188	0.509
296.000	227.141	79.982	19.993	100.072	20.000	6.097	0.505
296.500	227.380	79.984	19.994	100.072	19.996	6.404	0.479
297.000	227.644	79.982	19.993	100.074	19.999	6.140	0.481
297.500	227.878	79.982	19.993	100.074	19.995	6.471	0.501
298.000	228.118	79.982	19.994	100.073	19.996	6.460	0.486
298.500	228.413	79.981	19.995	100.073	19.997	6.346	0.505
299.000	228.655	79.983	19.993	100.069	19.998	6.291	0.536
299.500	228.891	79.982	19.993	100.069	19.994	6.598	0.507
300.000	229.146	79.983	19.993	100.068	19.996	6.455	0.484
300.500	229.389	79.982	19.994	100.069	19.992	6.714	0.495
301.000	229.627	79.982	19.994	100.070	19.991	6.860	0.490
301.500	229.857	79.982	19.993	100.073	19.999	6.183	0.475
302.000	230.139	79.981	19.993	100.074	19.991	6.835	0.490
302.500	230.401	79.982	19.992	100.075	19.984	7.464	0.528
303.000	230.646	79.982	19.993	100.076	19.994	6.573	0.526
303.500	230.869	79.981	19.992	100.076	19.988	7.099	0.488
304.000	231.132	79.982	19.992	100.077	19.990	6.912	0.477
304.500	231.374	79.981	19.992	100.074	19.989	7.028	0.496
305.000	231.577	79.983	19.993	100.070	19.990	6.912	0.475
305.500	231.861	79.981	19.992	100.068	19.990	6.921	0.466
306.000	232.102	79.984	19.993	100.065	19.997	6.311	0.506
306.500	232.373	79.983	19.992	100.064	19.986	7.300	0.518
307.000	232.623	79.981	19.992	100.067	19.988	7.104	0.516
307.500	232.849	79.983	19.994	100.071	19.981	7.671	0.498
308.000	233.089	79.984	19.993	100.073	19.981	7.694	0.471
308.500	233.380	79.981	19.992	100.077	19.983	7.542	0.499
309.000	233.593	79.982	19.992	100.078	19.983	7.517	0.517
309.500	233.838	79.983	19.993	100.078	19.980	7.776	0.481
310.000	234.061	79.982	19.992	100.078	19.975	8.189	0.463
310.500	234.341	79.983	19.993	100.078	19.981	7.699	0.485
311.000	234.578	79.982	19.992	100.077	19.971	8.480	0.510
311.500	234.805	79.984	19.993	100.073	19.975	8.173	0.490
312.000	235.060	79.982	19.994	100.072	19.976	8.111	0.473
312.500	235.296	79.984	19.993	100.072	19.974	8.243	0.487
313.000	235.562	79.984	19.992	100.073	19.975	8.186	0.497
313.500	235.801	79.984	19.994	100.073	19.967	8.878	0.504
314.000	236.080	79.984	19.993	100.071	19.972	8.454	0.512
314.500	236.316	79.983	19.991	100.068	19.970	8.620	0.516
315.000	236.552	79.982	19.992	100.067	19.973	8.351	0.493
315.500	236.837	79.984	19.994	100.066	19.971	8.486	0.497
316.000	237.090	79.984	19.993	100.066	19.971	8.544	0.530
316.500	237.326	79.984	19.992	100.069	19.971	8.553	0.513
317.000	237.593	79.983	19.992	100.072	19.965	9.004	0.495
317.500	237.816	79.983	19.992	100.072	19.968	8.797	0.496
318.000	238.089	79.983	19.994	100.072	19.962	9.232	0.494
318.500	238.313	79.984	19.992	100.072	19.961	9.391	0.497
319.000	238.555	79.984	19.993	100.075	19.964	9.095	0.481
319.500	238.827	79.983	19.993	100.075	19.962	9.261	0.490
320.000	239.088	79.983	19.993	100.076	19.961	9.336	0.524
320.500	239.310	79.983	19.992	100.077	19.953	9.992	0.508
321.000	239.537	79.982	19.994	100.075	19.956	9.815	0.466
321.500	239.778	79.980	19.992	100.074	19.958	9.610	0.458
322.000	240.027	79.981	19.993	100.074	19.954	9.977	0.478
322.500	240.287	79.983	19.992	100.074	19.950	10.255	0.499
323.000	240.510	79.983	19.993	100.074	19.954	9.963	0.496
323.500	240.750	79.982	19.992	100.076	19.953	10.038	0.473
324.000	241.013	79.983	19.991	100.075	19.955	9.871	0.483
324.500	241.258	79.981	19.993	100.068	19.954	9.914	0.505
325.000	241.521	79.981	19.994	100.064	19.944	10.815	0.508
325.500	241.770	79.980	19.993	100.063	19.952	10.084	0.510
326.000	242.053	79.978	19.993	100.061	19.946	10.631	0.522
326.500	242.304	79.979	19.993	100.063	19.945	10.734	0.533
327.000	242.532	79.978	19.993	100.071	19.950	10.270	0.506
327.500	242.776	79.980	19.992	100.075	19.946	10.621	0.476
328.000	243.020	79.980	19.994	100.075	19.944	10.819	0.480
328.500	243.291	79.981	19.993	100.078	19.943	10.826	0.501
329.000	243.551	79.980	19.994	100.077	19.942	10.926	0.523
329.500	243.764	79.978	19.992	100.071	19.943	10.856	0.502
330.000	244.027	79.981	19.992	100.067	19.944	10.824	0.475
330.500	244.267	79.979	19.993	100.067	19.943	10.899	0.489
331.000	244.486	79.980	19.993	100.066	19.945	10.676	0.481
331.500	244.750	79.981	19.993	100.066	19.943	10.873	0.471
332.000	245.015	79.982	19.991	100.071	19.941	10.999	0.506
332.500	245.292	79.981	19.993	100.073	19.946	10.629	0.536
333.000	245.530	79.982	19.993	100.073	19.941	11.031	0.528
333.500	245.799	79.981	19.995	100.073	19.943	10.898	0.511
334.000	246.046	79.981	19.994	100.069	19.941	11.015	0.512
334.500	246.328	79.983	19.993	100.064	19.941	11.014	0.523
335.000	246.532	79.980	19.993	100.060	19.941	11.033	0.507
335.500	246.795	79.981	19.994	100.055	19.948	10.445	0.476
336.000	247.040	79.981	19.994	100.052	19.943	10.839	0.487
336.500	247.278	79.980	19.992	100.050	19.947	10.552	0.496
337.000	247.531	79.981	19.993	100.052	19.948	10.457	0.487
337.500	247.785	79.981	19.993	100.057	19.942	10.972	0.499
338.000	248.045	79.980	19.993	100.062	19.946	10.637	0.510
338.500	248.305	79.982	19.994	100.063	19.945	10.731	0.517
339.000	248.580	79.981	19.992	100.067	19.950	10.316	0.528
339.500	248.784	79.982	19.994	100.070	19.949	10.389	0.507
340.000	249.072	79.980	19.992	100.066	19.946	10.594	0.486
340.500	249.306	79.981	19.994	100.066	19.951	10.186	0.507
341.000	249.589	79.980	19.993	100.066	19.949	10.380	0.519
341.500	249.825	79.981	19.993	100.065	19.953	10.034	0.517
342.000	250.091	79.981	19.994	100.065	19.949	10.366	0.510
342.500	250.329	79.980	19.992	100.061	19.953	10.032	0.503
343.000	250.605	79.981	19.992	100.060	19.949	10.367	0.509
343.500	250.851	79.982	19.993	100.059	19.949	10.362	0.518
344.000	251.107	79.981	19.992	100.061	19.952	10.150	0.512
344.500	251.382	79.981	19.993	100.060	19.948	10.426	0.517
345.000	251.640	79.980	19.993	100.064	19.953	10.040	0.533
345.500	251.909	79.981	19.994	100.060	19.951	10.186	0.530
346.000	252.139	79.981	19.993	100.058	19.951	10.218	0.513
346.500	252.366	79.983	19.994	100.058	19.954	9.984	0.478
347.000	252.673	79.979	19.994	100.061	19.953	10.063	0.496
347.500	252.883	79.979	19.994	100.064	19.953	10.018	0.525
348.000	253.152	79.981	19.992	100.069	19.955	9.902	0.498
348.500	253.400	79.980	19.994	100.070	19.954	9.975	0.498
349.000	253.647	79.980	19.994	100.070	19.957	9.651	0.507
349.500	253.909	79.981	19.992	100.068	19.954	9.977	0.502
350.000	254.175	79.981	19.992	100.068	19.956	9.781	0.519
350.500	254.448	79.979	19.993	100.067	19.958	9.571	0.534
351.000	254.681	79.980	19.993	100.070	19.949	10.354	0.523
351.500	254.964	79.983	19.993	100.069	19.953	10.001	0.511
352.000	255.174	79.981	19.995	100.070	19.956	9.741	0.504
352.500	255.455	79.981	19.994	100.070	19.949	10.340	0.492
353.000	255.699	79.980	19.994	100.071	19.956	9.808	0.508
353.500	255.967	79.981	19.995	100.072	19.954	9.934	0.518
354.000	256.190	79.979	19.994	100.074	19.956	9.772	0.502
354.500	256.450	79.980	19.994	100.073	19.954	9.943	0.487
355.000	256.715	79.981	19.995	100.072	19.953	10.027	0.504
355.500	256.929	79.980	19.995	100.070	19.955	9.895	0.502
356.000	257.229	79.981	19.994	100.069	19.952	10.150	0.496
356.500	257.434	79.980	19.994	100.068	19.957	9.690	0.509
357.000	257.684	79.981	19.994	100.068	19.955	9.836	0.480
357.500	257.940	79.979	19.994	100.070	19.956	9.802	0.480
358.000	258.192	79.981	19.994	100.070	19.955	9.872	0.507
358.500	258.483	79.980	19.992	100.070	19.956	9.817	0.526
359.000	258.749	79.980	19.994	100.071	19.953	10.066	0.551
359.500	258.975	79.980	19.994	100.071	19.952	10.091	0.525
360.000	259.246	79.981	19.993	100.069	19.955	9.838	0.494
360.500	259.482	79.980	19.991	100.068	19.950	10.276	0.501
361.000	259.692	79.981	19.994	100.069	19.956	9.756	0.477
361.500	259.999	79.980	19.992	100.064	19.953	10.032	0.482
362.000	260.203	79.982	19.992	100.060	19.953	10.013	0.514
362.500	260.463	79.982	19.993	100.061	19.951	10.218	0.487
363.000	260.680	79.981	19.993	100.061	19.954	9.952	0.470
363.500	260.965	79.981	19.992	100.062	19.955	9.852	0.489
364.000	261.190	79.981	19.993	100.067	19.950	10.296	0.506
364.500	261.448	79.979	19.993	100.072	19.955	9.859	0.497
365.000	261.706	79.979	19.992	100.073	19.949	10.353	0.499
365.500	261.971	79.980	19.992	100.076	19.951	10.157	0.520
366.000	262.179	79.983	19.992	100.076	19.953	10.062	0.498
366.500	262.410	79.981	19.992	100.076	19.954	9.961	0.456
367.000	262.705	79.980	19.993	100.076	19.951	10.226	0.482
367.500	262.972	79.982	19.992	100.074	19.950	10.315	0.544
368.000	263.192	79.982	19.993	100.073	19.946	10.588	0.524
368.500	263.441	79.983	19.992	100.073	19.947	10.533	0.478
369.000	263.700	79.982	19.991	100.071	19.946	10.633	0.488
369.500	263.920	79.983	19.994	100.071	19.944	10.809	0.494
370.000	264.175	79.982	19.993	100.071	19.946	10.634	0.477
370.500	264.447	79.982	19.994	100.073	19.944	10.754	0.501
371.000	264.692	79.981	19.993	100.072	19.938	11.263	0.522
371.500	264.915	79.983	19.994	100.074	19.944	10.791	0.492
372.000	265.179	79.982	19.992	100.074	19.937	11.356	0.478
372.500	265.428	79.983	19.992	100.073	19.940	11.160	0.500
373.000	265.697	79.982	19.992	100.071	19.941	11.076	0.515
373.500	265.932	79.982	19.992	100.071	19.940	11.084	0.511
374.000	266.195	79.983	19.992	100.071	19.935	11.560	0.501
374.500	266.415	79.983	19.992	100.072	19.938	11.326	0.491
375.000	266.668	79.984	19.993	100.074	19.933	11.723	0.478
375.500	266.927	79.982	19.992	100.076	19.932	11.804	0.492
376.000	267.210	79.982	19.992	100.076	19.931	11.845	0.527
376.500	267.457	79.982	19.993	100.076	19.932	11.814	0.536
377.000	267.736	79.983	19.991	100.076	19.936	11.479	0.528
377.500	267.961	79.982	19.993	100.076	19.935	11.559	0.515
378.000	268.211	79.982	19.992	100.077	19.937	11.395	0.489
378.500	268.445	79.982	19.992	100.077	19.932	11.795	0.480
379.000	268.706	79.980	19.993	100.076	19.931	11.854	0.490
379.500	268.971	79.982	19.994	100.076	19.932	11.786	0.511
380.000	269.202	79.982	19.993	100.076	19.932	11.770	0.511
380.500	269.453	79.983	19.994	100.076	19.929	12.043	0.489
381.000	269.696	79.983	19.992	100.077	19.932	11.822	0.488
381.500	269.953	79.982	19.993	100.078	19.929	12.082	0.497
382.000	270.221	79.982	19.993	100.078	19.927	12.224	0.512
382.500	270.470	79.982	19.993	100.079	19.931	11.884	0.521
383.000	270.733	79.980	19.993	100.080	19.927	12.220	0.515
383.500	270.938	79.981	19.993	100.082	19.928	12.174	0.490
384.000	271.227	79.980	19.992	100.085	19.923	12.555	0.481
384.500	271.463	79.983	19.992	100.088	19.927	12.231	0.510
385.000	271.722	79.982	19.991	100.090	19.923	12.541	0.510
385.500	271.959	79.981	19.992	100.093	19.927	12.235	0.496
386.000	272.206	79.982	19.993	100.096	19.926	12.335	0.490
386.500	272.480	79.980	19.994	100.094	19.928	12.149	0.502
387.000	272.687	79.982	19.993	100.093	19.929	12.035	0.501
387.500	272.945	79.983	19.993	100.094	19.927	12.226	0.473
388.000	273.208	79.982	19.993	100.098	19.929	12.055	0.493
388.500	273.413	79.982	19.992	100.100	19.928	12.119	0.494
389.000	273.686	79.981	19.992	100.105	19.926	12.322	0.473
389.500	273.953	79.983	19.994	100.108	19.926	12.306	0.509
390.000	274.197	79.983	19.993	100.111	19.926	12.308	0.526
390.500	274.464	79.983	19.993	100.111	19.924	12.495	0.511
391.000	274.702	79.982	19.993	100.107	19.923	12.518	0.507
391.500	274.987	79.984	19.993	100.107	19.926	12.263	0.514
392.000	275.214	79.981	19.993	100.109	19.925	12.423	0.518
392.500	275.467	79.984	19.993	100.111	19.923	12.530	0.496
393.000	275.710	79.982	19.992	100.111	19.924	12.473	0.488
393.500	275.970	79.984	19.993	100.115	19.924	12.487	0.500
394.000	276.206	79.984	19.992	100.116	19.923	12.590	0.499
394.500	276.474	79.982	19.992	100.117	19.919	12.861	0.500
395.000	276.717	79.984	19.992	100.116	19.921	12.712	0.508
395.500	276.929	79.985	19.993	100.115	19.922	12.632	0.483
396.000	277.194	79.983	19.991	100.115	19.920	12.796	0.466
396.500	277.423	79.984	19.993	100.113	19.920	12.787	0.486
397.000	277.691	79.984	19.992	100.113	19.925	12.373	0.496
397.500	277.962	79.984	19.992	100.113	19.925	12.348	0.518
398.000	278.183	79.983	19.990	100.113	19.920	12.795	0.515
398.500	278.531	79.984	19.993	100.113	19.924	12.484	0.530
399.000	278.697	79.984	19.992	100.114	19.923	12.548	0.541
399.500	278.962	79.984	19.992	100.114	19.925	12.406	0.473
400.000	279.229	79.984	19.991	100.114	19.921	12.760	0.482
400.500	279.484	79.985	19.992	100.114	19.925	12.370	0.527
401.000	279.738	79.982	19.991	100.114	19.924	12.477	0.515
401.500	279.987	79.983	19.992	100.115	19.926	12.302	0.505
402.000	280.268	79.984	19.994	100.116	19.925	12.399	0.517
402.500	280.489	79.983	19.991	100.117	19.924	12.456	0.516
403.000	280.703	79.984	19.993	100.117	19.923	12.549	0.469
403.500	280.993	79.983	19.992	100.117	19.924	12.440	0.469
404.000	281.213	79.983	19.994	100.122	19.926	12.305	0.507
404.500	281.424	79.981	19.992	100.125	19.923	12.516	0.470
405.000	281.715	79.981	19.992	100.123	19.926	12.336	0.466
405.500	281.978	79.980	19.994	100.125	19.926	12.338	0.528
406.000	282.235	79.981	19.993	100.132	19.924	12.496	0.537
406.500	282.464	79.981	19.993	100.131	19.924	12.514	0.503
407.000	282.702	79.982	19.993	100.129	19.927	12.188	0.477
407.500	282.984	79.982	19.992	100.135	19.931	11.884	0.494
408.000	283.244	79.981	19.993	100.140	19.928	12.128	0.531
408.500	283.486	79.980	19.992	100.140	19.927	12.190	0.522
409.000	283.753	79.982	19.993	100.144	19.932	11.764	0.505
409.500	283.980	79.981	19.994	100.150	19.934	11.599	0.501
410.000	284.209	79.982	19.993	100.152	19.933	11.718	0.475
410.500	284.483	79.981	19.994	100.151	19.934	11.651	0.479
411.000	284.742	79.982	19.993	100.152	19.933	11.686	0.518
411.500	284.991	79.981	19.994	100.153	19.934	11.672	0.520
412.000	285.239	79.981	19.994	100.153	19.939	11.225	0.503
412.500	285.486	79.982	19.993	100.152	19.935	11.563	0.496
413.000	285.729	79.980	19.992	100.148	19.935	11.584	0.493
413.500	285.972	79.980	19.994	100.145	19.933	11.725	0.488
414.000	286.229	79.980	19.994	100.145	19.940	11.148	0.493
414.500	286.465	79.982	19.993	100.145	19.934	11.606	0.497
415.000	286.731	79.982	19.994	100.146	19.939	11.239	0.498
415.500	286.971	79.982	19.994	100.150	19.936	11.485	0.504
416.000	287.221	79.981	19.994	100.154	19.938	11.264	0.498
416.500	287.482	79.980	19.993	100.154	19.938	11.321	0.501
417.000	287.687	79.981	19.994	100.154	19.940	11.089	0.489
417.500	287.946	79.981	19.993	100.154	19.933	11.679	0.465
418.000	288.167	79.982	19.995	100.154	19.939	11.226	0.472
418.500	288.425	79.980	19.993	100.154	19.944	10.790	0.479
419.000	288.690	79.981	19.993	100.153	19.940	11.134	0.501
419.500	288.950	79.982	19.994	100.154	19.941	11.066	0.524
420.000	289.237	79.982	19.993	100.154	19.939	11.244	0.536
420.500	289.462	79.981	19.994	100.153	19.938	11.306	0.529
421.000	289.745	79.981	19.993	100.152	19.940	11.133	0.510
421.500	289.980	79.983	19.994	100.150	19.943	10.853	0.513
422.000	290.218	79.982	19.994	100.150	19.942	10.960	0.495
422.500	290.478	79.983	19.992	100.150	19.938	11.291	0.486
423.000	290.726	79.981	19.993	100.150	19.939	11.234	0.504
423.500	291.002	79.982	19.992	100.152	19.941	11.026	0.516
424.000	291.278	79.980	19.992	100.154	19.939	11.197	0.538
424.500	291.533	79.981	19.993	100.154	19.943	10.855	0.542
425.000	291.805	79.982	19.994	100.154	19.943	10.866	0.529
425.500	292.028	79.982	19.992	100.154	19.943	10.907	0.510
426.000	292.273	79.980	19.993	100.153	19.939	11.235	0.481
426.500	292.498	79.982	19.994	100.153	19.939	11.224	0.469
427.000	292.721	79.982	19.994	100.153	19.939	11.231	0.459
427.500	292.997	79.980	19.993	100.154	19.940	11.121	0.474
428.000	293.236	79.982	19.993	100.154	19.939	11.221	0.508
428.500	293.508	79.980	19.993	100.154	19.937	11.349	0.513
429.000	293.730	79.979	19.992	100.154	19.938	11.283	0.502
429.500	294.004	79.980	19.993	100.154	19.938	11.267	0.494
430.000	294.252	79.981	19.993	100.153	19.934	11.625	0.509
430.500	294.526	79.979	19.993	100.153	19.937	11.415	0.522
431.000	294.773	79.980	19.993	100.154	19.940	11.107	0.522
431.500	294.990	79.980	19.991	100.156	19.934	11.626	0.493
432.000	295.280	79.980	19.993	100.161	19.936	11.503	0.485
432.500	295.526	79.980	19.994	100.164	19.937	11.380	0.521
433.000	295.770	79.980	19.993	100.166	19.933	11.738	0.513
433.500	296.050	79.980	19.993	100.165	19.934	11.592	0.507
434.000	296.252	79.979	19.993	100.165	19.934	11.601	0.503
434.500	296.507	79.979	19.994	100.164	19.936	11.441	0.470
435.000	296.797	79.979	19.993	100.164	19.932	11.779	0.501
435.500	297.013	79.980	19.993	100.162	19.933	11.692	0.525
436.000	297.276	79.980	19.993	100.164	19.931	11.922	0.492
436.500	297.534	79.979	19.993	100.165	19.934	11.650	0.501
437.000	297.772	79.980	19.994	100.162	19.931	11.884	0.509
437.500	298.045	79.980	19.994	100.160	19.924	12.497	0.503
438.000	298.280	79.981	19.994	100.162	19.927	12.235	0.509
438.500	298.536	79.979	19.994	100.160	19.929	12.036	0.500
439.000	298.794	79.979	19.994	100.158	19.935	11.573	0.503
439.500	299.027	79.980	19.994	100.158	19.935	11.557	0.502
440.000	299.283	79.979	19.993	100.157	19.931	11.856	0.490
440.500	299.512	79.977	19.992	100.155	19.928	12.140	0.487
441.000	299.786	79.981	19.995	100.156	19.938	11.329	0.493
441.500	300.012	79.980	19.994	100.155	19.931	11.912	0.502
442.000	300.273	79.980	19.994	100.152	19.932	11.796	0.494
442.500	300.554	79.981	19.993	100.150	19.932	11.821	0.515
443.000	300.746	79.979	19.994	100.150	19.926	12.286	0.507
443.500	301.020	79.978	19.993	100.149	19.928	12.103	0.470
444.000	301.296	79.979	19.994	100.145	19.927	12.176	0.508
444.500	301.483	79.980	19.993	100.145	19.935	11.537	0.506
445.000	301.754	79.981	19.992	100.147	19.934	11.655	0.461
445.500	302.029	79.979	19.993	100.147	19.930	11.962	0.502
446.000	302.290	79.980	19.993	100.146	19.929	12.084	0.541
446.500	302.514	79.981	19.993	100.144	19.928	12.094	0.510
447.000	302.793	79.982	19.993	100.140	19.933	11.748	0.494
447.500	303.014	79.981	19.992	100.136	19.927	12.239	0.502
448.000	303.280	79.981	19.993	100.131	19.929	12.008	0.493
448.500	303.532	79.982	19.992	100.127	19.932	11.798	0.502
449.000	303.817	79.980	19.993	100.126	19.927	12.182	0.528
449.500	304.016	79.982	19.992	100.126	19.927	12.225	0.510
450.000	304.254	79.981	19.992	100.124	19.926	12.331	0.460
450.500	304.494	79.982	19.992	100.123	19.928	12.092	0.458
451.000	304.845	79.981	19.992	100.122	19.927	12.213	0.534
451.500	305.005	79.984	19.992	100.121	19.926	12.249	0.551
452.000	305.274	79.983	19.992	100.120	19.925	12.342	0.470
452.500	305.518	79.984	19.993	100.118	19.933	11.668	0.471
453.000	305.756	79.983	19.993	100.117	19.925	12.381	0.497
453.500	306.023	79.983	19.994	100.117	19.929	12.029	0.493
454.000	306.325	79.983	19.992	100.115	19.929	12.067	0.537
454.500	306.571	79.983	19.992	100.116	19.930	11.932	0.559
455.000	306.796	79.983	19.993	100.112	19.929	12.018	0.510
455.500	307.075	79.983	19.991	100.105	19.926	12.265	0.488
456.000	307.331	79.982	19.992	100.098	19.930	11.942	0.519
456.500	307.609	79.982	19.992	100.093	19.932	11.805	0.535
457.000	307.841	79.981	19.991	100.086	19.928	12.131	0.522
457.500	308.065	79.982	19.993	100.079	19.928	12.078	0.483
458.000	308.377	79.982	19.993	100.075	19.934	11.614	0.496
458.500	308.588	79.982	19.993	100.072	19.929	12.039	0.530
459.000	308.817	79.983	19.992	100.065	19.932	11.823	0.481
459.500	309.063	79.983	19.991	100.058	19.932	11.793	0.457
460.000	309.372	79.982	19.993	100.053	19.933	11.663	0.515
460.500	309.652	79.983	19.993	100.048	19.929	11.996	0.572
461.000	309.814	79.983	19.993	100.042	19.934	11.652	0.516
461.500	310.073	79.982	19.992	100.040	19.933	11.713	0.432
462.000	310.312	79.982	19.993	100.040	19.938	11.297	0.459
462.500	310.608	79.981	19.993	100.040	19.941	11.048	0.516
463.000	310.856	79.982	19.993	100.039	19.936	11.479	0.539
463.500	311.072	79.981	19.992	100.038	19.931	11.865	0.504
464.000	311.415	79.982	19.992	100.036	19.938	11.287	0.511
464.500	311.607	79.981	19.993	100.029	19.942	10.934	0.547
465.000	311.894	79.981	19.992	100.021	19.936	11.439	0.507
465.500	312.169	79.982	19.992	100.014	19.942	10.984	0.521
466.000	312.420	79.982	19.993	100.009	19.941	11.068	0.544
466.500	312.648	79.981	19.993	100.004	19.942	10.975	0.502
467.000	312.933	79.982	19.993	100.004	19.944	10.800	0.496
467.500	313.158	79.982	19.993	100.005	19.941	11.028	0.511
468.000	313.389	79.983	19.993	100.007	19.942	10.914	0.483
468.500	313.686	79.983	19.993	100.005	19.941	11.018	0.492
469.000	313.953	79.982	19.993	100.004	19.941	11.022	0.546
469.500	314.161	79.982	19.993	100.000	19.944	10.783	0.519
470.000	314.455	79.982	19.993	100.000	19.947	10.536	0.488
470.500	314.648	79.982	19.993	99.997	19.950	10.272	0.495
471.000	314.913	79.982	19.994	99.997	19.948	10.454	0.473
471.500	315.200	79.983	19.994	99.997	19.949	10.359	0.505
472.000	315.429	79.983	19.992	99.997	19.948	10.430	0.534
472.500	315.715	79.982	19.993	99.997	19.952	10.091	0.516
473.000	315.948	79.983	19.994	99.997	19.949	10.394	0.517
473.500	316.178	79.984	19.994	99.995	19.955	9.837	0.491
474.000	316.456	79.984	19.992	99.994	19.952	10.121	0.485
474.500	316.696	79.984	19.992	99.993	19.947	10.488	0.513
475.000	316.908	79.983	19.992	99.991	19.949	10.351	0.485
475.500	317.178	79.984	19.992	99.988	19.954	9.934	0.467
476.000	317.429	79.983	19.992	99.989	19.954	9.928	0.501
476.500	317.694	79.986	19.993	99.989	19.956	9.745	0.518
477.000	317.917	79.983	19.992	99.989	19.954	9.914	0.502
477.500	318.201	79.983	19.992	99.991	19.955	9.823	0.498
478.000	318.476	79.984	19.992	99.992	19.959	9.518	0.533
478.500	318.731	79.983	19.992	99.992	19.958	9.614	0.545
479.000	318.955	79.982	19.992	99.993	19.957	9.669	0.504
479.500	319.246	79.983	19.992	99.990	19.956	9.757	0.497
480.000	319.460	79.984	19.991	99.987	19.957	9.646	0.510
480.500	319.718	79.984	19.993	99.982	19.961	9.323	0.488
481.000	319.959	79.984	19.994	99.975	19.961	9.334	0.485
481.500	320.193	79.982	19.993	99.973	19.956	9.734	0.487
482.000	320.453	79.982	19.992	99.972	19.957	9.658	0.484
482.500	320.718	79.981	19.992	99.975	19.962	9.296	0.510
483.000	320.979	79.983	19.993	99.981	19.964	9.090	0.526
483.500	321.219	79.983	19.992	99.985	19.968	8.719	0.514
484.000	321.458	79.982	19.993	99.988	19.963	9.190	0.490
484.500	321.738	79.983	19.993	99.992	19.968	8.751	0.499
485.000	321.994	79.983	19.992	99.992	19.968	8.742	0.527
485.500	322.238	79.981	19.992	99.992	19.971	8.485	0.518
486.000	322.479	79.983	19.992	99.991	19.968	8.733	0.493
486.500	322.740	79.979	19.993	99.989	19.964	9.125	0.494
487.000	322.985	79.980	19.992	99.988	19.967	8.843	0.504
487.500	323.270	79.981	19.993	99.987	19.970	8.625	0.518
488.000	323.467	79.980	19.993	99.989	19.970	8.612	0.506
488.500	323.716	79.982	19.992	99.992	19.970	8.613	0.464
489.000	323.954	79.979	19.992	99.994	19.966	8.895	0.466
489.500	324.220	79.980	19.992	99.994	19.967	8.840	0.496
490.000	324.486	79.981	19.992	99.994	19.972	8.437	0.519
490.500	324.721	79.980	19.992	99.994	19.970	8.571	0.517
491.000	324.980	79.980	19.993	99.995	19.972	8.389	0.497
491.500	325.195	79.982	19.994	99.995	19.973	8.378	0.484
492.000	325.429	79.980	19.993	99.991	19.975	8.189	0.462
492.500	325.707	79.979	19.992	99.987	19.970	8.574	0.480
493.000	325.956	79.980	19.992	99.979	19.967	8.822	0.520
493.500	326.206	79.980	19.992	99.972	19.974	8.232	0.513
494.000	326.461	79.981	19.993	99.967	19.971	8.490	0.502
494.500	326.683	79.980	19.993	99.967	19.972	8.437	0.491
495.000	326.960	79.981	19.993	99.966	19.976	8.052	0.488
495.500	327.213	79.981	19.993	99.967	19.976	8.055	0.514
496.000	327.436	79.980	19.993	99.968	19.975	8.157	0.503
496.500	327.737	79.979	19.993	99.970	19.977	8.002	0.500
497.000	327.995	79.979	19.992	99.970	19.976	8.059	0.542
497.500	328.276	79.981	19.993	99.974	19.974	8.239	0.549
498.000	328.479	79.980	19.994	99.981	19.975	8.180	0.511
498.500	328.749	79.980	19.992	99.986	19.980	7.729	0.478
499.000	328.989	79.980	19.993	99.991	19.983	7.529	0.492
499.500	329.271	79.981	19.993	99.997	19.978	7.927	0.516
500.000	329.510	79.980	19.993	99.997	19.978	7.918	0.522
500.500	329.727	79.980	19.992	99.996	19.977	7.986	0.488
501.000	329.997	79.980	19.993	99.996	19.976	8.118	0.471
501.500	330.296	79.979	19.993	99.996	19.981	7.704	0.528
502.000	330.522	79.980	19.993	99.995	19.977	8.023	0.547
502.500	330.760	79.979	19.993	99.996	19.978	7.912	0.495
503.000	331.003	79.982	19.993	99.997	19.975	8.162	0.472
503.500	331.266	79.978	19.992	99.997	19.977	7.973	0.493
504.000	331.530	79.979	19.993	99.996	19.975	8.167	0.517
504.500	331.785	79.979	19.994	99.998	19.975	8.171	0.523
505.000	332.014	79.981	19.993	99.996	19.975	8.155	0.502
505.500	332.261	79.980	19.993	99.996	19.977	7.984	0.480
506.000	332.494	79.976	19.992	99.996	19.979	7.830	0.478
506.500	332.805	79.981	19.992	99.996	19.977	8.044	0.512
507.001	332.946	79.981	19.994	99.996	19.978	7.941	0.498
507.500	333.313	79.980	19.994	99.998	19.981	7.714	0.480
508.000	333.560	79.980	19.993	99.999	19.977	8.048	0.561
508.500	333.796	79.981	19.993	99.999	19.975	8.164	0.548
509.000	334.078	79.981	19.993	100.000	19.975	8.149	0.501
509.500	334.299	79.980	19.993	100.000	19.973	8.313	0.511
510.000	334.555	79.980	19.993	99.997	19.978	7.967	0.490
510.500	334.841	79.981	19.994	99.996	19.982	7.561	0.509
511.000	335.058	79.980	19.993	99.997	19.976	8.115	0.523
511.500	335.288	79.980	19.992	99.997	19.978	7.885	0.475
512.000	335.594	79.979	19.993	99.995	19.974	8.287	0.492
512.500	335.888	79.981	19.993	99.998	19.983	7.529	0.568
513.000	336.107	79.980	19.993	100.000	19.978	7.930	0.556
513.500	336.365	79.979	19.992	99.999	19.978	7.907	0.495
514.000	336.551	79.980	19.992	100.000	19.982	7.604	0.461
514.500	336.871	79.980	19.993	100.000	19.978	7.923	0.475
515.000	337.074	79.979	19.993	100.000	19.983	7.490	0.514
515.500	337.345	79.980	19.993	99.999	19.978	7.948	0.499
516.000	337.603	79.979	19.993	99.999	19.976	8.121	0.502
516.500	337.831	79.981	19.993	100.000	19.981	7.654	0.508
517.000	338.089	79.981	19.993	100.000	19.977	7.982	0.486
517.500	338.344	79.980	19.992	100.000	19.979	7.812	0.500
518.000	338.626	79.977	19.992	100.001	19.975	8.160	0.525
518.500	338.800	79.979	19.994	100.001	19.982	7.615	0.496
519.000	339.078	79.979	19.993	100.002	19.980	7.754	0.454
519.500	339.341	79.979	19.992	100.002	19.982	7.556	0.497
520.000	339.619	79.979	19.994	100.003	19.980	7.759	0.541
520.500	339.856	79.979	19.993	100.007	19.978	7.888	0.528
521.000	340.086	79.979	19.993	100.007	19.978	7.902	0.491
521.500	340.353	79.978	19.995	100.007	19.983	7.477	0.482
522.000	340.588	79.979	19.994	100.007	19.979	7.834	0.500
522.500	340.850	79.980	19.993	100.006	19.980	7.773	0.500
523.000	341.075	79.981	19.995	100.001	19.980	7.748	0.492
523.500	341.327	79.980	19.994	100.001	19.976	8.058	0.482
524.000	341.611	79.981	19.994	100.000	19.977	8.047	0.506
524.500	341.847	79.979	19.993	100.001	19.979	7.862	0.528
525.000	342.139	79.981	19.994	100.001	19.978	7.912	0.524
525.500	342.333	79.981	19.993	100.000	19.975	8.142	0.507
526.000	342.587	79.980	19.993	100.000	19.980	7.750	0.467
526.500	342.845	79.981	19.995	100.000	19.980	7.741	0.480
527.000	343.065	79.981	19.993	100.002	19.980	7.716	0.495
527.500	343.347	79.982	19.994	100.001	19.973	8.342	0.490
528.000	343.609	79.980	19.994	100.003	19.978	7.930	0.523
528.500	343.838	79.982	19.994	100.005	19.976	8.121	0.517
529.000	344.130	79.981	19.994	100.004	19.976	8.101	0.506
529.500	344.368	79.981	19.994	99.998	19.977	7.983	0.525
530.000	344.591	79.981	19.993	99.997	19.980	7.778	0.495
530.500	344.876	79.982	19.994	99.996	19.975	8.203	0.485
531.000	345.106	79.982	19.994	99.995	19.977	7.980	0.512
531.500	345.374	79.983	19.994	99.994	19.976	8.128	0.507
532.000	345.651	79.982	19.993	99.996	19.975	8.188	0.522
532.500	345.900	79.983	19.994	100.000	19.971	8.525	0.535
533.000	346.162	79.982	19.993	100.000	19.976	8.109	0.518
533.500	346.419	79.983	19.993	100.004	19.974	8.241	0.515
534.000	346.687	79.983	19.994	100.009	19.976	8.077	0.522
534.500	346.918	79.981	19.992	100.012	19.977	8.020	0.512
535.000	347.171	79.982	19.993	100.011	19.978	7.953	0.491
535.500	347.438	79.984	19.993	100.012	19.976	8.101	0.502
536.000	347.671	79.983	19.994	100.007	19.977	8.008	0.510
536.500	347.928	79.981	19.993	100.002	19.974	8.243	0.496
537.000	348.179	79.983	19.993	99.998	19.973	8.377	0.499
537.500	348.400	79.982	19.993	99.999	19.974	8.228	0.490
538.000	348.708	79.981	19.991	100.000	19.976	8.064	0.501
538.500	348.971	79.983	19.993	100.002	19.972	8.421	0.550
539.000	349.188	79.982	19.992	100.005	19.973	8.323	0.525
539.500	349.445	79.982	19.992	100.004	19.977	7.974	0.477
540.000	349.724	79.984	19.994	100.004	19.975	8.149	0.505
540.500	349.939	79.982	19.994	100.006	19.972	8.409	0.515
541.000	350.213	79.982	19.992	100.006	19.978	7.963	0.492
541.500	350.459	79.982	19.993	100.006	19.971	8.522	0.504
542.000	350.724	79.983	19.992	100.006	19.970	8.597	0.515
542.500	350.978	79.981	19.992	100.005	19.965	9.016	0.515
543.000	351.213	79.981	19.994	100.009	19.973	8.365	0.504
543.500	351.456	79.982	19.993	100.014	19.972	8.431	0.483
544.000	351.708	79.981	19.992	100.016	19.973	8.329	0.487
544.500	351.995	79.982	19.993	100.019	19.970	8.591	0.517
545.000	352.258	79.983	19.993	100.022	19.967	8.809	0.545
545.500	352.536	79.982	19.993	100.016	19.970	8.602	0.546
546.000	352.756	79.983	19.991	100.009	19.968	8.768	0.519
546.500	352.997	79.982	19.993	100.010	19.969	8.657	0.479
547.000	353.304	79.982	19.992	100.011	19.970	8.565	0.504
547.500	353.496	79.985	19.993	100.011	19.968	8.761	0.524
548.000	353.759	79.984	19.993	100.017	19.968	8.807	0.478
548.500	354.066	79.982	19.992	100.024	19.969	8.689	0.513
549.000	354.274	79.982	19.994	100.025	19.967	8.819	0.542
549.500	354.514	79.984	19.993	100.024	19.967	8.839	0.481
550.000	354.794	79.983	19.993	100.019	19.972	8.395	0.484
550.500	355.053	79.983	19.992	100.017	19.966	8.923	0.530
551.000	355.295	79.982	19.992	100.013	19.969	8.705	0.520
551.500	355.570	79.981	19.992	100.014	19.966	8.919	0.509
552.000	355.802	79.985	19.994	100.019	19.969	8.709	0.512
552.500	356.055	79.983	19.992	100.026	19.966	8.969	0.496
553.000	356.306	79.983	19.993	100.029	19.968	8.755	0.494
553.500	356.528	79.985	19.992	100.033	19.964	9.078	0.488
554.000	356.817	79.983	19.993	100.034	19.966	8.942	0.492
554.500	357.070	79.983	19.992	100.033	19.964	9.065	0.526
555.000	357.301	79.984	19.992	100.033	19.965	9.046	0.513
555.500	357.578	79.984	19.992	100.033	19.967	8.880	0.496
556.000	357.804	79.982	19.992	100.033	19.966	8.939	0.506
556.500	358.068	79.984	19.992	100.032	19.972	8.418	0.497
557.000	358.318	79.984	19.993	100.032	19.963	9.197	0.502
557.500	358.576	79.985	19.993	100.032	19.960	9.445	0.511
558.000	358.802	79.984	19.992	100.032	19.963	9.199	0.496
558.500	359.054	79.983	19.992	100.033	19.965	9.051	0.481
559.000	359.273	79.985	19.992	100.033	19.962	9.234	0.475
559.500	359.562	79.983	19.992	100.036	19.960	9.402	0.490
560.000	359.792	79.983	19.993	100.036	19.961	9.359	0.513
560.500	360.071	79.983	19.992	100.036	19.965	9.006	0.514
561.000	360.343	79.982	19.992	100.037	19.962	9.231	0.531
561.500	360.552	79.983	19.992	100.037	19.959	9.525	0.516
562.000	360.810	79.983	19.992	100.037	19.965	9.060	0.474
562.500	361.097	79.983	19.992	100.037	19.956	9.805	0.506
563.000	361.343	79.981	19.992	100.037	19.961	9.372	0.539
563.500	361.539	79.982	19.992	100.036	19.964	9.138	0.488
564.000	361.847	79.981	19.993	100.037	19.961	9.336	0.473
564.500	362.107	79.981	19.992	100.037	19.956	9.803	0.536
565.000	362.350	79.980	19.992	100.037	19.959	9.502	0.535
565.500	362.561	79.981	19.993	100.036	19.974	8.300	0.478
566.000	362.827	79.981	19.993	100.036	19.967	8.826	0.466
566.500	363.093	79.981	19.993	100.036	19.965	9.038	0.505
567.000	363.403	79.981	19.992	100.037	19.962	9.249	0.554
567.500	363.615	79.979	19.992	100.037	19.965	9.006	0.549
568.000	363.821	79.983	19.992	100.038	19.962	9.293	0.470
568.500	363.971	79.981	19.993	100.039	19.961	9.363	0.387
569.000	364.300	79.981	19.992	100.039	19.961	9.336	0.417
569.500	364.636	79.980	19.993	100.039	19.960	9.455	0.572
570.000	364.815	79.983	19.993	100.041	19.964	9.115	0.590
570.500	365.096	79.980	19.992	100.041	19.959	9.514	0.488
571.000	365.303	79.981	19.992	100.042	19.962	9.275	0.474
571.500	365.519	79.983	19.992	100.042	19.961	9.343	0.456
572.000	365.818	79.980	19.993	100.042	19.958	9.630	0.469
572.500	366.116	79.981	19.992	100.041	19.959	9.521	0.556
573.000	366.260	79.981	19.992	100.041	19.962	9.281	0.519
573.500	366.572	79.983	19.992	100.040	19.959	9.559	0.449
574.000	366.808	79.982	19.992	100.040	19.964	9.090	0.502
574.500	367.154	79.980	19.992	100.040	19.957	9.696	0.565
575.000	367.015	79.979	19.992	100.040	19.959	9.550	0.394
575.500	367.703	79.982	19.992	100.040	19.952	10.081	0.378
576.000	367.689	79.980	19.991	100.041	19.957	9.666	0.612
576.500	367.871	79.979	19.991	100.041	19.957	9.730	0.422
577.000	368.075	79.979	19.992	100.041	19.958	9.618	0.278
577.500	368.259	79.981	19.992	100.041	19.960	9.404	0.387
578.000	368.522	79.979	19.991	100.040	19.956	9.792	0.417
578.500	368.809	79.982	19.992	100.041	19.954	9.967	0.498
579.000	369.399	79.980	19.992	100.041	19.955	9.817	0.713
579.500	369.576	79.981	19.992	100.041	19.953	9.990	0.822
580.000	369.929	79.981	19.992	100.042	19.955	9.875	0.649
580.500	370.332	79.981	19.993	100.043	19.953	10.053	0.643
581.000	370.522	79.981	19.993	100.043	19.952	10.092	0.675
581.500	370.479	79.982	19.993	100.042	19.954	9.980	0.370
582.000	370.805	79.981	19.992	100.043	19.952	10.106	0.215
582.500	371.088	79.981	19.993	100.042	19.956	9.797	0.446
583.000	371.295	79.980	19.992	100.042	19.950	10.284	0.550
583.500	371.512	79.980	19.992	100.041	19.956	9.783	0.457
584.000	371.828	79.981	19.992	100.042	19.955	9.865	0.478
584.500	372.001	79.980	19.993	100.041	19.952	10.069	0.511
585.000	372.364	79.982	19.993	100.042	19.950	10.267	0.513
585.500	372.583	79.981	19.993	100.041	19.952	10.112	0.559
586.000	372.851	79.979	19.992	100.041	19.947	10.523	0.535
586.500	373.084	79.981	19.993	100.040	19.944	10.746	0.495
587.000	373.312	79.979	19.993	100.040	19.946	10.600	0.481
587.500	373.643	79.980	19.992	100.038	19.945	10.676	0.509
588.000	373.780	79.982	19.992	100.040	19.943	10.858	0.513
588.500	374.099	79.980	19.993	100.041	19.948	10.414	0.463
589.000	374.292	79.981	19.993	100.042	19.946	10.614	0.484
589.500	374.577	79.980	19.993	100.042	19.941	11.019	0.495
590.000	374.816	79.979	19.993	100.041	19.944	10.805	0.500
590.500	375.030	79.980	19.993	100.039	19.942	10.976	0.489
591.000	375.296	79.981	19.993	100.037	19.942	10.942	0.467
591.500	375.582	79.981	19.994	100.036	19.942	10.983	0.516
592.000	375.846	79.981	19.994	100.037	19.939	11.181	0.551
592.500	376.065	79.979	19.992	100.039	19.936	11.459	0.516
593.000	376.359	79.982	19.992	100.044	19.932	11.780	0.497
593.500	376.535	79.982	19.994	100.048	19.935	11.573	0.491
594.000	376.816	79.981	19.993	100.048	19.935	11.568	0.463
594.500	377.053	79.980	19.993	100.046	19.935	11.546	0.488
595.000	377.324	79.980	19.994	100.045	19.934	11.601	0.513
595.500	377.542	79.981	19.993	100.040	19.936	11.474	0.499
596.000	377.808	79.981	19.993	100.037	19.932	11.797	0.487
596.500	378.055	79.980	19.993	100.037	19.928	12.136	0.499
597.000	378.261	79.981	19.992	100.040	19.931	11.888	0.483
597.500	378.546	79.981	19.993	100.043	19.929	12.081	0.472
598.000	378.774	79.982	19.993	100.044	19.924	12.449	0.502
598.500	379.061	79.983	19.993	100.045	19.923	12.519	0.514
599.000	379.251	79.980	19.993	100.045	19.924	12.490	0.496
599.500	379.510	79.980	19.992	100.043	19.922	12.660	0.463
600.000	379.769	79.978	19.993	100.040	19.923	12.557	0.483
600.500	380.031	79.981	19.993	100.039	19.921	12.686	0.519
601.000	380.243	79.981	19.992	100.039	19.919	12.873	0.498
601.500	380.483	79.980	19.993	100.038	19.918	12.971	0.463
602.000	380.750	79.982	19.993	100.039	19.917	13.028	0.480
602.500	380.982	79.981	19.992	100.039	19.917	13.069	0.503
603.000	381.217	79.980	19.994	100.040	19.917	13.013	0.483
603.500	381.444	79.981	19.992	100.041	19.919	12.910	0.465
604.000	381.707	79.983	19.992	100.042	19.918	12.988	0.477
604.500	381.993	79.979	19.993	100.040	19.915	13.181	0.519
605.000	382.186	79.981	19.994	100.043	19.915	13.240	0.513
605.500	382.441	79.982	19.993	100.049	19.916	13.147	0.463
606.000	382.715	79.982	19.993	100.051	19.911	13.541	0.489
606.500	382.961	79.982	19.993	100.051	19.910	13.612	0.524
607.000	383.139	79.983	19.992	100.052	19.911	13.574	0.472
607.500	383.405	79.984	19.994	100.049	19.903	14.212	0.434
608.000	383.657	79.983	19.993	100.046	19.906	13.930	0.481
608.500	383.927	79.982	19.993	100.048	19.905	14.015	0.520
609.000	384.173	79.983	19.994	100.051	19.904	14.113	0.519
609.500	384.371	79.984	19.993	100.053	19.900	14.477	0.480
610.000	384.642	79.984	19.992	100.052	19.905	14.040	0.456
610.500	384.880	79.985	19.994	100.048	19.899	14.534	0.489
611.000	385.160	79.982	19.993	100.042	19.897	14.750	0.513
611.500	385.412	79.980	19.993	100.038	19.896	14.788	0.525
612.000	385.602	79.982	19.993	100.035	19.894	15.016	0.487
612.500	385.858	79.983	19.994	100.036	19.891	15.241	0.444
613.000	386.117	79.983	19.993	100.039	19.892	15.129	0.480
613.500	386.376	79.982	19.994	100.043	19.889	15.423	0.517
614.000	386.601	79.981	19.993	100.046	19.888	15.511	0.501
614.500	386.855	79.981	19.993	100.047	19.889	15.432	0.482
615.000	387.105	79.981	19.994	100.046	19.886	15.640	0.491
615.500	387.322	79.984	19.993	100.046	19.888	15.449	0.485
616.000	387.593	79.982	19.994	100.044	19.888	15.443	0.478
616.500	387.834	79.982	19.994	100.042	19.888	15.488	0.500
617.000	388.059	79.984	19.994	100.041	19.886	15.632	0.489
617.500	388.311	79.982	19.995	100.047	19.886	15.661	0.472
618.000	388.590	79.982	19.993	100.049	19.883	15.914	0.504
618.500	388.806	79.983	19.993	100.051	19.883	15.868	0.513
619.000	389.084	79.980	19.993	100.055	19.880	16.142	0.494
619.500	389.340	79.982	19.994	100.060	19.879	16.209	0.514
620.000	389.579	79.981	19.994	100.059	19.878	16.320	0.514
620.500	389.824	79.982	19.993	100.060	19.873	16.717	0.490
621.000	390.087	79.979	19.992	100.060	19.870	16.978	0.496
621.500	390.314	79.983	19.993	100.057	19.870	17.032	0.499
622.000	390.564	79.980	19.993	100.054	19.873	16.713	0.483
622.500	390.848	79.982	19.994	100.054	19.870	16.949	0.506
623.000	391.052	79.982	19.993	100.051	19.864	17.494	0.512
623.500	391.336	79.981	19.993	100.048	19.868	17.195	0.488
624.000	391.564	79.981	19.992	100.048	19.862	17.699	0.499
624.500	391.788	79.980	19.991	100.047	19.864	17.455	0.482
625.000	392.069	79.983	19.993	100.045	19.858	17.982	0.479
625.500	392.282	79.984	19.992	100.046	19.854	18.342	0.500
626.000	392.555	79.982	19.992	100.050	19.854	18.296	0.490
626.500	392.764	79.983	19.992	100.056	19.854	18.349	0.484
627.000	393.062	79.984	19.993	100.059	19.853	18.448	0.494
627.500	393.319	79.983	19.992	100.057	19.851	18.623	0.531
628.000	393.553	79.982	19.992	100.056	19.850	18.675	0.523
628.500	393.845	79.982	19.992	100.057	19.850	18.711	0.509
629.000	394.059	79.981	19.992	100.055	19.846	19.014	0.516
629.500	394.331	79.982	19.993	100.056	19.844	19.206	0.496
630.000	394.607	79.984	19.992	100.059	19.843	19.231	0.517
630.500	394.872	79.982	19.992	100.063	19.843	19.274	0.545
631.000	395.121	79.985	19.992	100.062	19.836	19.807	0.528
631.500	395.333	79.985	19.992	100.064	19.835	19.915	0.488
632.000	395.599	79.985	19.992	100.059	19.836	19.879	0.470
632.500	395.868	79.981	19.992	100.054	19.838	19.638	0.507
633.000	396.124	79.985	19.993	100.052	19.833	20.074	0.530
633.500	396.347	79.983	19.993	100.049	19.829	20.431	0.501
634.000	396.611	79.984	19.992	100.048	19.827	20.567	0.483
634.500	396.858	79.984	19.992	100.050	19.826	20.679	0.499
635.000	397.095	79.984	19.992	100.051	19.821	21.115	0.498
635.500	397.370	79.984	19.992	100.050	19.823	20.932	0.498
636.000	397.608	79.983	19.992	100.052	19.817	21.451	0.513
636.500	397.854	79.982	19.992	100.051	19.819	21.297	0.499
637.000	398.097	79.985	19.993	100.053	19.813	21.750	0.487
637.500	398.317	79.983	19.992	100.058	19.816	21.550	0.476
638.000	398.631	79.982	19.991	100.059	19.811	21.906	0.499
638.500	398.880	79.982	19.992	100.060	19.813	21.809	0.549
639.000	399.099	79.986	19.993	100.059	19.808	22.208	0.515
639.500	399.374	79.984	19.992	100.055	19.809	22.115	0.480
640.000	399.575	79.981	19.992	100.054	19.810	22.054	0.485
640.500	399.848	79.981	19.992	100.055	19.799	22.935	0.475
641.000	400.095	79.982	19.992	100.057	19.803	22.621	0.497
641.500	400.350	79.983	19.992	100.057	19.804	22.495	0.511
642.000	400.605	79.982	19.994	100.058	19.797	23.124	0.506
642.500	400.877	79.982	19.992	100.061	19.796	23.231	0.519
643.000	401.094	79.979	19.991	100.061	19.797	23.137	0.508
643.500	401.317	79.982	19.992	100.064	19.795	23.310	0.464
644.000	401.614	79.981	19.993	100.068	19.791	23.652	0.480
644.500	401.839	79.982	19.992	100.067	19.791	23.657	0.521
645.000	402.105	79.980	19.992	100.060	19.788	23.878	0.506
645.500	402.347	79.981	19.992	100.054	19.781	24.452	0.499
646.000	402.560	79.983	19.993	100.048	19.783	24.321	0.481
646.500	402.858	79.980	19.993	100.042	19.784	24.173	0.483
647.000	403.104	79.981	19.992	100.043	19.780	24.563	0.528
647.500	403.314	79.980	19.992	100.045	19.777	24.838	0.500
648.000	403.552	79.982	19.993	100.046	19.777	24.763	0.452
648.500	403.825	79.979	19.992	100.045	19.774	25.050	0.479
649.000	404.084	79.981	19.992	100.050	19.768	25.565	0.521
649.500	404.326	79.981	19.993	100.055	19.767	25.606	0.517
650.000	404.585	79.981	19.993	100.057	19.763	25.981	0.502
650.500	404.864	79.981	19.992	100.056	19.764	25.916	0.519
651.000	405.087	79.982	19.993	100.060	19.761	26.123	0.520
651.500	405.352	79.983	19.993	100.056	19.758	26.431	0.495
652.000	405.594	79.983	19.991	100.050	19.759	26.322	0.498
652.500	405.837	79.980	19.993	100.047	19.757	26.458	0.496
653.000	406.097	79.980	19.992	100.048	19.761	26.173	0.494
653.500	406.352	79.981	19.992	100.045	19.758	26.417	0.509
654.000	406.602	79.983	19.992	100.043	19.752	26.930	0.510
654.500	406.857	79.982	19.992	100.042	19.751	26.995	0.505
655.000	407.111	79.982	19.993	100.044	19.749	27.144	0.507
655.500	407.350	79.979	19.992	100.049	19.755	26.666	0.501
656.000	407.578	79.980	19.992	100.049	19.744	27.546	0.480
656.500	407.849	79.982	19.991	100.049	19.740	27.872	0.482
657.000	408.117	79.981	19.993	100.053	19.743	27.667	0.519
657.500	408.371	79.982	19.993	100.054	19.743	27.695	0.531
658.000	408.638	79.980	19.992	100.054	19.741	27.817	0.522
658.500	408.848	79.984	19.993	100.059	19.741	27.846	0.499
659.000	409.106	79.981	19.993	100.061	19.735	28.362	0.472
659.500	409.391	79.979	19.993	100.059	19.734	28.408	0.505
660.000	409.624	79.981	19.993	100.055	19.735	28.348	0.531
660.500	409.880	79.982	19.992	100.052	19.734	28.401	0.503
661.000	410.124	79.983	19.993	100.048	19.734	28.377	0.495
661.500	410.422	79.983	19.994	100.053	19.728	28.878	0.521
662.000	410.655	79.981	19.993	100.052	19.727	29.034	0.537
662.500	410.903	79.984	19.993	100.056	19.726	29.040	0.506
663.000	411.148	79.983	19.993	100.056	19.725	29.199	0.487
663.500	411.406	79.981	19.993	100.054	19.723	29.321	0.498
664.000	411.615	79.983	19.993	100.051	19.721	29.485	0.485
664.500	411.891	79.983	19.993	100.051	19.723	29.332	0.476
665.000	412.077	79.981	19.992	100.054	19.716	29.892	0.474
665.500	412.371	79.982	19.993	100.058	19.721	29.473	0.471
666.000	412.604	79.981	19.993	100.061	19.716	29.946	0.503
666.500	412.895	79.981	19.993	100.064	19.718	29.740	0.526
667.000	413.147	79.977	19.992	100.068	19.714	30.065	0.534
667.500	413.387	79.982	19.992	100.069	19.711	30.323	0.518
668.000	413.605	79.980	19.993	100.068	19.714	30.099	0.475
668.500	413.891	79.980	19.993	100.069	19.708	30.555	0.480
669.000	414.111	79.982	19.993	100.066	19.708	30.551	0.505
669.500	414.365	79.981	19.993	100.064	19.706	30.793	0.490
670.000	414.590	79.981	19.993	100.059	19.707	30.709	0.476
670.500	414.880	79.981	19.992	100.053	19.707	30.694	0.497
671.000	415.099	79.982	19.993	100.049	19.705	30.843	0.512
671.500	415.381	79.982	19.993	100.053	19.704	30.920	0.505
672.000	415.621	79.982	19.992	100.055	19.702	31.046	0.512
672.500	415.873	79.981	19.993	100.057	19.702	31.108	0.506
673.000	416.118	79.982	19.993	100.060	19.697	31.489	0.494
673.500	416.386	79.980	19.994	100.064	19.703	31.020	0.505
674.000	416.627	79.979	19.993	100.064	19.699	31.301	0.511
674.500	416.872	79.977	19.993	100.059	19.697	31.512	0.498
675.000	417.162	79.982	19.994	100.060	19.697	31.518	0.511
675.500	417.380	79.979	19.994	100.058	19.697	31.484	0.521
676.000	417.661	79.981	19.993	100.058	19.697	31.493	0.503
676.500	417.906	79.981	19.995	100.056	19.700	31.286	0.513
677.000	418.196	79.980	19.993	100.055	19.695	31.687	0.531
677.500	418.388	79.981	19.994	100.051	19.689	32.173	0.508
678.000	418.657	79.981	19.993	100.050	19.687	32.350	0.471
678.500	418.910	79.982	19.994	100.052	19.691	31.974	0.491
679.000	419.137	79.982	19.994	100.055	19.691	32.012	0.501
679.500	419.398	79.981	19.992	100.057	19.690	32.115	0.484
680.000	419.633	79.981	19.995	100.060	19.689	32.171	0.492
680.500	419.930	79.980	19.993	100.061	19.685	32.479	0.514
681.000	420.145	79.982	19.994	100.055	19.685	32.520	0.522
681.500	420.431	79.981	19.993	100.049	19.685	32.544	0.506
682.000	420.712	79.983	19.994	100.047	19.688	32.299	0.534
682.500	420.926	79.984	19.993	100.045	19.684	32.605	0.531
683.000	421.203	79.981	19.993	100.047	19.682	32.754	0.493
683.500	421.445	79.979	19.992	100.048	19.685	32.511	0.505
684.000	421.686	79.982	19.993	100.049	19.679	33.005	0.501
684.500	421.957	79.980	19.993	100.049	19.682	32.745	0.497
685.000	422.189	79.980	19.993	100.053	19.681	32.872	0.508
685.500	422.444	79.982	19.994	100.050	19.683	32.650	0.495
686.000	422.710	79.983	19.992	100.049	19.678	33.066	0.503
686.500	422.942	79.982	19.992	100.048	19.683	32.715	0.509
687.000	423.230	79.982	19.992	100.047	19.678	33.144	0.509
687.500	423.476	79.981	19.992	100.042	19.679	33.040	0.528
688.000	423.726	79.980	19.992	100.041	19.671	33.722	0.516
688.500	423.971	79.983	19.993	100.044	19.674	33.409	0.495
689.000	424.232	79.981	19.993	100.044	19.671	33.710	0.500
689.500	424.474	79.984	19.993	100.051	19.671	33.679	0.504
690.000	424.697	79.982	19.993	100.055	19.671	33.671	0.484
690.500	424.994	79.981	19.992	100.054	19.670	33.768	0.492
691.000	425.250	79.982	19.992	100.053	19.669	33.869	0.537
691.500	425.498	79.983	19.992	100.053	19.675	33.397	0.529
692.000	425.762	79.983	19.993	100.047	19.669	33.879	0.508
692.500	426.014	79.983	19.992	100.043	19.666	34.090	0.514
693.000	426.281	79.983	19.992	100.047	19.664	34.235	0.517
693.500	426.535	79.982	19.993	100.050	19.667	34.015	0.520
694.000	426.768	79.982	19.992	100.054	19.665	34.195	0.505
694.500	427.024	79.982	19.993	100.055	19.657	34.859	0.488
695.000	427.280	79.983	19.992	100.054	19.660	34.596	0.500
695.500	427.556	79.982	19.993	100.052	19.660	34.646	0.522
696.000	427.800	79.982	19.993	100.052	19.658	34.772	0.525
696.500	428.049	79.982	19.993	100.054	19.660	34.583	0.506
697.000	428.291	79.980	19.992	100.052	19.654	35.086	0.492
697.500	428.568	79.981	19.993	100.052	19.656	34.917	0.505
698.000	428.831	79.979	19.994	100.055	19.653	35.211	0.530
698.500	429.069	79.981	19.992	100.051	19.653	35.209	0.520
699.000	429.344	79.981	19.993	100.046	19.646	35.792	0.507
699.500	429.567	79.979	19.992	100.049	19.647	35.680	0.506
700.000	429.844	79.981	19.993	100.050	19.645	35.891	0.499
700.500	430.098	79.980	19.994	100.046	19.643	36.052	0.515
701.000	430.336	79.980	19.993	100.048	19.641	36.169	0.511
701.500	430.626	79.980	19.994	100.054	19.641	36.203	0.510
702.000	430.863	79.981	19.994	100.055	19.641	36.239	0.528
702.500	431.120	79.981	19.994	100.053	19.637	36.522	0.510
703.000	431.352	79.982	19.993	100.052	19.639	36.355	0.491
703.500	431.625	79.982	19.994	100.048	19.635	36.694	0.498
704.000	431.885	79.978	19.993	100.041	19.636	36.620	0.519
704.500	432.118	79.980	19.993	100.038	19.627	37.412	0.513
705.000	432.388	79.981	19.993	100.042	19.627	37.351	0.498
705.500	432.701	79.981	19.994	100.046	19.624	37.610	0.543
706.000	432.869	79.981	19.993	100.049	19.619	38.061	0.532
706.500	433.194	79.980	19.994	100.050	19.618	38.123	0.487
707.000	433.394	79.981	19.993	100.051	19.620	37.932	0.509
707.500	433.706	79.981	19.993	100.046	19.613	38.572	0.518
708.000	433.956	79.982	19.992	100.043	19.613	38.517	0.537
708.500	434.218	79.981	19.992	100.042	19.610	38.770	0.537
709.000	434.461	79.981	19.993	100.043	19.610	38.785	0.508
709.500	434.690	79.981	19.992	100.043	19.604	39.277	0.488
710.000	434.981	79.985	19.992	100.044	19.601	39.559	0.496
710.500	435.204	79.982	19.992	100.042	19.598	39.803	0.517
711.000	435.493	79.983	19.993	100.041	19.595	40.060	0.513
711.500	435.739	79.984	19.992	100.040	19.591	40.423	0.524
712.000	436.032	79.983	19.993	100.040	19.592	40.282	0.538
712.500	436.252	79.982	19.992	100.040	19.583	41.106	0.526
713.000	436.512	79.984	19.992	100.039	19.591	40.375	0.496
713.500	436.805	79.983	19.992	100.040	19.586	40.828	0.517
714.000	437.017	79.984	19.993	100.039	19.580	41.359	0.529
714.500	437.267	79.983	19.992	100.037	19.574	41.845	0.483
715.000	437.522	79.985	19.993	100.036	19.568	42.305	0.484
715.500	437.806	79.984	19.991	100.041	19.564	42.663	0.523
716.000	438.054	79.982	19.992	100.040	19.562	42.823	0.536
716.500	438.283	79.984	19.992	100.040	19.557	43.221	0.504
717.000	438.583	79.984	19.992	100.040	19.554	43.488	0.502
717.500	438.799	79.984	19.991	100.040	19.548	43.982	0.523
718.000	439.065	79.985	19.993	100.035	19.548	43.996	0.499
718.500	439.310	79.982	19.992	100.035	19.543	44.396	0.497
719.000	439.596	79.983	19.991	100.035	19.545	44.255	0.521
719.500	439.840	79.984	19.992	100.034	19.539	44.788	0.531
720.000	440.080	79.984	19.992	100.033	19.530	45.499	0.507
720.500	440.301	79.981	19.992	100.033	19.528	45.663	0.473
721.000	440.592	79.981	19.991	100.032	19.523	46.063	0.486
721.500	440.824	79.982	19.993	100.032	19.521	46.256	0.517
722.000	441.103	79.982	19.992	100.033	19.512	46.986	0.517
722.500	441.358	79.982	19.992	100.033	19.510	47.178	0.523
723.000	441.616	79.983	19.992	100.034	19.509	47.319	0.524
723.500	441.869	79.984	19.992	100.034	19.500	48.003	0.512
724.000	442.089	79.981	19.992	100.033	19.501	47.936	0.492
724.500	442.390	79.981	19.993	100.033	19.497	48.280	0.497
725.000	442.629	79.982	19.993	100.034	19.487	49.100	0.531
725.500	442.849	79.982	19.992	100.035	19.485	49.311	0.499
726.000	443.157	79.981	19.993	100.035	19.481	49.644	0.493
726.500	443.415	79.984	19.993	100.037	19.475	50.130	0.547
727.000	443.645	79.983	19.992	100.038	19.469	50.643	0.527
727.500	443.931	79.981	19.993	100.038	19.468	50.681	0.502
728.000	444.161	79.982	19.993	100.038	19.461	51.267	0.516
728.500	444.399	79.980	19.993	100.038	19.458	51.565	0.492
729.000	444.675	79.984	19.991	100.038	19.458	51.530	0.491
729.500	444.899	79.981	19.992	100.037	19.454	51.891	0.507
730.000	445.172	79.983	19.993	100.037	19.446	52.520	0.498
730.500	445.437	79.983	19.992	100.037	19.443	52.773	0.518
731.000	445.689	79.982	19.993	100.038	19.441	52.938	0.527
731.500	445.926	79.981	19.992	100.037	19.432	53.712	0.503
732.000	446.172	79.982	19.993	100.036	19.428	54.111	0.486
732.500	446.408	79.982	19.993	100.036	19.427	54.168	0.482
733.000	446.698	79.981	19.992	100.038	19.420	54.718	0.504
733.500	446.933	79.982	19.992	100.038	19.419	54.866	0.525
734.000	447.175	79.983	19.992	100.038	19.412	55.418	0.501
734.500	447.417	79.983	19.993	100.039	19.410	55.591	0.481
735.000	447.688	79.980	19.992	100.037	19.397	56.652	0.498
735.500	447.958	79.983	19.992	100.034	19.400	56.407	0.527
736.000	448.192	79.980	19.993	100.033	19.396	56.785	0.523
736.500	448.466	79.982	19.992	100.033	19.385	57.648	0.506
737.000	448.711	79.981	19.992	100.033	19.382	57.886	0.513
737.500	448.949	79.984	19.993	100.034	19.377	58.337	0.501
738.000	449.205	79.982	19.993	100.032	19.373	58.635	0.489
738.500	449.451	79.983	19.994	100.031	19.369	59.025	0.498
739.000	449.705	79.982	19.993	100.031	19.368	59.085	0.501
739.500	449.938	79.981	19.992	100.031	19.364	59.473	0.493
740.000	450.225	79.982	19.992	100.030	19.358	59.909	0.503
740.500	450.494	79.984	19.992	100.032	19.358	59.918	0.539
741.000	450.728	79.982	19.992	100.033	19.353	60.391	0.530
741.500	450.964	79.980	19.992	100.032	19.355	60.165	0.486
742.000	451.220	79.982	19.993	100.030	19.351	60.540	0.481
742.500	451.489	79.982	19.993	100.030	19.344	61.080	0.508
743.000	451.728	79.981	19.993	100.031	19.342	61.246	0.517
743.500	451.961	79.983	19.992	100.031	19.340	61.429	0.490
744.000	452.229	79.981	19.992	100.032	19.335	61.892	0.486
744.500	452.519	79.982	19.992	100.033	19.338	61.626	0.530
745.000	452.743	79.982	19.993	100.034	19.332	62.128	0.536
745.500	452.977	79.981	19.992	100.033	19.333	62.041	0.485
746.000	453.246	79.983	19.992	100.030	19.327	62.542	0.480
746.500	453.514	79.982	19.992	100.026	19.322	63.002	0.520
747.000	453.766	79.981	19.991	100.020	19.320	63.151	0.529
747.500	454.010	79.981	19.993	100.014	19.315	63.556	0.509
748.000	454.272	79.982	19.993	100.009	19.315	63.586	0.501
748.500	454.501	79.981	19.992	100.009	19.314	63.655	0.498
749.000	454.738	79.981	19.992	100.013	19.310	63.962	0.479
749.500	455.015	79.981	19.992	100.017	19.308	64.162	0.490
750.000	455.267	79.981	19.992	100.022	19.307	64.183	0.521
750.500	455.521	79.978	19.991	100.028	19.304	64.490	0.517
751.000	455.760	79.981	19.993	100.033	19.305	64.418	0.500
751.500	456.001	79.979	19.992	100.033	19.302	64.670	0.487
752.000	456.262	79.984	19.992	100.036	19.301	64.750	0.491
752.500	456.500	79.982	19.992	100.035	19.302	64.658	0.501
753.000	456.756	79.980	19.993	100.035	19.297	65.029	0.497
753.500	457.019	79.981	19.992	100.030	19.299	64.921	0.507
754.000	457.268	79.983	19.993	100.030	19.293	65.359	0.516
754.500	457.541	79.980	19.993	100.032	19.294	65.298	0.517
755.000	457.772	79.980	19.993	100.032	19.293	65.342	0.512
755.500	458.037	79.981	19.992	100.030	19.289	65.745	0.500
756.000	458.313	79.980	19.993	100.034	19.290	65.650	0.519
756.500	458.524	79.981	19.993	100.034	19.292	65.503	0.514
757.000	458.760	79.982	19.993	100.035	19.285	66.037	0.467
757.500	459.058	79.980	19.992	100.034	19.287	65.866	0.490
758.000	459.257	79.982	19.993	100.035	19.287	65.936	0.516
758.500	459.549	79.983	19.994	100.032	19.286	66.005	0.494
759.000	459.805	79.981	19.993	100.028	19.285	66.105	0.519
759.500	460.068	79.983	19.992	100.026	19.284	66.168	0.533
760.000	460.298	79.982	19.993	100.028	19.285	66.096	0.506
760.500	460.577	79.982	19.994	100.028	19.282	66.307	0.501
761.000	460.825	79.981	19.993	100.028	19.282	66.309	0.518
761.500	461.051	79.981	19.994	100.028	19.283	66.264	0.501
762.000	461.265	79.982	19.994	100.030	19.282	66.311	0.457
762.500	461.578	79.980	19.992	100.028	19.280	66.459	0.483
763.000	461.799	79.982	19.992	100.025	19.277	66.722	0.530
763.500	462.018	79.980	19.992	100.020	19.279	66.527	0.487
764.000	462.289	79.982	19.992	100.017	19.277	66.760	0.466
764.500	462.515	79.982	19.993	100.011	19.284	66.162	0.494
765.000	462.779	79.983	19.992	100.009	19.281	66.438	0.493
765.500	463.054	79.981	19.993	100.006	19.282	66.328	0.515
766.000	463.302	79.983	19.993	100.007	19.283	66.255	0.531
766.500	463.564	79.981	19.994	100.008	19.280	66.444	0.516
767.000	463.799	79.983	19.993	100.008	19.280	66.443	0.503
767.500	464.043	79.982	19.992	100.010	19.283	66.223	0.488
768.000	464.302	79.981	19.992	100.015	19.285	66.058	0.491
768.500	464.506	79.982	19.992	100.018	19.285	66.024	0.483
769.000	464.780	79.981	19.993	100.024	19.287	65.892	0.471
769.500	465.008	79.981	19.992	100.029	19.289	65.707	0.490
770.000	465.274	79.982	19.992	100.029	19.293	65.351	0.498
770.500	465.536	79.983	19.992	100.028	19.289	65.719	0.511
771.000	465.773	79.984	19.992	100.025	19.291	65.513	0.514
771.500	466.014	79.980	19.991	100.021	19.294	65.275	0.488
772.000	466.310	79.981	19.992	100.021	19.298	65.006	0.508
772.500	466.553	79.982	19.993	100.020	19.296	65.124	0.538
773.000	466.817	79.983	19.993	100.016	19.301	64.738	0.523
773.500	467.049	79.983	19.992	100.020	19.303	64.575	0.501
774.000	467.299	79.983	19.993	100.024	19.306	64.309	0.489
774.500	467.565	79.983	19.993	100.023	19.310	63.939	0.499
775.000	467.794	79.982	19.992	100.020	19.316	63.483	0.505
775.500	468.047	79.982	19.992	100.026	19.316	63.478	0.488
776.000	468.270	79.980	19.992	100.026	19.317	63.377	0.479
776.500	468.562	79.983	19.993	100.025	19.320	63.114	0.496
777.000	468.798	79.982	19.993	100.025	19.325	62.679	0.522
777.500	469.039	79.981	19.993	100.025	19.331	62.185	0.503
778.000	469.291	79.981	19.993	100.020	19.332	62.103	0.485
778.500	469.554	79.982	19.992	100.017	19.335	61.876	0.504
779.000	469.795	79.983	19.992	100.019	19.340	61.441	0.509
779.500	470.035	79.981	19.992	100.020	19.343	61.227	0.493
780.000	470.318	79.983	19.993	100.023	19.344	61.110	0.502
780.500	470.542	79.982	19.993	100.025	19.347	60.828	0.515
781.000	470.798	79.980	19.993	100.025	19.354	60.313	0.493
781.500	471.062	79.982	19.993	100.020	19.357	60.065	0.500
782.000	471.319	79.982	19.993	100.014	19.360	59.749	0.521
782.500	471.569	79.982	19.992	100.016	19.365	59.380	0.514
783.000	471.833	79.983	19.993	100.020	19.368	59.098	0.510
783.500	472.084	79.980	19.993	100.023	19.376	58.420	0.515
784.000	472.349	79.983	19.993	100.028	19.377	58.316	0.515
784.500	472.604	79.982	19.994	100.033	19.381	58.035	0.517
785.000	472.859	79.982	19.993	100.033	19.387	57.465	0.515
785.500	473.085	79.981	19.993	100.028	19.387	57.471	0.496
786.000	473.378	79.980	19.993	100.028	19.390	57.280	0.500
786.500	473.637	79.983	19.993	100.027	19.396	56.743	0.535
787.000	473.898	79.982	19.994	100.026	19.402	56.260	0.536
787.500	474.135	79.982	19.994	100.024	19.406	55.909	0.509
788.000	474.389	79.984	19.994	100.028	19.408	55.756	0.495
788.500	474.667	79.981	19.994	100.028	19.417	55.012	0.512
789.000	474.939	79.982	19.993	100.028	19.418	54.909	0.541
789.500	475.190	79.984	19.993	100.024	19.421	54.652	0.536
790.000	475.452	79.985	19.994	100.021	19.425	54.323	0.518
790.500	475.698	79.985	19.993	100.021	19.431	53.809	0.511
791.000	475.957	79.983	19.993	100.020	19.433	53.663	0.507
791.500	476.225	79.985	19.994	100.020	19.438	53.203	0.516
792.000	476.438	79.984	19.993	100.024	19.441	52.966	0.504
792.500	476.710	79.984	19.993	100.029	19.445	52.672	0.483
793.000	476.934	79.981	19.993	100.029	19.447	52.502	0.491
793.500	477.163	79.983	19.993	100.029	19.453	51.991	0.474
794.000	477.447	79.984	19.993	100.030	19.456	51.743	0.483
794.500	477.696	79.984	19.993	100.030	19.458	51.537	0.523
795.000	477.926	79.984	19.994	100.028	19.463	51.145	0.506
795.500	478.202	79.984	19.993	100.022	19.468	50.688	0.493
796.000	478.475	79.984	19.992	100.017	19.477	49.945	0.527
796.500	478.717	79.982	19.993	100.012	19.473	50.266	0.532
797.000	478.967	79.983	19.993	100.012	19.478	49.865	0.504
797.500	479.239	79.982	19.993	100.012	19.483	49.455	0.507
798.000	479.508	79.984	19.992	100.016	19.486	49.207	0.531
798.500	479.737	79.984	19.992	100.020	19.490	48.887	0.519
799.000	479.980	79.983	19.992	100.023	19.494	48.572	0.485
799.500	480.231	79.983	19.992	100.021	19.500	48.022	0.483
800.000	480.500	79.983	19.993	100.019	19.497	48.240	0.507
800.500	480.748	79.985	19.993	100.019	19.507	47.449	0.519
801.000	481.013	79.984	19.992	100.018	19.511	47.093	0.514
801.500	481.280	79.984	19.992	100.018	19.515	46.757	0.522
802.000	481.513	79.981	19.992	100.019	19.518	46.488	0.516
802.500	481.786	79.982	19.993	100.023	19.520	46.353	0.503
803.000	482.078	79.982	19.993	100.023	19.524	46.052	0.536
803.500	482.333	79.981	19.992	100.021	19.527	45.774	0.556
804.000	482.551	79.980	19.992	100.024	19.529	45.568	0.510
804.500	482.849	79.983	19.993	100.027	19.538	44.831	0.494
805.000	483.062	79.982	19.992	100.026	19.539	44.774	0.514
805.500	483.368	79.982	19.992	100.024	19.545	44.270	0.515
806.000	483.605	79.981	19.992	100.024	19.549	43.948	0.531
806.500	483.862	79.983	19.993	100.020	19.554	43.515	0.519
807.000	484.092	79.982	19.993	100.019	19.554	43.516	0.490
807.500	484.352	79.981	19.993	100.019	19.560	42.985	0.488
808.000	484.601	79.982	19.992	100.023	19.564	42.629	0.499
808.500	484.850	79.984	19.992	100.028	19.567	42.411	0.504
809.000	485.135	79.982	19.992	100.028	19.574	41.788	0.516
809.500	485.410	79.982	19.993	100.026	19.578	41.494	0.547
810.000	485.621	79.980	19.993	100.025	19.579	41.424	0.522
810.500	485.917	79.981	19.993	100.022	19.582	41.157	0.496
811.000	486.133	79.982	19.992	100.022	19.587	40.695	0.510
811.500	486.399	79.982	19.992	100.025	19.590	40.450	0.498
812.000	486.656	79.980	19.993	100.028	19.595	40.037	0.503
812.500	486.901	79.982	19.993	100.029	19.599	39.716	0.512
813.000	487.204	79.982	19.993	100.029	19.603	39.424	0.525
813.500	487.433	79.981	19.993	100.028	19.607	39.040	0.540
814.000	487.661	79.982	19.993	100.027	19.613	38.530	0.495
814.500	487.906	79.982	19.992	100.026	19.618	38.096	0.465
815.000	488.187	79.980	19.993	100.028	19.621	37.887	0.499
815.500	488.425	79.982	19.992	100.032	19.621	37.836	0.522
816.000	488.663	79.980	19.992	100.031	19.625	37.566	0.497
816.500	488.950	79.980	19.993	100.030	19.630	37.159	0.500
817.000	489.207	79.979	19.992	100.027	19.633	36.842	0.535
817.500	489.457	79.982	19.993	100.021	19.637	36.501	0.526
818.000	489.731	79.981	19.993	100.018	19.640	36.236	0.515
818.500	490.009	79.983	19.992	100.019	19.646	35.777	0.538
819.000	490.222	79.982	19.992	100.016	19.648	35.593	0.521
819.500	490.500	79.981	19.992	100.013	19.651	35.354	0.491
820.000	490.781	79.983	19.993	100.013	19.659	34.710	0.525
820.500	491.024	79.983	19.992	100.013	19.662	34.402	0.542
821.000	491.284	79.984	19.992	100.014	19.666	34.088	0.513
821.500	491.492	79.981	19.992	100.013	19.670	33.778	0.486
822.000	491.791	79.984	19.992	100.013	19.673	33.544	0.488
822.500	492.059	79.981	19.992	100.015	19.673	33.504	0.537
823.000	492.331	79.983	19.993	100.013	19.678	33.086	0.553
823.500	492.542	79.981	19.992	100.015	19.680	32.926	0.511
824.000	492.818	79.981	19.992	100.020	19.683	32.671	0.485
824.500	493.080	79.982	19.993	100.026	19.687	32.328	0.513
825.000	493.351	79.982	19.994	100.026	19.694	31.787	0.536
825.500	493.600	79.982	19.993	100.029	19.698	31.437	0.527
826.000	493.845	79.980	19.992	100.030	19.699	31.342	0.507
826.500	494.135	79.982	19.993	100.027	19.706	30.755	0.514
827.000	494.407	79.981	19.992	100.025	19.710	30.410	0.548
827.500	494.691	79.982	19.992	100.021	19.711	30.314	0.559
828.000	494.940	79.980	19.992	100.020	19.709	30.449	0.544
828.500	495.191	79.981	19.992	100.015	19.718	29.760	0.517
829.000	495.470	79.980	19.993	100.012	19.722	29.418	0.515
829.500	495.680	79.981	19.993	100.010	19.726	29.054	0.509
830.000	495.942	79.980	19.992	100.010	19.728	28.925	0.481
830.500	496.211	79.981	19.992	100.009	19.729	28.823	0.502
831.000	496.472	79.983	19.992	100.011	19.736	28.190	0.530
831.500	496.747	79.982	19.994	100.016	19.737	28.181	0.532
832.000	496.979	79.979	19.992	100.018	19.745	27.474	0.521
832.500	497.268	79.982	19.993	100.016	19.748	27.245	0.514
833.000	497.502	79.981	19.991	100.017	19.748	27.238	0.522
833.500	497.791	79.982	19.992	100.019	19.750	27.033	0.523
834.000	498.047	79.980	19.992	100.016	19.756	26.582	0.534
834.500	498.278	79.979	19.992	100.014	19.758	26.376	0.516
835.000	498.536	79.982	19.992	100.015	19.761	26.103	0.488
835.500	498.776	79.981	19.992	100.017	19.764	25.837	0.493
836.000	499.037	79.979	19.992	100.013	19.766	25.699	0.500
836.500	499.338	79.980	19.992	100.015	19.771	25.253	0.531
837.000	499.532	79.980	19.992	100.018	19.777	24.799	0.528
837.500	499.811	79.980	19.992	100.020	19.775	24.969	0.484
838.000	500.063	79.979	19.992	100.016	19.779	24.607	0.502
838.500	500.287	79.982	19.992	100.015	19.783	24.242	0.503
839.000	500.579	79.981	19.992	100.016	19.785	24.132	0.496
839.500	500.854	79.982	19.992	100.012	19.788	23.899	0.542
840.000	501.100	79.981	19.993	100.008	19.790	23.698	0.544
840.500	501.344	79.982	19.992	100.013	19.791	23.580	0.505
841.000	501.602	79.981	19.992	100.012	19.793	23.414	0.496
841.500	501.917	79.980	19.992	100.008	19.794	23.350	0.537
842.000	502.107	79.981	19.992	100.009	19.800	22.834	0.539
842.500	502.366	79.984	19.993	100.009	19.799	22.937	0.477
843.000	502.623	79.982	19.993	100.004	19.804	22.508	0.483
843.500	502.918	79.981	19.993	100.005	19.808	22.160	0.534
844.000	503.158	79.982	19.992	100.005	19.808	22.183	0.543
844.500	503.385	79.982	19.992	100.004	19.812	21.857	0.501
845.000	503.662	79.982	19.992	100.005	19.814	21.691	0.486
845.500	503.926	79.982	19.992	100.010	19.820	21.191	0.522
846.000	504.159	79.983	19.993	100.011	19.821	21.129	0.519
846.500	504.384	79.983	19.993	100.013	19.822	21.028	0.477
847.000	504.694	79.983	19.993	100.015	19.825	20.735	0.496
847.500	504.951	79.981	19.993	100.016	19.825	20.733	0.551
848.000	505.218	79.982	19.993	100.013	19.830	20.318	0.545
848.500	505.458	79.981	19.994	100.010	19.830	20.341	0.516
849.000	505.718	79.982	19.993	100.010	19.834	20.015	0.504
849.500	505.988	79.982	19.993	100.006	19.836	19.817	0.515
850.000	506.236	79.983	19.992	100.003	19.843	19.222	0.523
850.500	506.391	79.984	19.993	100.000	19.845	19.101	0.461
851.000	506.707	79.983	19.993	100.000	19.849	18.775	0.437
851.500	506.970	79.983	19.993	100.000	19.849	18.707	0.525
852.000	507.232	79.983	19.994	100.000	19.850	18.680	0.552
852.500	507.500	79.982	19.993	100.002	19.853	18.423	0.527
853.000	507.698	79.982	19.992	100.005	19.857	18.045	0.498
853.500	508.025	79.981	19.993	100.005	19.858	17.984	0.496
854.000	508.246	79.984	19.993	100.002	19.861	17.729	0.537
854.500	508.533	79.981	19.992	100.002	19.864	17.497	0.528
855.000	508.765	79.982	19.992	100.006	19.862	17.615	0.513
855.500	509.016	79.982	19.993	100.003	19.868	17.166	0.501
856.000	509.276	79.983	19.993	100.004	19.867	17.227	0.497
856.500	509.537	79.981	19.993	100.005	19.870	16.984	0.516
857.000	509.761	79.984	19.993	100.006	19.869	17.061	0.503
857.500	510.016	79.980	19.994	100.002	19.873	16.749	0.482
858.000	510.318	79.981	19.993	100.004	19.875	16.531	0.517
858.500	510.531	79.981	19.993	100.005	19.878	16.294	0.536
859.000	510.799	79.984	19.993	100.005	19.878	16.280	0.498
859.500	511.028	79.983	19.993	100.004	19.881	16.099	0.490
860.000	511.302	79.981	19.993	100.004	19.883	15.906	0.500
860.500	511.568	79.981	19.993	100.001	19.882	15.967	0.521
861.000	511.745	79.982	19.993	99.997	19.886	15.632	0.491
861.500	512.058	79.983	19.993	99.997	19.888	15.466	0.467
862.000	512.264	79.982	19.992	99.996	19.890	15.343	0.504
862.500	512.587	79.982	19.993	99.996	19.895	14.853	0.524
863.000	512.819	79.983	19.993	99.998	19.895	14.876	0.542
863.500	513.100	79.983	19.993	100.000	19.899	14.573	0.534
864.000	513.330	79.982	19.993	100.001	19.898	14.639	0.512
864.500	513.579	79.980	19.993	100.002	19.900	14.494	0.495
865.000	513.893	79.983	19.993	100.002	19.900	14.486	0.521
865.500	514.108	79.978	19.992	100.000	19.901	14.423	0.546
866.000	514.382	79.982	19.994	100.000	19.903	14.234	0.509
866.500	514.693	79.983	19.993	99.997	19.903	14.202	0.537
867.000	514.950	79.984	19.992	99.997	19.907	13.897	0.577
867.500	515.178	79.982	19.992	99.998	19.911	13.551	0.526
868.000	515.419	79.983	19.993	99.998	19.909	13.745	0.477
868.500	515.690	79.984	19.993	99.998	19.909	13.709	0.491
869.000	515.966	79.984	19.992	99.998	19.914	13.267	0.529
869.500	516.242	79.984	19.993	99.998	19.915	13.175	0.549
870.000	516.498	79.982	19.992	99.997	19.916	13.105	0.542
870.500	516.713	79.983	19.993	100.000	19.921	12.732	0.501
871.000	517.001	79.984	19.993	100.004	19.923	12.511	0.487
871.500	517.245	79.983	19.993	100.003	19.920	12.798	0.518
872.000	517.499	79.984	19.993	100.003	19.922	12.595	0.515
872.500	517.774	79.984	19.993	100.003	19.923	12.497	0.513
873.000	518.044	79.980	19.993	100.000	19.924	12.418	0.536
873.500	518.304	79.982	19.992	99.999	19.926	12.259	0.537
874.000	518.582	79.983	19.993	100.000	19.931	11.894	0.534
874.500	518.793	79.984	19.993	100.001	19.932	11.824	0.514
875.000	519.065	79.982	19.992	100.001	19.931	11.878	0.486
875.500	519.345	79.985	19.993	100.001	19.935	11.532	0.517
876.000	519.580	79.984	19.993	99.998	19.933	11.666	0.533
876.500	519.854	79.984	19.993	99.998	19.933	11.739	0.512
877.000	520.128	79.982	19.993	99.997	19.934	11.602	0.529
877.500	520.363	79.984	19.993	100.000	19.937	11.368	0.528
878.000	520.663	79.982	19.994	100.001	19.937	11.389	0.522
878.500	520.878	79.981	19.993	100.002	19.943	10.889	0.525
879.000	521.148	79.983	19.993	100.003	19.941	11.021	0.500
879.500	521.430	79.983	19.993	100.005	19.941	11.055	0.518
880.000	521.636	79.984	19.993	100.002	19.942	10.980	0.520
880.500	521.874	79.982	19.993	100.001	19.943	10.902	0.466
881.000	522.204	79.980	19.993	100.002	19.941	10.988	0.506
881.500	522.448	79.982	19.993	100.003	19.946	10.583	0.571
882.000	522.705	79.981	19.993	100.002	19.946	10.642	0.537
882.500	522.936	79.980	19.993	100.004	19.949	10.353	0.494
883.000	523.176	79.980	19.993	100.005	19.944	10.787	0.479
883.500	523.487	79.980	19.993	100.005	19.951	10.179	0.511
884.000	523.733	79.979	19.993	100.003	19.950	10.268	0.554
884.500	523.960	79.981	19.992	100.006	19.948	10.432	0.515
885.000	524.264	79.981	19.992	100.007	19.951	10.184	0.502
885.500	524.499	79.981	19.993	100.007	19.956	9.810	0.535
886.000	524.769	79.981	19.993	100.006	19.950	10.245	0.522
886.500	525.076	79.981	19.993	100.006	19.954	9.938	0.541
887.000	525.308	79.981	19.993	100.002	19.951	10.229	0.558
887.500	525.544	79.981	19.993	100.000	19.953	10.040	0.504
888.000	525.827	79.981	19.992	100.003	19.956	9.779	0.494
888.500	526.062	79.981	19.991	100.005	19.959	9.489	0.519
889.000	526.316	79.980	19.993	100.011	19.957	9.701	0.504
889.500	526.568	79.982	19.992	100.014	19.960	9.464	0.497
890.000	526.837	79.980	19.993	100.017	19.958	9.619	0.513
890.500	527.076	79.983	19.992	100.017	19.958	9.633	0.515
891.000	527.387	79.980	19.993	100.015	19.957	9.711	0.529
891.500	527.585	79.981	19.993	100.011	19.962	9.267	0.529
892.000	527.849	79.980	19.992	100.008	19.963	9.217	0.485
892.500	528.123	79.980	19.992	100.006	19.960	9.477	0.500
893.000	528.361	79.980	19.991	100.003	19.961	9.333	0.525
893.500	528.631	79.981	19.992	100.003	19.961	9.392	0.510
894.000	528.899	79.980	19.992	100.002	19.963	9.202	0.523
894.500	529.126	79.981	19.992	100.002	19.962	9.286	0.517
895.000	529.391	79.979	19.991	100.000	19.964	9.097	0.493
895.500	529.675	79.981	19.992	100.000	19.967	8.888	0.520
896.000	529.920	79.982	19.992	100.000	19.963	9.204	0.539
896.500	530.207	79.981	19.992	100.000	19.967	8.826	0.531
897.000	530.437	79.981	19.993	100.000	19.964	9.134	0.525
897.500	530.681	79.980	19.993	100.000	19.964	9.109	0.496
898.000	530.922	79.981	19.993	100.001	19.967	8.816	0.479
898.500	531.196	79.980	19.992	100.000	19.968	8.804	0.500
899.000	531.449	79.981	19.992	100.001	19.972	8.390	0.521
899.500	531.730	79.979	19.992	100.001	19.969	8.688	0.530
900.000	531.934	79.981	19.993	100.001	19.967	8.843	0.510
900.500	532.250	79.982	19.992	100.002	19.969	8.681	0.503
901.000	532.485	79.980	19.993	100.002	19.973	8.303	0.535
901.500	532.732	79.980	19.993	100.002	19.971	8.535	0.516
902.000	532.983	79.981	19.992	100.006	19.969	8.697	0.490
902.500	533.247	79.983	19.993	100.013	19.971	8.549	0.507
903.000	533.529	79.981	19.993	100.012	19.971	8.483	0.530
903.500	533.785	79.983	19.993	100.012	19.972	8.397	0.542
904.000	534.065	79.981	19.993	100.011	19.974	8.246	0.537
904.500	534.315	79.982	19.992	100.007	19.974	8.242	0.532
905.000	534.580	79.981	19.991	99.999	19.976	8.114	0.522
905.500	534.828	79.982	19.993	99.997	19.975	8.189	0.514
906.000	535.085	79.982	19.992	99.997	19.977	8.028	0.509
906.500	535.323	79.980	19.994	99.997	19.977	8.012	0.500
907.000	535.597	79.982	19.994	99.996	19.974	8.239	0.504
907.500	535.848	79.979	19.992	99.996	19.975	8.189	0.519
908.000	536.117	79.981	19.993	99.998	19.976	8.105	0.522
908.500	536.368	79.979	19.993	100.001	19.981	7.636	0.520
909.000	536.610	79.983	19.993	100.001	19.981	7.697	0.507
909.500	536.882	79.980	19.993	100.001	19.978	7.916	0.503
910.000	537.147	79.981	19.993	100.002	19.984	7.438	0.525
910.500	537.395	79.981	19.992	100.000	19.979	7.859	0.525
911.000	537.670	79.982	19.993	99.999	19.980	7.731	0.518
911.500	537.905	79.981	19.993	99.999	19.981	7.663	0.516
912.000	538.167	79.980	19.993	99.999	19.982	7.615	0.504
912.500	538.389	79.980	19.992	100.000	19.983	7.533	0.491
913.000	538.692	79.981	19.993	100.001	19.982	7.620	0.504
913.500	538.952	79.981	19.993	100.000	19.980	7.747	0.544
914.000	539.183	79.982	19.993	100.000	19.979	7.807	0.527
914.500	539.417	79.980	19.994	100.002	19.984	7.383	0.478
915.000	539.705	79.982	19.993	100.001	19.980	7.716	0.494
915.500	539.944	79.980	19.992	100.000	19.981	7.638	0.524
916.000	540.190	79.981	19.992	100.000	19.984	7.420	0.505
916.500	540.453	79.980	19.992	100.000	19.984	7.420	0.497
917.000	540.728	79.981	19.993	99.999	19.985	7.372	0.524
917.500	540.970	79.982	19.993	99.999	19.983	7.502	0.527
918.000	541.211	79.979	19.993	100.000	19.986	7.287	0.500
918.500	541.463	79.980	19.992	100.000	19.983	7.538	0.488
919.000	541.742	79.981	19.993	99.999	19.984	7.408	0.512
919.500	542.003	79.982	19.993	99.999	19.981	7.693	0.536
920.000	542.234	79.981	19.992	99.997	19.985	7.317	0.516
920.500	542.512	79.980	19.993	99.996	19.985	7.310	0.500
921.000	542.762	79.982	19.992	99.997	19.988	7.117	0.519
921.500	543.009	79.981	19.993	99.997	19.987	7.135	0.513
922.000	543.263	79.983	19.993	99.997	19.984	7.456	0.499
922.500	543.515	79.981	19.992	99.996	19.987	7.155	0.504
923.000	543.795	79.983	19.992	99.996	19.987	7.135	0.519
923.500	544.030	79.982	19.992	99.997	19.988	7.110	0.523
924.000	544.314	79.981	19.992	99.997	19.987	7.174	0.517
924.500	544.529	79.983	19.992	99.997	19.987	7.149	0.509
925.000	544.807	79.981	19.992	99.998	19.985	7.303	0.496
925.500	545.046	79.982	19.992	99.998	19.990	6.887	0.505
926.000	545.326	79.984	19.992	99.999	19.985	7.340	0.518
926.500	545.554	79.982	19.992	99.999	19.988	7.083	0.514
927.000	545.788	79.984	19.992	99.999	19.988	7.051	0.485
927.500	546.064	79.983	19.992	99.999	19.986	7.258	0.486
928.000	546.336	79.984	19.993	99.998	19.990	6.910	0.529
928.500	546.610	79.984	19.993	99.997	19.988	7.115	0.547
929.000	546.834	79.983	19.992	99.996	19.992	6.782	0.523
929.500	547.088	79.982	19.993	99.995	19.991	6.869	0.488
930.000	547.355	79.984	19.993	99.997	19.990	6.903	0.499
930.500	547.613	79.983	19.993	99.998	19.992	6.778	0.523
931.000	547.846	79.982	19.993	99.999	19.994	6.555	0.508
931.500	548.122	79.984	19.993	99.999	19.992	6.732	0.500
932.000	548.341	79.985	19.993	99.999	19.999	6.184	0.502
932.500	548.613	79.984	19.993	99.997	19.997	6.354	0.493
933.000	548.885	79.983	19.993	99.996	19.995	6.477	0.517
933.500	549.110	79.982	19.992	99.996	19.994	6.623	0.520
934.000	549.347	79.983	19.992	99.996	19.996	6.389	0.480
934.500	549.601	79.983	19.993	99.995	19.993	6.639	0.477
935.000	549.928	79.983	19.994	99.995	19.997	6.307	0.536
935.500	550.140	79.982	19.993	99.996	19.996	6.416	0.560
936.000	550.377	79.983	19.993	99.996	19.994	6.582	0.494
936.500	550.678	79.981	19.993	99.996	19.991	6.876	0.494
937.000	550.906	79.983	19.994	99.997	19.994	6.609	0.534
937.500	551.160	79.982	19.994	99.997	19.998	6.282	0.506
938.000	551.430	79.982	19.993	99.998	19.993	6.685	0.503
938.500	551.674	79.983	19.992	99.999	19.993	6.676	0.519
939.000	551.936	79.981	19.992	99.998	19.992	6.719	0.510
939.500	552.179	79.980	19.993	99.998	19.995	6.476	0.505
940.000	552.411	79.982	19.993	99.998	19.994	6.587	0.490
940.500	552.691	79.981	19.994	99.998	19.996	6.400	0.494
941.000	552.941	79.982	19.994	99.997	19.993	6.671	0.521
941.500	553.219	79.982	19.993	99.998	19.993	6.675	0.529
942.000	553.437	79.983	19.993	99.999	19.998	6.233	0.511
942.500	553.732	79.983	19.993	99.999	19.997	6.341	0.505
943.000	553.985	79.982	19.993	100.000	19.995	6.507	0.531
943.500	554.188	79.982	19.994	100.001	19.994	6.619	0.502
944.000	554.478	79.981	19.993	100.002	19.996	6.458	0.474
944.500	554.768	79.982	19.994	100.003	19.998	6.241	0.536
945.000	555.034	79.982	19.993	100.003	19.997	6.296	0.568
945.500	555.300	79.984	19.993	100.003	19.997	6.371	0.545
946.000	555.533	79.982	19.994	100.002	19.995	6.480	0.516
946.500	555.815	79.983	19.993	100.000	19.995	6.486	0.506
947.000	556.058	79.985	19.993	99.999	19.997	6.332	0.520
947.500	556.330	79.982	19.992	99.999	19.997	6.352	0.520
948.000	556.563	79.982	19.993	100.001	19.999	6.145	0.511
948.500	556.819	79.984	19.993	100.004	19.996	6.402	0.497
949.000	557.075	79.985	19.992	100.004	19.998	6.218	0.500
949.500	557.337	79.983	19.992	100.007	19.999	6.179	0.515
950.000	557.577	79.984	19.993	100.010	19.994	6.548	0.510
950.500	557.797	79.985	19.992	100.009	19.998	6.225	0.481
951.000	558.082	79.984	19.993	100.006	19.997	6.355	0.483
951.500	558.365	79.984	19.994	100.005	19.999	6.173	0.536
952.000	558.616	79.984	19.993	100.001	19.998	6.273	0.551
952.500	558.830	79.984	19.993	99.998	19.999	6.159	0.499
953.000	559.112	79.984	19.993	99.996	19.999	6.163	0.481
953.500	559.382	79.984	19.992	99.998	19.999	6.188	0.524
954.000	559.616	79.983	19.992	100.002	19.998	6.268	0.528
954.500	559.898	79.982	19.993	100.009	20.000	6.079	0.510
955.000	560.114	79.984	19.993	100.012	19.999	6.142	0.508
955.500	560.389	79.985	19.992	100.014	19.999	6.149	0.495
956.000	560.672	79.984	19.992	100.013	20.003	5.856	0.524
956.500	560.922	79.983	19.993	100.011	19.998	6.259	0.545
957.000	561.141	79.983	19.992	100.005	20.001	5.983	0.501
957.500	561.420	79.982	19.993	100.002	20.000	6.104	0.483
958.000	561.712	79.982	19.993	100.000	19.999	6.149	0.534
958.500	561.977	79.983	19.993	100.003	20.006	5.594	0.564
959.000	562.206	79.983	19.994	100.001	20.004	5.705	0.526
959.500	562.454	79.982	19.992	100.003	20.003	5.803	0.485
960.000	562.722	79.981	19.993	100.006	19.999	6.149	0.497
960.500	562.975	79.981	19.993	100.006	20.002	5.901	0.519
961.000	563.233	79.981	19.993	100.006	20.003	5.799	0.515
961.500	563.484	79.980	19.994	100.011	20.003	5.861	0.510
962.000	563.733	79.980	19.993	100.013	20.004	5.774	0.505
962.500	563.981	79.981	19.994	100.011	20.003	5.799	0.499
963.000	564.238	79.980	19.993	100.011	20.006	5.571	0.501
963.500	564.518	79.980	19.994	100.009	20.003	5.787	0.521
964.000	564.753	79.980	19.994	100.004	20.006	5.555	0.526
964.500	565.011	79.980	19.993	100.001	20.004	5.762	0.504
965.000	565.245	79.982	19.994	99.999	20.003	5.821	0.492
965.500	565.525	79.978	19.994	99.999	20.000	6.101	0.503
966.000	565.781	79.981	19.995	99.998	19.999	6.133	0.525
966.500	566.016	79.981	19.994	99.999	19.999	6.142	0.513
967.000	566.273	79.979	19.994	99.999	20.000	6.074	0.491
967.500	566.567	79.981	19.994	99.999	20.003	5.851	0.522
968.000	566.804	79.980	19.994	100.000	20.003	5.856	0.541
968.500	567.029	79.981	19.993	99.999	20.000	6.106	0.497
969.000	567.295	79.981	19.994	99.997	20.010	5.223	0.477
969.500	567.573	79.981	19.993	99.996	20.005	5.630	0.517
970.000	567.838	79.981	19.994	99.994	20.006	5.551	0.543
970.500	568.080	79.980	19.994	99.995	20.002	5.931	0.525
971.000	568.317	79.980	19.994	100.001	20.006	5.562	0.493
971.500	568.572	79.980	19.993	100.004	20.004	5.726	0.486
972.000	568.863	79.982	19.994	100.005	20.005	5.683	0.519
972.500	569.119	79.980	19.993	100.005	20.005	5.699	0.546
973.000	569.376	79.982	19.993	100.004	20.002	5.885	0.530
973.500	569.641	79.982	19.993	99.998	20.004	5.781	0.518
974.000	569.882	79.981	19.992	99.996	20.003	5.819	0.514
974.500	570.115	79.981	19.993	99.997	19.999	6.149	0.490
975.000	570.375	79.982	19.993	99.997	20.000	6.058	0.483
975.500	570.671	79.982	19.993	99.997	20.002	5.901	0.525
976.000	570.897	79.982	19.992	99.997	20.002	5.892	0.539
976.500	571.139	79.983	19.993	99.996	20.004	5.755	0.495
977.000	571.389	79.982	19.993	99.996	20.003	5.844	0.480
977.500	571.655	79.982	19.992	99.996	20.001	6.029	0.504
978.000	571.928	79.982	19.992	99.996	20.002	5.901	0.527
978.500	572.177	79.983	19.992	99.996	20.005	5.692	0.530
979.000	572.421	79.982	19.992	99.998	20.006	5.548	0.507
979.500	572.668	79.982	19.993	100.001	20.005	5.660	0.492
980.000	572.873	79.982	19.993	100.002	20.005	5.683	0.472
980.500	573.128	79.984	19.993	100.003	20.007	5.523	0.456
981.000	573.440	79.981	19.992	100.005	20.006	5.542	0.513
981.500	573.705	79.983	19.992	100.004	20.008	5.433	0.571
982.000	574.004	79.983	19.992	100.002	20.005	5.633	0.570
982.500	574.235	79.983	19.993	100.000	20.002	5.911	0.547
983.000	574.514	79.982	19.993	100.000	20.002	5.883	0.520
983.500	574.779	79.983	19.993	99.999	20.005	5.635	0.527
984.000	575.021	79.981	19.993	99.998	20.008	5.419	0.526
984.500	575.288	79.983	19.994	99.999	20.006	5.603	0.508
985.000	575.552	79.982	19.993	99.999	20.004	5.742	0.520
985.500	575.767	79.981	19.992	99.999	20.008	5.410	0.505
986.000	576.028	79.982	19.993	99.999	20.008	5.425	0.477
986.500	576.266	79.984	19.992	99.998	20.005	5.644	0.487
987.000	576.523	79.983	19.993	99.996	20.002	5.908	0.497
987.500	576.759	79.981	19.993	99.998	20.005	5.701	0.494
988.000	577.024	79.982	19.992	99.998	20.004	5.726	0.497
988.500	577.283	79.982	19.992	99.998	20.005	5.683	0.513
989.000	577.537	79.981	19.992	99.998	20.006	5.569	0.518
989.500	577.823	79.980	19.992	99.998	20.002	5.908	0.527
990.000	578.058	79.982	19.993	99.997	20.009	5.291	0.531
990.500	578.308	79.982	19.992	99.997	20.006	5.580	0.503
991.000	578.569	79.981	19.992	99.999	20.008	5.451	0.498
991.500	578.766	79.980	19.993	100.003	20.007	5.485	0.485
992.000	579.083	79.981	19.994	100.006	20.009	5.307	0.486
992.500	579.354	79.982	19.992	100.006	20.009	5.346	0.551
993.000	579.579	79.982	19.994	100.006	20.011	5.180	0.542
993.500	579.865	79.981	19.993	100.006	20.012	5.089	0.503
994.000	580.118	79.980	19.993	100.004	20.008	5.378	0.525
994.500	580.354	79.982	19.995	100.003	20.010	5.262	0.514
995.000	580.640	79.981	19.993	100.002	20.013	5.018	0.505
995.500	580.897	79.980	19.992	100.004	20.014	4.879	0.532
996.000	581.113	79.981	19.993	100.003	20.008	5.437	0.508
996.500	581.358	79.982	19.992	100.001	20.008	5.387	0.467
997.000	581.657	79.983	19.992	100.001	20.010	5.210	0.502
997.500	581.882	79.981	19.994	100.000	20.009	5.324	0.534
998.000	582.156	79.981	19.994	99.999	20.011	5.150	0.512
998.500	582.440	79.980	19.993	99.998	20.010	5.223	0.529
999.000	582.675	79.982	19.993	99.998	20.012	5.059	0.538
999.500	582.958	79.981	19.993	100.000	20.013	5.018	0.518
1000.000	583.208	79.982	19.992	100.000	20.013	5.000	0.526
1000.500	583.411	79.981	19.993	100.000	20.011	5.143	0.493
1001.000	583.704	79.981	19.992	100.000	20.013	4.988	0.474
1001.500	583.957	79.982	19.993	100.002	20.013	4.959	0.521
1002.000	584.197	79.983	19.993	100.002	20.013	4.988	0.519
1002.500	584.459	79.983	19.992	100.003	20.015	4.840	0.498
1003.000	584.703	79.982	19.992	100.002	20.014	4.913	0.505
1003.500	584.979	79.984	19.993	100.003	20.013	4.991	0.513
1004.000	585.227	79.981	19.993	100.002	20.011	5.168	0.521
1004.500	585.525	79.983	19.992	100.002	20.013	5.000	0.535
1005.000	585.755	79.983	19.993	100.003	20.011	5.168	0.537
1005.500	586.025	79.983	19.993	100.003	20.012	5.093	0.514
1006.000	586.307	79.983	19.993	100.002	20.012	5.036	0.526
1006.500	586.546	79.982	19.993	100.002	20.011	5.121	0.537
1007.000	586.824	79.983	19.993	100.003	20.009	5.303	0.519
1007.500	587.068	79.983	19.993	100.004	20.009	5.321	0.519
1008.000	587.295	79.985	19.993	100.008	20.014	4.900	0.496
1008.500	587.572	79.983	19.992	100.011	20.015	4.848	0.487
1009.000	587.850	79.984	19.992	100.010	20.010	5.207	0.529
1009.500	588.117	79.986	19.992	100.009	20.008	5.401	0.550
1010.000	588.343	79.984	19.992	100.008	20.011	5.143	0.519
1010.500	588.585	79.985	19.992	100.003	20.014	4.922	0.481
1011.000	588.842	79.983	19.992	100.001	20.009	5.305	0.484
1011.500	589.107	79.983	19.993	100.003	20.013	4.970	0.511
1012.000	589.368	79.984	19.992	100.002	20.009	5.307	0.524
1012.500	589.642	79.984	19.993	100.002	20.010	5.203	0.530
1013.000	589.889	79.984	19.992	100.002	20.013	4.957	0.528
1013.500	590.153	79.983	19.993	100.003	20.011	5.164	0.517
1014.000	590.429	79.982	19.992	100.003	20.010	5.205	0.526
1014.500	590.711	79.983	19.992	100.003	20.011	5.168	0.549
1015.000	590.959	79.983	19.993	100.003	20.012	5.036	0.544
1015.500	591.226	79.983	19.993	100.003	20.015	4.793	0.523
1016.000	591.479	79.982	19.992	100.003	20.012	5.105	0.517
1016.500	591.698	79.983	19.992	100.003	20.015	4.861	0.496
1017.000	591.973	79.982	19.992	100.006	20.014	4.872	0.483
1017.500	592.230	79.981	19.993	100.009	20.014	4.931	0.513
1018.000	592.518	79.981	19.993	100.013	20.013	5.002	0.538
1018.500	592.782	79.982	19.993	100.012	20.014	4.936	0.548
1019.000	593.023	79.982	19.992	100.013	20.014	4.947	0.528
1019.500	593.268	79.982	19.993	100.010	20.012	5.100	0.495
1020.000	593.554	79.982	19.992	100.007	20.012	5.052	0.509
1020.500	593.755	79.983	19.993	100.004	20.015	4.822	0.509
1021.000	594.046	79.982	19.992	100.004	20.013	4.970	0.490
1021.500	594.307	79.982	19.993	100.002	20.015	4.786	0.522
1022.000	594.575	79.984	19.993	100.004	20.012	5.104	0.541
1022.500	594.863	79.983	19.993	100.007	20.014	4.942	0.542
1023.000	595.077	79.983	19.993	100.008	20.013	5.006	0.529
1023.500	595.329	79.983	19.993	100.011	20.013	4.979	0.484
1024.000	595.608	79.983	19.993	100.012	20.013	4.997	0.499
1024.499	595.879	79.981	19.993	100.009	20.015	4.845	0.541
1024.999	596.135	79.984	19.993	100.007	20.014	4.931	0.539
1025.500	596.419	79.982	19.993	100.005	20.014	4.902	0.533
1026.000	596.639	79.983	19.993	100.002	20.013	5.004	0.522
1026.499	596.884	79.984	19.994	100.003	20.016	4.767	0.485
1026.999	597.189	79.984	19.993	100.002	20.015	4.852	0.508
1027.499	597.431	79.984	19.993	100.001	20.012	5.061	0.548
1027.999	597.696	79.984	19.993	100.001	20.014	4.918	0.527
1028.500	597.915	79.985	19.993	100.001	20.013	4.959	0.496
1029.000	598.197	79.984	19.992	100.000	20.012	5.041	0.493
1029.499	598.468	79.986	19.994	100.000	20.010	5.202	0.527
1029.999	598.703	79.985	19.992	100.002	20.012	5.038	0.530
1030.500	598.967	79.985	19.993	100.006	20.015	4.813	0.503
1031.000	599.215	79.985	19.994	100.006	20.014	4.925	0.505
1031.499	599.447	79.986	19.993	100.005	20.013	5.004	0.496
1031.999	599.712	79.984	19.993	100.004	20.009	5.357	0.489
1032.499	599.989	79.985	19.993	100.001	20.013	5.023	0.519
1032.999	600.250	79.986	19.992	99.997	20.012	5.112	0.540
1033.499	600.473	79.985	19.993	99.995	20.010	5.214	0.511
1034.000	600.760	79.985	19.992	99.996	20.012	5.086	0.498
1034.500	600.980	79.985	19.993	99.996	20.012	5.057	0.509
1034.999	601.249	79.985	19.993	99.996	20.012	5.066	0.498
1035.499	601.493	79.984	19.993	99.996	20.011	5.129	0.501
1035.999	601.718	79.985	19.994	99.997	20.013	5.018	0.491
1036.499	601.979	79.984	19.993	99.997	20.014	4.920	0.477
1036.999	602.229	79.984	19.993	99.996	20.011	5.139	0.499
1037.499	602.491	79.985	19.992	100.000	20.010	5.203	0.512
1037.999	602.758	79.985	19.993	100.000	20.013	4.972	0.520
1038.499	603.004	79.984	19.993	100.001	20.012	5.109	0.521
1038.999	603.247	79.983	19.993	100.001	20.012	5.089	0.501
1039.499	603.497	79.984	19.993	100.002	20.015	4.850	0.492
1039.999	603.742	79.984	19.993	99.998	20.012	5.043	0.494
1040.499	604.010	79.982	19.993	99.998	20.011	5.120	0.504
1040.999	604.234	79.981	19.993	99.997	20.013	5.018	0.502
1041.499	604.530	79.982	19.994	99.996	20.009	5.298	0.506
1041.999	604.758	79.982	19.993	100.000	20.013	5.027	0.522
1042.499	605.025	79.982	19.993	100.004	20.011	5.191	0.510
1042.999	605.268	79.984	19.993	100.005	20.012	5.097	0.503
1043.499	605.482	79.982	19.991	100.007	20.009	5.296	0.484
1043.999	605.767	79.982	19.993	100.008	20.015	4.838	0.478
1044.499	606.010	79.983	19.993	100.004	20.013	5.025	0.513
1044.999	606.288	79.982	19.994	100.000	20.013	4.966	0.524
1045.499	606.544	79.983	19.994	100.000	20.012	5.077	0.528
1045.999	606.766	79.981	19.993	99.999	20.015	4.856	0.506
1046.499	607.047	79.981	19.992	100.001	20.013	5.004	0.490
1046.999	607.313	79.983	19.993	100.001	20.016	4.774	0.525
1047.499	607.527	79.981	19.994	100.002	20.011	5.157	0.514
1047.999	607.759	79.981	19.993	100.004	20.013	5.018	0.463
1048.499	608.049	79.981	19.993	100.004	20.008	5.423	0.484
1048.999	608.269	79.982	19.993	100.001	20.010	5.213	0.516
1049.500	608.556	79.983	19.994	100.001	20.016	4.742	0.509
1050.000	608.808	79.981	19.993	100.004	20.013	4.959	0.523
1050.499	609.051	79.981	19.994	100.003	20.012	5.080	0.517
1050.999	609.310	79.982	19.995	100.003	20.011	5.146	0.498
1051.499	609.601	79.982	19.993	100.003	20.012	5.109	0.526
1051.999	609.801	79.981	19.993	100.001	20.013	4.957	0.520
1052.499	610.083	79.981	19.993	99.997	20.014	4.921	0.487
1052.999	610.344	79.981	19.994	99.996	20.013	4.984	0.513
1053.499	610.599	79.983	19.995	99.996	20.015	4.816	0.530
1053.999	610.833	79.981	19.994	99.999	20.012	5.071	0.502
1054.499	611.080	79.980	19.994	100.000	20.013	5.004	0.484
1054.999	611.335	79.982	19.994	100.000	20.013	4.981	0.492
1055.499	611.618	79.981	19.994	100.002	20.014	4.881	0.520
1055.999	611.879	79.981	19.994	100.006	20.011	5.120	0.541
1056.499	612.106	79.983	19.993	100.005	20.013	5.013	0.516
1056.999	612.380	79.982	19.994	100.005	20.011	5.195	0.495
1057.499	612.639	79.983	19.993	100.006	20.013	4.959	0.517
1057.999	612.888	79.983	19.993	100.003	20.014	4.879	0.520
1058.499	613.149	79.983	19.994	99.997	20.014	4.943	0.509
1059.000	613.410	79.982	19.994	99.996	20.014	4.879	0.516
1059.501	613.648	79.982	19.994	99.995	20.016	4.726	0.510
1060.000	613.907	79.983	19.993	99.994	20.016	4.699	0.498
1060.499	614.210	79.982	19.993	99.995	20.013	5.013	0.530
1060.999	614.446	79.984	19.994	99.998	20.013	5.022	0.551
1061.499	614.673	79.983	19.992	100.004	20.009	5.291	0.502
1061.999	614.950	79.982	19.992	100.007	20.011	5.196	0.483
1062.499	615.218	79.982	19.992	100.009	20.014	4.897	0.524
1062.999	615.446	79.982	19.993	100.015	20.013	4.972	0.521
1063.499	615.732	79.983	19.992	100.014	20.015	4.847	0.505
1063.999	616.021	79.982	19.992	100.011	20.014	4.888	0.545
1064.499	616.236	79.981	19.993	100.009	20.013	5.029	0.540
1064.999	616.490	79.982	19.993	100.008	20.015	4.824	0.486
1065.499	616.773	79.983	19.992	100.002	20.013	5.025	0.503
1066.000	617.011	79.981	19.993	100.000	20.013	5.018	0.529
1066.500	617.240	79.983	19.992	99.999	20.014	4.895	0.494
1066.999	617.509	79.982	19.993	99.998	20.011	5.116	0.482
1067.499	617.767	79.982	19.992	99.999	20.015	4.806	0.512
1067.999	617.987	79.981	19.992	99.999	20.013	4.972	0.502
1068.500	618.223	79.984	19.992	99.999	20.012	5.052	0.467
1069.000	618.500	79.980	19.992	99.998	20.015	4.790	0.484
1069.499	618.738	79.981	19.993	100.000	20.015	4.824	0.514
1069.999	619.022	79.981	19.992	100.000	20.012	5.047	0.519
1070.499	619.290	79.980	19.993	100.000	20.012	5.043	0.537
1071.000	619.520	79.982	19.994	99.999	20.015	4.845	0.525
1071.500	619.778	79.980	19.991	100.000	20.013	5.000	0.493
1071.999	619.984	79.980	19.993	100.001	20.016	4.772	0.477
1072.500	620.281	79.982	19.993	100.002	20.012	5.111	0.483
1073.000	620.520	79.980	19.992	100.002	20.015	4.781	0.519
1073.499	620.789	79.979	19.992	100.003	20.013	5.018	0.522
1073.999	621.019	79.980	19.992	100.002	20.015	4.845	0.504
1074.500	621.268	79.980	19.992	100.000	20.017	4.679	0.489
1075.000	621.524	79.981	19.993	100.001	20.015	4.813	0.492
1075.500	621.754	79.980	19.993	100.001	20.012	5.068	0.496
1076.000	622.023	79.980	19.992	100.001	20.013	5.027	0.493
1076.499	622.284	79.981	19.992	100.000	20.011	5.166	0.515
1076.999	622.484	79.981	19.993	100.000	20.012	5.068	0.496
1077.499	622.737	79.980	19.992	99.999	20.013	5.025	0.457
1077.999	623.005	79.982	19.993	99.999	20.013	5.011	0.487
1078.499	623.274	79.982	19.993	99.998	20.011	5.166	0.529
1078.999	623.477	79.981	19.993	99.999	20.010	5.255	0.505
1079.499	623.767	79.982	19.992	99.999	20.014	4.920	0.482
1079.999	623.978	79.982	19.992	99.999	20.013	4.979	0.496
1080.499	624.239	79.982	19.992	99.998	20.009	5.286	0.486
1080.999	624.492	79.982	19.992	99.998	20.010	5.225	0.493
1081.499	624.740	79.982	19.994	99.998	20.017	4.688	0.508
1081.999	624.990	79.982	19.993	99.998	20.010	5.207	0.500
1082.499	625.269	79.981	19.993	99.998	20.011	5.116	0.514
1082.999	625.494	79.982	19.992	99.999	20.013	5.020	0.516
1083.499	625.748	79.982	19.992	99.999	20.014	4.877	0.491
1083.999	625.985	79.982	19.993	99.999	20.012	5.061	0.485
1084.499	626.197	79.981	19.992	100.001	20.011	5.186	0.470
1084.999	626.496	79.983	19.992	100.001	20.014	4.892	0.480
1085.499	626.747	79.983	19.992	100.001	20.013	5.015	0.530
1085.999	627.002	79.984	19.992	100.001	20.014	4.906	0.528
1086.500	627.248	79.983	19.992	100.001	20.011	5.170	0.504
1087.000	627.490	79.984	19.993	100.000	20.015	4.845	0.494
1087.499	627.758	79.982	19.992	100.001	20.014	4.945	0.499
1087.999	627.999	79.984	19.994	100.001	20.014	4.922	0.510
1088.499	628.219	79.983	19.992	100.001	20.016	4.772	0.485
1089.000	628.498	79.982	19.993	100.001	20.017	4.681	0.480
1089.500	628.720	79.982	19.992	100.001	20.014	4.920	0.500
1089.999	629.002	79.984	19.993	99.999	20.014	4.924	0.503
1090.499	629.247	79.983	19.993	99.996	20.015	4.810	0.515
1090.999	629.474	79.982	19.993	99.996	20.015	4.781	0.499
1091.499	629.753	79.984	19.992	99.997	20.017	4.678	0.489
1091.999	629.995	79.983	19.993	99.997	20.012	5.106	0.513
1092.499	630.267	79.984	19.992	99.997	20.012	5.056	0.517
1092.999	630.496	79.982	19.993	99.999	20.015	4.799	0.507
1093.500	630.772	79.983	19.993	99.999	20.013	4.977	0.503
1094.000	631.035	79.983	19.991	99.998	20.016	4.731	0.522
1094.499	631.333	79.983	19.993	99.997	20.013	4.999	0.550
1094.999	631.529	79.983	19.992	99.996	20.012	5.059	0.528
1095.500	631.764	79.983	19.992	99.996	20.014	4.886	0.462
1096.001	632.074	79.983	19.993	99.996	20.016	4.772	0.488
1096.500	632.275	79.982	19.993	99.996	20.012	5.109	0.528
1096.999	632.566	79.984	19.992	99.998	20.012	5.036	0.501
1097.499	632.851	79.982	19.993	100.000	20.012	5.111	0.534
1097.999	633.065	79.983	19.992	100.002	20.015	4.849	0.538
1098.499	633.331	79.983	19.991	100.002	20.011	5.154	0.490
1098.999	633.607	79.983	19.992	100.002	20.017	4.692	0.511
1099.500	633.845	79.983	19.993	100.000	20.016	4.760	0.528
1100.000	634.115	79.983	19.993	99.999	20.012	5.056	0.511
1100.499	634.366	79.983	19.993	99.996	20.016	4.753	0.515
1100.999	634.626	79.983	19.991	99.995	20.013	5.015	0.516
1101.499	634.941	79.982	19.994	99.995	20.015	4.810	0.543
1101.999	635.177	79.981	19.992	99.996	20.015	4.829	0.563
1102.499	635.422	79.982	19.993	99.996	20.017	4.672	0.516
1102.999	635.719	79.982	19.992	99.996	20.017	4.692	0.511
1103.499	635.935	79.982	19.992	99.997	20.015	4.808	0.527
1103.999	636.222	79.983	19.993	99.996	20.014	4.867	0.508
1104.500	636.469	79.983	19.993	99.995	20.012	5.102	0.519
1105.000	636.739	79.985	19.993	99.995	20.016	4.731	0.525
1105.499	636.937	79.983	19.993	99.995	20.011	5.166	0.493
1105.999	637.224	79.985	19.993	99.995	20.018	4.599	0.477
1106.499	637.469	79.982	19.993	99.995	20.015	4.833	0.508
1106.999	637.757	79.984	19.993	99.995	20.016	4.724	0.533
1107.499	638.020	79.984	19.992	99.995	20.015	4.806	0.543
1107.999	638.216	79.983	19.992	99.995	20.016	4.724	0.505
1108.499	638.497	79.983	19.992	99.995	20.016	4.776	0.468
1109.000	638.759	79.984	19.992	99.994	20.015	4.788	0.510
1109.500	639.050	79.983	19.994	99.994	20.019	4.508	0.548
1109.999	639.238	79.985	19.995	99.994	20.015	4.794	0.516
1110.499	639.524	79.984	19.992	99.993	20.015	4.817	0.476
1110.999	639.783	79.985	19.993	99.993	20.017	4.612	0.510
1111.500	640.036	79.985	19.994	99.993	20.015	4.820	0.529
1112.000	640.278	79.984	19.993	99.993	20.016	4.772	0.503
1112.499	640.529	79.984	19.994	99.994	20.020	4.389	0.494
1112.999	640.831	79.985	19.994	99.995	20.018	4.590	0.523
1113.500	641.086	79.984	19.993	99.995	20.016	4.740	0.555
1114.000	641.319	79.985	19.993	99.995	20.016	4.779	0.522
1114.500	641.599	79.983	19.993	99.995	20.017	4.679	0.500
1115.001	641.838	79.984	19.994	99.994	20.018	4.569	0.516
1115.500	642.111	79.983	19.993	99.993	20.016	4.733	0.516
1115.999	642.361	79.985	19.993	99.994	20.015	4.799	0.518
1116.499	642.606	79.984	19.993	99.994	20.017	4.631	0.509
1117.000	642.833	79.984	19.994	99.994	20.013	4.981	0.483
1117.501	643.125	79.984	19.993	99.994	20.015	4.861	0.496
1118.000	643.337	79.984	19.993	99.993	20.015	4.858	0.511
1118.499	643.616	79.981	19.993	99.993	20.013	4.972	0.497
1118.999	643.854	79.983	19.993	99.993	20.012	5.045	0.504
1119.499	644.094	79.982	19.993	99.992	20.015	4.863	0.498
1119.999	644.379	79.983	19.994	99.992	20.011	5.177	0.502
1120.499	644.574	79.982	19.993	99.992	20.016	4.724	0.503
1120.999	644.863	79.982	19.994	99.992	20.014	4.931	0.482
1121.499	645.089	79.982	19.993	99.993	20.011	5.125	0.499
1121.999	645.379	79.983	19.993	99.994	20.010	5.232	0.516
1122.499	645.621	79.984	19.994	99.995	20.013	4.975	0.524
1122.999	645.871	79.983	19.994	99.996	20.013	4.972	0.511
1123.499	646.140	79.982	19.993	99.997	20.013	4.991	0.506
1123.999	646.380	79.981	19.993	99.999	20.012	5.070	0.515
1124.499	646.652	79.982	19.993	100.000	20.012	5.045	0.511
1124.999	646.882	79.983	19.993	99.999	20.016	4.779	0.507
1125.499	647.147	79.982	19.993	99.999	20.014	4.947	0.498
1125.999	647.409	79.982	19.993	100.000	20.011	5.138	0.510
1126.499	647.678	79.982	19.992	99.998	20.013	5.015	0.529
1126.999	647.911	79.981	19.992	99.998	20.016	4.749	0.517
1127.499	648.150	79.982	19.994	99.999	20.013	5.009	0.487
1127.999	648.373	79.981	19.992	99.999	20.014	4.947	0.467
1128.499	648.650	79.982	19.993	99.998	20.015	4.838	0.481
1129.000	648.883	79.980	19.993	99.998	20.014	4.927	0.505
1129.500	649.156	79.982	19.992	99.997	20.012	5.050	0.508
1129.999	649.398	79.981	19.992	99.996	20.013	5.029	0.510
1130.499	649.692	79.981	19.992	99.997	20.015	4.845	0.525
1130.999	649.938	79.982	19.992	99.997	20.013	5.025	0.539
1131.499	650.157	79.982	19.992	99.999	20.012	5.088	0.502
1131.999	650.407	79.982	19.992	100.000	20.014	4.920	0.466
1132.499	650.654	79.980	19.993	100.000	20.015	4.840	0.483
1132.999	650.940	79.983	19.994	100.000	20.011	5.184	0.516
1133.499	651.162	79.981	19.993	100.003	20.012	5.093	0.520
1134.000	651.436	79.982	19.993	100.003	20.014	4.945	0.501
1134.500	651.654	79.981	19.993	100.002	20.010	5.214	0.494
1134.999	651.891	79.982	19.993	100.002	20.011	5.189	0.474
1135.499	652.149	79.982	19.993	100.002	20.010	5.209	0.475
1135.999	652.449	79.981	19.994	99.999	20.010	5.280	0.526
1136.499	652.692	79.981	19.994	99.998	20.011	5.159	0.551
1136.999	652.957	79.982	19.994	99.998	20.010	5.207	0.526
1137.499	653.195	79.981	19.994	99.998	20.013	4.986	0.505
1137.999	653.437	79.983	19.994	99.998	20.016	4.747	0.491
1138.499	653.655	79.981	19.994	99.998	20.017	4.615	0.470
1138.999	653.957	79.981	19.994	99.997	20.016	4.747	0.490
1139.499	654.219	79.983	19.993	99.997	20.013	5.027	0.542
1139.999	654.456	79.981	19.993	99.998	20.013	4.984	0.532
1140.500	654.708	79.982	19.994	99.999	20.010	5.259	0.494
1141.000	654.998	79.981	19.994	99.999	20.012	5.034	0.515
1141.499	655.256	79.983	19.994	99.999	20.013	5.007	0.545
1141.999	655.513	79.982	19.994	99.999	20.014	4.884	0.532
1142.499	655.746	79.982	19.993	99.999	20.011	5.184	0.502
1142.999	655.990	79.982	19.993	99.997	20.014	4.918	0.483
1143.499	656.226	79.982	19.993	99.997	20.015	4.813	0.479
1143.999	656.488	79.982	19.994	99.999	20.012	5.095	0.489
1144.500	656.740	79.980	19.993	100.000	20.011	5.139	0.506
1145.000	656.963	79.981	19.994	100.000	20.013	5.020	0.495
1145.499	657.261	79.983	19.992	100.000	20.013	4.972	0.498
1145.999	657.489	79.982	19.994	100.001	20.016	4.735	0.523
1146.499	657.729	79.982	19.994	99.999	20.013	5.000	0.497
1146.999	657.997	79.981	19.993	99.999	20.013	4.958	0.488
1147.499	658.229	79.982	19.993	99.999	20.015	4.783	0.504
1147.999	658.508	79.981	19.993	100.000	20.014	4.872	0.506
1148.499	658.767	79.981	19.993	99.999	20.015	4.813	0.524
1149.000	659.008	79.982	19.993	100.000	20.018	4.528	0.519
1149.500	659.256	79.981	19.993	100.000	20.015	4.840	0.495
1149.999	659.507	79.980	19.993	100.000	20.011	5.170	0.494
1150.500	659.732	79.981	19.991	100.000	20.015	4.795	0.487
1151.001	660.017	79.981	19.993	100.001	20.012	5.093	0.493
1151.500	660.256	79.982	19.992	100.001	20.013	4.972	0.517
1151.999	660.525	79.981	19.993	100.002	20.014	4.895	0.516
1152.499	660.788	79.981	19.992	100.004	20.015	4.817	0.520
1152.999	661.057	79.982	19.993	100.004	20.014	4.876	0.532
1153.499	661.280	79.982	19.993	100.003	20.011	5.129	0.512
1153.999	661.583	79.981	19.993	100.003	20.017	4.672	0.509
1154.499	661.823	79.981	19.992	100.003	20.016	4.738	0.535
1155.000	662.069	79.981	19.994	100.001	20.012	5.061	0.515
1155.500	662.328	79.982	19.992	100.001	20.011	5.152	0.495
1155.999	662.592	79.983	19.992	100.001	20.015	4.861	0.514
1156.499	662.835	79.982	19.993	99.999	20.016	4.772	0.516
1157.000	663.067	79.983	19.993	99.998	20.013	4.984	0.491
1157.501	663.317	79.982	19.992	99.997	20.012	5.111	0.479
1158.000	663.572	79.983	19.993	99.996	20.018	4.606	0.494
1158.499	663.825	79.982	19.993	99.996	20.015	4.840	0.506
1158.999	664.057	79.982	19.993	99.997	20.020	4.401	0.496
1159.499	664.332	79.982	19.992	99.999	20.016	4.703	0.496
1159.999	664.555	79.982	19.994	99.998	20.015	4.863	0.502
1160.499	664.858	79.983	19.993	99.998	20.013	5.013	0.512
1160.999	665.096	79.984	19.992	99.997	20.010	5.243	0.533
1161.499	665.359	79.984	19.993	99.997	20.015	4.806	0.521
1161.999	665.597	79.984	19.993	99.995	20.014	4.908	0.501
1162.500	665.855	79.983	19.993	99.996	20.014	4.899	0.498
1163.000	666.134	79.984	19.991	99.996	20.014	4.897	0.516
1163.499	666.373	79.984	19.991	99.996	20.020	4.437	0.527
1163.999	666.632	79.984	19.993	99.995	20.015	4.829	0.509
1164.500	666.865	79.985	19.993	99.995	20.017	4.678	0.495
1165.000	667.099	79.982	19.993	99.994	20.015	4.794	0.479
1165.500	667.374	79.984	19.992	99.994	20.014	4.872	0.488
1166.000	667.625	79.984	19.994	99.995	20.011	5.197	0.517
1166.500	667.894	79.983	19.993	99.995	20.011	5.134	0.523
1167.000	668.130	79.985	19.993	99.996	20.012	5.072	0.512
1167.499	668.360	79.983	19.993	99.996	20.012	5.108	0.486
1167.999	668.641	79.983	19.993	99.996	20.010	5.218	0.489
1168.499	668.886	79.983	19.994	99.996	20.010	5.224	0.519
1168.999	669.113	79.984	19.992	99.995	20.012	5.074	0.499
1169.499	669.404	79.983	19.993	99.995	20.011	5.129	0.495
1169.999	669.642	79.984	19.992	99.994	20.014	4.899	0.524
1170.499	669.898	79.983	19.992	99.992	20.012	5.086	0.512
1170.999	670.138	79.982	19.993	99.992	20.012	5.090	0.495
1171.499	670.394	79.984	19.993	99.991	20.010	5.211	0.496
1171.999	670.678	79.983	19.992	99.990	20.012	5.113	0.518
1172.499	670.910	79.983	19.993	99.991	20.011	5.168	0.528
1173.000	671.204	79.984	19.993	99.993	20.013	4.997	0.521
1173.500	671.446	79.983	19.993	99.993	20.011	5.116	0.531
1173.999	671.746	79.983	19.993	99.994	20.009	5.364	0.539
1174.499	671.935	79.984	19.992	99.994	20.008	5.437	0.515
1174.999	672.159	79.982	19.992	99.994	20.012	5.084	0.451
1175.499	672.445	79.984	19.993	99.992	20.012	5.113	0.461
1175.999	672.678	79.984	19.992	99.992	20.014	4.929	0.515
1176.499	672.936	79.982	19.993	99.992	20.013	4.997	0.505
1177.000	673.205	79.983	19.993	99.993	20.014	4.872	0.509
1177.500	673.444	79.982	19.992	99.992	20.010	5.216	0.517
1177.999	673.680	79.983	19.992	99.993	20.008	5.389	0.492
1178.499	673.951	79.982	19.992	99.990	20.011	5.168	0.491
1178.999	674.231	79.982	19.993	99.990	20.011	5.177	0.529
1179.499	674.486	79.983	19.993	99.989	20.014	4.947	0.543
1179.999	674.685	79.982	19.992	99.991	20.012	5.052	0.495
1180.499	674.944	79.983	19.992	99.990	20.014	4.918	0.456
1180.999	675.208	79.982	19.992	99.992	20.011	5.154	0.490
1181.499	675.428	79.984	19.993	99.992	20.011	5.127	0.503
1181.999	675.696	79.984	19.993	99.992	20.012	5.109	0.486
1182.499	675.981	79.985	19.992	99.992	20.010	5.254	0.521
1182.999	676.228	79.983	19.993	99.993	20.012	5.086	0.542
1183.499	676.475	79.984	19.992	99.994	20.010	5.277	0.513
1183.999	676.693	79.983	19.992	99.995	20.012	5.034	0.480
1184.499	676.981	79.984	19.993	99.996	20.011	5.129	0.485
1184.999	677.235	79.984	19.993	99.996	20.012	5.038	0.524
1185.499	677.466	79.983	19.993	99.997	20.010	5.282	0.513
1185.999	677.751	79.984	19.991	99.997	20.010	5.246	0.500
1186.499	678.018	79.984	19.991	99.997	20.015	4.815	0.534
1186.999	678.214	79.984	19.991	99.997	20.012	5.097	0.508
1187.500	678.489	79.985	19.992	99.997	20.013	4.970	0.467
1188.001	678.734	79.984	19.991	99.996	20.011	5.116	0.495
1188.500	678.957	79.986	19.991	99.996	20.013	4.956	0.494
1188.999	679.212	79.984	19.991	99.995	20.016	4.772	0.473
1189.499	679.458	79.984	19.992	99.995	20.017	4.651	0.490
1189.999	679.714	79.984	19.991	99.995	20.014	4.879	0.502
1190.500	680.025	79.985	19.992	99.996	20.015	4.797	0.534
1191.000	680.259	79.983	19.991	99.996	20.014	4.918	0.556
1191.499	680.512	79.984	19.991	99.996	20.013	4.984	0.516
1192.000	680.760	79.985	19.992	99.996	20.012	5.100	0.494
1192.500	681.012	79.984	19.992	99.996	20.012	5.064	0.500
1192.999	681.246	79.985	19.992	99.996	20.014	4.943	0.493
1193.499	681.523	79.983	19.992	99.996	20.014	4.932	0.499
1193.999	681.780	79.983	19.992	99.997	20.011	5.180	0.522
1194.499	682.033	79.983	19.992	99.998	20.010	5.200	0.522
1194.999	682.301	79.983	19.992	99.998	20.013	4.952	0.515
1195.499	682.526	79.982	19.992	100.000	20.018	4.540	0.508
1195.999	682.801	79.984	19.992	100.001	20.017	4.690	0.497
1196.499	683.025	79.983	19.993	100.001	20.016	4.731	0.499
1196.999	683.291	79.983	19.993	100.001	20.014	4.872	0.494
1197.499	683.528	79.983	19.993	100.001	20.015	4.861	0.497
1197.999	683.784	79.982	19.993	99.999	20.016	4.731	0.498
1198.499	684.025	79.982	19.992	99.998	20.014	4.868	0.495
1198.999	684.309	79.982	19.993	99.997	20.015	4.786	0.511
1199.499	684.619	79.981	19.992	99.998	20.015	4.827	0.559
1199.999	684.727	79.980	19.993	99.998	20.013	4.995	0.506
1200.499	685.089	79.982	19.993	99.999	20.015	4.859	0.445
1200.999	685.309	79.982	19.994	99.999	20.015	4.786	0.526
1201.499	685.542	79.981	19.992	99.999	20.015	4.863	0.517
1201.999	685.828	79.981	19.991	99.999	20.015	4.861	0.486
1202.500	686.081	79.980	19.992	100.000	20.016	4.702	0.529
1203.000	686.387	79.981	19.993	100.004	20.011	5.144	0.549
1203.499	686.608	79.982	19.993	100.005	20.013	4.989	0.543
1203.999	686.846	79.981	19.994	100.006	20.014	4.920	0.493
1204.499	687.129	79.981	19.993	100.007	20.012	5.096	0.490
1205.000	687.352	79.982	19.993	100.005	20.011	5.148	0.514
1205.500	687.619	79.982	19.992	100.004	20.013	5.018	0.498
1205.999	687.869	79.982	19.993	100.003	20.013	4.984	0.503
1206.499	688.084	79.982	19.993	100.003	20.011	5.134	0.491
1206.999	688.339	79.981	19.992	100.002	20.013	4.995	0.468
1207.499	688.614	79.980	19.993	100.003	20.010	5.214	0.500
1207.999	688.886	79.981	19.993	100.001	20.008	5.396	0.538
1208.499	689.161	79.981	19.993	100.000	20.010	5.230	0.547
1208.999	689.399	79.981	19.994	100.000	20.010	5.245	0.530
1209.499	689.640	79.982	19.992	100.001	20.009	5.311	0.496
1209.999	689.945	79.981	19.992	100.001	20.008	5.418	0.513
1210.499	690.160	79.982	19.993	100.002	20.010	5.231	0.533
1210.999	690.437	79.981	19.993	100.007	20.009	5.297	0.506
1211.499	690.692	79.982	19.993	100.010	20.011	5.184	0.512
1212.000	690.923	79.980	19.994	100.009	20.012	5.097	0.509
1212.500	691.185	79.981	19.993	100.009	20.009	5.323	0.489
1212.999	691.443	79.981	19.993	100.009	20.010	5.245	0.507
1213.499	691.701	79.982	19.992	100.009	20.012	5.097	0.519
1214.000	691.970	79.981	19.993	100.009	20.014	4.908	0.521
1214.500	692.175	79.981	19.991	100.009	20.011	5.147	0.500
1214.999	692.445	79.981	19.992	100.010	20.013	4.949	0.475
1215.499	692.744	79.981	19.992	100.011	20.011	5.125	0.522
1215.999	692.992	79.980	19.992	100.005	20.013	5.029	0.558
1216.499	693.215	79.981	19.992	100.002	20.015	4.792	0.509
1216.999	693.483	79.981	19.993	100.002	20.016	4.697	0.481
1217.499	693.733	79.981	19.993	100.000	20.011	5.159	0.504
1218.000	694.003	79.981	19.993	99.998	20.015	4.849	0.519
1218.500	694.262	79.983	19.993	100.001	20.012	5.077	0.525
1218.999	694.503	79.981	19.992	100.000	20.012	5.038	0.514
1219.499	694.753	79.982	19.994	99.998	20.014	4.890	0.496
1219.999	695.021	79.982	19.993	99.996	20.016	4.758	0.505
1220.499	695.280	79.982	19.994	99.993	20.015	4.861	0.522
1221.000	695.570	79.980	19.992	99.989	20.013	4.988	0.538
1221.500	695.781	79.982	19.993	99.988	20.016	4.697	0.525
1222.000	696.027	79.983	19.993	99.990	20.018	4.569	0.479
1222.500	696.276	79.981	19.994	99.992	20.013	4.956	0.475
1222.999	696.548	79.980	19.993	99.994	20.017	4.654	0.508
1223.499	696.831	79.981	19.993	99.996	20.018	4.608	0.538
1223.999	697.085	79.981	19.993	99.996	20.014	4.924	0.546
1224.499	697.293	79.981	19.994	99.997	20.013	4.965	0.500
1224.999	697.566	79.980	19.995	99.997	20.013	4.963	0.472
1225.499	697.846	79.980	19.994	99.997	20.015	4.863	0.517
1225.999	698.090	79.981	19.993	99.997	20.008	5.411	0.539
1226.500	698.339	79.980	19.994	99.997	20.015	4.831	0.508
1227.000	698.610	79.980	19.994	99.997	20.012	5.038	0.506
1227.499	698.846	79.981	19.995	99.996	20.015	4.808	0.513
1228.000	699.107	79.981	19.994	99.994	20.016	4.706	0.502
1228.500	699.387	79.981	19.994	99.993	20.015	4.863	0.519
1229.000	699.640	79.980	19.994	99.993	20.014	4.897	0.537
1229.500	699.888	79.980	19.995	99.994	20.014	4.929	0.517
1229.999	700.162	79.981	19.994	99.994	20.013	5.016	0.512
1230.499	700.420	79.979	19.994	99.994	20.010	5.248	0.527
1230.999	700.669	79.982	19.994	99.995	20.010	5.234	0.519
1231.499	700.951	79.980	19.994	99.998	20.013	5.009	0.519
1231.999	701.150	79.981	19.993	99.999	20.011	5.186	0.507
1232.499	701.434	79.980	19.994	100.000	20.012	5.061	0.482
1232.999	701.700	79.981	19.994	100.002	20.012	5.070	0.516
1233.499	701.951	79.981	19.994	100.001	20.010	5.266	0.534
1234.000	702.194	79.982	19.992	99.999	20.012	5.107	0.506
1234.500	702.428	79.981	19.994	99.998	20.009	5.323	0.485
1234.999	702.731	79.979	19.994	99.998	20.016	4.760	0.507
1235.499	702.990	79.980	19.992	99.997	20.014	4.906	0.549
1235.999	703.231	79.981	19.993	99.997	20.010	5.225	0.531
1236.499	703.521	79.983	19.994	99.996	20.013	5.002	0.516
1236.999	703.763	79.982	19.993	99.995	20.011	5.166	0.532
1237.499	704.006	79.982	19.992	99.994	20.010	5.252	0.508
1237.999	704.270	79.981	19.993	99.994	20.011	5.193	0.496
1238.500	704.522	79.982	19.993	99.994	20.009	5.316	0.511
1239.000	704.750	79.982	19.993	99.993	20.012	5.065	0.497
1239.499	705.019	79.983	19.993	99.999	20.011	5.197	0.488
1239.999	705.241	79.982	19.992	100.000	20.010	5.252	0.494
1240.499	705.513	79.984	19.993	100.002	20.013	4.990	0.492
1240.999	705.787	79.984	19.993	100.002	20.012	5.047	0.520
1241.499	706.019	79.984	19.993	100.002	20.013	4.979	0.526
1242.000	706.278	79.984	19.993	99.996	20.008	5.368	0.499
1242.500	706.538	79.984	19.992	99.995	20.013	4.949	0.505
1242.999	706.780	79.984	19.993	99.993	20.012	5.086	0.511
1243.499	707.047	79.984	19.993	99.994	20.009	5.300	0.506
1243.999	707.279	79.984	19.993	99.994	20.009	5.287	0.504
1244.500	707.534	79.984	19.992	99.994	20.013	5.013	0.493
1245.000	707.759	79.983	19.992	99.997	20.012	5.086	0.484
1245.499	708.068	79.983	19.992	99.997	20.012	5.043	0.507
1245.999	708.296	79.984	19.993	99.998	20.009	5.316	0.535
1246.499	708.534	79.985	19.991	99.998	20.008	5.384	0.502
1246.999	708.802	79.985	19.994	99.999	20.008	5.396	0.486
1247.499	709.071	79.984	19.993	99.996	20.008	5.434	0.522
1248.000	709.346	79.982	19.993	99.996	20.010	5.270	0.540
1248.500	709.523	79.981	19.993	99.995	20.009	5.359	0.498
1248.999	709.865	79.985	19.991	99.995	20.007	5.468	0.486
1249.499	710.115	79.984	19.991	99.994	20.007	5.457	0.556
1249.999	710.310	79.983	19.993	99.994	20.009	5.295	0.519
1250.499	710.574	79.982	19.993	99.994	20.010	5.277	0.452
1250.999	710.848	79.983	19.992	99.995	20.008	5.443	0.498
1251.499	711.103	79.982	19.991	99.995	20.008	5.389	0.533
1251.999	711.350	79.981	19.992	99.994	20.011	5.161	0.516
1252.500	711.597	79.983	19.992	99.994	20.013	5.016	0.498
1253.000	711.869	79.983	19.993	99.995	20.008	5.425	0.506
1253.499	712.109	79.981	19.992	99.998	20.010	5.275	0.515
1253.999	712.366	79.983	19.992	100.000	20.010	5.255	0.504
1254.499	712.620	79.982	19.992	100.001	20.007	5.498	0.504
1254.999	712.887	79.982	19.992	100.001	20.007	5.494	0.516
1255.499	713.189	79.981	19.992	100.001	20.011	5.175	0.545
1256.000	713.399	79.982	19.993	99.998	20.009	5.362	0.540
1256.500	713.668	79.982	19.994	99.995	20.009	5.293	0.495
1256.999	713.898	79.983	19.993	99.995	20.010	5.227	0.489
1257.499	714.151	79.981	19.993	99.995	20.008	5.368	0.491
1257.999	714.401	79.982	19.993	99.995	20.006	5.559	0.494
1258.500	714.666	79.983	19.992	99.995	20.009	5.293	0.509
1259.000	714.902	79.982	19.992	99.996	20.009	5.341	0.508
1259.499	715.170	79.983	19.993	99.996	20.010	5.270	0.502
1260.000	715.438	79.982	19.993	99.995	20.012	5.051	0.520
1260.500	715.692	79.982	19.993	99.995	20.011	5.124	0.529
1260.999	715.942	79.983	19.993	99.996	20.011	5.167	0.512
1261.499	716.196	79.982	19.992	99.996	20.008	5.445	0.504
1261.999	716.452	79.981	19.993	99.997	20.008	5.404	0.507
1262.499	716.696	79.982	19.992	99.998	20.010	5.249	0.505
1262.999	716.932	79.984	19.993	100.000	20.012	5.110	0.490
1263.499	717.166	79.983	19.993	99.999	20.010	5.279	0.475
1263.999	717.438	79.985	19.992	99.999	20.012	5.031	0.488
1264.499	717.715	79.984	19.992	99.999	20.009	5.289	0.528
1264.999	717.939	79.984	19.992	99.997	20.013	5.025	0.525
1265.499	718.200	79.983	19.992	99.996	20.011	5.195	0.493
1265.999	718.460	79.985	19.992	99.998	20.013	4.968	0.503
1266.499	718.714	79.983	19.990	99.998	20.014	4.911	0.518
1266.999	719.001	79.984	19.992	99.998	20.009	5.291	0.528
1267.499	719.208	79.984	19.992	99.998	20.012	5.072	0.517
1268.000	719.492	79.985	19.991	99.998	20.013	4.981	0.492
1268.500	719.749	79.984	19.992	99.997	20.012	5.047	0.516
1268.999	720.015	79.985	19.993	99.992	20.009	5.286	0.532
1269.499	720.302	79.985	19.991	99.991	20.010	5.202	0.538
1269.999	720.555	79.985	19.991	99.990	20.008	5.425	0.547
1270.499	720.757	79.986	19.992	99.989	20.008	5.448	0.498
1270.999	721.044	79.984	19.991	99.988	20.008	5.443	0.472
1271.499	721.269	79.983	19.991	99.988	20.010	5.218	0.500
1271.999	721.524	79.984	19.992	99.984	20.009	5.347	0.496
1272.499	721.799	79.984	19.991	99.979	20.006	5.596	0.505
1272.999	722.075	79.985	19.991	99.979	20.010	5.227	0.540
1273.499	722.278	79.983	19.991	99.981	20.009	5.307	0.515
1273.999	722.564	79.986	19.992	99.985	20.010	5.257	0.484
1274.500	722.849	79.983	19.992	99.991	20.006	5.534	0.530
1275.000	723.087	79.983	19.992	99.997	20.011	5.136	0.547
1275.499	723.332	79.984	19.992	99.999	20.010	5.273	0.503
1275.999	723.595	79.983	19.992	99.999	20.012	5.097	0.495
1276.499	723.851	79.984	19.993	99.999	20.010	5.200	0.513
1277.000	724.120	79.984	19.992	99.999	20.012	5.074	0.522
1277.500	724.362	79.983	19.993	99.999	20.011	5.136	0.519
1277.999	724.638	79.982	19.993	99.999	20.014	4.920	0.515
1278.499	724.862	79.981	19.993	99.999	20.011	5.181	0.509
1279.000	725.154	79.983	19.992	99.999	20.009	5.322	0.508
1279.500	725.433	79.983	19.992	99.998	20.013	4.972	0.544
1279.999	725.620	79.983	19.992	99.997	20.010	5.254	0.518
1280.499	725.891	79.980	19.992	99.994	20.008	5.391	0.462
1281.000	726.134	79.983	19.993	99.992	20.012	5.102	0.486
1281.500	726.380	79.981	19.992	99.989	20.009	5.305	0.501
1281.999	726.641	79.981	19.993	99.988	20.012	5.102	0.498
1282.499	726.914	79.982	19.993	99.989	20.011	5.193	0.521
1283.000	727.167	79.983	19.992	99.991	20.014	4.890	0.530
1283.500	727.417	79.981	19.994	99.992	20.008	5.370	0.514
1283.999	727.649	79.982	19.993	99.992	20.008	5.386	0.492
1284.499	727.877	79.980	19.993	99.992	20.009	5.309	0.471
1284.999	728.131	79.982	19.994	99.992	20.008	5.370	0.471
1285.499	728.400	79.982	19.993	99.993	20.012	5.084	0.502
1285.999	728.661	79.983	19.994	99.993	20.012	5.088	0.527
1286.499	728.930	79.982	19.994	99.994	20.012	5.079	0.530
1286.999	729.153	79.981	19.993	99.995	20.013	4.986	0.511
1287.499	729.423	79.982	19.994	99.994	20.011	5.193	0.493
1287.999	729.677	79.982	19.993	99.993	20.012	5.090	0.509
1288.499	729.929	79.981	19.993	99.991	20.009	5.334	0.515
1289.000	730.181	79.981	19.994	99.990	20.012	5.107	0.505
1289.500	730.438	79.981	19.993	99.990	20.012	5.086	0.506
1289.999	730.714	79.982	19.994	99.991	20.011	5.119	0.521
1290.499	730.964	79.982	19.993	99.992	20.009	5.338	0.529
1290.999	731.233	79.983	19.993	99.995	20.012	5.075	0.523
1291.499	731.444	79.983	19.993	99.997	20.009	5.353	0.500
1292.000	731.713	79.982	19.993	99.999	20.011	5.179	0.480
1292.500	731.957	79.984	19.994	100.000	20.010	5.277	0.496
1293.000	732.195	79.982	19.993	99.999	20.007	5.457	0.497
1293.500	732.486	79.982	19.994	99.998	20.010	5.251	0.505
1293.999	732.717	79.983	19.993	99.996	20.009	5.357	0.525
1294.499	732.922	79.983	19.993	99.995	20.008	5.382	0.479
1294.999	733.192	79.983	19.994	99.994	20.010	5.220	0.456
1295.500	733.471	79.983	19.993	99.994	20.012	5.045	0.512
1296.000	733.724	79.983	19.994	99.994	20.008	5.368	0.541
1296.499	733.972	79.982	19.993	99.995	20.013	4.956	0.517
1296.999	734.212	79.982	19.993	99.995	20.011	5.122	0.495
1297.499	734.418	79.983	19.993	99.995	20.008	5.395	0.467
1297.999	734.695	79.982	19.993	99.996	20.008	5.423	0.465
1298.499	734.951	79.983	19.994	99.996	20.009	5.343	0.508
1298.999	735.193	79.983	19.994	99.995	20.009	5.284	0.516
1299.499	735.451	79.983	19.993	99.992	20.011	5.197	0.499
1299.999	735.722	79.982	19.993	99.963	20.009	5.336	0.514
1300.499	735.963	79.981	19.993	99.943	20.013	5.004	0.521
1301.000	736.214	79.982	19.994	99.933	20.010	5.254	0.502
1301.500	736.466	79.983	19.993	99.931	20.013	4.977	0.497
1302.000	736.695	79.983	19.993	99.964	20.009	5.304	0.492
1302.500	736.960	79.981	19.993	100.009	20.011	5.170	0.488
1303.000	737.210	79.982	19.993	100.031	20.014	4.876	0.505
1303.500	737.485	79.982	19.993	100.041	20.012	5.093	0.520
1303.999	737.700	79.982	19.993	100.042	20.014	4.885	0.507
1304.499	737.947	79.981	19.993	100.012	20.015	4.860	0.476
1304.999	738.190	79.983	19.994	99.995	20.014	4.892	0.476
1305.499	738.470	79.982	19.994	99.994	20.013	5.027	0.507
1305.999	738.711	79.982	19.993	99.994	20.011	5.159	0.522
1306.499	738.936	79.983	19.994	99.994	20.012	5.052	0.493
1306.999	739.190	79.981	19.994	99.992	20.012	5.061	0.472
1307.499	739.423	79.982	19.994	99.992	20.012	5.083	0.483
1308.000	739.705	79.980	19.993	99.991	20.011	5.131	0.501
1308.500	739.950	79.981	19.994	99.991	20.012	5.049	0.521
1308.999	740.213	79.982	19.994	99.991	20.014	4.942	0.517
1309.499	740.495	79.981	19.994	99.992	20.007	5.491	0.526
1309.999	740.711	79.980	19.994	99.992	20.014	4.922	0.522
1310.499	740.943	79.982	19.994	99.993	20.010	5.270	0.473
1310.999	741.210	79.981	19.994	99.993	20.010	5.207	0.474
1311.499	741.481	79.981	19.995	99.993	20.013	5.015	0.518
1312.000	741.702	79.982	19.994	99.995	20.010	5.209	0.515
1312.500	741.951	79.982	19.993	99.995	20.010	5.227	0.481
1312.999	742.220	79.981	19.994	99.994	20.012	5.086	0.494
1313.500	742.445	79.982	19.994	99.994	20.009	5.288	0.506
1314.000	742.704	79.980	19.995	99.993	20.011	5.177	0.489
1314.499	742.923	79.981	19.994	99.992	20.011	5.115	0.481
1314.999	743.198	79.979	19.994	99.992	20.013	4.965	0.486
1315.500	743.495	79.981	19.994	99.992	20.015	4.815	0.533
1316.000	743.735	79.982	19.994	99.992	20.014	4.924	0.554
