Sample ID:	C:\MCC\MCC Cal\Test\Vinyl Siding\Vinyl_Siding_30_1.txt
Sample Weight (mg):	4.15
Heating Rate (C/s):	0.5
Combustor Temp (C):	900
N2 Flow Rate (cc/min):	80
O2 Flow Rate (cc/min):	20
Calibration File:	C:\MCC\MCC Cal\Coeff1 JN10440_30_210304.txt.txt
T Correction Coefficients:	0	1.024463	0
Time Shift (s):	14
*
Time (s)	Temperature (C)	N2 flow rate (cc/min)	O2 flow rate (cc/min)	Flow Rate (cc/min)	Oxygen (%)	HRR (W/g)	Heating rate (C/s)
0.000	104.456	79.976	19.992	99.862	20.059	0.589	-0.057
0.500	104.435	79.977	19.995	99.861	20.061	0.426	-0.040
1.000	104.462	79.977	19.992	99.857	20.060	0.507	-0.004
1.500	104.464	79.980	19.993	99.853	20.067	-0.041	0.018
2.000	104.497	79.975	19.992	99.847	20.059	0.595	0.032
2.500	104.443	79.977	19.993	99.843	20.064	0.202	0.007
3.000	104.422	79.983	19.997	99.847	20.064	0.222	-0.048
3.500	104.468	79.983	19.995	99.850	20.063	0.243	-0.025
4.000	104.479	79.979	19.994	99.857	20.063	0.277	0.041
4.500	104.457	79.977	19.994	99.857	20.059	0.609	0.023
5.000	104.469	79.977	19.992	99.858	20.063	0.295	-0.010
5.500	104.438	79.977	19.994	99.857	20.059	0.583	-0.015
6.000	104.414	79.977	19.994	99.856	20.060	0.526	-0.037
6.500	104.437	79.975	19.994	99.849	20.059	0.607	-0.028
7.000	104.442	79.977	19.991	99.848	20.060	0.534	0.014
7.500	104.432	79.975	19.993	99.847	20.059	0.542	0.011
8.000	104.421	79.977	19.993	99.846	20.061	0.428	-0.013
8.501	104.446	79.975	19.991	99.850	20.063	0.304	-0.003
9.001	104.457	79.979	19.994	99.850	20.067	-0.022	0.025
9.501	104.444	79.978	19.993	99.852	20.063	0.304	0.017
10.001	104.427	79.977	19.994	99.854	20.062	0.375	-0.016
10.500	104.457	79.975	19.993	99.853	20.062	0.342	-0.009
11.000	104.434	79.979	19.994	99.847	20.064	0.185	0.010
11.500	104.415	79.981	19.996	99.851	20.062	0.316	-0.018
12.000	104.453	79.978	19.993	99.850	20.064	0.179	-0.011
12.500	104.455	79.978	19.992	99.849	20.062	0.371	0.029
13.000	104.464	79.977	19.992	99.851	20.061	0.444	0.025
13.500	104.448	79.973	19.989	99.852	20.065	0.122	0.002
14.000	104.399	79.976	19.993	99.850	20.067	-0.026	-0.036
14.500	104.403	79.978	19.994	99.855	20.066	0.086	-0.055
15.000	104.448	79.978	19.994	99.857	20.067	-0.045	0.002
15.500	104.415	79.980	19.995	99.856	20.061	0.442	0.030
16.000	104.448	79.975	19.990	99.856	20.068	-0.118	0.006
16.500	104.409	79.982	19.993	99.857	20.068	-0.073	-0.003
17.000	104.471	79.981	19.994	99.855	20.068	-0.071	0.009
17.500	104.440	79.978	19.994	99.856	20.066	0.082	0.026
18.000	104.389	79.979	19.993	99.857	20.066	0.029	-0.025
18.500	104.413	79.977	19.993	99.857	20.065	0.090	-0.054
19.000	104.432	79.978	19.994	99.858	20.065	0.151	0.008
19.500	104.458	79.977	19.991	99.859	20.060	0.475	0.044
20.000	104.387	79.978	19.993	99.862	20.065	0.145	0.000
20.500	104.428	79.978	19.993	99.867	20.062	0.371	-0.037
21.000	104.409	79.979	19.993	99.871	20.063	0.302	-0.004
21.500	104.416	79.979	19.993	99.870	20.065	0.092	0.005
22.001	104.423	79.977	19.992	99.868	20.065	0.149	0.001
22.501	104.397	79.983	19.996	99.865	20.063	0.288	-0.003
23.001	104.432	79.977	19.994	99.866	20.063	0.263	-0.005
23.500	104.447	79.978	19.995	99.867	20.060	0.537	0.029
24.000	104.449	79.979	19.994	99.872	20.059	0.561	0.034
24.500	104.432	79.977	19.994	99.875	20.061	0.404	0.001
25.000	104.455	79.977	19.994	99.878	20.057	0.739	-0.004
25.500	104.440	79.978	19.995	99.881	20.059	0.543	0.007
26.000	104.464	79.978	19.994	99.884	20.059	0.561	0.008
26.500	104.455	79.978	19.995	99.885	20.060	0.525	0.012
27.000	104.452	79.978	19.994	99.887	20.059	0.565	0.002
27.500	104.468	79.978	19.995	99.889	20.062	0.386	0.000
28.000	104.520	79.978	19.995	99.887	20.061	0.390	0.040
28.500	104.533	79.976	19.992	99.886	20.058	0.686	0.066
29.000	104.521	79.978	19.995	99.886	20.062	0.345	0.033
29.500	104.516	79.973	19.991	99.889	20.055	0.860	-0.008
30.000	104.518	79.975	19.990	99.892	20.057	0.749	-0.010
30.500	104.535	79.979	19.995	99.900	20.058	0.653	0.008
31.000	104.535	79.977	19.994	99.908	20.054	0.951	0.018
31.500	104.532	79.977	19.995	99.916	20.057	0.713	0.007
32.001	104.572	79.978	19.994	99.926	20.054	0.988	0.017
32.501	104.588	79.976	19.994	99.937	20.049	1.325	0.046
33.000	104.586	79.977	19.993	99.944	20.048	1.425	0.035
33.500	104.624	79.974	19.992	99.951	20.052	1.080	0.025
34.000	104.603	79.978	19.994	99.959	20.049	1.360	0.026
34.500	104.614	79.978	19.993	99.963	20.050	1.219	0.003
35.000	104.672	79.979	19.994	99.967	20.047	1.462	0.030
35.500	104.648	79.979	19.994	99.972	20.045	1.642	0.052
36.000	104.700	79.977	19.993	99.980	20.046	1.558	0.032
36.500	104.702	79.975	19.990	99.991	20.046	1.542	0.041
37.001	104.753	79.978	19.994	100.001	20.043	1.748	0.053
37.501	104.797	79.979	19.995	100.011	20.043	1.809	0.073
38.001	104.839	79.977	19.992	100.021	20.048	1.436	0.091
38.501	104.851	79.979	19.991	100.029	20.038	2.161	0.070
39.001	104.899	79.977	19.992	100.032	20.035	2.398	0.057
39.500	104.927	79.979	19.994	100.035	20.035	2.353	0.068
40.000	104.956	79.983	19.993	100.036	20.035	2.400	0.066
40.500	104.955	79.982	19.994	100.039	20.036	2.273	0.042
41.000	105.021	79.982	19.993	100.039	20.033	2.557	0.046
41.500	105.075	79.981	19.993	100.039	20.032	2.624	0.093
42.000	105.131	79.982	19.993	100.043	20.035	2.418	0.115
42.501	105.171	79.979	19.991	100.051	20.032	2.608	0.103
43.001	105.273	79.980	19.993	100.054	20.030	2.782	0.119
43.501	105.292	79.980	19.992	100.061	20.032	2.641	0.131
44.000	105.391	79.979	19.993	100.066	20.023	3.296	0.119
44.500	105.419	79.980	19.992	100.067	20.031	2.692	0.123
45.000	105.487	79.982	19.993	100.066	20.023	3.252	0.112
45.500	105.546	79.981	19.993	100.070	20.021	3.474	0.111
46.000	105.614	79.981	19.992	100.068	20.023	3.274	0.126
46.500	105.692	79.979	19.991	100.063	20.024	3.237	0.136
47.000	105.761	79.980	19.995	100.061	20.022	3.358	0.147
47.500	105.838	79.983	19.992	100.059	20.024	3.185	0.147
48.000	105.920	79.981	19.993	100.060	20.023	3.281	0.152
48.500	105.996	79.980	19.991	100.062	20.025	3.101	0.158
49.000	106.084	79.981	19.991	100.069	20.023	3.297	0.161
49.500	106.116	79.979	19.990	100.075	20.022	3.330	0.142
50.000	106.206	79.981	19.992	100.077	20.019	3.560	0.121
50.500	106.283	79.979	19.993	100.076	20.019	3.577	0.144
51.001	106.390	79.980	19.992	100.077	20.021	3.438	0.176
51.501	106.500	79.979	19.993	100.077	20.014	3.994	0.201
52.001	106.577	79.984	19.994	100.076	20.019	3.552	0.202
52.501	106.636	79.981	19.996	100.078	20.020	3.477	0.161
53.001	106.744	79.978	19.991	100.077	20.017	3.740	0.152
53.501	106.894	79.980	19.991	100.076	20.020	3.487	0.213
54.000	106.923	79.979	19.994	100.078	20.020	3.525	0.218
54.500	107.027	79.983	19.995	100.078	20.017	3.707	0.156
55.000	107.129	79.982	19.995	100.078	20.020	3.534	0.170
55.500	107.227	79.979	19.992	100.078	20.020	3.499	0.203
56.001	107.315	79.981	19.993	100.080	20.019	3.573	0.193
56.501	107.446	79.984	19.997	100.081	20.018	3.644	0.202
57.000	107.533	79.978	19.991	100.081	20.014	3.932	0.219
57.500	107.603	79.984	19.992	100.080	20.015	3.867	0.187
58.000	107.755	79.973	19.991	100.087	20.017	3.752	0.189
58.500	107.830	79.983	19.993	100.091	20.017	3.756	0.225
59.000	107.959	79.980	19.993	100.097	20.016	3.776	0.216
59.500	108.071	79.975	19.992	100.101	20.018	3.658	0.222
60.000	108.166	79.983	19.994	100.100	20.019	3.566	0.224
60.500	108.311	79.979	19.994	100.097	20.018	3.675	0.223
61.000	108.429	79.978	19.991	100.092	20.017	3.771	0.252
61.500	108.514	79.982	19.992	100.086	20.020	3.546	0.233
62.000	108.691	79.980	19.993	100.092	20.015	3.883	0.233
62.500	108.823	79.981	19.992	100.097	20.014	3.986	0.285
63.000	108.905	79.980	19.992	100.097	20.012	4.131	0.261
63.500	109.033	79.980	19.993	100.098	20.022	3.379	0.212
64.000	109.170	79.980	19.993	100.096	20.016	3.785	0.238
64.500	109.274	79.981	19.993	100.088	20.014	3.967	0.254
65.000	109.414	79.981	19.995	100.084	20.014	3.930	0.243
65.501	109.590	79.976	19.992	100.081	20.015	3.854	0.280
66.001	109.734	79.982	19.991	100.084	20.017	3.746	0.317
66.500	109.833	79.983	19.990	100.086	20.020	3.524	0.281
67.000	110.007	79.976	19.989	100.089	20.018	3.643	0.259
67.500	110.126	79.982	19.992	100.088	20.015	3.853	0.283
68.000	110.239	79.984	19.993	100.089	20.022	3.365	0.262
68.500	110.350	79.982	19.992	100.086	20.019	3.620	0.228
69.000	110.547	79.982	19.992	100.082	20.018	3.689	0.267
69.500	110.667	79.980	19.992	100.080	20.011	4.214	0.313
70.000	110.775	79.981	19.992	100.080	20.019	3.597	0.272
70.500	110.916	79.982	19.993	100.081	20.020	3.528	0.238
71.000	111.037	79.979	19.992	100.081	20.016	3.795	0.255
71.501	111.217	79.978	19.990	100.086	20.017	3.734	0.281
72.001	111.359	79.980	19.992	100.092	20.020	3.497	0.312
72.500	111.490	79.983	19.992	100.097	20.018	3.653	0.298
73.000	111.671	79.979	19.992	100.100	20.015	3.886	0.293
73.500	111.777	79.981	19.992	100.101	20.017	3.734	0.299
74.000	111.957	79.981	19.991	100.097	20.020	3.544	0.286
74.500	112.110	79.982	19.993	100.091	20.018	3.697	0.309
75.000	112.254	79.979	19.991	100.086	20.017	3.771	0.315
75.500	112.411	79.981	19.992	100.084	20.015	3.863	0.299
76.000	112.565	79.977	19.988	100.087	20.017	3.775	0.307
76.500	112.713	79.974	19.993	100.090	20.014	3.975	0.307
77.001	112.882	79.972	19.989	100.095	20.012	4.143	0.309
77.501	113.040	79.983	19.990	100.098	20.016	3.826	0.322
78.001	113.197	79.978	19.993	100.104	20.014	3.959	0.321
78.500	113.309	79.976	19.996	100.102	20.015	3.853	0.292
79.000	113.483	79.980	19.992	100.101	20.016	3.788	0.277
79.500	113.679	79.979	19.990	100.101	20.016	3.802	0.327
80.000	113.829	79.979	19.995	100.102	20.015	3.902	0.358
80.500	113.940	79.981	19.993	100.099	20.015	3.912	0.304
81.000	114.123	79.980	19.994	100.097	20.017	3.722	0.278
81.500	114.324	79.974	19.991	100.098	20.016	3.796	0.339
82.000	114.506	79.981	19.991	100.096	20.015	3.908	0.383
82.500	114.635	79.982	19.994	100.099	20.014	3.943	0.347
83.000	114.812	79.982	19.995	100.102	20.013	4.070	0.309
83.500	114.986	79.974	19.990	100.104	20.010	4.262	0.329
84.000	115.117	79.981	19.995	100.104	20.016	3.814	0.328
84.500	115.347	79.980	19.994	100.102	20.011	4.165	0.333
85.000	115.451	79.978	19.993	100.095	20.017	3.765	0.347
85.500	115.657	79.977	19.994	100.089	20.012	4.088	0.322
86.000	115.768	79.980	19.996	100.090	20.011	4.174	0.313
86.501	115.977	79.978	19.993	100.093	20.021	3.428	0.319
87.001	116.141	79.979	19.993	100.097	20.009	4.313	0.347
87.500	116.315	79.978	19.994	100.101	20.013	4.008	0.355
88.000	116.504	79.977	19.994	100.105	20.012	4.102	0.351
88.500	116.664	79.976	19.993	100.106	20.011	4.190	0.356
89.000	116.869	79.976	19.992	100.106	20.013	4.069	0.357
89.500	117.027	79.982	19.993	100.108	20.014	3.967	0.364
90.000	117.161	79.979	19.991	100.108	20.006	4.568	0.327
90.501	117.377	79.979	19.995	100.109	20.013	4.025	0.321
91.001	117.585	79.974	19.991	100.105	20.010	4.250	0.387
91.500	117.751	79.980	19.993	100.102	20.016	3.812	0.399
92.000	117.957	79.979	19.993	100.104	20.018	3.649	0.373
92.500	118.115	79.980	19.995	100.105	20.011	4.162	0.368
93.000	118.327	79.978	19.994	100.103	20.011	4.209	0.367
93.501	118.442	79.980	19.992	100.110	20.014	3.945	0.349
94.001	118.620	79.979	19.994	100.109	20.014	4.000	0.310
94.501	118.835	79.981	19.993	100.103	20.014	3.941	0.343
95.001	119.010	79.980	19.995	100.101	20.010	4.299	0.391
95.501	119.205	79.980	19.997	100.100	20.014	3.990	0.380
96.001	119.409	79.979	19.992	100.099	20.010	4.276	0.385
96.500	119.615	79.976	19.992	100.105	20.014	3.980	0.405
97.000	119.748	79.979	19.992	100.110	20.019	3.623	0.374
97.500	119.958	79.974	19.992	100.110	20.013	4.041	0.341
98.000	120.181	79.981	19.994	100.107	20.013	4.009	0.388
98.500	120.346	79.979	19.994	100.106	20.014	3.953	0.410
99.001	120.547	79.982	19.996	100.103	20.014	3.945	0.377
99.501	120.767	79.977	19.990	100.100	20.012	4.150	0.393
100.000	120.968	79.976	19.992	100.100	20.014	3.972	0.421
100.500	121.141	79.984	19.994	100.104	20.007	4.458	0.398
101.000	121.323	79.974	19.991	100.109	20.013	4.043	0.364
101.500	121.519	79.977	19.993	100.109	20.014	3.962	0.366
102.000	121.716	79.979	19.993	100.112	20.012	4.115	0.385
102.500	121.894	79.978	19.993	100.113	20.016	3.839	0.384
103.001	122.117	79.978	19.992	100.116	20.012	4.107	0.388
103.501	122.323	79.981	19.993	100.113	20.013	4.052	0.415
104.000	122.548	79.974	19.992	100.115	20.011	4.172	0.430
104.501	122.740	79.977	19.994	100.114	20.013	4.007	0.424
105.001	122.944	79.974	19.993	100.113	20.014	3.990	0.406
105.500	123.161	79.979	19.992	100.111	20.014	3.992	0.408
106.000	123.313	79.983	19.995	100.113	20.009	4.334	0.395
106.500	123.565	79.977	19.993	100.114	20.009	4.374	0.387
107.000	123.723	79.977	19.994	100.116	20.016	3.849	0.407
107.500	123.973	79.977	19.992	100.116	20.011	4.205	0.409
108.001	124.164	79.979	19.994	100.118	20.013	4.044	0.425
108.501	124.352	79.979	19.992	100.116	20.012	4.082	0.410
109.001	124.531	79.974	19.992	100.115	20.009	4.313	0.373
109.500	124.737	79.976	19.997	100.114	20.014	4.003	0.376
110.000	124.971	79.974	19.991	100.114	20.011	4.158	0.412
110.500	125.199	79.976	19.990	100.113	20.015	3.878	0.451
111.000	125.377	79.984	19.996	100.114	20.009	4.315	0.434
111.500	125.648	79.977	19.994	100.115	20.013	4.037	0.428
112.000	125.808	79.978	19.996	100.116	20.005	4.658	0.441
112.501	126.037	79.979	19.997	100.118	20.012	4.133	0.410
113.001	126.252	79.977	19.996	100.118	20.017	3.731	0.416
113.501	126.498	79.976	19.993	100.116	20.010	4.238	0.452
114.001	126.661	79.977	19.995	100.115	20.013	4.046	0.435
114.500	126.854	79.974	19.997	100.117	20.009	4.315	0.382
115.000	127.067	79.978	19.997	100.115	20.017	3.735	0.381
115.500	127.287	79.979	19.997	100.115	20.012	4.135	0.419
116.000	127.540	79.975	19.994	100.116	20.012	4.092	0.453
116.500	127.796	79.980	19.994	100.115	20.014	4.001	0.491
117.000	127.980	79.978	19.994	100.116	20.015	3.876	0.475
117.500	128.207	79.978	19.994	100.117	20.015	3.874	0.426
118.000	128.438	79.979	19.997	100.118	20.015	3.870	0.434
118.500	128.678	79.978	19.995	100.118	20.014	3.933	0.465
119.000	128.875	79.975	19.992	100.118	20.010	4.260	0.454
119.500	129.098	79.978	19.994	100.116	20.015	3.870	0.428
120.000	129.296	79.978	19.993	100.116	20.015	3.915	0.421
120.500	129.544	79.975	19.993	100.115	20.012	4.103	0.434
121.000	129.760	79.983	19.995	100.115	20.012	4.078	0.455
121.500	129.951	79.977	19.993	100.117	20.008	4.448	0.435
122.001	130.216	79.976	19.994	100.116	20.014	3.992	0.431
122.501	130.399	79.980	19.995	100.116	20.008	4.434	0.452
123.000	130.625	79.980	19.995	100.116	20.010	4.299	0.429
123.501	130.831	79.983	19.996	100.118	20.004	4.710	0.421
124.001	131.057	79.979	19.995	100.118	20.014	3.990	0.432
124.500	131.284	79.981	19.994	100.119	20.012	4.099	0.442
125.000	131.534	79.978	19.992	100.120	20.012	4.105	0.464
125.500	131.748	79.980	19.994	100.119	20.012	4.119	0.470
126.000	131.983	79.973	19.989	100.119	20.013	4.060	0.457
126.500	132.159	79.980	19.994	100.114	20.013	4.068	0.430
127.000	132.430	79.985	19.994	100.115	20.012	4.100	0.429
127.500	132.611	79.977	19.989	100.117	20.009	4.344	0.449
128.000	132.839	79.978	19.993	100.118	20.011	4.170	0.430
128.500	133.065	79.978	19.992	100.116	20.011	4.213	0.432
129.000	133.337	79.984	19.995	100.117	20.008	4.401	0.476
129.500	133.564	79.977	19.994	100.117	20.014	3.951	0.499
130.000	133.801	79.978	19.991	100.115	20.014	3.974	0.481
130.500	134.023	79.982	19.996	100.115	20.012	4.096	0.461
131.000	134.233	79.982	19.993	100.116	20.014	3.978	0.446
131.500	134.507	79.981	19.996	100.117	20.011	4.162	0.459
132.001	134.739	79.980	19.994	100.115	20.009	4.333	0.495
132.500	134.972	79.979	19.992	100.115	20.010	4.244	0.485
133.000	135.191	79.975	19.991	100.116	20.014	3.960	0.458
133.500	135.416	79.981	19.993	100.115	20.016	3.827	0.448
134.000	135.642	79.979	19.990	100.116	20.011	4.201	0.448
134.500	135.847	79.975	19.994	100.117	20.012	4.127	0.441
135.000	136.094	79.981	19.995	100.116	20.010	4.252	0.441
135.500	136.313	79.973	19.989	100.116	20.008	4.426	0.459
136.000	136.552	79.981	19.991	100.115	20.011	4.158	0.462
136.500	136.783	79.975	19.991	100.117	20.014	3.966	0.464
137.000	137.026	79.978	19.995	100.114	20.011	4.207	0.472
137.500	137.268	79.972	19.993	100.115	20.014	3.933	0.480
138.000	137.501	79.979	19.992	100.111	20.012	4.133	0.480
138.500	137.720	79.979	19.993	100.112	20.010	4.233	0.464
139.000	137.951	79.980	19.994	100.111	20.009	4.313	0.451
139.500	138.229	79.978	19.992	100.113	20.005	4.679	0.479
140.000	138.434	79.980	19.993	100.114	20.010	4.243	0.496
140.500	138.683	79.980	19.994	100.114	20.010	4.237	0.469
141.000	138.920	79.979	19.993	100.110	20.009	4.327	0.470
141.500	139.173	79.979	19.992	100.108	20.007	4.464	0.488
142.000	139.420	79.979	19.992	100.109	20.010	4.258	0.495
142.500	139.627	79.980	19.992	100.110	20.011	4.197	0.477
143.000	139.874	79.978	19.991	100.112	20.010	4.296	0.454
143.500	140.131	79.982	19.993	100.116	20.006	4.572	0.479
144.000	140.390	79.979	19.992	100.119	20.007	4.484	0.510
144.500	140.603	79.980	19.993	100.119	20.012	4.147	0.494
145.000	140.815	79.980	19.994	100.119	20.011	4.196	0.449
145.500	141.076	79.979	19.993	100.120	20.013	4.072	0.449
146.000	141.331	79.978	19.990	100.120	20.013	4.011	0.494
146.500	141.555	79.979	19.991	100.120	20.010	4.266	0.498
147.000	141.797	79.980	19.993	100.118	20.009	4.349	0.473
147.500	142.032	79.983	19.993	100.117	20.011	4.196	0.472
148.000	142.268	79.981	19.992	100.118	20.009	4.356	0.474
148.500	142.536	79.981	19.991	100.118	20.009	4.345	0.488
149.000	142.769	79.977	19.994	100.115	20.011	4.161	0.502
149.500	143.021	79.979	19.993	100.113	20.014	3.969	0.493
150.000	143.240	79.980	19.993	100.112	20.014	3.972	0.478
150.500	143.507	79.983	19.993	100.110	20.009	4.325	0.479
151.000	143.751	79.981	19.992	100.109	20.013	4.029	0.499
151.500	144.034	79.981	19.992	100.111	20.013	4.041	0.519
152.000	144.255	79.983	19.993	100.112	20.013	4.016	0.515
152.500	144.502	79.983	19.994	100.113	20.009	4.307	0.487
153.000	144.737	79.981	19.991	100.114	20.010	4.235	0.475
153.500	144.988	79.976	19.995	100.112	20.013	4.051	0.483
154.000	145.199	79.980	19.993	100.109	20.008	4.389	0.474
154.500	145.486	79.982	19.993	100.109	20.009	4.356	0.480
155.000	145.730	79.981	19.992	100.110	20.012	4.145	0.515
155.500	145.983	79.976	19.986	100.108	20.012	4.100	0.514
156.000	146.212	79.982	19.991	100.110	20.011	4.217	0.489
156.500	146.471	79.980	19.994	100.113	20.009	4.347	0.485
157.000	146.710	79.979	19.992	100.111	20.013	4.074	0.493
157.500	146.939	79.978	19.991	100.110	20.010	4.303	0.483
158.000	147.161	79.981	19.995	100.106	20.016	3.808	0.460
158.500	147.474	79.983	19.994	100.104	20.013	4.004	0.493
159.000	147.726	79.979	19.993	100.105	20.011	4.186	0.550
159.500	147.961	79.980	19.993	100.102	20.009	4.311	0.526
160.000	148.185	79.980	19.994	100.102	20.012	4.094	0.473
160.500	148.433	79.981	19.993	100.104	20.011	4.192	0.465
161.000	148.708	79.979	19.992	100.107	20.011	4.198	0.497
161.500	148.941	79.978	19.992	100.105	20.014	3.951	0.515
162.000	149.196	79.978	19.993	100.104	20.013	4.043	0.498
162.500	149.435	79.978	19.992	100.105	20.011	4.180	0.491
163.000	149.720	79.979	19.992	100.105	20.012	4.139	0.509
163.500	149.961	79.978	19.993	100.105	20.013	4.043	0.525
164.000	150.199	79.978	19.993	100.108	20.012	4.096	0.503
164.500	150.470	79.977	19.991	100.112	20.013	4.030	0.494
165.000	150.697	79.978	19.992	100.111	20.013	4.063	0.503
165.500	150.969	79.977	19.993	100.111	20.011	4.157	0.499
166.000	151.182	79.979	19.993	100.110	20.016	3.816	0.492
166.500	151.413	79.978	19.992	100.109	20.011	4.192	0.464
167.000	151.644	79.980	19.994	100.106	20.016	3.787	0.454
167.500	151.961	79.979	19.993	100.106	20.012	4.088	0.505
168.000	152.212	79.979	19.993	100.107	20.011	4.185	0.558
168.500	152.397	79.980	19.993	100.108	20.012	4.103	0.502
169.000	152.667	79.981	19.993	100.106	20.013	4.034	0.445
169.500	152.890	79.981	19.993	100.109	20.011	4.191	0.474
170.000	153.181	79.978	19.993	100.109	20.012	4.130	0.503
170.500	153.404	79.980	19.991	100.107	20.012	4.081	0.514
171.000	153.646	79.980	19.995	100.105	20.011	4.201	0.490
171.500	153.903	79.979	19.992	100.103	20.014	3.969	0.482
172.000	154.165	79.983	19.995	100.102	20.016	3.832	0.510
172.500	154.382	79.983	19.996	100.103	20.015	3.889	0.499
173.000	154.620	79.979	19.993	100.100	20.016	3.836	0.467
173.500	154.922	79.980	19.994	100.097	20.012	4.105	0.498
174.000	155.161	79.981	19.993	100.097	20.014	3.948	0.541
174.500	155.413	79.980	19.993	100.093	20.017	3.758	0.516
175.000	155.661	79.980	19.993	100.091	20.017	3.754	0.496
175.500	155.900	79.980	19.995	100.096	20.017	3.742	0.493
176.000	156.146	79.984	19.994	100.099	20.009	4.330	0.486
176.501	156.408	79.981	19.995	100.101	20.012	4.085	0.497
177.001	156.678	79.980	19.994	100.107	20.012	4.093	0.519
177.501	156.894	79.979	19.993	100.104	20.015	3.856	0.508
178.000	157.189	79.981	19.994	100.098	20.013	4.069	0.499
178.500	157.443	79.980	19.994	100.094	20.015	3.885	0.530
179.000	157.691	79.978	19.995	100.092	20.015	3.862	0.526
179.501	157.944	79.978	19.992	100.085	20.009	4.369	0.502
180.000	158.201	79.978	19.993	100.083	20.012	4.095	0.505
180.500	158.448	79.977	19.993	100.083	20.013	4.058	0.507
181.000	158.661	79.984	19.996	100.081	20.010	4.232	0.482
181.500	158.959	79.980	19.992	100.080	20.014	3.936	0.485
182.000	159.187	79.979	19.994	100.083	20.010	4.269	0.518
182.500	159.410	79.980	19.995	100.083	20.013	4.038	0.488
183.000	159.675	79.979	19.993	100.085	20.013	4.038	0.470
183.500	159.936	79.979	19.993	100.085	20.007	4.469	0.507
184.000	160.182	79.979	19.994	100.085	20.009	4.332	0.516
184.500	160.463	79.978	19.994	100.082	20.011	4.189	0.517
185.000	160.717	79.980	19.993	100.082	20.010	4.242	0.531
185.500	160.970	79.977	19.993	100.080	20.013	4.024	0.521
186.000	161.225	79.978	19.993	100.082	20.014	3.954	0.507
186.500	161.430	79.979	19.991	100.081	20.010	4.275	0.484
187.000	161.674	79.980	19.995	100.082	20.009	4.306	0.455
187.500	161.951	79.978	19.993	100.083	20.006	4.544	0.485
188.000	162.199	79.978	19.993	100.084	20.012	4.097	0.523
188.500	162.450	79.980	19.993	100.082	20.008	4.448	0.512
189.000	162.737	79.980	19.995	100.083	20.011	4.187	0.518
189.500	162.983	79.977	19.993	100.082	20.014	3.991	0.535
190.000	163.181	79.975	19.989	100.082	20.010	4.301	0.489
190.500	163.468	79.979	19.994	100.082	20.008	4.444	0.465
191.000	163.746	79.977	19.993	100.082	20.010	4.299	0.525
191.500	163.974	79.979	19.993	100.081	20.007	4.522	0.535
192.000	164.267	79.977	19.993	100.084	20.009	4.303	0.514
192.500	164.481	79.979	19.993	100.083	20.012	4.126	0.514
193.000	164.750	79.980	19.994	100.083	20.011	4.159	0.495
193.500	164.978	79.975	19.994	100.082	20.011	4.210	0.490
194.000	165.225	79.978	19.993	100.081	20.008	4.438	0.486
194.500	165.483	79.980	19.994	100.079	20.013	4.059	0.490
195.000	165.738	79.976	19.993	100.080	20.012	4.126	0.509
195.500	165.998	79.979	19.994	100.080	20.013	4.062	0.514
196.000	166.230	79.978	19.993	100.080	20.009	4.308	0.504
196.500	166.508	79.979	19.996	100.081	20.011	4.199	0.501
197.000	166.755	79.980	19.996	100.081	20.011	4.171	0.517
197.500	167.034	79.974	19.990	100.081	20.014	3.987	0.525
198.000	167.260	79.978	19.994	100.081	20.010	4.258	0.516
198.500	167.473	79.980	19.995	100.079	20.009	4.334	0.472
199.000	167.744	79.975	19.994	100.079	20.009	4.356	0.461
199.500	167.994	79.981	19.995	100.078	20.010	4.271	0.502
200.000	168.253	79.981	19.995	100.079	20.008	4.436	0.515
200.500	168.476	79.976	19.994	100.080	20.012	4.136	0.496
201.000	168.718	79.978	19.994	100.080	20.010	4.244	0.474
201.500	169.003	79.973	19.993	100.079	20.011	4.226	0.496
202.000	169.277	79.980	19.995	100.078	20.010	4.301	0.543
202.500	169.507	79.977	19.993	100.080	20.012	4.107	0.532
203.000	169.718	79.980	19.994	100.079	20.011	4.226	0.473
203.500	170.026	79.982	19.996	100.081	20.014	3.936	0.480
204.000	170.235	79.979	19.993	100.085	20.007	4.471	0.518
204.500	170.520	79.978	19.993	100.088	20.008	4.383	0.506
205.000	170.775	79.980	19.992	100.084	20.008	4.426	0.517
205.500	171.043	79.977	19.994	100.085	20.008	4.428	0.531
206.000	171.273	79.978	19.993	100.083	20.012	4.113	0.511
206.500	171.513	79.982	19.995	100.080	20.010	4.250	0.484
207.000	171.782	79.980	19.993	100.080	20.010	4.260	0.489
207.500	171.998	79.978	19.992	100.081	20.009	4.328	0.497
208.000	172.237	79.980	19.994	100.079	20.006	4.540	0.471
208.500	172.560	79.980	19.993	100.078	20.006	4.579	0.508
209.000	172.836	79.979	19.993	100.077	20.003	4.779	0.580
209.500	173.078	79.980	19.994	100.076	20.005	4.663	0.558
210.000	173.291	79.980	19.993	100.076	20.005	4.644	0.487
210.500	173.547	79.980	19.994	100.077	20.011	4.203	0.462
211.000	173.816	79.978	19.993	100.078	20.009	4.340	0.497
211.500	174.064	79.980	19.993	100.078	20.006	4.550	0.521
212.000	174.303	79.979	19.992	100.079	20.008	4.395	0.502
212.500	174.550	79.978	19.994	100.080	20.002	4.836	0.486
213.000	174.807	79.980	19.992	100.078	20.007	4.505	0.494
213.500	175.039	79.979	19.993	100.077	20.008	4.397	0.496
214.000	175.310	79.980	19.993	100.077	20.007	4.456	0.496
214.500	175.529	79.980	19.993	100.075	20.007	4.487	0.497
215.000	175.821	79.980	19.993	100.075	20.003	4.785	0.501
215.500	176.076	79.980	19.992	100.077	20.002	4.867	0.529
216.000	176.326	79.981	19.992	100.077	20.005	4.671	0.526
216.500	176.576	79.981	19.992	100.076	20.005	4.638	0.502
217.000	176.843	79.979	19.993	100.078	20.006	4.550	0.509
217.500	177.097	79.978	19.993	100.077	20.005	4.620	0.519
218.000	177.317	79.980	19.992	100.077	20.006	4.544	0.498
218.500	177.571	79.979	19.993	100.077	20.008	4.422	0.474
219.000	177.829	79.981	19.992	100.077	20.010	4.287	0.493
219.500	178.095	79.981	19.992	100.075	20.007	4.489	0.518
220.000	178.315	79.980	19.993	100.075	20.008	4.405	0.505
220.500	178.580	79.980	19.993	100.076	20.009	4.360	0.485
221.000	178.795	79.980	19.994	100.076	20.008	4.434	0.482
221.500	179.056	79.979	19.994	100.076	20.011	4.187	0.478
222.001	179.291	79.981	19.993	100.077	20.009	4.364	0.486
222.500	179.554	79.979	19.994	100.076	20.010	4.266	0.497
223.000	179.847	79.981	19.994	100.073	20.009	4.332	0.527
223.500	180.079	79.981	19.993	100.073	20.009	4.362	0.540
224.000	180.332	79.977	19.990	100.073	20.008	4.385	0.505
224.500	180.605	79.982	19.989	100.070	20.007	4.499	0.506
225.000	180.823	79.980	19.991	100.073	20.009	4.374	0.509
225.500	181.037	79.982	19.993	100.075	20.010	4.272	0.462
226.000	181.304	79.981	19.993	100.075	20.009	4.303	0.457
226.500	181.551	79.979	19.992	100.076	20.009	4.374	0.497
227.000	181.834	79.979	19.991	100.075	20.012	4.149	0.522
227.500	182.049	79.987	19.994	100.070	20.011	4.219	0.514
228.000	182.330	79.983	19.993	100.071	20.013	4.068	0.497
228.500	182.540	79.982	19.993	100.071	20.009	4.315	0.493
229.000	182.829	79.981	19.994	100.071	20.011	4.186	0.495
229.500	183.051	79.979	19.991	100.073	20.010	4.280	0.505
230.000	183.330	79.982	19.992	100.076	20.009	4.374	0.506
230.500	183.605	79.982	19.992	100.073	20.011	4.160	0.527
231.000	183.856	79.981	19.992	100.072	20.009	4.368	0.540
231.500	184.099	79.981	19.993	100.071	20.011	4.178	0.510
232.000	184.362	79.982	19.993	100.072	20.009	4.354	0.500
232.500	184.613	79.981	19.992	100.071	20.011	4.158	0.510
233.001	184.866	79.981	19.993	100.072	20.007	4.513	0.509
233.500	185.127	79.981	19.992	100.072	20.011	4.207	0.509
234.000	185.389	79.981	19.992	100.072	20.010	4.240	0.519
234.500	185.651	79.981	19.992	100.073	20.009	4.305	0.524
235.000	185.945	79.982	19.992	100.070	20.007	4.477	0.540
235.500	186.153	79.982	19.993	100.068	20.009	4.364	0.529
236.000	186.411	79.980	19.993	100.064	20.010	4.278	0.484
236.500	186.682	79.981	19.992	100.061	20.011	4.211	0.498
237.000	186.918	79.980	19.992	100.061	20.007	4.480	0.518
237.500	187.127	79.980	19.993	100.063	20.009	4.335	0.476
238.000	187.425	79.980	19.992	100.061	20.008	4.416	0.476
238.500	187.630	79.978	19.993	100.064	20.007	4.468	0.505
239.000	187.896	79.980	19.993	100.067	20.010	4.282	0.487
239.500	188.156	79.978	19.993	100.064	20.007	4.496	0.498
240.000	188.373	79.979	19.993	100.065	20.007	4.490	0.502
240.500	188.647	79.978	19.993	100.068	20.010	4.241	0.484
241.000	188.911	79.980	19.994	100.068	20.006	4.582	0.514
241.500	189.145	79.979	19.993	100.068	20.009	4.321	0.518
242.000	189.429	79.980	19.993	100.067	20.010	4.242	0.508
242.500	189.663	79.980	19.993	100.065	20.009	4.307	0.518
243.000	189.916	79.980	19.993	100.065	20.008	4.415	0.502
243.500	190.160	79.979	19.993	100.067	20.011	4.226	0.491
244.000	190.464	79.980	19.993	100.066	20.009	4.377	0.522
244.500	190.673	79.978	19.992	100.066	20.009	4.336	0.531
245.000	190.920	79.980	19.993	100.070	20.011	4.211	0.485
245.500	191.160	79.978	19.992	100.072	20.007	4.456	0.471
246.001	191.401	79.978	19.993	100.072	20.012	4.096	0.484
246.501	191.662	79.980	19.993	100.069	20.012	4.137	0.492
247.000	191.918	79.977	19.992	100.066	20.011	4.163	0.509
247.500	192.178	79.978	19.993	100.058	20.009	4.355	0.516
248.000	192.423	79.978	19.993	100.052	20.010	4.249	0.511
248.500	192.657	79.978	19.993	100.047	20.015	3.892	0.492
249.000	192.876	79.979	19.993	100.047	20.009	4.317	0.466
249.500	193.178	79.979	19.993	100.051	20.010	4.291	0.487
250.000	193.429	79.980	19.992	100.055	20.010	4.242	0.537
250.501	193.660	79.980	19.993	100.054	20.008	4.429	0.517
251.000	193.885	79.980	19.993	100.058	20.007	4.525	0.469
251.500	194.135	79.979	19.993	100.060	20.009	4.319	0.465
252.000	194.356	79.978	19.993	100.058	20.008	4.444	0.473
252.500	194.644	79.978	19.993	100.061	20.007	4.478	0.490
253.000	194.898	79.979	19.993	100.067	20.009	4.345	0.525
253.500	195.111	79.980	19.993	100.071	20.009	4.366	0.505
254.000	195.366	79.978	19.992	100.073	20.008	4.441	0.468
254.500	195.610	79.981	19.992	100.076	20.008	4.406	0.483
255.000	195.866	79.979	19.992	100.074	20.008	4.425	0.500
255.500	196.087	79.979	19.993	100.069	20.007	4.482	0.488
256.000	196.397	79.979	19.991	100.061	20.009	4.341	0.503
256.500	196.621	79.978	19.994	100.056	20.006	4.527	0.532
257.000	196.871	79.979	19.994	100.052	20.008	4.396	0.504
257.500	197.096	79.980	19.993	100.048	20.007	4.477	0.474
258.000	197.355	79.979	19.993	100.050	20.006	4.557	0.480
258.500	197.630	79.979	19.994	100.056	20.012	4.077	0.510
259.000	197.843	79.979	19.993	100.060	20.010	4.231	0.511
259.500	198.105	79.980	19.994	100.063	20.011	4.192	0.481
260.000	198.410	79.978	19.993	100.066	20.012	4.096	0.521
260.500	198.611	79.978	19.993	100.070	20.010	4.292	0.536
261.000	198.898	79.978	19.993	100.068	20.011	4.186	0.497
261.500	199.140	79.976	19.993	100.064	20.010	4.268	0.509
262.000	199.357	79.979	19.993	100.063	20.009	4.372	0.494
262.500	199.633	79.979	19.994	100.064	20.009	4.341	0.476
263.000	199.829	79.978	19.993	100.062	20.005	4.616	0.483
263.500	200.108	79.980	19.993	100.060	20.011	4.212	0.473
264.000	200.351	79.979	19.993	100.059	20.008	4.400	0.498
264.500	200.578	79.978	19.993	100.061	20.010	4.262	0.496
265.000	200.815	79.980	19.994	100.057	20.006	4.533	0.468
265.500	201.053	79.979	19.994	100.051	20.010	4.300	0.470
266.000	201.317	79.979	19.993	100.049	20.007	4.470	0.488
266.500	201.553	79.977	19.994	100.048	20.008	4.398	0.501
267.000	201.798	79.980	19.994	100.045	20.008	4.412	0.490
267.500	202.051	79.978	19.993	100.045	20.006	4.551	0.490
268.000	202.318	79.979	19.994	100.044	20.005	4.620	0.509
268.500	202.569	79.978	19.994	100.044	20.006	4.588	0.518
269.000	202.772	79.978	19.994	100.045	20.007	4.486	0.485
269.500	203.071	79.979	19.994	100.045	20.007	4.514	0.478
270.000	203.292	79.979	19.994	100.047	20.004	4.745	0.511
270.500	203.539	79.978	19.993	100.050	20.005	4.669	0.494
271.000	203.745	79.980	19.994	100.053	20.008	4.414	0.461
271.500	204.000	79.980	19.995	100.056	20.008	4.406	0.457
272.000	204.271	79.979	19.994	100.058	20.003	4.796	0.493
272.500	204.517	79.978	19.994	100.056	20.005	4.624	0.522
273.000	204.764	79.979	19.994	100.054	20.006	4.563	0.505
273.500	205.014	79.979	19.993	100.049	20.005	4.639	0.495
274.000	205.240	79.978	19.993	100.046	20.006	4.598	0.486
274.500	205.485	79.979	19.994	100.044	20.002	4.871	0.473
275.000	205.753	79.978	19.994	100.052	20.006	4.553	0.492
275.500	205.978	79.980	19.993	100.055	20.002	4.882	0.503
276.000	206.250	79.979	19.993	100.059	20.004	4.743	0.495
276.500	206.495	79.979	19.994	100.058	20.002	4.843	0.507
277.000	206.751	79.979	19.994	100.058	20.002	4.892	0.509
277.500	206.998	79.979	19.993	100.050	20.001	4.951	0.502
278.000	207.232	79.978	19.993	100.045	20.003	4.769	0.492
278.500	207.474	79.980	19.993	100.041	20.004	4.745	0.478
279.000	207.717	79.980	19.994	100.041	20.002	4.834	0.480
279.500	207.964	79.978	19.994	100.041	20.002	4.888	0.488
280.000	208.225	79.979	19.994	100.043	19.997	5.253	0.499
280.500	208.471	79.980	19.994	100.045	20.000	5.020	0.508
281.000	208.699	79.979	19.993	100.045	20.002	4.843	0.490
281.500	208.943	79.980	19.993	100.044	19.999	5.053	0.473
282.000	209.173	79.981	19.993	100.044	20.000	4.977	0.473
282.500	209.433	79.980	19.993	100.041	20.001	4.951	0.481
283.000	209.673	79.981	19.994	100.040	20.002	4.851	0.495
283.500	209.913	79.981	19.994	100.040	20.001	4.939	0.490
284.000	210.142	79.980	19.994	100.040	20.002	4.861	0.475
284.500	210.419	79.980	19.993	100.039	20.000	5.018	0.487
285.000	210.632	79.981	19.993	100.040	20.003	4.777	0.498
285.500	210.896	79.982	19.994	100.042	19.997	5.220	0.484
286.000	211.142	79.981	19.993	100.043	20.001	4.957	0.494
286.500	211.389	79.982	19.994	100.044	20.003	4.822	0.502
287.000	211.619	79.980	19.994	100.044	19.997	5.206	0.485
287.500	211.856	79.981	19.994	100.043	19.999	5.086	0.472
288.000	212.091	79.981	19.994	100.040	20.002	4.877	0.470
288.500	212.322	79.981	19.993	100.039	20.001	4.918	0.469
289.000	212.574	79.980	19.995	100.038	19.998	5.147	0.474
289.500	212.845	79.980	19.994	100.037	20.001	4.924	0.503
290.000	213.048	79.980	19.995	100.038	19.999	5.086	0.499
290.500	213.289	79.980	19.994	100.037	20.000	4.989	0.459
291.000	213.533	79.979	19.995	100.037	19.997	5.213	0.464
291.500	213.807	79.979	19.994	100.036	19.997	5.223	0.501
292.000	214.054	79.979	19.994	100.036	19.996	5.344	0.519
292.500	214.321	79.979	19.994	100.036	19.999	5.054	0.517
293.000	214.547	79.980	19.993	100.037	20.001	4.941	0.504
293.500	214.799	79.979	19.994	100.038	20.001	4.968	0.486
294.000	215.052	79.980	19.994	100.038	20.000	5.011	0.492
294.500	215.272	79.978	19.992	100.038	19.996	5.333	0.489
295.000	215.504	79.980	19.994	100.038	19.999	5.095	0.462
295.500	215.784	79.979	19.994	100.039	19.999	5.080	0.482
296.000	216.004	79.980	19.994	100.038	19.999	5.092	0.507
296.500	216.254	79.979	19.994	100.039	19.997	5.214	0.485
297.000	216.507	79.979	19.994	100.039	19.996	5.300	0.487
297.500	216.738	79.979	19.994	100.039	19.997	5.267	0.493
298.000	216.967	79.979	19.993	100.039	19.997	5.233	0.472
298.500	217.194	79.979	19.993	100.040	19.995	5.363	0.458
299.000	217.473	79.979	19.994	100.040	19.993	5.517	0.481
299.500	217.684	79.980	19.994	100.039	19.993	5.539	0.498
300.001	217.944	79.979	19.993	100.039	19.995	5.361	0.481
300.500	218.153	79.980	19.993	100.035	19.996	5.341	0.470
301.000	218.427	79.980	19.993	100.003	19.997	5.233	0.476
301.500	218.677	79.981	19.994	99.985	19.999	5.106	0.503
302.000	218.930	79.981	19.992	99.979	19.994	5.459	0.513
302.500	219.177	79.981	19.993	99.980	19.996	5.308	0.501
303.000	219.406	79.983	19.993	99.991	19.996	5.302	0.488
303.500	219.678	79.981	19.993	100.060	19.998	5.133	0.489
304.000	219.903	79.981	19.993	100.089	19.997	5.241	0.499
304.500	220.137	79.980	19.992	100.097	19.994	5.461	0.478
305.000	220.401	79.981	19.992	100.098	19.995	5.410	0.479
305.500	220.638	79.981	19.993	100.092	19.995	5.386	0.500
306.000	220.876	79.982	19.993	100.053	19.997	5.247	0.488
306.500	221.112	79.981	19.992	100.042	19.998	5.139	0.475
307.000	221.432	79.982	19.993	100.041	19.995	5.380	0.515
307.500	221.680	79.982	19.993	100.039	19.996	5.297	0.562
308.000	221.890	79.983	19.992	100.038	19.994	5.444	0.513
308.500	222.128	79.982	19.993	100.038	19.994	5.436	0.453
309.000	222.418	79.982	19.993	100.038	19.994	5.495	0.488
309.500	222.639	79.982	19.992	100.040	19.991	5.664	0.520
310.000	222.880	79.982	19.993	100.042	19.992	5.605	0.487
310.500	223.123	79.982	19.992	100.042	19.990	5.743	0.473
311.000	223.380	79.983	19.994	100.042	19.993	5.519	0.492
311.500	223.608	79.982	19.992	100.042	19.992	5.610	0.492
312.000	223.843	79.982	19.992	100.040	19.992	5.647	0.474
312.500	224.136	79.982	19.992	100.038	19.987	5.988	0.495
313.000	224.334	79.981	19.992	100.040	19.991	5.709	0.509
313.500	224.587	79.982	19.992	100.041	19.989	5.864	0.471
314.000	224.850	79.981	19.992	100.042	19.988	5.897	0.483
314.500	225.086	79.982	19.992	100.043	19.988	5.923	0.507
315.000	225.332	79.981	19.992	100.043	19.987	6.011	0.491
315.500	225.595	79.981	19.992	100.042	19.989	5.849	0.496
316.000	225.852	79.980	19.992	100.043	19.984	6.196	0.515
316.500	226.085	79.981	19.992	100.041	19.988	5.925	0.505
317.000	226.379	79.980	19.992	100.042	19.987	6.004	0.508
317.500	226.591	79.981	19.992	100.046	19.984	6.229	0.516
318.000	226.845	79.980	19.993	100.053	19.986	6.043	0.486
318.500	227.088	79.979	19.993	100.055	19.984	6.247	0.481
319.000	227.345	79.979	19.993	100.058	19.985	6.170	0.498
319.500	227.614	79.980	19.994	100.058	19.985	6.137	0.513
320.000	227.856	79.978	19.993	100.054	19.983	6.307	0.519
320.500	228.080	79.979	19.993	100.047	19.982	6.362	0.488
321.000	228.381	79.979	19.994	100.045	19.984	6.184	0.495
321.500	228.648	79.978	19.993	100.042	19.983	6.272	0.546
322.000	228.860	79.979	19.992	100.041	19.982	6.384	0.524
322.500	229.122	79.978	19.994	100.041	19.979	6.586	0.477
323.000	229.372	79.979	19.993	100.042	19.981	6.472	0.493
323.500	229.607	79.979	19.993	100.043	19.981	6.413	0.499
324.000	229.840	79.977	19.993	100.044	19.979	6.560	0.477
324.500	230.123	79.978	19.993	100.044	19.977	6.748	0.492
325.000	230.360	79.979	19.993	100.045	19.977	6.733	0.518
325.500	230.595	79.979	19.993	100.045	19.977	6.774	0.496
326.000	230.873	79.978	19.993	100.043	19.978	6.644	0.493
326.500	231.109	79.978	19.993	100.043	19.978	6.656	0.513
327.000	231.326	79.978	19.992	100.042	19.976	6.805	0.484
327.500	231.550	79.978	19.993	100.041	19.974	6.980	0.447
328.000	231.817	79.978	19.993	100.041	19.969	7.317	0.466
328.500	232.047	79.978	19.993	100.040	19.972	7.101	0.495
329.000	232.319	79.977	19.992	100.040	19.972	7.099	0.500
329.500	232.567	79.978	19.993	100.041	19.974	6.991	0.511
330.000	232.839	79.979	19.992	100.041	19.969	7.354	0.520
330.500	233.078	79.978	19.993	100.041	19.970	7.262	0.515
331.000	233.330	79.979	19.992	100.043	19.967	7.487	0.501
331.500	233.541	79.978	19.992	100.044	19.970	7.260	0.477
332.000	233.805	79.979	19.993	100.043	19.965	7.611	0.469
332.500	234.048	79.978	19.993	100.044	19.967	7.511	0.491
333.001	234.343	79.979	19.993	100.044	19.964	7.697	0.522
333.500	234.566	79.979	19.992	100.043	19.965	7.621	0.528
334.000	234.812	79.979	19.992	100.043	19.962	7.889	0.493
334.500	235.082	79.979	19.992	100.043	19.964	7.693	0.493
335.000	235.351	79.978	19.993	100.043	19.963	7.819	0.528
335.500	235.581	79.978	19.993	100.043	19.963	7.827	0.519
336.000	235.832	79.979	19.992	100.043	19.963	7.809	0.490
336.500	236.074	79.979	19.993	100.043	19.959	8.119	0.487
337.000	236.294	79.978	19.993	100.043	19.959	8.125	0.477
337.500	236.555	79.979	19.993	100.041	19.955	8.411	0.471
338.000	236.820	79.979	19.992	100.039	19.955	8.395	0.503
338.500	237.076	79.979	19.993	100.038	19.956	8.350	0.524
339.000	237.310	79.978	19.993	100.038	19.957	8.256	0.505
339.500	237.543	79.979	19.992	100.037	19.955	8.389	0.479
340.000	237.832	79.980	19.993	100.038	19.954	8.472	0.495
340.500	238.078	79.979	19.992	100.040	19.951	8.730	0.529
341.000	238.289	79.980	19.993	100.040	19.950	8.742	0.496
341.500	238.548	79.979	19.993	100.040	19.949	8.838	0.463
342.000	238.814	79.979	19.993	100.039	19.953	8.587	0.497
342.500	239.029	79.979	19.993	100.040	19.950	8.785	0.503
343.000	239.284	79.979	19.993	100.040	19.948	8.899	0.476
343.500	239.523	79.979	19.993	100.040	19.947	9.034	0.482
344.000	239.774	79.978	19.993	100.040	19.945	9.154	0.491
344.500	240.027	79.978	19.995	100.040	19.946	9.064	0.497
345.000	240.290	79.977	19.993	100.040	19.943	9.287	0.510
345.500	240.532	79.978	19.993	100.040	19.946	9.091	0.510
346.000	240.824	79.979	19.993	100.039	19.943	9.330	0.519
346.500	241.058	79.980	19.993	100.039	19.941	9.469	0.530
347.000	241.308	79.979	19.993	100.038	19.944	9.240	0.505
347.500	241.556	79.977	19.994	100.037	19.944	9.255	0.491
348.000	241.787	79.979	19.994	100.036	19.941	9.453	0.489
348.500	242.088	79.980	19.994	100.035	19.943	9.310	0.506
349.000	242.369	79.978	19.994	100.032	19.939	9.581	0.557
349.500	242.595	79.979	19.994	100.032	19.937	9.746	0.544
350.000	242.844	79.978	19.995	100.032	19.939	9.636	0.491
350.500	243.064	79.977	19.993	100.034	19.939	9.638	0.472
351.000	243.323	79.978	19.995	100.035	19.938	9.644	0.475
351.500	243.584	79.977	19.994	100.038	19.936	9.856	0.500
352.000	243.869	79.978	19.995	100.037	19.937	9.736	0.533
352.500	244.110	79.978	19.994	100.037	19.936	9.822	0.536
353.000	244.363	79.979	19.994	100.037	19.939	9.603	0.510
353.500	244.619	79.977	19.994	100.036	19.936	9.828	0.502
354.000	244.857	79.978	19.993	100.036	19.939	9.599	0.501
354.500	245.132	79.979	19.994	100.036	19.939	9.619	0.503
355.000	245.348	79.979	19.994	100.036	19.935	9.899	0.502
355.500	245.630	79.979	19.993	100.035	19.936	9.807	0.495
356.000	245.870	79.980	19.994	100.035	19.937	9.716	0.510
356.500	246.127	79.980	19.994	100.035	19.937	9.738	0.510
357.000	246.387	79.979	19.994	100.035	19.935	9.887	0.507
357.500	246.606	79.978	19.994	100.035	19.936	9.846	0.498
358.000	246.870	79.979	19.994	100.037	19.937	9.783	0.481
358.500	247.099	79.979	19.994	100.038	19.937	9.736	0.488
359.000	247.387	79.978	19.993	100.038	19.939	9.609	0.505
359.500	247.602	79.980	19.994	100.038	19.941	9.466	0.510
360.000	247.884	79.980	19.994	100.038	19.940	9.538	0.500
360.500	248.127	79.980	19.995	100.034	19.939	9.583	0.511
361.001	248.341	79.979	19.994	100.034	19.943	9.299	0.491
361.500	248.621	79.979	19.994	100.034	19.943	9.285	0.476
362.000	248.893	79.979	19.994	100.034	19.943	9.330	0.523
362.500	249.179	79.981	19.994	100.033	19.942	9.342	0.554
363.000	249.384	79.980	19.993	100.037	19.939	9.569	0.524
363.500	249.675	79.981	19.994	100.036	19.941	9.456	0.494
364.000	249.910	79.980	19.993	100.034	19.943	9.314	0.511
364.500	250.187	79.979	19.994	100.033	19.943	9.283	0.519
365.000	250.429	79.980	19.993	100.033	19.942	9.375	0.515
365.500	250.687	79.980	19.994	100.033	19.944	9.246	0.509
366.000	250.932	79.980	19.993	100.033	19.942	9.367	0.501
366.500	251.196	79.980	19.993	100.034	19.940	9.518	0.506
367.000	251.395	79.980	19.994	100.035	19.944	9.222	0.486
367.500	251.726	79.980	19.994	100.034	19.943	9.315	0.497
368.000	251.929	79.980	19.994	100.031	19.940	9.532	0.532
368.500	252.171	79.981	19.994	100.032	19.943	9.297	0.490
369.000	252.434	79.980	19.993	100.031	19.941	9.477	0.475
369.500	252.679	79.981	19.994	100.031	19.941	9.481	0.506
370.000	252.921	79.980	19.993	100.032	19.944	9.208	0.497
370.500	253.166	79.980	19.994	100.033	19.942	9.345	0.487
371.000	253.423	79.979	19.994	100.033	19.945	9.144	0.495
371.500	253.662	79.980	19.994	100.035	19.941	9.447	0.499
372.000	253.916	79.979	19.994	100.034	19.942	9.414	0.494
372.501	254.141	79.979	19.994	100.034	19.945	9.122	0.486
373.000	254.422	79.980	19.994	100.036	19.943	9.320	0.493
373.500	254.660	79.980	19.994	100.035	19.945	9.148	0.513
374.000	254.930	79.979	19.994	100.036	19.944	9.212	0.514
374.500	255.179	79.979	19.993	100.036	19.945	9.187	0.513
375.000	255.448	79.979	19.994	100.036	19.945	9.187	0.518
375.500	255.678	79.979	19.994	100.036	19.943	9.306	0.509
376.000	255.907	79.979	19.994	100.037	19.943	9.285	0.479
376.500	256.158	79.978	19.994	100.037	19.946	9.102	0.469
377.000	256.412	79.978	19.994	100.037	19.939	9.573	0.492
377.500	256.694	79.978	19.994	100.037	19.941	9.422	0.521
378.000	256.932	79.980	19.994	100.035	19.945	9.126	0.529
378.500	257.168	79.979	19.994	100.035	19.943	9.265	0.497
379.000	257.452	79.979	19.993	100.035	19.944	9.249	0.497
379.500	257.640	79.978	19.993	100.036	19.944	9.251	0.495
380.000	257.957	79.979	19.994	100.037	19.945	9.141	0.488
380.500	258.193	79.978	19.994	100.039	19.945	9.145	0.529
381.000	258.419	79.979	19.994	100.040	19.943	9.287	0.508
381.500	258.666	79.978	19.995	100.040	19.941	9.422	0.468
382.000	258.920	79.979	19.995	100.040	19.943	9.271	0.488
382.500	259.185	79.978	19.993	100.040	19.942	9.406	0.510
383.000	259.399	79.979	19.994	100.039	19.942	9.355	0.499
383.500	259.677	79.979	19.994	100.039	19.941	9.475	0.485
384.000	259.901	79.979	19.995	100.038	19.940	9.525	0.497
384.500	260.150	79.979	19.994	100.039	19.938	9.649	0.488
385.000	260.394	79.980	19.994	100.039	19.939	9.596	0.483
385.500	260.655	79.979	19.994	100.041	19.942	9.378	0.498
386.000	260.892	79.980	19.995	100.040	19.937	9.784	0.501
386.500	261.128	79.981	19.993	100.040	19.939	9.603	0.486
387.000	261.373	79.981	19.994	100.041	19.936	9.801	0.477
387.500	261.617	79.981	19.993	100.041	19.937	9.756	0.485
388.000	261.870	79.981	19.993	100.040	19.937	9.734	0.493
388.500	262.154	79.981	19.993	100.040	19.934	9.963	0.517
389.000	262.374	79.982	19.993	100.042	19.938	9.677	0.520
389.500	262.649	79.982	19.993	100.042	19.935	9.905	0.500
390.000	262.889	79.983	19.992	100.042	19.935	9.923	0.505
390.500	263.152	79.982	19.992	100.042	19.935	9.922	0.509
391.000	263.405	79.983	19.992	100.042	19.937	9.753	0.509
391.500	263.605	79.981	19.992	100.041	19.935	9.921	0.484
392.000	263.888	79.981	19.993	100.039	19.931	10.189	0.468
392.500	264.113	79.981	19.993	100.039	19.931	10.193	0.495
393.000	264.377	79.981	19.993	100.039	19.930	10.314	0.498
393.500	264.637	79.981	19.992	100.040	19.931	10.236	0.507
394.000	264.890	79.979	19.992	100.040	19.932	10.155	0.519
394.500	265.162	79.980	19.993	100.042	19.931	10.232	0.519
395.000	265.386	79.980	19.992	100.045	19.930	10.261	0.511
395.500	265.617	79.981	19.992	100.048	19.927	10.528	0.475
396.000	265.879	79.981	19.993	100.047	19.926	10.594	0.474
396.500	266.144	79.980	19.993	100.049	19.926	10.616	0.510
397.000	266.380	79.979	19.992	100.050	19.927	10.485	0.514
397.500	266.663	79.980	19.992	100.051	19.929	10.336	0.510
398.000	266.910	79.979	19.993	100.052	19.923	10.805	0.525
398.500	267.134	79.978	19.993	100.056	19.925	10.689	0.501
399.000	267.350	79.979	19.993	100.058	19.924	10.705	0.456
399.501	267.635	79.978	19.993	100.057	19.925	10.660	0.471
400.000	267.874	79.978	19.994	100.054	19.922	10.906	0.513
400.500	268.108	79.979	19.993	100.051	19.923	10.830	0.498
401.000	268.359	79.978	19.994	100.051	19.920	11.025	0.479
401.500	268.582	79.979	19.993	100.054	19.918	11.163	0.479
402.000	268.838	79.978	19.993	100.059	19.920	11.004	0.477
402.500	269.116	79.979	19.992	100.065	19.919	11.139	0.507
403.000	269.364	79.979	19.993	100.071	19.921	10.941	0.530
403.500	269.611	79.978	19.993	100.074	19.918	11.223	0.510
404.000	269.866	79.979	19.994	100.074	19.917	11.242	0.499
404.500	270.124	79.980	19.993	100.074	19.914	11.494	0.508
405.000	270.384	79.979	19.994	100.076	19.913	11.531	0.515
405.500	270.655	79.980	19.992	100.077	19.915	11.388	0.524
406.000	270.890	79.977	19.993	100.077	19.914	11.517	0.518
406.500	271.139	79.979	19.993	100.075	19.914	11.456	0.495
407.000	271.377	79.979	19.993	100.075	19.911	11.707	0.485
407.500	271.617	79.979	19.994	100.075	19.911	11.689	0.483
408.000	271.884	79.979	19.994	100.072	19.912	11.630	0.493
408.500	272.130	79.979	19.993	100.069	19.910	11.818	0.510
409.000	272.376	79.979	19.993	100.067	19.909	11.879	0.502
409.500	272.658	79.980	19.993	100.066	19.909	11.870	0.510
410.000	272.926	79.979	19.994	100.066	19.909	11.880	0.539
410.500	273.177	79.978	19.993	100.067	19.906	12.107	0.534
411.000	273.403	79.980	19.994	100.071	19.908	11.944	0.498
411.500	273.610	79.979	19.993	100.074	19.909	11.885	0.455
412.000	273.868	79.979	19.994	100.075	19.908	11.977	0.449
412.500	274.107	79.981	19.994	100.075	19.908	11.977	0.481
413.000	274.380	79.978	19.992	100.077	19.907	12.048	0.505
413.500	274.604	79.980	19.993	100.077	19.911	11.754	0.505
414.000	274.885	79.979	19.994	100.076	19.911	11.734	0.501
414.500	275.134	79.980	19.993	100.082	19.908	11.973	0.517
415.000	275.365	79.980	19.993	100.085	19.908	11.918	0.505
415.500	275.621	79.979	19.993	100.087	19.908	11.961	0.484
416.000	275.863	79.979	19.993	100.089	19.912	11.669	0.492
416.500	276.125	79.980	19.993	100.092	19.910	11.816	0.501
417.000	276.352	79.980	19.993	100.091	19.908	11.926	0.497
417.500	276.602	79.980	19.993	100.094	19.910	11.759	0.483
418.000	276.842	79.979	19.992	100.097	19.910	11.792	0.483
418.500	277.098	79.979	19.992	100.098	19.908	11.910	0.493
419.000	277.321	79.981	19.993	100.098	19.912	11.669	0.487
419.500	277.558	79.980	19.993	100.100	19.914	11.477	0.470
420.000	277.846	79.978	19.993	100.102	19.912	11.671	0.493
420.500	278.074	79.979	19.992	100.105	19.910	11.783	0.520
421.000	278.322	79.978	19.993	100.109	19.909	11.842	0.496
421.500	278.576	79.980	19.992	100.113	19.910	11.765	0.489
422.000	278.815	79.979	19.993	100.114	19.910	11.771	0.497
422.500	279.082	79.979	19.992	100.111	19.910	11.797	0.499
423.000	279.327	79.979	19.992	100.111	19.912	11.640	0.510
423.500	279.538	79.978	19.993	100.111	19.910	11.781	0.484
424.000	279.792	79.979	19.991	100.111	19.914	11.509	0.460
424.500	280.070	79.979	19.992	100.112	19.914	11.501	0.498
425.000	280.290	79.979	19.992	100.115	19.911	11.737	0.515
425.500	280.567	79.978	19.993	100.116	19.913	11.561	0.498
426.000	280.790	79.978	19.993	100.115	19.914	11.463	0.499
426.500	281.063	79.978	19.993	100.117	19.912	11.678	0.498
427.000	281.318	79.979	19.993	100.116	19.912	11.625	0.512
427.500	281.569	79.980	19.993	100.117	19.914	11.499	0.516
428.000	281.791	79.978	19.993	100.117	19.914	11.501	0.489
428.500	282.047	79.979	19.993	100.118	19.917	11.254	0.476
429.000	282.298	79.978	19.993	100.119	19.912	11.651	0.492
429.500	282.563	79.979	19.992	100.121	19.913	11.559	0.511
430.000	282.826	79.979	19.993	100.121	19.914	11.483	0.522
430.500	283.080	79.979	19.993	100.121	19.917	11.260	0.523
431.000	283.316	79.980	19.993	100.120	19.915	11.454	0.504
431.500	283.581	79.978	19.993	100.120	19.918	11.229	0.495
432.000	283.793	79.978	19.993	100.118	19.917	11.305	0.489
432.500	284.096	79.979	19.993	100.118	19.915	11.418	0.496
433.000	284.313	79.979	19.993	100.117	19.920	11.079	0.517
433.500	284.539	79.978	19.993	100.117	19.917	11.238	0.482
434.000	284.824	79.978	19.993	100.117	19.919	11.102	0.478
434.500	285.052	79.978	19.993	100.117	19.918	11.208	0.512
435.000	285.282	79.979	19.993	100.118	19.920	11.010	0.485
435.500	285.526	79.979	19.993	100.118	19.921	10.978	0.466
436.000	285.761	79.979	19.993	100.121	19.920	11.059	0.477
436.500	286.015	79.978	19.993	100.124	19.919	11.139	0.484
437.000	286.278	79.978	19.993	100.124	19.925	10.681	0.502
437.500	286.517	79.978	19.993	100.126	19.923	10.832	0.509
438.000	286.775	79.979	19.994	100.132	19.919	11.099	0.500
438.500	287.028	79.978	19.993	100.136	19.923	10.842	0.504
439.000	287.291	79.979	19.994	100.136	19.919	11.122	0.513
439.500	287.525	79.978	19.993	100.138	19.922	10.901	0.507
440.000	287.781	79.980	19.994	100.139	19.923	10.803	0.494
440.500	288.003	79.978	19.994	100.137	19.924	10.732	0.484
441.000	288.275	79.976	19.991	100.133	19.926	10.603	0.486
441.500	288.505	79.979	19.994	100.132	19.922	10.924	0.498
442.000	288.752	79.980	19.994	100.134	19.922	10.860	0.489
442.500	288.987	79.980	19.993	100.136	19.920	11.071	0.480
443.000	289.261	79.979	19.993	100.135	19.921	11.000	0.495
443.500	289.482	79.980	19.993	100.138	19.921	10.936	0.502
444.000	289.754	79.980	19.993	100.139	19.919	11.140	0.494
444.500	290.026	79.979	19.993	100.140	19.920	11.056	0.518
445.000	290.240	79.980	19.992	100.143	19.924	10.747	0.515
445.500	290.509	79.982	19.994	100.144	19.922	10.872	0.485
446.000	290.777	79.979	19.992	100.146	19.924	10.745	0.510
446.500	291.032	79.981	19.992	100.150	19.920	11.021	0.530
447.000	291.277	79.980	19.993	100.149	19.922	10.860	0.512
447.500	291.524	79.981	19.993	100.149	19.923	10.844	0.496
448.000	291.778	79.980	19.993	100.151	19.919	11.120	0.496
448.500	291.982	79.982	19.993	100.147	19.919	11.082	0.479
449.000	292.251	79.980	19.992	100.143	19.920	11.051	0.466
449.500	292.476	79.980	19.993	100.143	19.917	11.290	0.484
450.000	292.782	79.981	19.993	100.144	19.920	11.064	0.512
450.500	292.997	79.981	19.993	100.143	19.918	11.181	0.526
451.000	293.286	79.979	19.992	100.142	19.921	10.962	0.513
451.500	293.518	79.980	19.993	100.144	19.920	11.066	0.513
452.001	293.769	79.980	19.993	100.142	19.922	10.908	0.502
452.501	294.025	79.980	19.992	100.141	19.919	11.102	0.494
453.001	294.275	79.980	19.993	100.143	19.922	10.874	0.506
453.500	294.510	79.980	19.993	100.148	19.922	10.890	0.496
454.000	294.784	79.979	19.992	100.152	19.919	11.080	0.497
454.500	294.989	79.980	19.993	100.157	19.920	11.019	0.494
455.000	295.239	79.979	19.993	100.158	19.920	11.057	0.467
455.500	295.475	79.979	19.994	100.155	19.921	10.975	0.471
456.000	295.715	79.979	19.992	100.155	19.919	11.093	0.481
456.500	295.986	79.978	19.995	100.155	19.915	11.389	0.494
457.000	296.240	79.978	19.997	100.155	19.918	11.159	0.518
457.500	296.474	79.977	19.996	100.157	19.919	11.128	0.506
458.000	296.728	79.979	19.996	100.161	19.917	11.268	0.488
458.500	296.988	79.979	19.995	100.162	19.917	11.299	0.501
459.000	297.224	79.978	19.995	100.160	19.917	11.248	0.505
459.500	297.470	79.978	19.993	100.155	19.913	11.531	0.489
460.000	297.746	79.979	19.993	100.149	19.917	11.266	0.502
460.500	297.985	79.978	19.993	100.144	19.919	11.102	0.519
461.000	298.245	79.979	19.993	100.140	19.919	11.106	0.507
461.500	298.453	79.978	19.994	100.138	19.916	11.302	0.483
462.000	298.703	79.979	19.993	100.136	19.916	11.320	0.463
462.500	298.987	79.979	19.993	100.134	19.913	11.530	0.497
463.000	299.225	79.980	19.994	100.130	19.919	11.138	0.529
463.500	299.485	79.978	19.994	100.126	19.917	11.241	0.510
464.000	299.695	79.979	19.994	100.122	19.913	11.588	0.484
464.500	300.016	79.980	19.994	100.119	19.916	11.302	0.500
465.000	300.214	79.979	19.994	100.115	19.916	11.321	0.525
465.500	300.500	79.979	19.993	100.114	19.917	11.293	0.501
466.000	300.748	79.980	19.994	100.113	19.914	11.466	0.509
466.500	300.988	79.980	19.993	100.112	19.917	11.277	0.511
467.000	301.268	79.980	19.993	100.105	19.915	11.406	0.504
467.500	301.512	79.981	19.993	100.102	19.914	11.507	0.522
468.001	301.743	79.981	19.994	100.094	19.915	11.421	0.499
468.500	301.998	79.980	19.993	100.087	19.914	11.449	0.481
469.000	302.238	79.980	19.993	100.081	19.916	11.318	0.491
469.500	302.495	79.981	19.994	100.080	19.914	11.447	0.496
470.000	302.726	79.982	19.994	100.078	19.916	11.361	0.492
470.500	302.980	79.980	19.993	100.079	19.916	11.326	0.486
471.000	303.235	79.980	19.994	100.077	19.915	11.418	0.497
471.500	303.486	79.981	19.993	100.076	19.915	11.399	0.507
472.000	303.737	79.981	19.995	100.074	19.916	11.319	0.503
472.501	303.991	79.981	19.993	100.074	19.915	11.400	0.503
473.000	304.270	79.980	19.994	100.072	19.914	11.493	0.519
473.500	304.481	79.980	19.993	100.069	19.914	11.509	0.512
474.000	304.730	79.981	19.994	100.064	19.916	11.327	0.475
474.500	305.013	79.981	19.994	100.059	19.914	11.496	0.496
475.000	305.269	79.980	19.993	100.058	19.913	11.547	0.535
475.500	305.478	79.981	19.993	100.058	19.913	11.545	0.502
476.000	305.764	79.981	19.993	100.057	19.914	11.449	0.480
476.500	306.017	79.981	19.992	100.061	19.915	11.440	0.517
477.000	306.261	79.981	19.994	100.061	19.913	11.526	0.518
477.500	306.508	79.981	19.994	100.054	19.914	11.470	0.494
478.000	306.767	79.980	19.992	100.049	19.911	11.666	0.499
478.500	307.054	79.979	19.993	100.045	19.913	11.536	0.526
479.000	307.288	79.979	19.992	100.040	19.914	11.483	0.533
479.500	307.495	79.979	19.993	100.034	19.915	11.419	0.481
480.000	307.772	79.979	19.993	100.034	19.915	11.400	0.463
480.500	308.001	79.980	19.994	100.033	19.916	11.322	0.495
481.000	308.259	79.979	19.993	100.031	19.918	11.153	0.496
481.500	308.514	79.978	19.992	100.029	19.916	11.306	0.500
482.000	308.776	79.979	19.994	100.031	19.918	11.173	0.515
482.500	309.032	79.979	19.993	100.028	19.920	11.008	0.518
483.000	309.332	79.980	19.993	100.022	19.917	11.273	0.537
483.500	309.522	79.978	19.993	100.017	19.914	11.471	0.523
484.000	309.778	79.979	19.993	100.011	19.917	11.259	0.468
484.500	310.017	79.979	19.993	100.005	19.918	11.142	0.471
485.000	310.248	79.979	19.992	100.002	19.921	10.974	0.483
485.500	310.546	79.979	19.994	100.001	19.922	10.836	0.499
486.000	310.793	79.980	19.993	100.001	19.922	10.872	0.537
486.500	311.031	79.979	19.994	100.001	19.921	10.972	0.515
487.000	311.312	79.980	19.993	99.999	19.924	10.752	0.502
487.500	311.545	79.979	19.992	99.995	19.923	10.806	0.516
488.000	311.806	79.978	19.993	99.992	19.925	10.616	0.504
488.500	312.069	79.979	19.993	99.991	19.927	10.479	0.509
489.000	312.283	79.979	19.993	99.987	19.924	10.685	0.501
489.500	312.558	79.980	19.992	99.980	19.926	10.593	0.484
490.000	312.785	79.978	19.993	99.978	19.930	10.243	0.495
490.500	313.054	79.979	19.992	99.973	19.929	10.312	0.499
491.000	313.305	79.978	19.993	99.967	19.929	10.332	0.508
491.500	313.577	79.979	19.993	99.964	19.931	10.199	0.522
492.000	313.799	79.979	19.994	99.964	19.931	10.177	0.508
492.500	314.048	79.977	19.993	99.962	19.934	9.940	0.482
493.000	314.290	79.979	19.993	99.962	19.936	9.855	0.481
493.500	314.546	79.979	19.993	99.962	19.935	9.928	0.494
494.000	314.785	79.980	19.993	99.960	19.938	9.667	0.496
494.500	315.062	79.979	19.994	99.960	19.933	10.050	0.506
495.000	315.298	79.979	19.993	99.960	19.935	9.901	0.515
495.500	315.553	79.979	19.992	99.959	19.937	9.740	0.502
496.000	315.822	79.979	19.993	99.953	19.937	9.756	0.508
496.500	316.042	79.979	19.993	99.953	19.939	9.630	0.507
497.000	316.303	79.979	19.993	99.953	19.940	9.546	0.485
497.500	316.513	79.979	19.993	99.954	19.940	9.543	0.475
498.000	316.805	79.980	19.993	99.955	19.940	9.512	0.487
498.500	317.066	79.980	19.992	99.961	19.943	9.273	0.528
499.000	317.340	79.979	19.993	99.961	19.947	9.023	0.544
499.500	317.598	79.980	19.993	99.960	19.947	9.005	0.533
500.000	317.806	79.979	19.993	99.959	19.944	9.227	0.499
500.500	318.109	79.978	19.993	99.958	19.945	9.168	0.489
501.000	318.337	79.978	19.992	99.957	19.946	9.055	0.521
501.500	318.575	79.978	19.993	99.956	19.945	9.139	0.498
502.000	318.802	79.979	19.993	99.954	19.947	8.958	0.466
502.500	319.061	79.979	19.993	99.954	19.947	8.966	0.476
503.000	319.301	79.979	19.993	99.955	19.947	8.986	0.492
503.500	319.563	79.979	19.993	99.952	19.948	8.929	0.501
504.000	319.806	79.979	19.993	99.954	19.953	8.550	0.503
504.500	320.075	79.980	19.992	99.956	19.953	8.574	0.508
505.000	320.323	79.979	19.993	99.953	19.952	8.603	0.514
505.500	320.600	79.979	19.992	99.950	19.954	8.505	0.521
506.000	320.866	79.979	19.993	99.950	19.951	8.694	0.534
506.500	321.108	79.979	19.993	99.950	19.953	8.517	0.526
507.000	321.348	79.978	19.993	99.950	19.954	8.497	0.496
507.500	321.578	79.979	19.993	99.949	19.954	8.478	0.476
508.000	321.821	79.980	19.992	99.950	19.957	8.266	0.471
508.500	322.086	79.979	19.993	99.955	19.959	8.103	0.491
509.000	322.296	79.980	19.992	99.956	19.956	8.322	0.492
509.500	322.573	79.979	19.993	99.956	19.959	8.069	0.481
510.000	322.822	79.979	19.993	99.960	19.960	8.030	0.506
510.500	323.066	79.979	19.992	99.960	19.959	8.062	0.510
511.000	323.334	79.977	19.993	99.959	19.963	7.793	0.503
511.500	323.576	79.978	19.994	99.959	19.958	8.169	0.511
512.000	323.833	79.980	19.993	99.959	19.962	7.903	0.504
512.500	324.073	79.977	19.994	99.960	19.959	8.087	0.498
513.000	324.340	79.980	19.992	99.960	19.965	7.630	0.502
513.500	324.598	79.979	19.993	99.960	19.963	7.783	0.516
514.000	324.802	79.979	19.992	99.960	19.961	7.969	0.493
514.500	325.056	79.977	19.994	99.960	19.960	8.044	0.460
515.000	325.339	79.979	19.993	99.959	19.960	8.003	0.498
515.500	325.566	79.978	19.992	99.961	19.962	7.852	0.524
516.000	325.843	79.979	19.993	99.961	19.965	7.626	0.507
516.500	326.093	79.978	19.992	99.959	19.962	7.877	0.516
517.000	326.348	79.978	19.993	99.960	19.966	7.544	0.516
517.500	326.569	79.978	19.992	99.960	19.966	7.587	0.490
518.000	326.845	79.979	19.993	99.959	19.968	7.430	0.486
518.500	327.083	79.980	19.992	99.961	19.968	7.444	0.505
519.000	327.344	79.979	19.993	99.964	19.967	7.473	0.506
519.500	327.591	79.979	19.993	99.964	19.967	7.458	0.504
520.000	327.809	79.979	19.993	99.965	19.966	7.540	0.487
520.500	328.077	79.978	19.993	99.965	19.967	7.483	0.476
521.000	328.352	79.980	19.992	99.965	19.966	7.591	0.514
521.500	328.610	79.978	19.992	99.965	19.969	7.330	0.538
522.000	328.870	79.980	19.993	99.965	19.965	7.642	0.526
522.500	329.124	79.980	19.993	99.965	19.967	7.526	0.516
523.001	329.332	79.979	19.992	99.964	19.967	7.511	0.488
523.500	329.600	79.979	19.993	99.965	19.969	7.369	0.469
524.000	329.877	79.980	19.992	99.965	19.967	7.505	0.510
524.500	330.126	79.979	19.992	99.965	19.969	7.303	0.535
525.001	330.355	79.978	19.992	99.965	19.967	7.464	0.502
525.500	330.604	79.980	19.992	99.965	19.966	7.542	0.478
526.000	330.876	79.980	19.993	99.964	19.967	7.513	0.499
526.500	331.157	79.979	19.993	99.964	19.967	7.517	0.537
527.000	331.360	79.980	19.993	99.964	19.969	7.332	0.519
527.500	331.647	79.980	19.993	99.964	19.969	7.334	0.487
528.000	331.854	79.979	19.994	99.964	19.972	7.130	0.492
528.500	332.138	79.980	19.993	99.964	19.970	7.295	0.493
529.000	332.352	79.980	19.993	99.963	19.966	7.569	0.495
529.500	332.652	79.980	19.993	99.963	19.968	7.396	0.505
530.001	332.922	79.980	19.993	99.962	19.966	7.542	0.542
530.500	333.169	79.980	19.994	99.962	19.967	7.524	0.544
531.000	333.406	79.981	19.994	99.962	19.968	7.420	0.500
531.500	333.683	79.979	19.994	99.961	19.967	7.468	0.499
532.000	333.926	79.980	19.993	99.960	19.967	7.479	0.517
532.500	334.173	79.979	19.994	99.960	19.972	7.152	0.505
533.000	334.422	79.980	19.994	99.963	19.972	7.134	0.493
533.500	334.698	79.979	19.994	99.963	19.972	7.132	0.511
534.000	334.955	79.980	19.993	99.963	19.968	7.420	0.529
534.500	335.162	79.980	19.994	99.963	19.968	7.405	0.498
535.000	335.429	79.981	19.994	99.962	19.969	7.307	0.469
535.500	335.669	79.979	19.993	99.959	19.969	7.364	0.490
536.000	335.934	79.980	19.993	99.959	19.972	7.120	0.506
536.500	336.184	79.980	19.994	99.959	19.968	7.444	0.510
537.000	336.426	79.981	19.993	99.959	19.969	7.342	0.504
537.500	336.687	79.979	19.993	99.959	19.968	7.387	0.497
538.000	336.961	79.979	19.993	99.959	19.965	7.659	0.519
538.500	337.200	79.979	19.993	99.959	19.967	7.510	0.524
539.000	337.405	79.980	19.993	99.959	19.965	7.630	0.478
539.500	337.707	79.981	19.992	99.965	19.969	7.375	0.475
540.000	337.937	79.979	19.993	99.969	19.970	7.264	0.519
540.500	338.223	79.980	19.993	99.968	19.966	7.576	0.524
541.000	338.471	79.981	19.993	99.968	19.971	7.223	0.526
541.500	338.732	79.980	19.993	99.968	19.967	7.482	0.522
542.000	339.000	79.979	19.993	99.962	19.968	7.435	0.519
542.500	339.200	79.979	19.993	99.960	19.966	7.586	0.498
543.000	339.464	79.980	19.993	99.960	19.964	7.680	0.465
543.500	339.733	79.980	19.993	99.960	19.967	7.521	0.498
544.000	339.982	79.980	19.993	99.962	19.964	7.701	0.526
544.500	340.195	79.981	19.993	99.962	19.963	7.781	0.490
545.000	340.480	79.981	19.992	99.962	19.967	7.479	0.480
545.500	340.725	79.981	19.993	99.962	19.966	7.565	0.514
546.000	340.994	79.981	19.993	99.962	19.967	7.504	0.522
546.500	341.272	79.981	19.993	99.961	19.966	7.593	0.531
547.000	341.520	79.981	19.993	99.960	19.965	7.669	0.536
547.500	341.756	79.981	19.993	99.960	19.964	7.730	0.505
548.000	342.015	79.981	19.993	99.963	19.964	7.716	0.490
548.500	342.275	79.980	19.994	99.965	19.963	7.803	0.507
549.000	342.519	79.981	19.993	99.966	19.965	7.620	0.511
549.500	342.774	79.983	19.994	99.966	19.963	7.787	0.501
550.000	343.055	79.981	19.993	99.967	19.965	7.618	0.518
550.500	343.256	79.982	19.993	99.964	19.964	7.736	0.510
551.001	343.504	79.981	19.993	99.961	19.966	7.577	0.466
551.500	343.761	79.984	19.993	99.959	19.965	7.661	0.477
552.000	343.986	79.982	19.993	99.958	19.966	7.558	0.493
552.500	344.289	79.982	19.993	99.956	19.962	7.891	0.505
553.000	344.527	79.982	19.994	99.956	19.964	7.743	0.534
553.500	344.772	79.982	19.994	99.957	19.963	7.812	0.512
554.000	345.045	79.981	19.994	99.957	19.964	7.683	0.501
554.500	345.319	79.981	19.994	99.957	19.966	7.602	0.532
555.000	345.556	79.981	19.994	99.959	19.966	7.592	0.529
555.500	345.801	79.980	19.994	99.960	19.961	7.953	0.497
556.000	346.064	79.981	19.994	99.963	19.962	7.898	0.495
556.500	346.319	79.980	19.994	99.963	19.961	7.949	0.513
557.000	346.545	79.980	19.994	99.965	19.962	7.896	0.499
557.500	346.795	79.979	19.994	99.964	19.962	7.886	0.478
558.000	347.050	79.980	19.994	99.965	19.964	7.741	0.491
558.500	347.332	79.979	19.994	99.964	19.962	7.866	0.521
559.000	347.537	79.980	19.994	99.964	19.963	7.817	0.512
559.500	347.820	79.978	19.994	99.962	19.962	7.840	0.487
560.000	348.063	79.979	19.994	99.966	19.965	7.678	0.507
560.500	348.337	79.979	19.994	99.965	19.964	7.723	0.522
561.000	348.587	79.978	19.994	99.963	19.963	7.760	0.520
561.501	348.846	79.979	19.994	99.965	19.961	7.943	0.516
562.001	349.062	79.979	19.994	99.968	19.960	8.007	0.492
562.500	349.333	79.979	19.994	99.965	19.961	7.972	0.481
563.000	349.619	79.978	19.994	99.964	19.960	8.021	0.522
563.500	349.847	79.979	19.993	99.966	19.960	8.038	0.535
564.000	350.152	79.979	19.993	99.970	19.961	7.981	0.523
564.500	350.366	79.979	19.993	99.968	19.959	8.106	0.526
565.000	350.633	79.979	19.993	99.970	19.963	7.787	0.500
565.500	350.858	79.979	19.993	99.972	19.960	8.048	0.487
566.000	351.145	79.979	19.993	99.975	19.959	8.077	0.502
566.500	351.374	79.979	19.993	99.972	19.960	8.018	0.514
567.000	351.614	79.980	19.994	99.973	19.959	8.110	0.493
567.500	351.856	79.979	19.993	99.974	19.961	7.908	0.475
568.000	352.143	79.979	19.993	99.973	19.957	8.208	0.505
568.500	352.396	79.980	19.993	99.975	19.960	7.987	0.535
569.000	352.661	79.979	19.993	99.978	19.961	7.908	0.529
569.500	352.928	79.979	19.993	99.984	19.959	8.108	0.525
570.000	353.161	79.978	19.993	99.984	19.958	8.187	0.516
570.500	353.431	79.979	19.993	99.986	19.958	8.148	0.502
571.000	353.683	79.979	19.993	99.983	19.958	8.175	0.512
571.500	353.956	79.980	19.993	99.984	19.960	7.983	0.523
572.000	354.206	79.980	19.993	99.983	19.959	8.103	0.524
572.500	354.466	79.979	19.993	99.981	19.961	7.916	0.517
573.000	354.682	79.980	19.992	99.981	19.961	7.959	0.493
573.500	354.954	79.979	19.993	99.985	19.963	7.814	0.482
574.000	355.196	79.980	19.992	99.987	19.958	8.161	0.501
574.500	355.460	79.979	19.993	99.987	19.960	8.014	0.510
575.000	355.694	79.979	19.992	99.992	19.961	7.967	0.502
575.500	355.962	79.979	19.993	99.995	19.957	8.229	0.500
576.000	356.225	79.978	19.992	99.995	19.959	8.112	0.516
576.500	356.484	79.977	19.993	99.993	19.960	8.006	0.527
577.000	356.724	79.979	19.992	99.991	19.960	8.051	0.511
577.500	356.975	79.980	19.992	99.993	19.960	8.047	0.495
578.000	357.219	79.980	19.992	99.995	19.958	8.202	0.493
578.500	357.466	79.980	19.993	99.995	19.957	8.265	0.493
579.000	357.719	79.979	19.992	99.997	19.959	8.108	0.496
579.500	357.962	79.979	19.992	99.996	19.955	8.410	0.498
580.000	358.200	79.979	19.992	99.994	19.957	8.271	0.488
580.500	358.479	79.979	19.993	99.993	19.958	8.171	0.499
581.000	358.701	79.979	19.992	99.992	19.958	8.190	0.509
581.500	358.981	79.980	19.992	99.987	19.958	8.147	0.502
582.000	359.225	79.980	19.992	99.990	19.960	8.041	0.513
582.500	359.453	79.979	19.993	99.991	19.960	7.986	0.497
583.000	359.742	79.978	19.993	99.991	19.954	8.443	0.494
583.501	360.005	79.979	19.993	99.992	19.960	8.051	0.535
584.001	360.260	79.979	19.993	99.996	19.955	8.369	0.535
584.500	360.475	79.979	19.992	99.998	19.959	8.091	0.494
585.000	360.718	79.979	19.993	99.998	19.959	8.122	0.464
585.500	360.974	79.979	19.993	99.999	19.959	8.075	0.478
586.000	361.239	79.978	19.993	100.000	19.958	8.175	0.510
586.500	361.500	79.978	19.992	100.001	19.956	8.304	0.524
587.000	361.766	79.979	19.993	100.001	19.957	8.224	0.527
587.500	362.028	79.978	19.993	99.998	19.958	8.177	0.527
588.000	362.246	79.979	19.992	100.000	19.959	8.075	0.503
588.500	362.524	79.978	19.993	100.000	19.958	8.200	0.488
589.001	362.757	79.978	19.993	99.999	19.958	8.183	0.504
589.501	363.007	79.979	19.994	99.998	19.957	8.232	0.497
590.000	363.252	79.979	19.993	100.000	19.955	8.369	0.489
590.500	363.528	79.979	19.993	100.000	19.960	8.012	0.508
591.000	363.753	79.978	19.993	100.000	19.956	8.302	0.511
591.500	364.053	79.978	19.993	99.999	19.957	8.224	0.513
592.000	364.286	79.979	19.994	99.998	19.958	8.153	0.529
592.500	364.542	79.978	19.994	99.999	19.952	8.610	0.511
593.000	364.758	79.978	19.992	99.999	19.954	8.508	0.481
593.500	365.013	79.979	19.993	99.999	19.954	8.440	0.472
594.000	365.262	79.979	19.993	99.999	19.955	8.402	0.487
594.500	365.528	79.979	19.994	100.000	19.952	8.596	0.509
595.000	365.781	79.979	19.993	99.998	19.953	8.516	0.517
595.500	366.031	79.980	19.993	99.996	19.952	8.585	0.511
596.000	366.288	79.978	19.993	99.995	19.957	8.277	0.506
596.500	366.548	79.979	19.993	99.995	19.948	8.958	0.512
597.000	366.761	79.979	19.993	99.994	19.947	8.993	0.495
597.500	367.050	79.979	19.993	99.996	19.950	8.762	0.487
598.000	367.322	79.980	19.993	99.998	19.948	8.931	0.531
598.500	367.559	79.980	19.993	99.998	19.945	9.113	0.535
599.000	367.777	79.979	19.993	99.998	19.946	9.081	0.482
599.500	368.043	79.979	19.993	99.997	19.950	8.750	0.469
600.000	368.279	79.980	19.993	99.997	19.949	8.869	0.493
600.500	368.566	79.980	19.993	99.996	19.947	8.967	0.513
601.000	368.820	79.981	19.993	99.997	19.948	8.922	0.532
601.500	369.055	79.980	19.992	99.997	19.947	8.993	0.515
602.000	369.328	79.981	19.993	99.998	19.947	9.018	0.499
602.500	369.575	79.979	19.992	99.997	19.941	9.418	0.514
603.000	369.794	79.981	19.993	99.997	19.940	9.510	0.493
603.500	370.070	79.982	19.994	99.997	19.943	9.294	0.480
604.000	370.338	79.981	19.992	99.997	19.941	9.471	0.519
604.500	370.560	79.981	19.992	99.996	19.938	9.683	0.517
605.000	370.834	79.982	19.993	99.997	19.941	9.467	0.493
605.500	371.095	79.982	19.993	99.997	19.938	9.702	0.516
606.001	371.304	79.982	19.993	99.994	19.938	9.706	0.502
606.500	371.603	79.982	19.992	99.993	19.936	9.843	0.489
607.000	371.845	79.982	19.993	99.992	19.940	9.528	0.525
607.500	372.047	79.982	19.992	99.989	19.936	9.806	0.493
608.000	372.341	79.981	19.993	99.985	19.935	9.910	0.470
608.501	372.623	79.981	19.993	99.987	19.934	9.983	0.536
609.000	372.851	79.982	19.993	99.987	19.935	9.877	0.543
609.500	373.086	79.983	19.993	99.988	19.934	9.938	0.487
610.000	373.350	79.982	19.994	99.991	19.930	10.259	0.481
610.500	373.587	79.982	19.992	99.994	19.931	10.224	0.500
611.000	373.872	79.981	19.993	99.992	19.927	10.465	0.511
611.500	374.136	79.981	19.993	99.994	19.930	10.243	0.536
612.000	374.338	79.981	19.993	99.994	19.927	10.488	0.508
612.500	374.599	79.981	19.993	99.995	19.927	10.467	0.465
613.000	374.852	79.982	19.994	99.996	19.928	10.463	0.489
613.500	375.101	79.979	19.993	99.999	19.924	10.759	0.508
614.000	375.344	79.981	19.993	99.998	19.923	10.769	0.497
614.500	375.643	79.980	19.993	99.998	19.920	11.046	0.517
615.000	375.865	79.980	19.994	99.998	19.924	10.763	0.531
615.500	376.109	79.981	19.993	99.998	19.919	11.124	0.493
616.000	376.348	79.981	19.993	99.998	19.921	10.916	0.475
616.500	376.605	79.980	19.993	99.998	19.920	11.010	0.490
617.000	376.854	79.980	19.994	99.998	19.917	11.242	0.501
617.500	377.096	79.980	19.993	99.997	19.915	11.434	0.498
618.000	377.359	79.980	19.994	99.996	19.917	11.279	0.499
618.500	377.573	79.980	19.993	99.995	19.916	11.350	0.491
619.000	377.847	79.981	19.994	99.994	19.914	11.456	0.482
619.500	378.104	79.981	19.995	99.994	19.910	11.768	0.510
620.000	378.357	79.980	19.995	99.993	19.910	11.769	0.521
620.500	378.619	79.981	19.994	99.994	19.911	11.728	0.513
621.000	378.845	79.979	19.994	99.995	19.909	11.831	0.501
621.500	379.118	79.981	19.993	99.995	19.908	11.916	0.493
622.000	379.387	79.980	19.994	99.996	19.903	12.326	0.520
622.500	379.642	79.980	19.994	99.998	19.904	12.222	0.533
623.000	379.868	79.980	19.994	99.998	19.903	12.318	0.502
623.500	380.132	79.982	19.993	99.998	19.905	12.178	0.486
624.000	380.368	79.981	19.993	99.997	19.897	12.782	0.495
624.500	380.634	79.981	19.992	99.995	19.895	12.876	0.501
625.000	380.850	79.981	19.993	99.995	19.896	12.855	0.492
625.500	381.129	79.982	19.994	99.995	19.897	12.776	0.488
626.000	381.372	79.981	19.993	99.996	19.893	13.027	0.508
626.500	381.626	79.981	19.993	99.996	19.892	13.131	0.510
627.000	381.901	79.982	19.993	99.998	19.891	13.198	0.513
627.500	382.141	79.981	19.993	99.998	19.892	13.146	0.522
628.000	382.364	79.983	19.993	99.997	19.887	13.473	0.489
628.500	382.638	79.981	19.992	99.995	19.888	13.426	0.480
629.000	382.905	79.983	19.993	99.991	19.880	14.016	0.519
629.500	383.114	79.982	19.993	99.988	19.883	13.830	0.509
630.000	383.422	79.981	19.993	99.989	19.884	13.757	0.496
630.500	383.648	79.981	19.992	99.991	19.882	13.896	0.525
631.000	383.905	79.982	19.993	99.993	19.879	14.092	0.509
631.500	384.162	79.982	19.992	99.998	19.876	14.322	0.499
632.000	384.393	79.982	19.993	100.000	19.877	14.257	0.501
632.500	384.643	79.981	19.993	100.000	19.876	14.367	0.484
633.000	384.917	79.982	19.992	100.000	19.873	14.580	0.502
633.500	385.167	79.982	19.992	100.000	19.873	14.563	0.524
634.000	385.400	79.981	19.993	100.000	19.871	14.706	0.503
634.500	385.637	79.981	19.993	100.000	19.869	14.825	0.477
635.000	385.890	79.982	19.993	100.001	19.867	15.000	0.480
635.500	386.145	79.982	19.993	100.001	19.868	14.947	0.499
636.000	386.408	79.980	19.993	100.001	19.866	15.108	0.513
636.500	386.657	79.980	19.994	100.001	19.863	15.284	0.515
637.000	386.918	79.980	19.993	100.000	19.860	15.553	0.511
637.500	387.117	79.981	19.993	100.000	19.857	15.800	0.485
638.000	387.367	79.979	19.994	99.999	19.857	15.792	0.454
638.500	387.669	79.977	19.993	99.997	19.856	15.847	0.501
639.000	387.881	79.979	19.993	99.996	19.851	16.249	0.533
639.500	388.115	79.979	19.994	99.996	19.851	16.249	0.480
640.000	388.426	79.980	19.994	99.996	19.849	16.341	0.496
640.500	388.660	79.979	19.994	99.997	19.847	16.491	0.545
641.000	388.908	79.979	19.995	99.999	19.847	16.535	0.513
641.500	389.144	79.979	19.994	100.001	19.844	16.778	0.483
642.000	389.408	79.978	19.993	100.001	19.842	16.901	0.492
642.500	389.669	79.978	19.993	100.000	19.839	17.127	0.513
643.000	389.901	79.977	19.993	100.000	19.838	17.174	0.509
643.500	390.182	79.978	19.993	100.000	19.836	17.356	0.503
644.000	390.424	79.977	19.994	100.000	19.835	17.428	0.518
644.500	390.696	79.977	19.994	100.000	19.831	17.734	0.519
645.000	390.959	79.979	19.994	100.001	19.827	18.026	0.525
645.500	391.204	79.978	19.993	100.001	19.830	17.824	0.521
646.000	391.457	79.976	19.994	100.001	19.834	17.495	0.503
646.500	391.725	79.978	19.994	100.001	19.828	17.947	0.509
647.000	391.953	79.977	19.994	100.001	19.824	18.225	0.508
647.500	392.206	79.977	19.993	100.001	19.820	18.535	0.488
648.000	392.482	79.978	19.994	100.002	19.821	18.502	0.505
648.500	392.707	79.979	19.994	100.001	19.819	18.600	0.515
649.000	393.004	79.979	19.993	100.000	19.818	18.675	0.512
649.500	393.259	79.977	19.993	100.000	19.815	18.904	0.537
650.000	393.521	79.978	19.993	100.002	19.813	19.058	0.534
650.500	393.752	79.979	19.993	100.002	19.813	19.068	0.505
651.000	394.035	79.978	19.993	100.003	19.806	19.624	0.504
651.500	394.280	79.978	19.993	100.005	19.804	19.752	0.521
652.000	394.496	79.979	19.993	100.005	19.803	19.860	0.494
652.500	394.816	79.979	19.993	100.003	19.801	19.964	0.499
653.000	395.024	79.979	19.992	100.004	19.801	19.970	0.532
653.500	395.255	79.978	19.992	100.004	19.796	20.316	0.483
654.000	395.537	79.978	19.993	100.002	19.792	20.685	0.476
654.500	395.786	79.979	19.993	100.003	19.791	20.720	0.522
655.000	396.055	79.978	19.992	100.007	19.791	20.692	0.525
655.500	396.290	79.979	19.993	100.006	19.788	20.969	0.511
656.000	396.511	79.980	19.993	100.006	19.783	21.331	0.479
656.500	396.798	79.979	19.993	100.007	19.783	21.314	0.482
657.000	397.074	79.980	19.992	100.007	19.780	21.574	0.536
657.500	397.302	79.980	19.993	100.002	19.778	21.694	0.534
658.000	397.572	79.979	19.993	100.001	19.776	21.853	0.501
658.500	397.808	79.981	19.993	100.001	19.777	21.803	0.502
659.000	398.078	79.979	19.993	99.999	19.774	21.986	0.506
659.500	398.339	79.980	19.993	99.998	19.773	22.102	0.518
660.000	398.634	79.980	19.994	100.000	19.774	22.016	0.543
660.500	398.818	79.980	19.992	100.002	19.765	22.655	0.518
661.000	399.060	79.980	19.993	100.004	19.766	22.612	0.453
661.500	399.357	79.980	19.993	100.006	19.762	22.937	0.483
662.000	399.603	79.980	19.992	100.009	19.759	23.139	0.541
662.500	399.837	79.980	19.993	100.008	19.756	23.356	0.511
663.000	400.107	79.979	19.993	100.005	19.753	23.613	0.492
663.500	400.335	79.980	19.993	100.003	19.752	23.657	0.501
664.000	400.635	79.979	19.992	100.002	19.748	23.937	0.513
664.500	400.838	79.979	19.993	99.998	19.746	24.125	0.516
665.000	401.046	79.979	19.993	99.998	19.745	24.223	0.457
665.501	401.313	79.980	19.993	99.999	19.751	23.763	0.443
666.000	401.569	79.978	19.993	100.000	19.733	25.083	0.499
666.500	401.815	79.978	19.993	100.000	19.739	24.666	0.513
667.000	402.096	79.978	19.993	100.000	19.735	24.941	0.514
667.500	402.318	79.979	19.993	100.001	19.724	25.796	0.515
668.000	402.562	79.979	19.992	100.001	19.721	25.959	0.485
668.500	402.823	79.979	19.993	100.001	19.725	25.725	0.485
669.000	403.068	79.979	19.994	100.002	19.733	25.094	0.505
669.501	403.347	79.978	19.993	100.003	19.721	26.008	0.515
670.000	403.588	79.979	19.993	100.001	19.725	25.704	0.522
670.500	403.770	79.978	19.993	100.000	19.720	26.076	0.472
671.000	404.051	79.979	19.994	100.000	19.716	26.335	0.443
671.500	404.326	79.978	19.993	99.999	19.716	26.329	0.509
672.000	404.587	79.978	19.993	99.998	19.708	26.939	0.546
672.500	404.838	79.978	19.993	99.999	19.707	27.031	0.524
673.000	405.073	79.979	19.993	100.002	19.706	27.093	0.499
673.500	405.356	79.977	19.993	100.003	19.705	27.182	0.502
674.000	405.573	79.978	19.994	100.005	19.704	27.267	0.509
674.500	405.892	79.978	19.993	100.008	19.702	27.439	0.518
675.000	406.119	79.979	19.993	100.011	19.698	27.715	0.541
675.500	406.288	79.979	19.994	100.010	19.697	27.769	0.471
676.000	406.649	79.978	19.993	100.009	19.693	28.122	0.463
676.500	406.850	79.978	19.994	100.008	19.692	28.207	0.546
677.000	406.990	79.981	19.993	100.005	19.693	28.117	0.452
677.500	407.315	79.979	19.993	100.003	19.686	28.595	0.403
678.000	407.598	79.980	19.992	100.001	19.685	28.681	0.536
678.500	407.825	79.979	19.993	100.001	19.684	28.802	0.559
679.000	408.054	79.980	19.993	100.001	19.680	29.066	0.483
679.500	408.310	79.980	19.993	100.001	19.680	29.082	0.470
680.000	408.443	79.981	19.992	100.000	19.677	29.265	0.437
680.500	409.154	79.981	19.993	100.001	19.675	29.461	0.616
681.000	408.921	79.980	19.993	100.001	19.674	29.543	0.661
681.501	409.114	79.981	19.992	100.000	19.672	29.684	0.219
682.000	409.323	79.981	19.992	100.000	19.671	29.766	0.181
682.500	409.601	79.982	19.993	100.001	19.671	29.725	0.444
683.000	410.090	79.981	19.992	100.000	19.669	29.910	0.627
683.500	410.284	79.983	19.993	100.000	19.666	30.115	0.725
684.000	410.782	79.982	19.993	100.005	19.665	30.215	0.688
684.500	410.829	79.981	19.993	100.007	19.664	30.295	0.619
685.000	411.104	79.981	19.992	100.007	19.663	30.328	0.433
685.500	411.334	79.982	19.992	100.009	19.661	30.534	0.414
686.000	411.490	79.982	19.992	100.009	19.659	30.618	0.445
686.500	411.813	79.981	19.992	100.005	19.656	30.885	0.432
687.000	412.080	79.981	19.992	100.005	19.657	30.806	0.535
687.500	412.395	79.981	19.992	100.004	19.659	30.671	0.586
688.000	412.482	79.981	19.992	100.003	19.655	30.989	0.492
688.500	412.876	79.981	19.993	100.004	19.656	30.867	0.442
689.000	413.094	79.981	19.993	100.004	19.652	31.161	0.546
689.500	413.329	79.982	19.992	100.002	19.654	31.040	0.532
690.000	413.565	79.980	19.992	100.002	19.652	31.192	0.462
690.500	413.802	79.981	19.993	100.000	19.647	31.568	0.472
691.000	414.080	79.980	19.992	100.000	19.648	31.465	0.494
691.500	414.305	79.981	19.992	100.001	19.646	31.663	0.509
692.000	414.566	79.979	19.992	100.001	19.649	31.400	0.495
692.500	414.807	79.981	19.992	100.001	19.647	31.549	0.494
693.000	415.033	79.979	19.992	100.001	19.643	31.851	0.485
693.500	415.315	79.980	19.993	100.001	19.647	31.538	0.487
694.000	415.600	79.980	19.993	100.000	19.640	32.048	0.537
694.500	415.783	79.980	19.993	100.001	19.642	31.953	0.518
695.000	416.104	79.980	19.993	100.003	19.637	32.290	0.486
695.500	416.408	79.980	19.992	100.003	19.638	32.247	0.564
696.000	416.583	79.980	19.993	100.004	19.638	32.206	0.552
696.500	416.854	79.980	19.993	100.005	19.635	32.453	0.462
697.000	417.141	79.979	19.992	100.005	19.637	32.325	0.502
697.500	417.389	79.980	19.993	100.004	19.635	32.490	0.546
698.001	417.579	79.980	19.993	100.005	19.636	32.413	0.486
698.500	417.875	79.978	19.993	100.005	19.633	32.571	0.462
699.000	418.150	79.980	19.993	100.009	19.633	32.616	0.529
699.500	418.444	79.977	19.993	100.012	19.632	32.714	0.570
700.000	418.695	79.981	19.993	100.012	19.632	32.675	0.557
700.500	418.905	79.979	19.993	100.011	19.628	32.947	0.503
701.000	419.218	79.978	19.993	100.013	19.627	33.046	0.492
701.500	419.510	79.980	19.994	100.008	19.630	32.808	0.564
702.000	419.717	79.979	19.994	100.004	19.628	32.992	0.552
702.500	420.003	79.980	19.994	100.007	19.625	33.203	0.496
703.000	420.294	79.981	19.993	100.008	19.626	33.160	0.535
703.501	420.520	79.981	19.993	100.006	19.624	33.297	0.547
704.000	420.771	79.981	19.994	100.005	19.621	33.473	0.497
704.500	421.018	79.981	19.993	100.006	19.622	33.401	0.487
705.000	421.332	79.980	19.993	100.004	19.623	33.389	0.529
705.500	421.555	79.980	19.994	100.006	19.622	33.403	0.549
706.000	421.844	79.981	19.994	100.007	19.621	33.484	0.525
706.500	422.049	79.982	19.993	100.008	19.619	33.676	0.503
707.000	422.345	79.980	19.993	100.007	19.621	33.501	0.497
707.500	422.610	79.982	19.993	100.006	19.617	33.842	0.531
708.000	422.854	79.981	19.993	100.003	19.622	33.459	0.535
708.500	423.128	79.981	19.993	100.002	19.617	33.817	0.513
709.000	423.358	79.981	19.993	100.001	19.616	33.896	0.511
709.500	423.625	79.982	19.992	100.004	19.615	33.959	0.500
710.000	423.868	79.982	19.993	100.005	19.612	34.204	0.503
710.500	424.136	79.982	19.992	100.005	19.611	34.246	0.511
711.000	424.401	79.983	19.993	100.005	19.609	34.429	0.522
711.500	424.689	79.981	19.993	100.006	19.610	34.298	0.543
712.000	424.925	79.981	19.992	100.004	19.607	34.570	0.538
712.500	425.217	79.981	19.992	100.005	19.607	34.561	0.526
713.000	425.478	79.982	19.993	100.007	19.606	34.607	0.541
713.500	425.719	79.981	19.993	100.009	19.606	34.615	0.527
714.000	425.978	79.982	19.992	100.009	19.603	34.825	0.501
714.500	426.229	79.981	19.992	100.009	19.605	34.745	0.505
715.000	426.467	79.982	19.992	100.006	19.604	34.820	0.499
715.500	426.759	79.981	19.993	100.004	19.603	34.866	0.509
716.000	426.982	79.981	19.993	100.003	19.600	35.058	0.523
716.500	427.235	79.981	19.992	100.003	19.601	35.037	0.496
717.000	427.539	79.980	19.992	100.001	19.597	35.345	0.517
717.500	427.788	79.980	19.993	100.001	19.595	35.483	0.555
718.000	428.044	79.979	19.992	100.003	19.594	35.547	0.529
718.500	428.324	79.980	19.993	100.003	19.597	35.324	0.520
719.000	428.566	79.978	19.992	100.005	19.597	35.330	0.529
719.500	428.838	79.981	19.993	100.008	19.592	35.685	0.519
720.000	429.089	79.980	19.993	100.007	19.593	35.584	0.519
720.500	429.333	79.977	19.993	100.006	19.590	35.800	0.509
721.000	429.611	79.980	19.994	100.005	19.588	35.982	0.508
721.500	429.859	79.979	19.994	100.003	19.585	36.226	0.524
722.000	430.092	79.979	19.993	100.001	19.584	36.269	0.503
722.500	430.402	79.979	19.994	100.000	19.576	36.925	0.512
723.000	430.628	79.979	19.993	100.001	19.573	37.080	0.540
723.500	430.883	79.979	19.994	100.005	19.574	37.069	0.509
724.000	431.175	79.979	19.994	100.008	19.573	37.082	0.514
724.500	431.404	79.979	19.994	100.007	19.572	37.216	0.534
725.000	431.640	79.980	19.994	100.006	19.574	37.074	0.493
725.500	431.941	79.979	19.994	100.006	19.571	37.255	0.501
726.000	432.208	79.979	19.994	100.004	19.567	37.540	0.553
726.500	432.450	79.978	19.994	100.001	19.569	37.417	0.538
727.001	432.705	79.978	19.994	100.002	19.564	37.756	0.502
727.501	432.964	79.980	19.994	100.002	19.560	38.087	0.506
728.001	433.275	79.979	19.993	100.001	19.560	38.111	0.543
728.500	433.515	79.978	19.994	100.000	19.558	38.213	0.561
729.000	433.789	79.979	19.994	99.999	19.553	38.597	0.532
729.500	434.060	79.978	19.994	99.998	19.553	38.584	0.529
730.000	434.368	79.979	19.994	99.998	19.549	38.905	0.562
730.500	434.602	79.978	19.994	99.998	19.547	39.064	0.560
731.000	434.853	79.979	19.993	99.997	19.544	39.278	0.513
731.500	435.127	79.977	19.993	99.995	19.538	39.708	0.505
732.000	435.385	79.977	19.995	99.995	19.538	39.716	0.529
732.500	435.645	79.978	19.995	99.994	19.536	39.926	0.525
733.000	435.921	79.978	19.995	99.994	19.531	40.281	0.527
733.500	436.211	79.978	19.995	99.996	19.527	40.564	0.551
734.000	436.432	79.980	19.993	99.997	19.523	40.862	0.538
734.500	436.689	79.980	19.994	100.000	19.523	40.893	0.495
735.000	436.935	79.980	19.994	100.001	19.515	41.448	0.491
735.500	437.188	79.979	19.994	100.001	19.513	41.648	0.501
736.000	437.481	79.980	19.994	100.001	19.510	41.844	0.522
736.500	437.703	79.980	19.994	100.001	19.508	42.000	0.530
737.000	437.973	79.980	19.994	99.998	19.505	42.251	0.503
737.500	438.208	79.979	19.994	99.997	19.498	42.739	0.498
738.000	438.506	79.979	19.993	99.997	19.495	42.989	0.519
738.500	438.764	79.979	19.994	99.997	19.492	43.230	0.545
739.000	439.013	79.980	19.993	99.997	19.488	43.487	0.531
739.500	439.272	79.981	19.993	99.997	19.485	43.761	0.507
740.000	439.532	79.979	19.994	99.997	19.477	44.328	0.514
740.500	439.807	79.981	19.993	99.997	19.478	44.289	0.528
741.000	440.097	79.979	19.994	99.997	19.474	44.574	0.550
741.500	440.332	79.980	19.992	99.997	19.466	45.142	0.545
742.000	440.585	79.978	19.992	99.996	19.464	45.346	0.506
742.500	440.855	79.980	19.992	99.995	19.457	45.810	0.505
743.000	441.129	79.980	19.993	99.995	19.455	46.000	0.534
743.500	441.356	79.979	19.993	99.994	19.447	46.557	0.523
744.000	441.636	79.980	19.993	99.995	19.447	46.598	0.504
744.500	441.874	79.980	19.992	99.996	19.439	47.162	0.512
745.000	442.142	79.979	19.993	99.998	19.435	47.492	0.512
745.500	442.411	79.980	19.993	99.999	19.432	47.694	0.522
746.000	442.670	79.979	19.993	99.999	19.430	47.847	0.532
746.500	442.903	79.979	19.993	99.998	19.425	48.231	0.510
747.000	443.152	79.979	19.994	99.997	19.421	48.535	0.487
747.500	443.409	79.979	19.993	99.996	19.417	48.811	0.494
748.000	443.685	79.979	19.993	99.995	19.411	49.317	0.520
748.500	443.963	79.979	19.993	99.997	19.406	49.705	0.544
749.000	444.187	79.979	19.993	99.998	19.401	50.076	0.527
749.500	444.487	79.979	19.992	99.999	19.395	50.531	0.513
750.000	444.726	79.978	19.992	99.999	19.390	50.839	0.532
750.500	445.006	79.977	19.992	99.999	19.386	51.142	0.530
751.000	445.266	79.979	19.993	99.999	19.384	51.324	0.530
751.500	445.498	79.979	19.994	99.998	19.377	51.823	0.516
752.000	445.746	79.980	19.994	99.998	19.374	52.078	0.486
752.500	446.018	79.980	19.993	99.998	19.370	52.380	0.500
753.000	446.273	79.978	19.993	99.999	19.367	52.577	0.523
753.500	446.518	79.979	19.993	99.999	19.363	52.927	0.514
754.000	446.776	79.979	19.993	100.000	19.357	53.380	0.502
754.500	447.020	79.978	19.994	100.001	19.353	53.659	0.502
755.001	447.293	79.978	19.993	100.001	19.350	53.882	0.509
755.500	447.540	79.979	19.993	100.001	19.344	54.314	0.519
756.000	447.773	79.979	19.993	100.001	19.337	54.879	0.500
756.500	448.066	79.978	19.993	100.001	19.333	55.166	0.503
757.000	448.316	79.979	19.994	100.001	19.329	55.473	0.534
757.500	448.567	79.979	19.993	100.001	19.324	55.798	0.522
758.000	448.830	79.979	19.993	100.001	19.321	56.066	0.507
758.500	449.053	79.980	19.993	100.001	19.316	56.430	0.500
759.000	449.323	79.979	19.993	100.002	19.311	56.843	0.490
759.500	449.555	79.980	19.992	100.002	19.304	57.315	0.498
760.000	449.861	79.980	19.994	100.001	19.302	57.470	0.520
760.500	450.118	79.979	19.994	100.001	19.297	57.829	0.550
761.000	450.381	79.979	19.993	100.000	19.296	57.965	0.541
761.500	450.680	79.979	19.993	99.999	19.291	58.293	0.541
762.000	450.885	79.979	19.993	100.000	19.287	58.625	0.533
762.500	451.166	79.981	19.993	100.001	19.282	59.017	0.495
763.000	451.401	79.979	19.992	100.001	19.280	59.111	0.501
763.500	451.640	79.980	19.993	100.002	19.276	59.407	0.495
764.000	451.937	79.981	19.993	100.002	19.271	59.835	0.505
764.500	452.197	79.980	19.992	100.002	19.271	59.842	0.547
765.000	452.456	79.981	19.993	100.001	19.265	60.280	0.538
765.500	452.688	79.981	19.993	99.999	19.262	60.520	0.505
766.000	452.954	79.981	19.993	99.998	19.260	60.612	0.494
766.500	453.224	79.981	19.993	99.996	19.259	60.702	0.517
767.000	453.488	79.980	19.993	99.996	19.250	61.353	0.535
767.500	453.770	79.980	19.994	99.994	19.247	61.639	0.540
768.000	453.980	79.982	19.992	99.995	19.246	61.665	0.519
768.500	454.255	79.981	19.992	99.996	19.245	61.778	0.489
769.000	454.544	79.981	19.993	99.998	19.240	62.124	0.525
769.500	454.756	79.982	19.993	99.999	19.236	62.471	0.533
770.000	455.015	79.982	19.992	100.001	19.235	62.549	0.486
770.500	455.281	79.981	19.992	100.002	19.233	62.660	0.498
771.000	455.545	79.979	19.992	100.002	19.235	62.520	0.527
771.500	455.789	79.981	19.993	100.000	19.231	62.801	0.519
772.000	456.073	79.980	19.993	100.000	19.225	63.283	0.518
772.500	456.307	79.980	19.992	99.999	19.222	63.509	0.523
773.000	456.568	79.978	19.992	99.997	19.218	63.774	0.507
773.500	456.828	79.980	19.993	99.997	19.219	63.691	0.507
774.000	457.039	79.980	19.993	99.995	19.214	64.066	0.496
774.500	457.339	79.980	19.992	99.991	19.212	64.246	0.491
775.000	457.519	79.979	19.992	99.993	19.209	64.445	0.496
775.500	457.833	79.980	19.992	99.995	19.208	64.520	0.488
776.000	458.114	79.979	19.992	99.991	19.205	64.746	0.544
776.500	458.347	79.982	19.993	99.990	19.205	64.780	0.554
777.000	458.628	79.981	19.992	99.990	19.202	64.979	0.514
777.500	458.846	79.979	19.992	99.983	19.195	65.528	0.507
778.000	459.137	79.979	19.992	99.977	19.195	65.544	0.504
778.500	459.398	79.980	19.992	99.978	19.191	65.778	0.531
779.000	459.649	79.980	19.993	99.983	19.190	65.901	0.532
779.500	459.896	79.980	19.992	99.985	19.189	65.945	0.504
780.000	460.166	79.981	19.992	99.989	19.187	66.140	0.507
780.500	460.412	79.980	19.993	99.993	19.183	66.408	0.517
781.000	460.660	79.979	19.992	99.996	19.179	66.691	0.505
781.500	460.921	79.980	19.993	99.989	19.175	66.988	0.502
782.000	461.162	79.980	19.993	99.983	19.176	66.949	0.505
782.500	461.424	79.982	19.992	99.982	19.177	66.891	0.502
783.000	461.702	79.981	19.993	99.983	19.174	67.061	0.522
783.500	461.953	79.981	19.993	99.982	19.173	67.157	0.535
784.000	462.193	79.981	19.993	99.988	19.173	67.145	0.510
784.500	462.489	79.980	19.992	99.993	19.172	67.231	0.513
785.000	462.751	79.981	19.993	99.995	19.173	67.191	0.547
785.500	462.983	79.982	19.993	99.996	19.173	67.178	0.526
786.000	463.210	79.982	19.993	99.994	19.174	67.138	0.477
786.500	463.472	79.983	19.993	99.991	19.173	67.176	0.474
787.000	463.759	79.981	19.993	99.986	19.174	67.110	0.519
787.500	463.998	79.983	19.994	99.978	19.178	66.814	0.538
788.000	464.236	79.981	19.993	99.971	19.181	66.549	0.501
788.500	464.483	79.982	19.993	99.966	19.184	66.380	0.480
789.000	464.772	79.982	19.993	99.961	19.188	66.079	0.510
789.500	464.973	79.982	19.993	99.960	19.191	65.822	0.513
790.000	465.274	79.982	19.993	99.961	19.193	65.674	0.496
790.500	465.508	79.983	19.993	99.960	19.198	65.320	0.518
791.000	465.713	79.982	19.993	99.962	19.198	65.323	0.487
791.500	466.053	79.982	19.993	99.967	19.205	64.744	0.492
792.000	466.281	79.982	19.994	99.972	19.207	64.596	0.556
792.500	466.517	79.982	19.993	99.974	19.210	64.386	0.516
793.000	466.774	79.981	19.993	99.979	19.216	63.949	0.478
793.500	467.002	79.980	19.993	99.977	19.220	63.678	0.488
794.000	467.301	79.981	19.993	99.972	19.228	63.043	0.506
794.500	467.554	79.980	19.993	99.966	19.232	62.778	0.540
795.000	467.798	79.980	19.994	99.965	19.232	62.741	0.524
795.500	468.050	79.980	19.993	99.965	19.238	62.278	0.496
796.000	468.305	79.980	19.993	99.972	19.244	61.816	0.502
796.500	468.576	79.980	19.993	99.979	19.248	61.514	0.517
797.000	468.832	79.980	19.994	99.985	19.258	60.826	0.526
797.500	469.103	79.981	19.993	99.985	19.258	60.772	0.527
798.000	469.314	79.980	19.993	99.982	19.265	60.301	0.504
798.500	469.595	79.980	19.993	99.978	19.268	60.012	0.487
799.000	469.829	79.979	19.993	99.979	19.272	59.765	0.504
799.500	470.103	79.979	19.993	99.982	19.279	59.216	0.512
800.000	470.372	79.979	19.993	99.988	19.284	58.834	0.525
800.500	470.572	79.980	19.994	99.994	19.284	58.838	0.506
801.000	470.818	79.980	19.993	99.994	19.292	58.254	0.458
801.500	471.113	79.980	19.993	99.993	19.295	58.042	0.494
802.000	471.375	79.979	19.993	99.992	19.304	57.356	0.549
802.500	471.593	79.978	19.993	99.992	19.307	57.076	0.518
803.000	471.870	79.980	19.993	99.992	19.314	56.582	0.487
803.500	472.114	79.979	19.993	99.995	19.316	56.402	0.508
804.000	472.413	79.979	19.993	99.997	19.322	55.967	0.533
804.500	472.676	79.979	19.993	99.997	19.325	55.737	0.552
805.000	472.913	79.979	19.993	99.997	19.331	55.337	0.530
805.500	473.195	79.979	19.993	99.998	19.334	55.063	0.509
806.000	473.395	79.980	19.994	99.997	19.341	54.576	0.501
806.500	473.693	79.978	19.994	99.997	19.344	54.356	0.490
807.000	473.963	79.979	19.993	99.997	19.347	54.133	0.533
807.500	474.216	79.979	19.993	99.997	19.355	53.520	0.545
808.000	474.473	79.978	19.994	99.996	19.360	53.148	0.517
808.500	474.675	79.979	19.993	99.990	19.365	52.743	0.485
809.000	474.970	79.979	19.994	99.989	19.369	52.419	0.478
809.500	475.230	79.979	19.993	99.989	19.376	51.914	0.526
810.000	475.481	79.979	19.994	99.989	19.378	51.752	0.534
810.500	475.753	79.979	19.994	99.989	19.386	51.203	0.517
811.000	475.989	79.980	19.994	99.993	19.388	51.050	0.515
811.500	476.246	79.979	19.994	99.992	19.394	50.601	0.501
812.000	476.482	79.978	19.994	99.991	19.397	50.359	0.493
812.500	476.743	79.978	19.994	99.991	19.401	50.011	0.495
813.000	477.001	79.980	19.993	99.991	19.405	49.703	0.508
813.500	477.245	79.978	19.994	99.993	19.413	49.151	0.511
814.000	477.496	79.979	19.995	99.994	19.416	48.905	0.499
814.500	477.752	79.979	19.995	99.993	19.419	48.665	0.501
815.000	478.017	79.979	19.994	99.993	19.426	48.190	0.514
815.500	478.272	79.979	19.994	99.993	19.428	48.027	0.520
816.000	478.525	79.980	19.994	99.993	19.435	47.494	0.514
816.500	478.742	79.978	19.993	99.995	19.438	47.291	0.489
817.000	479.010	79.979	19.994	99.997	19.445	46.749	0.478
817.500	479.288	79.978	19.994	99.995	19.443	46.855	0.516
818.000	479.566	79.980	19.994	99.994	19.452	46.188	0.551
818.500	479.808	79.978	19.994	99.992	19.455	46.018	0.538
819.000	480.037	79.978	19.994	99.992	19.458	45.782	0.495
819.500	480.265	79.978	19.994	99.992	19.465	45.211	0.464
820.000	480.560	79.979	19.994	99.994	19.469	44.954	0.490
820.500	480.791	79.979	19.994	99.995	19.475	44.451	0.525
821.000	481.080	79.979	19.994	99.994	19.475	44.488	0.523
821.500	481.280	79.978	19.995	99.994	19.480	44.117	0.505
822.000	481.559	79.978	19.994	99.995	19.485	43.707	0.484
822.500	481.829	79.979	19.994	99.990	19.489	43.455	0.514
823.000	482.080	79.979	19.993	99.988	19.492	43.231	0.535
823.500	482.297	79.979	19.993	99.990	19.499	42.710	0.494
824.000	482.614	79.978	19.994	99.991	19.499	42.643	0.501
824.500	482.849	79.979	19.993	99.987	19.508	42.031	0.543
825.000	483.113	79.976	19.993	99.986	19.512	41.676	0.525
825.500	483.383	79.978	19.993	99.986	19.519	41.190	0.516
826.000	483.636	79.978	19.993	99.988	19.522	40.963	0.529
826.500	483.897	79.979	19.992	99.988	19.524	40.790	0.519
827.000	484.123	79.978	19.993	99.993	19.530	40.364	0.500
827.500	484.386	79.977	19.993	99.999	19.532	40.188	0.488
828.000	484.615	79.978	19.993	100.001	19.539	39.686	0.490
828.500	484.872	79.978	19.993	99.999	19.543	39.401	0.489
829.000	485.154	79.978	19.994	99.997	19.545	39.256	0.513
829.500	485.415	79.978	19.994	99.995	19.552	38.678	0.541
830.000	485.673	79.978	19.993	99.991	19.553	38.619	0.531
830.500	485.924	79.977	19.993	99.989	19.561	38.015	0.514
831.000	486.157	79.979	19.993	99.990	19.564	37.790	0.497
831.500	486.428	79.979	19.993	99.990	19.567	37.559	0.494
832.000	486.662	79.978	19.994	99.992	19.574	37.067	0.504
832.500	486.939	79.977	19.993	99.997	19.579	36.688	0.508
833.000	487.192	79.978	19.993	99.998	19.582	36.450	0.521
833.500	487.434	79.978	19.994	99.999	19.584	36.265	0.513
834.000	487.666	79.978	19.993	100.001	19.589	35.937	0.485
834.500	487.979	79.979	19.994	100.000	19.596	35.384	0.509
835.000	488.198	79.978	19.992	99.997	19.600	35.062	0.538
835.500	488.472	79.979	19.992	99.997	19.606	34.665	0.512
836.000	488.688	79.979	19.993	99.997	19.607	34.524	0.491
836.500	488.937	79.980	19.993	99.997	19.614	34.034	0.478
837.000	489.210	79.978	19.994	99.995	19.617	33.800	0.494
837.500	489.460	79.979	19.992	99.996	19.620	33.566	0.523
838.000	489.743	79.978	19.992	99.992	19.624	33.292	0.528
838.500	489.981	79.979	19.993	99.990	19.628	33.000	0.527
839.000	490.291	79.979	19.992	99.990	19.635	32.437	0.534
839.500	490.504	79.980	19.992	99.994	19.639	32.135	0.536
840.000	490.784	79.979	19.993	99.996	19.641	31.976	0.508
840.500	491.027	79.980	19.993	100.001	19.644	31.748	0.508
841.000	491.275	79.980	19.992	100.001	19.654	31.039	0.507
841.500	491.536	79.980	19.994	100.001	19.656	30.838	0.500
842.000	491.758	79.980	19.991	100.001	19.660	30.560	0.495
842.500	492.060	79.981	19.993	100.001	19.664	30.295	0.503
843.000	492.291	79.980	19.993	100.000	19.667	30.019	0.529
843.500	492.568	79.981	19.993	100.001	19.670	29.849	0.521
844.000	492.832	79.981	19.993	99.998	19.672	29.659	0.525
844.500	493.080	79.982	19.992	99.998	19.673	29.579	0.527
845.000	493.359	79.981	19.993	99.996	19.679	29.147	0.519
845.500	493.581	79.981	19.993	99.994	19.686	28.614	0.514
846.000	493.901	79.981	19.992	99.992	19.694	28.004	0.521
846.500	494.153	79.982	19.992	99.994	19.694	28.009	0.557
847.000	494.381	79.981	19.993	99.993	19.695	27.971	0.526
847.500	494.658	79.983	19.993	99.993	19.701	27.468	0.493
848.001	494.916	79.982	19.993	99.995	19.705	27.214	0.520
848.500	495.181	79.981	19.993	99.995	19.707	27.006	0.529
849.000	495.428	79.981	19.993	99.989	19.708	26.967	0.517
849.500	495.679	79.980	19.993	99.983	19.718	26.243	0.505
850.000	495.957	79.981	19.993	99.982	19.723	25.802	0.514
850.500	496.224	79.982	19.993	99.982	19.722	25.890	0.537
851.000	496.468	79.980	19.993	99.983	19.730	25.309	0.528
851.500	496.738	79.981	19.992	99.986	19.730	25.289	0.513
852.000	496.997	79.982	19.993	99.987	19.734	25.008	0.521
852.500	497.237	79.980	19.993	99.983	19.742	24.409	0.513
853.000	497.521	79.980	19.992	99.976	19.739	24.652	0.511
853.500	497.760	79.982	19.993	99.971	19.747	24.024	0.524
854.000	498.038	79.981	19.993	99.975	19.747	24.047	0.520
854.500	498.265	79.981	19.992	99.979	19.751	23.745	0.511
855.000	498.572	79.981	19.993	99.984	19.753	23.556	0.519
855.500	498.797	79.981	19.993	99.990	19.759	23.136	0.533
856.000	499.067	79.981	19.993	99.995	19.763	22.838	0.514
856.500	499.261	79.979	19.994	99.993	19.765	22.689	0.479
857.000	499.553	79.981	19.993	99.992	19.766	22.573	0.475
857.500	499.838	79.981	19.992	99.990	19.773	22.095	0.531
858.000	500.030	79.982	19.992	99.985	19.775	21.925	0.527
858.500	500.342	79.981	19.993	99.980	19.780	21.525	0.491
859.000	500.589	79.980	19.992	99.975	19.781	21.438	0.532
859.500	500.859	79.981	19.993	99.970	19.785	21.137	0.538
860.000	501.138	79.982	19.993	99.967	19.790	20.769	0.533
860.500	501.394	79.981	19.993	99.971	19.794	20.487	0.542
861.000	501.599	79.981	19.992	99.977	19.795	20.381	0.498
861.500	501.878	79.982	19.992	99.984	19.802	19.909	0.473
862.000	502.140	79.982	19.992	99.987	19.800	20.078	0.512
862.500	502.430	79.980	19.992	99.989	19.804	19.754	0.546
863.000	502.675	79.981	19.993	99.990	19.803	19.786	0.544
863.500	502.894	79.982	19.993	99.988	19.811	19.205	0.500
864.000	503.151	79.982	19.993	99.988	19.814	19.013	0.470
864.500	503.419	79.981	19.993	99.989	19.815	18.906	0.500
865.000	503.657	79.982	19.992	99.991	19.818	18.709	0.515
865.500	503.919	79.983	19.992	99.991	19.823	18.288	0.503
866.000	504.218	79.982	19.993	99.987	19.824	18.251	0.530
866.500	504.454	79.983	19.993	99.980	19.826	18.065	0.548
867.000	504.728	79.983	19.992	99.978	19.826	18.096	0.523
867.500	504.976	79.983	19.993	99.977	19.832	17.653	0.517
868.000	505.236	79.983	19.994	99.979	19.837	17.276	0.515
868.500	505.491	79.982	19.993	99.979	19.839	17.088	0.511
869.000	505.780	79.982	19.992	99.984	19.836	17.355	0.529
869.500	505.959	79.983	19.993	99.982	19.841	16.980	0.506
870.000	506.285	79.982	19.992	99.979	19.845	16.661	0.487
870.500	506.513	79.983	19.993	99.972	19.846	16.553	0.529
871.000	506.813	79.982	19.992	99.970	19.852	16.157	0.540
871.500	507.046	79.982	19.993	99.965	19.852	16.138	0.530
872.000	507.324	79.983	19.993	99.969	19.855	15.881	0.522
872.500	507.548	79.983	19.993	99.973	19.856	15.812	0.507
873.000	507.839	79.982	19.993	99.980	19.858	15.668	0.509
873.500	508.055	79.981	19.993	99.986	19.859	15.615	0.511
874.000	508.329	79.982	19.993	99.993	19.869	14.886	0.498
874.500	508.590	79.981	19.994	99.995	19.866	15.102	0.512
875.000	508.848	79.980	19.994	99.994	19.872	14.657	0.527
875.500	509.081	79.981	19.993	99.990	19.873	14.550	0.505
876.000	509.347	79.981	19.993	99.985	19.869	14.887	0.496
876.500	509.584	79.982	19.994	99.979	19.876	14.305	0.501
877.000	509.845	79.981	19.994	99.976	19.877	14.275	0.500
877.500	510.104	79.980	19.993	99.975	19.877	14.220	0.508
878.000	510.373	79.979	19.993	99.976	19.882	13.909	0.524
878.500	510.621	79.979	19.993	99.977	19.884	13.705	0.523
879.000	510.894	79.981	19.993	99.980	19.884	13.735	0.519
879.500	511.158	79.980	19.994	99.977	19.885	13.644	0.529
880.000	511.419	79.980	19.994	99.977	19.886	13.581	0.531
880.500	511.667	79.979	19.994	99.976	19.889	13.380	0.517
881.000	511.921	79.980	19.993	99.975	19.891	13.184	0.505
881.500	512.205	79.980	19.994	99.973	19.892	13.134	0.520
882.000	512.449	79.980	19.994	99.974	19.894	12.968	0.533
882.501	512.681	79.979	19.994	99.973	19.898	12.658	0.502
883.000	512.943	79.980	19.994	99.972	19.898	12.646	0.485
883.500	513.200	79.980	19.994	99.974	19.903	12.267	0.507
884.000	513.474	79.980	19.994	99.980	19.903	12.330	0.525
884.501	513.740	79.979	19.994	99.980	19.905	12.140	0.536
885.000	514.049	79.979	19.995	99.977	19.911	11.701	0.558
885.500	514.317	79.978	19.994	99.975	19.910	11.793	0.576
886.000	514.534	79.979	19.994	99.973	19.909	11.835	0.531
886.500	514.778	79.979	19.993	99.967	19.910	11.753	0.473
887.000	515.058	79.979	19.994	99.965	19.914	11.453	0.492
887.500	515.312	79.980	19.994	99.964	19.916	11.309	0.529
888.000	515.599	79.981	19.994	99.967	19.917	11.243	0.537
888.500	515.823	79.980	19.994	99.971	19.918	11.152	0.526
889.000	516.086	79.981	19.994	99.977	19.921	10.966	0.499
889.500	516.346	79.982	19.994	99.980	19.922	10.901	0.505
890.000	516.599	79.980	19.993	99.984	19.926	10.599	0.518
890.500	516.862	79.980	19.994	99.981	19.930	10.303	0.515
891.000	517.100	79.980	19.993	99.977	19.925	10.669	0.509
891.500	517.404	79.980	19.993	99.972	19.926	10.583	0.521
892.000	517.623	79.980	19.993	99.969	19.927	10.479	0.532
892.500	517.900	79.981	19.994	99.966	19.932	10.134	0.510
893.000	518.145	79.981	19.993	99.970	19.929	10.378	0.509
893.500	518.414	79.980	19.994	99.975	19.935	9.868	0.518
894.000	518.639	79.980	19.993	99.976	19.930	10.256	0.504
894.500	518.915	79.980	19.994	99.979	19.936	9.858	0.498
895.000	519.187	79.981	19.994	99.982	19.936	9.819	0.524
895.500	519.454	79.980	19.994	99.980	19.936	9.810	0.543
896.000	519.707	79.980	19.994	99.975	19.937	9.751	0.529
896.500	519.955	79.980	19.992	99.974	19.943	9.299	0.511
897.000	520.239	79.980	19.993	99.971	19.942	9.393	0.517
897.500	520.477	79.979	19.993	99.967	19.940	9.497	0.527
898.000	520.746	79.980	19.994	99.965	19.944	9.227	0.514
898.501	520.993	79.980	19.993	99.968	19.943	9.319	0.512
899.000	521.255	79.981	19.994	99.970	19.946	9.040	0.513
899.500	521.560	79.979	19.993	99.971	19.945	9.130	0.538
900.000	521.783	79.979	19.994	99.971	19.945	9.140	0.547
900.500	522.049	79.979	19.993	99.975	19.944	9.254	0.508
901.000	522.309	79.980	19.994	99.975	19.946	9.035	0.507
901.500	522.585	79.980	19.993	99.973	19.948	8.947	0.531
902.000	522.838	79.980	19.994	99.974	19.949	8.877	0.533
902.500	523.085	79.979	19.994	99.977	19.952	8.624	0.515
903.000	523.347	79.981	19.993	99.972	19.953	8.546	0.504
903.500	523.628	79.978	19.994	99.969	19.955	8.383	0.526
904.000	523.836	79.979	19.994	99.969	19.955	8.403	0.516
904.500	524.116	79.980	19.995	99.967	19.955	8.356	0.489
905.000	524.398	79.980	19.994	99.967	19.953	8.531	0.525
905.500	524.613	79.979	19.994	99.966	19.958	8.182	0.530
906.000	524.861	79.980	19.995	99.968	19.956	8.295	0.480
906.500	525.144	79.980	19.995	99.974	19.960	8.003	0.497
907.001	525.386	79.980	19.994	99.974	19.961	7.924	0.528
907.500	525.629	79.980	19.994	99.972	19.960	7.999	0.505
908.000	525.898	79.980	19.994	99.972	19.958	8.203	0.498
908.500	526.140	79.980	19.995	99.970	19.959	8.069	0.511
909.000	526.398	79.979	19.995	99.966	19.960	7.989	0.506
909.500	526.634	79.980	19.994	99.966	19.962	7.868	0.497
910.000	526.944	79.979	19.994	99.970	19.964	7.726	0.520
910.500	527.165	79.980	19.994	99.971	19.966	7.546	0.539
911.000	527.433	79.980	19.995	99.972	19.963	7.785	0.510
911.500	527.697	79.979	19.995	99.971	19.964	7.700	0.511
912.000	527.938	79.981	19.994	99.976	19.964	7.753	0.519
912.500	528.211	79.979	19.993	99.973	19.967	7.467	0.509
913.000	528.446	79.979	19.994	99.973	19.972	7.129	0.511
913.500	528.705	79.978	19.995	99.972	19.969	7.369	0.501
914.000	528.985	79.978	19.993	99.970	19.966	7.530	0.516
914.500	529.235	79.978	19.994	99.965	19.971	7.167	0.534
915.000	529.506	79.979	19.993	99.962	19.967	7.520	0.526
915.500	529.726	79.981	19.994	99.961	19.969	7.371	0.506
916.000	529.973	79.979	19.994	99.961	19.970	7.292	0.479
916.500	530.243	79.980	19.994	99.961	19.970	7.234	0.492
917.000	530.472	79.979	19.993	99.960	19.972	7.087	0.509
917.500	530.745	79.981	19.993	99.961	19.971	7.202	0.501
918.000	530.988	79.981	19.994	99.963	19.970	7.283	0.508
918.500	531.258	79.980	19.993	99.964	19.975	6.924	0.514
919.000	531.523	79.980	19.993	99.964	19.969	7.342	0.524
919.500	531.801	79.982	19.994	99.965	19.972	7.152	0.539
920.000	532.036	79.980	19.993	99.964	19.977	6.777	0.528
920.500	532.267	79.982	19.994	99.962	19.974	6.971	0.490
921.000	532.543	79.981	19.993	99.963	19.974	6.934	0.487
921.500	532.775	79.982	19.994	99.965	19.978	6.647	0.507
922.000	533.006	79.982	19.992	99.969	19.973	7.044	0.485
922.500	533.272	79.983	19.993	99.974	19.979	6.596	0.480
923.000	533.537	79.982	19.994	99.976	19.976	6.802	0.514
923.500	533.812	79.982	19.993	99.975	19.974	6.992	0.535
924.000	534.057	79.982	19.994	99.974	19.979	6.600	0.530
924.500	534.355	79.982	19.993	99.968	19.980	6.481	0.532
925.000	534.580	79.982	19.993	99.969	19.977	6.708	0.533
925.500	534.840	79.983	19.993	99.971	19.980	6.518	0.504
926.000	535.075	79.982	19.993	99.971	19.976	6.845	0.490
926.500	535.355	79.982	19.993	99.973	19.982	6.331	0.505
927.000	535.601	79.982	19.994	99.973	19.979	6.555	0.521
927.500	535.875	79.982	19.994	99.968	19.976	6.804	0.523
928.000	536.091	79.982	19.993	99.965	19.979	6.606	0.504
928.500	536.358	79.980	19.993	99.966	19.983	6.269	0.486
929.000	536.608	79.981	19.993	99.963	19.982	6.341	0.500
929.500	536.861	79.981	19.993	99.963	19.981	6.408	0.510
930.000	537.113	79.981	19.994	99.963	19.980	6.500	0.504
930.500	537.388	79.981	19.993	99.962	19.976	6.783	0.516
931.000	537.621	79.982	19.994	99.961	19.984	6.192	0.517
931.500	537.887	79.982	19.993	99.961	19.987	6.008	0.504
932.000	538.138	79.981	19.993	99.963	19.981	6.404	0.508
932.500	538.400	79.982	19.993	99.964	19.982	6.384	0.515
933.000	538.644	79.981	19.994	99.965	19.988	5.904	0.509
933.500	538.886	79.981	19.993	99.968	19.982	6.353	0.496
934.000	539.158	79.980	19.994	99.969	19.986	6.072	0.500
934.500	539.378	79.980	19.994	99.968	19.984	6.196	0.503
935.000	539.655	79.981	19.993	99.967	19.983	6.309	0.494
935.500	539.929	79.982	19.993	99.966	19.981	6.449	0.524
936.000	540.146	79.981	19.993	99.964	19.984	6.249	0.521
936.500	540.459	79.981	19.994	99.965	19.989	5.825	0.511
937.000	540.671	79.982	19.994	99.971	19.990	5.735	0.528
937.500	540.939	79.982	19.993	99.974	19.987	5.973	0.502
938.000	541.188	79.982	19.993	99.974	19.991	5.696	0.498
938.500	541.429	79.981	19.993	99.971	19.987	5.998	0.503
939.000	541.681	79.981	19.994	99.969	19.990	5.767	0.492
939.500	541.927	79.981	19.993	99.966	19.983	6.263	0.496
940.000	542.201	79.980	19.993	99.965	19.986	6.046	0.509
940.500	542.422	79.981	19.993	99.966	19.990	5.761	0.508
941.000	542.691	79.981	19.992	99.966	19.986	6.102	0.493
941.500	542.944	79.980	19.993	99.966	19.987	5.988	0.505
942.000	543.232	79.982	19.994	99.963	19.985	6.178	0.531
942.500	543.471	79.981	19.994	99.962	19.986	6.080	0.534
943.000	543.720	79.982	19.993	99.962	19.988	5.918	0.508
943.500	543.941	79.981	19.992	99.966	19.988	5.904	0.479
944.000	544.210	79.983	19.993	99.967	19.987	5.993	0.480
944.500	544.419	79.982	19.993	99.967	19.990	5.734	0.485
945.000	544.704	79.981	19.993	99.971	19.994	5.446	0.486
945.500	544.935	79.982	19.993	99.976	19.993	5.546	0.505
946.000	545.236	79.983	19.993	99.974	19.985	6.115	0.524
946.500	545.465	79.983	19.992	99.975	19.988	5.934	0.531
947.000	545.748	79.985	19.992	99.976	19.990	5.790	0.521
947.500	545.952	79.983	19.992	99.973	19.992	5.637	0.500
948.000	546.242	79.983	19.992	99.968	19.986	6.071	0.491
948.500	546.443	79.983	19.993	99.966	19.989	5.812	0.492
949.000	546.751	79.983	19.993	99.964	19.994	5.493	0.500
949.500	546.947	79.982	19.991	99.963	19.992	5.609	0.507
950.000	547.241	79.982	19.992	99.966	19.994	5.446	0.497
950.500	547.498	79.999	19.999	99.971	19.994	5.492	0.520
951.000	547.737	80.002	20.000	99.979	19.993	5.507	0.523
951.500	548.000	80.002	19.999	99.988	19.991	5.690	0.499
952.000	548.244	80.002	20.000	99.997	19.994	5.491	0.504
952.500	548.477	80.001	20.001	100.002	19.994	5.485	0.492
953.000	548.723	80.005	20.001	100.004	19.994	5.465	0.478
953.501	548.988	80.002	19.999	100.000	19.995	5.393	0.495
954.000	549.231	79.998	19.999	99.994	19.992	5.577	0.510
954.500	549.493	79.987	19.998	99.990	19.994	5.494	0.506
955.000	549.736	79.983	19.997	99.987	19.997	5.267	0.505
955.500	550.007	79.982	19.997	99.981	20.000	5.044	0.510
956.000	550.261	79.994	19.999	99.980	19.992	5.577	0.520
956.500	550.506	79.996	20.001	99.984	19.993	5.542	0.512
957.000	550.744	79.982	20.000	99.986	19.994	5.499	0.491
957.500	550.997	79.980	19.998	99.988	19.994	5.481	0.486
958.000	551.274	79.979	19.996	99.995	19.998	5.154	0.510
958.500	551.553	79.980	19.995	99.997	19.994	5.499	0.543
959.000	551.755	79.981	19.994	99.994	19.992	5.606	0.518
959.500	552.054	79.981	19.995	99.993	19.993	5.565	0.491
960.000	552.270	79.980	19.994	99.987	19.990	5.753	0.508
960.500	552.561	79.980	19.993	99.979	19.993	5.502	0.512
961.000	552.759	79.980	19.993	99.978	19.993	5.510	0.498
961.500	553.056	79.979	19.993	99.973	19.996	5.297	0.492
962.000	553.303	79.977	19.994	99.970	19.998	5.170	0.519
962.500	553.576	79.978	19.993	99.970	19.993	5.527	0.532
963.000	553.855	79.980	19.993	99.976	19.994	5.493	0.536
963.500	554.135	79.979	19.995	99.980	19.999	5.095	0.555
964.000	554.369	79.979	19.994	99.987	19.993	5.513	0.536
964.500	554.627	79.977	19.994	99.993	19.996	5.344	0.503
965.000	554.868	79.979	19.993	99.997	19.998	5.195	0.495
965.500	555.171	79.978	19.994	99.996	19.999	5.052	0.522
966.000	555.383	79.979	19.994	99.991	19.993	5.523	0.530
966.500	555.640	79.979	19.993	99.992	19.993	5.566	0.492
967.000	555.872	79.979	19.994	99.987	19.997	5.233	0.479
967.500	556.151	79.979	19.994	99.983	19.992	5.588	0.500
968.000	556.411	79.978	19.994	99.984	19.993	5.558	0.525
968.500	556.662	79.979	19.993	99.989	19.999	5.098	0.525
969.000	556.885	79.980	19.994	99.986	19.997	5.245	0.493
969.500	557.157	79.979	19.993	99.989	19.997	5.218	0.484
970.000	557.398	79.980	19.994	99.993	20.001	4.945	0.504
970.500	557.687	79.979	19.993	99.996	19.999	5.114	0.522
971.000	557.937	79.979	19.993	99.996	20.004	4.674	0.535
971.500	558.186	79.980	19.994	99.997	20.002	4.851	0.519
972.000	558.456	79.979	19.995	99.994	20.002	4.872	0.508
972.500	558.669	79.982	19.993	99.988	19.999	5.095	0.501
973.000	558.951	79.980	19.993	99.981	20.000	5.025	0.489
973.500	559.183	79.979	19.994	99.981	19.998	5.129	0.504
974.000	559.445	79.980	19.994	99.980	20.000	5.019	0.504
974.500	559.676	79.980	19.992	99.980	20.003	4.770	0.494
975.000	559.978	79.979	19.993	99.983	20.004	4.700	0.513
975.500	560.222	79.980	19.993	99.986	20.002	4.896	0.539
976.000	560.503	79.981	19.994	99.980	20.003	4.811	0.535
976.500	560.746	79.979	19.992	99.976	19.999	5.074	0.525
977.000	561.018	79.979	19.993	99.974	20.000	5.020	0.520
977.500	561.226	79.980	19.994	99.974	20.001	4.961	0.498
978.000	561.496	79.980	19.993	99.973	20.005	4.647	0.479
978.500	561.745	79.979	19.994	99.973	20.004	4.690	0.498
979.000	561.985	79.981	19.993	99.972	20.006	4.567	0.504
979.500	562.235	79.980	19.994	99.970	20.004	4.724	0.489
980.000	562.510	79.979	19.993	99.967	20.002	4.847	0.508
980.500	562.795	79.980	19.994	99.963	20.006	4.567	0.543
981.000	563.026	79.981	19.993	99.961	20.004	4.706	0.538
981.500	563.269	79.980	19.994	99.960	20.007	4.460	0.495
982.000	563.497	79.980	19.993	99.964	20.008	4.387	0.472
982.500	563.761	79.980	19.993	99.967	20.004	4.701	0.481
983.000	564.060	79.980	19.993	99.971	20.010	4.285	0.528
983.500	564.271	79.982	19.994	99.975	20.006	4.526	0.537
984.000	564.530	79.979	19.993	99.975	20.007	4.507	0.490
984.500	564.802	79.979	19.994	99.971	20.010	4.256	0.500
985.000	565.055	79.981	19.994	99.967	20.008	4.386	0.528
985.500	565.312	79.980	19.994	99.966	20.008	4.386	0.517
986.000	565.552	79.980	19.994	99.962	20.006	4.564	0.504
986.500	565.791	79.979	19.994	99.966	20.009	4.313	0.488
987.000	566.056	79.979	19.994	99.973	20.008	4.421	0.491
987.500	566.310	79.979	19.994	99.980	20.008	4.382	0.512
988.000	566.567	79.979	19.994	99.984	20.009	4.303	0.515
988.500	566.857	79.979	19.995	99.992	20.007	4.490	0.529
989.000	567.100	79.979	19.994	99.996	20.008	4.409	0.540
989.500	567.359	79.980	19.994	99.997	20.011	4.162	0.518
990.000	567.576	79.979	19.995	99.998	20.008	4.411	0.489
990.500	567.821	79.980	19.995	99.997	20.008	4.443	0.469
991.000	568.079	79.979	19.995	99.997	20.015	3.903	0.483
991.500	568.355	79.979	19.995	99.992	20.011	4.152	0.519
992.000	568.591	79.979	19.995	99.989	20.010	4.227	0.523
992.500	568.831	79.979	19.995	99.983	20.012	4.140	0.494
993.000	569.070	79.979	19.994	99.982	20.009	4.366	0.477
993.500	569.331	79.980	19.995	99.978	20.011	4.190	0.489
994.000	569.611	79.981	19.994	99.980	20.006	4.590	0.520
994.500	569.857	79.979	19.995	99.978	20.010	4.270	0.533
995.000	570.114	79.981	19.995	99.976	20.011	4.166	0.515
995.500	570.342	79.980	19.994	99.972	20.008	4.409	0.494
996.000	570.615	79.979	19.994	99.969	20.011	4.191	0.493
996.501	570.870	79.980	19.994	99.969	20.010	4.283	0.515
997.000	571.117	79.980	19.993	99.968	20.008	4.400	0.515
997.500	571.362	79.981	19.995	99.967	20.010	4.259	0.497
998.000	571.639	79.980	19.996	99.967	20.008	4.430	0.507
998.500	571.913	79.981	19.995	99.968	20.007	4.487	0.536
999.000	572.167	79.980	19.994	99.965	20.010	4.269	0.539
999.500	572.403	79.982	19.994	99.965	20.012	4.142	0.509
1000.000	572.651	79.981	19.995	99.965	20.008	4.421	0.487
1000.500	572.925	79.983	19.995	99.965	20.010	4.289	0.503
1001.000	573.186	79.981	19.994	99.965	20.004	4.689	0.528
1001.500	573.371	79.982	19.994	99.966	20.006	4.581	0.491
1002.000	573.671	79.982	19.994	99.967	20.005	4.627	0.466
1002.500	573.990	79.983	19.993	99.971	20.008	4.444	0.552
1003.001	574.199	79.982	19.993	99.971	20.011	4.181	0.574
1003.501	574.488	79.981	19.993	99.970	20.011	4.150	0.513
1004.000	574.753	79.982	19.994	99.969	20.011	4.174	0.526
1004.500	574.990	79.982	19.993	99.967	20.007	4.454	0.528
1005.000	575.210	79.982	19.993	99.965	20.007	4.517	0.480
1005.500	575.486	79.983	19.992	99.966	20.008	4.413	0.476
1006.000	575.732	79.982	19.993	99.971	20.013	4.071	0.508
1006.500	575.977	79.983	19.993	99.974	20.006	4.558	0.507
1007.000	576.232	79.983	19.994	99.980	20.009	4.316	0.496
1007.500	576.490	79.983	19.993	99.985	20.010	4.254	0.506
1008.000	576.743	79.981	19.994	99.989	20.008	4.407	0.512
1008.500	576.958	79.981	19.993	99.990	20.010	4.252	0.490
1009.000	577.227	79.981	19.993	99.990	20.007	4.520	0.476
1009.500	577.461	79.981	19.993	99.983	20.007	4.507	0.494
1010.000	577.735	79.982	19.993	99.980	20.011	4.195	0.505
1010.500	577.969	79.982	19.993	99.977	20.018	3.685	0.508
1011.000	578.247	79.981	19.993	99.975	20.009	4.371	0.510
1011.500	578.483	79.982	19.993	99.975	20.008	4.422	0.513
1012.000	578.762	79.981	19.993	99.978	20.011	4.172	0.515
1012.500	578.977	79.981	19.993	99.977	20.010	4.235	0.505
1013.000	579.273	79.981	19.993	99.975	20.013	4.048	0.503
1013.500	579.485	79.981	19.993	99.974	20.011	4.199	0.509
1014.000	579.745	79.982	19.993	99.973	20.005	4.634	0.489
1014.500	579.980	79.981	19.993	99.971	20.009	4.303	0.484
1015.001	580.228	79.981	19.994	99.971	20.013	4.036	0.489
1015.501	580.519	79.981	19.994	99.973	20.008	4.429	0.511
1016.000	580.753	79.981	19.993	99.975	20.010	4.280	0.532
1016.500	581.002	79.982	19.993	99.978	20.019	3.619	0.504
1017.000	581.310	79.981	19.993	99.978	20.012	4.146	0.520
1017.500	581.543	79.982	19.994	99.978	20.010	4.232	0.549
1018.000	581.794	79.980	19.994	99.981	20.012	4.079	0.512
1018.500	582.025	79.981	19.993	99.979	20.013	4.011	0.483
1019.000	582.281	79.981	19.992	99.977	20.011	4.199	0.485
1019.500	582.550	79.982	19.993	99.980	20.016	3.787	0.506
1020.000	582.769	79.982	19.994	99.984	20.013	4.064	0.506
1020.500	583.015	79.980	19.993	99.984	20.013	4.009	0.476
1021.000	583.289	79.981	19.992	99.985	20.014	3.978	0.492
1021.500	583.542	79.982	19.994	99.988	20.012	4.119	0.524
1022.000	583.785	79.981	19.993	99.985	20.020	3.532	0.512
1022.500	584.025	79.982	19.993	99.980	20.014	3.967	0.490
1023.000	584.290	79.982	19.993	99.974	20.013	4.046	0.494
1023.500	584.538	79.983	19.992	99.970	20.016	3.787	0.508
1024.001	584.824	79.982	19.993	99.968	20.016	3.807	0.524
1024.500	585.055	79.983	19.993	99.973	20.016	3.846	0.526
1025.000	585.306	79.982	19.993	99.977	20.014	3.935	0.499
1025.501	585.548	79.982	19.993	99.977	20.012	4.101	0.487
1026.001	585.859	79.981	19.993	99.974	20.011	4.160	0.523
1026.500	586.116	79.982	19.993	99.972	20.013	4.068	0.561
1027.000	586.301	79.982	19.992	99.967	20.013	4.054	0.505
1027.500	586.539	79.983	19.992	99.967	20.011	4.209	0.432
1028.000	586.818	79.981	19.992	99.971	20.010	4.270	0.470
1028.500	587.118	79.981	19.991	99.975	20.014	3.993	0.548
1029.000	587.356	79.983	19.992	99.977	20.015	3.872	0.558
1029.500	587.613	79.982	19.993	99.977	20.016	3.836	0.517
1030.000	587.798	79.982	19.992	99.973	20.013	4.015	0.469
1030.500	588.100	79.985	19.993	99.968	20.017	3.742	0.465
1031.000	588.387	79.983	19.992	99.965	20.015	3.850	0.538
1031.500	588.614	79.981	19.992	99.967	20.012	4.088	0.552
1032.000	588.862	79.982	19.992	99.971	20.017	3.721	0.495
1032.500	589.126	79.983	19.992	99.976	20.014	3.970	0.493
1033.001	589.411	79.983	19.993	99.979	20.017	3.738	0.530
1033.501	589.671	79.984	19.993	99.979	20.014	3.944	0.547
1034.000	589.921	79.982	19.992	99.976	20.014	3.942	0.527
1034.500	590.148	79.982	19.993	99.974	20.015	3.874	0.494
1035.000	590.417	79.983	19.993	99.970	20.013	4.041	0.487
1035.500	590.692	79.981	19.993	99.966	20.014	3.954	0.520
1036.000	590.953	79.984	19.993	99.965	20.021	3.456	0.540
1036.500	591.178	79.980	19.993	99.964	20.013	4.060	0.511
1037.000	591.441	79.980	19.993	99.962	20.016	3.815	0.487
1037.500	591.671	79.980	19.992	99.961	20.017	3.697	0.491
1038.000	591.948	79.982	19.993	99.962	20.009	4.370	0.500
1038.500	592.164	79.982	19.992	99.964	20.014	3.956	0.500
1039.000	592.407	79.981	19.992	99.969	20.013	4.062	0.476
1039.500	592.686	79.982	19.993	99.971	20.012	4.114	0.490
1040.000	592.948	79.981	19.993	99.971	20.015	3.880	0.532
1040.500	593.207	79.980	19.993	99.972	20.014	3.956	0.531
1041.001	593.464	79.981	19.993	99.970	20.016	3.835	0.519
1041.501	593.692	79.981	19.992	99.967	20.017	3.748	0.501
1042.001	593.969	79.980	19.992	99.967	20.015	3.875	0.495
1042.500	594.241	79.980	19.993	99.967	20.014	3.959	0.527
1043.000	594.465	79.980	19.993	99.967	20.014	3.945	0.523
1043.500	594.747	79.980	19.993	99.971	20.020	3.483	0.501
1044.000	594.981	79.980	19.993	99.971	20.017	3.771	0.511
1044.500	595.242	79.982	19.993	99.969	20.014	3.930	0.506
1045.001	595.503	79.981	19.994	99.970	20.017	3.738	0.509
1045.501	595.745	79.981	19.993	99.967	20.016	3.793	0.512
1046.000	596.008	79.981	19.993	99.963	20.016	3.827	0.504
1046.500	596.268	79.981	19.994	99.961	20.014	3.940	0.514
1047.000	596.553	79.980	19.993	99.962	20.012	4.099	0.534
1047.500	596.760	79.980	19.994	99.965	20.013	4.016	0.519
1048.000	597.029	79.980	19.994	99.967	20.016	3.802	0.484
1048.500	597.261	79.981	19.994	99.967	20.012	4.099	0.488
1049.000	597.517	79.981	19.994	99.959	20.012	4.132	0.495
1049.501	597.783	79.980	19.993	99.929	20.015	3.860	0.505
1050.001	598.012	79.982	19.994	99.911	20.014	3.923	0.508
1050.500	598.268	79.981	19.994	99.904	20.013	4.046	0.490
1051.000	598.524	79.980	19.994	99.904	20.017	3.730	0.499
1051.500	598.805	79.980	19.993	99.920	20.016	3.808	0.525
1052.000	598.989	79.980	19.995	99.963	20.018	3.691	0.501
1052.500	599.276	79.981	19.994	100.022	20.016	3.828	0.468
1053.000	599.535	79.981	19.994	100.044	20.014	3.928	0.508
1053.500	599.814	79.981	19.994	100.051	20.019	3.551	0.542
1054.000	600.001	79.982	19.994	100.048	20.019	3.607	0.502
1054.501	600.266	79.981	19.993	100.035	20.018	3.646	0.459
1055.001	600.575	79.981	19.994	99.992	20.017	3.724	0.513
1055.501	600.819	79.980	19.994	99.976	20.017	3.721	0.563
1056.000	601.055	79.982	19.994	99.968	20.020	3.479	0.517
1056.500	601.308	79.981	19.995	99.967	20.015	3.922	0.485
1057.000	601.596	79.981	19.994	99.972	20.017	3.720	0.515
1057.500	601.864	79.981	19.993	99.978	20.021	3.456	0.548
1058.000	602.111	79.980	19.994	99.985	20.016	3.844	0.535
1058.501	602.338	79.981	19.994	99.988	20.016	3.836	0.494
1059.001	602.624	79.982	19.994	99.988	20.016	3.815	0.494
1059.500	602.873	79.980	19.994	99.982	20.017	3.723	0.524
1060.000	603.076	79.981	19.994	99.978	20.016	3.793	0.493
1060.500	603.327	79.979	19.993	99.973	20.015	3.876	0.453
1061.000	603.587	79.981	19.994	99.973	20.015	3.848	0.483
1061.500	603.841	79.980	19.993	99.975	20.013	3.999	0.513
1062.000	604.086	79.981	19.993	99.981	20.019	3.591	0.506
1062.500	604.367	79.981	19.993	99.986	20.018	3.622	0.512
1063.000	604.577	79.980	19.993	99.989	20.020	3.543	0.508
1063.500	604.853	79.981	19.994	99.994	20.018	3.624	0.488
1064.000	605.086	79.980	19.994	99.994	20.020	3.526	0.497
1064.501	605.296	79.980	19.994	99.986	20.014	3.936	0.476
1065.001	605.594	79.980	19.993	99.980	20.018	3.632	0.476
1065.500	605.858	79.980	19.994	99.978	20.017	3.740	0.535
1066.001	606.090	79.981	19.994	99.975	20.013	4.071	0.529
1066.501	606.319	79.979	19.994	99.974	20.014	3.973	0.479
1067.000	606.577	79.980	19.994	99.975	20.015	3.848	0.474
1067.500	606.852	79.980	19.993	99.977	20.020	3.507	0.510
1068.000	607.118	79.980	19.994	99.980	20.016	3.827	0.537
1068.500	607.350	79.981	19.994	99.977	20.016	3.844	0.519
1069.000	607.615	79.981	19.994	99.976	20.013	4.005	0.497
1069.500	607.817	79.979	19.994	99.977	20.016	3.787	0.482
1070.000	608.163	79.980	19.994	99.975	20.014	3.940	0.508
1070.500	608.360	79.980	19.993	99.969	20.016	3.846	0.546
1071.000	608.621	79.978	19.993	99.970	20.016	3.785	0.500
1071.500	608.852	79.980	19.994	99.971	20.016	3.805	0.474
1072.000	609.136	79.979	19.994	99.973	20.018	3.656	0.503
1072.501	609.372	79.980	19.994	99.977	20.019	3.593	0.518
1073.001	609.605	79.979	19.994	99.983	20.014	3.950	0.495
1073.500	609.883	79.980	19.993	99.988	20.020	3.481	0.490
1074.000	610.123	79.980	19.993	99.993	20.019	3.552	0.514
1074.500	610.385	79.980	19.994	99.996	20.016	3.813	0.510
1075.000	610.605	79.980	19.994	99.996	20.018	3.623	0.492
1075.500	610.862	79.979	19.995	99.993	20.019	3.619	0.480
1076.001	611.140	79.981	19.995	99.990	20.015	3.856	0.505
1076.501	611.380	79.981	19.993	99.988	20.020	3.493	0.526
1077.000	611.635	79.980	19.994	99.983	20.016	3.787	0.507
1077.500	611.907	79.981	19.995	99.980	20.018	3.628	0.512
1078.000	612.169	79.981	19.994	99.978	20.019	3.548	0.530
1078.500	612.412	79.980	19.994	99.974	20.019	3.556	0.519
1079.000	612.679	79.979	19.994	99.969	20.019	3.560	0.507
1079.500	612.899	79.981	19.994	99.972	20.017	3.725	0.498
1080.000	613.126	79.981	19.993	99.978	20.021	3.448	0.467
1080.500	613.403	79.980	19.994	99.983	20.017	3.699	0.476
1081.000	613.672	79.981	19.993	99.985	20.017	3.700	0.525
1081.500	613.913	79.982	19.994	99.984	20.018	3.675	0.528
1082.000	614.173	79.982	19.994	99.979	20.013	4.023	0.506
1082.500	614.446	79.980	19.994	99.973	20.017	3.738	0.517
1083.001	614.692	79.981	19.994	99.969	20.015	3.910	0.526
1083.501	614.910	79.982	19.995	99.967	20.018	3.674	0.491
1084.000	615.189	79.982	19.994	99.967	20.014	3.957	0.480
1084.500	615.426	79.980	19.994	99.968	20.016	3.814	0.507
1085.000	615.710	79.979	19.993	99.967	20.018	3.632	0.519
1085.500	615.940	79.982	19.994	99.965	20.018	3.671	0.517
1086.000	616.205	79.983	19.993	99.965	20.015	3.849	0.504
1086.501	616.442	79.981	19.993	99.969	20.018	3.644	0.499
1087.001	616.712	79.981	19.994	99.969	20.018	3.656	0.505
1087.500	616.922	79.981	19.993	99.971	20.015	3.860	0.494
1088.000	617.214	79.980	19.993	99.974	20.018	3.666	0.491
1088.501	617.472	79.980	19.993	99.977	20.017	3.764	0.526
1089.001	617.684	79.980	19.994	99.974	20.016	3.846	0.510
1089.500	617.957	79.981	19.993	99.973	20.023	3.254	0.477
1090.000	618.188	79.981	19.994	99.970	20.018	3.652	0.494
1090.500	618.445	79.982	19.994	99.971	20.018	3.632	0.496
1091.000	618.725	79.980	19.993	99.972	20.022	3.393	0.513
1091.500	618.960	79.981	19.993	99.960	20.022	3.352	0.526
1092.000	619.226	79.981	19.993	99.935	20.020	3.493	0.508
1092.500	619.443	79.981	19.993	99.925	20.023	3.250	0.492
1093.000	619.740	79.980	19.993	99.922	20.020	3.505	0.498
1093.500	619.957	79.980	19.993	99.919	20.021	3.423	0.514
1094.000	620.219	79.981	19.994	99.941	20.020	3.532	0.497
1094.501	620.481	79.980	19.993	100.010	20.021	3.448	0.502
1095.001	620.717	79.981	19.993	100.036	20.019	3.620	0.511
1095.500	620.978	79.981	19.992	100.046	20.020	3.501	0.497
1096.000	621.210	79.979	19.993	100.046	20.017	3.746	0.495
1096.500	621.481	79.979	19.993	100.037	20.024	3.228	0.498
1097.001	621.716	79.981	19.993	99.993	20.017	3.715	0.504
1097.501	621.954	79.980	19.993	99.977	20.021	3.397	0.489
1098.000	622.223	79.981	19.993	99.968	20.017	3.752	0.490
1098.500	622.485	79.982	19.994	99.965	20.020	3.495	0.520
1099.000	622.754	79.981	19.992	99.968	20.019	3.559	0.531
1099.500	623.019	79.981	19.993	99.971	20.018	3.655	0.532
1100.000	623.247	79.982	19.993	99.972	20.018	3.630	0.513
1100.500	623.507	79.981	19.992	99.974	20.020	3.481	0.491
1101.000	623.728	79.982	19.993	99.975	20.023	3.317	0.485
1101.500	623.995	79.982	19.993	99.970	20.016	3.830	0.485
1102.000	624.243	79.981	19.992	99.970	20.020	3.544	0.502
1102.500	624.504	79.982	19.992	99.969	20.019	3.568	0.512
1103.000	624.758	79.982	19.993	99.966	20.020	3.485	0.512
1103.500	625.031	79.981	19.993	99.965	20.019	3.585	0.521
1104.000	625.272	79.982	19.993	99.966	20.016	3.803	0.520
1104.500	625.513	79.983	19.993	99.968	20.018	3.654	0.498
1105.000	625.766	79.984	19.993	99.972	20.021	3.416	0.488
1105.500	626.035	79.983	19.992	99.978	20.020	3.507	0.508
1106.000	626.290	79.984	19.994	99.980	20.016	3.789	0.523
1106.500	626.573	79.984	19.993	99.982	20.020	3.473	0.531
1107.000	626.808	79.983	19.992	99.978	20.015	3.919	0.528
1107.500	627.024	79.983	19.993	99.974	20.023	3.281	0.484
1108.000	627.354	79.984	19.993	99.971	20.019	3.577	0.498
1108.501	627.580	79.982	19.992	99.976	20.016	3.815	0.551
1109.001	627.814	79.982	19.993	99.979	20.018	3.642	0.508
1109.500	628.039	79.983	19.993	99.982	20.021	3.397	0.460
1110.000	628.333	79.982	19.993	99.987	20.016	3.805	0.490
1110.500	628.586	79.983	19.993	99.987	20.023	3.263	0.533
1111.000	628.825	79.982	19.992	99.982	20.021	3.452	0.519
1111.500	629.077	79.982	19.993	99.978	20.018	3.650	0.491
1112.001	629.328	79.983	19.993	99.973	20.024	3.201	0.497
1112.501	629.599	79.981	19.993	99.972	20.017	3.768	0.512
1113.000	629.859	79.983	19.994	99.970	20.020	3.509	0.527
1113.500	630.053	79.983	19.993	99.969	20.022	3.395	0.493
1114.000	630.352	79.981	19.994	99.969	20.019	3.591	0.473
1114.500	630.610	79.982	19.993	99.973	20.021	3.436	0.525
1115.000	630.849	79.983	19.993	99.973	20.021	3.413	0.527
1115.500	631.105	79.981	19.993	99.974	20.018	3.665	0.496
1116.000	631.398	79.982	19.993	99.979	20.017	3.732	0.522
1116.500	631.657	79.980	19.993	99.980	20.023	3.312	0.550
1117.000	631.927	79.980	19.992	99.980	20.019	3.575	0.541
1117.500	632.163	79.981	19.993	99.976	20.022	3.387	0.518
1118.000	632.382	79.980	19.993	99.974	20.020	3.507	0.480
1118.500	632.691	79.981	19.993	99.968	20.026	3.087	0.491
1119.000	632.924	79.983	19.994	99.971	20.018	3.662	0.535
1119.500	633.173	79.982	19.994	99.971	20.022	3.395	0.512
1120.001	633.463	79.981	19.992	99.976	20.020	3.527	0.510
1120.501	633.681	79.982	19.993	99.980	20.020	3.505	0.523
1121.000	633.956	79.980	19.993	99.984	20.018	3.627	0.501
1121.500	634.221	79.982	19.992	99.981	20.026	3.036	0.517
1122.000	634.478	79.981	19.992	99.978	20.016	3.791	0.531
1122.500	634.753	79.980	19.992	99.973	20.018	3.650	0.527
1123.000	635.027	79.979	19.992	99.965	20.020	3.532	0.541
1123.500	635.286	79.980	19.993	99.962	20.021	3.471	0.541
1124.000	635.565	79.980	19.992	99.961	20.019	3.585	0.535
1124.500	635.781	79.981	19.992	99.964	20.018	3.640	0.517
1125.000	636.068	79.982	19.992	99.965	20.021	3.399	0.499
1125.500	636.301	79.980	19.993	99.968	20.020	3.524	0.511
1126.000	636.610	79.980	19.993	99.975	20.020	3.538	0.531
1126.500	636.840	79.980	19.992	99.979	20.025	3.122	0.541
1127.000	637.120	79.980	19.992	99.979	20.025	3.156	0.524
1127.500	637.339	79.981	19.993	99.980	20.018	3.632	0.504
1128.000	637.602	79.981	19.994	99.978	20.021	3.456	0.491
1128.500	637.867	79.981	19.993	99.975	20.020	3.517	0.505
1129.000	638.113	79.982	19.993	99.973	20.021	3.462	0.519
1129.500	638.385	79.980	19.993	99.971	20.021	3.440	0.514
1130.000	638.635	79.980	19.993	99.969	20.014	3.982	0.520
1130.500	638.939	79.981	19.992	99.969	20.025	3.138	0.538
1131.000	639.178	79.980	19.992	99.965	20.022	3.362	0.549
1131.500	639.450	79.981	19.993	99.964	20.023	3.274	0.527
1132.000	639.736	79.982	19.995	99.964	20.015	3.884	0.534
1132.500	639.947	79.980	19.993	99.969	20.022	3.352	0.527
1133.000	640.219	79.981	19.994	99.971	20.021	3.434	0.491
1133.500	640.464	79.981	19.992	99.976	20.023	3.315	0.500
1134.001	640.713	79.981	19.992	99.976	20.017	3.742	0.505
1134.501	641.006	79.980	19.993	99.978	20.020	3.507	0.518
1135.000	641.218	79.980	19.994	99.972	20.019	3.562	0.524
1135.500	641.529	79.981	19.993	99.973	20.019	3.556	0.514
1136.001	641.775	79.979	19.993	99.972	20.022	3.325	0.540
1136.501	642.042	79.979	19.994	99.972	20.017	3.701	0.535
1137.000	642.290	79.981	19.993	99.971	20.024	3.234	0.514
1137.500	642.562	79.979	19.993	99.978	20.025	3.125	0.517
1138.000	642.762	79.981	19.993	99.975	20.023	3.285	0.496
1138.500	643.046	79.981	19.995	99.971	20.021	3.411	0.478
1139.000	643.270	79.981	19.994	99.969	20.029	2.813	0.496
1139.500	643.530	79.980	19.993	99.970	20.019	3.607	0.496
1140.000	643.805	79.980	19.994	99.969	20.021	3.450	0.510
1140.501	644.033	79.981	19.994	99.970	20.018	3.662	0.520
1141.001	644.275	79.979	19.993	99.970	20.022	3.368	0.486
1141.500	644.558	79.980	19.994	99.971	20.024	3.221	0.497
1142.000	644.744	79.980	19.994	99.971	20.024	3.217	0.497
1142.500	645.033	79.981	19.994	99.968	20.018	3.625	0.472
1143.000	645.333	79.981	19.994	99.968	20.015	3.921	0.532
1143.500	645.565	79.980	19.993	99.969	20.025	3.128	0.560
1144.001	645.784	79.978	19.995	99.969	20.019	3.583	0.492
1144.501	646.072	79.979	19.994	99.967	20.022	3.330	0.479
1145.000	646.327	79.978	19.993	99.965	20.020	3.498	0.525
1145.500	646.578	79.978	19.994	99.963	20.020	3.512	0.525
1146.000	646.852	79.978	19.994	99.963	20.018	3.661	0.515
1146.500	647.106	79.979	19.994	99.963	20.024	3.224	0.526
1147.000	647.326	79.979	19.994	99.964	20.026	3.092	0.501
1147.500	647.593	79.979	19.994	99.964	20.019	3.557	0.481
1148.000	647.843	79.978	19.994	99.964	20.021	3.398	0.502
1148.500	648.059	79.980	19.994	99.965	20.018	3.675	0.491
1149.000	648.336	79.978	19.993	99.965	20.023	3.300	0.479
1149.500	648.618	79.979	19.994	99.964	20.020	3.522	0.526
1150.000	648.877	79.978	19.993	99.964	20.020	3.485	0.550
1150.500	649.119	79.979	19.994	99.966	20.024	3.220	0.521
1151.001	649.372	79.979	19.993	99.965	20.021	3.442	0.498
1151.501	649.623	79.980	19.994	99.965	20.029	2.865	0.500
1152.000	649.899	79.979	19.992	99.967	20.027	3.020	0.516
1152.500	650.122	79.979	19.992	99.967	20.020	3.521	0.513
1153.000	650.375	79.980	19.993	99.967	20.026	3.023	0.487
1153.500	650.611	79.980	19.993	99.970	20.021	3.456	0.482
1154.000	650.863	79.981	19.993	99.976	20.022	3.321	0.488
1154.500	651.154	79.980	19.993	99.981	20.023	3.252	0.516
1155.000	651.392	79.981	19.994	99.987	20.023	3.311	0.537
1155.500	651.653	79.980	19.993	99.991	20.021	3.429	0.514
1156.000	651.903	79.981	19.994	99.994	20.024	3.231	0.505
1156.500	652.171	79.980	19.993	99.995	20.024	3.189	0.514
1157.000	652.428	79.980	19.993	99.993	20.023	3.303	0.521
1157.500	652.695	79.983	19.994	99.993	20.019	3.576	0.524
1158.000	652.917	79.980	19.993	99.996	20.023	3.270	0.506
1158.500	653.184	79.982	19.994	99.995	20.031	2.654	0.489
1159.000	653.464	79.982	19.994	99.992	20.020	3.478	0.518
1159.500	653.697	79.980	19.991	99.993	20.026	3.048	0.530
1160.000	653.952	79.981	19.994	99.991	20.020	3.483	0.501
1160.500	654.208	79.981	19.994	99.987	20.013	4.025	0.499
1161.001	654.477	79.982	19.993	99.988	20.022	3.356	0.518
1161.501	654.714	79.981	19.992	99.987	20.018	3.687	0.515
1162.000	655.003	79.981	19.993	99.982	20.015	3.858	0.516
1162.500	655.242	79.981	19.993	99.978	20.016	3.829	0.527
1163.000	655.497	79.982	19.994	99.974	20.012	4.113	0.511
1163.500	655.752	79.982	19.995	99.967	20.019	3.578	0.502
1164.001	656.006	79.981	19.993	99.965	20.014	3.957	0.510
1164.501	656.267	79.981	19.995	99.961	20.012	4.074	0.512
1165.000	656.524	79.981	19.995	99.960	20.016	3.788	0.516
1165.500	656.803	79.982	19.993	99.959	20.014	3.968	0.527
1166.001	657.031	79.983	19.995	99.960	20.018	3.680	0.522
1166.501	657.305	79.981	19.995	99.960	20.011	4.172	0.504
1167.001	657.559	79.982	19.994	99.960	20.016	3.805	0.515
1167.501	657.785	79.980	19.995	99.960	20.015	3.878	0.504
1168.000	658.003	79.983	19.995	99.960	20.016	3.780	0.462
1168.500	658.274	79.982	19.994	99.963	20.015	3.848	0.466
1169.000	658.581	79.981	19.994	99.966	20.019	3.581	0.533
1169.500	658.817	79.981	19.995	99.967	20.018	3.687	0.561
1170.000	659.050	79.981	19.994	99.966	20.016	3.807	0.506
1170.500	659.322	79.981	19.994	99.967	20.018	3.638	0.487
1171.000	659.658	79.981	19.993	99.968	20.017	3.770	0.557
1171.500	659.818	79.981	19.994	99.968	20.014	3.964	0.552
1172.000	660.124	79.981	19.995	99.967	20.018	3.676	0.481
1172.500	660.353	79.982	19.993	99.967	20.018	3.644	0.501
1173.000	660.591	79.981	19.995	99.966	20.014	3.991	0.501
1173.500	660.838	79.981	19.992	99.962	20.015	3.862	0.476
1174.000	661.085	79.981	19.993	99.958	20.016	3.811	0.489
1174.500	661.364	79.979	19.993	99.958	20.017	3.725	0.510
1175.001	661.569	79.983	19.993	99.957	20.014	3.946	0.505
1175.501	661.850	79.982	19.994	99.957	20.013	4.068	0.485
1176.000	662.058	79.981	19.994	99.957	20.011	4.174	0.488
1176.500	662.300	79.981	19.994	99.957	20.013	4.053	0.470
1177.000	662.604	79.981	19.992	99.957	20.017	3.764	0.498
1177.500	662.839	79.981	19.993	99.958	20.017	3.709	0.542
1178.000	663.113	79.980	19.993	99.965	20.014	3.950	0.524
1178.500	663.326	79.983	19.994	99.965	20.016	3.838	0.498
1179.000	663.586	79.981	19.993	99.969	20.014	3.928	0.480
1179.500	663.848	79.982	19.993	99.974	20.019	3.579	0.497
1180.000	664.094	79.981	19.992	99.974	20.020	3.511	0.514
1180.500	664.353	79.982	19.992	99.971	20.018	3.623	0.507
1181.000	664.604	79.981	19.994	99.970	20.023	3.289	0.508
1181.500	664.836	79.982	19.994	99.970	20.016	3.843	0.496
1182.000	665.101	79.981	19.993	99.968	20.019	3.556	0.490
1182.500	665.354	79.984	19.994	99.969	20.023	3.289	0.507
1183.001	665.602	79.984	19.992	99.968	20.017	3.718	0.510
1183.501	665.827	79.984	19.993	99.969	20.023	3.267	0.487
1184.001	666.140	79.983	19.993	99.971	20.015	3.869	0.506
1184.500	666.375	79.983	19.993	99.974	20.020	3.532	0.543
1185.000	666.606	79.983	19.993	99.974	20.018	3.679	0.507
1185.500	666.863	79.983	19.993	99.972	20.018	3.660	0.477
1186.000	667.111	79.984	19.992	99.970	20.020	3.495	0.496
1186.500	667.371	79.984	19.993	99.965	20.016	3.837	0.506
1187.000	667.627	79.985	19.993	99.959	20.021	3.442	0.512
1187.500	667.864	79.983	19.993	99.958	20.017	3.752	0.504
1188.000	668.110	79.982	19.992	99.958	20.021	3.460	0.488
1188.500	668.348	79.982	19.991	99.959	20.019	3.611	0.484
1189.000	668.608	79.982	19.992	99.963	20.015	3.850	0.491
1189.500	668.863	79.981	19.992	99.968	20.017	3.721	0.506
1190.000	669.124	79.983	19.993	99.973	20.014	3.940	0.516
1190.500	669.380	79.984	19.994	99.976	20.022	3.321	0.516
1191.000	669.617	79.984	19.994	99.975	20.018	3.683	0.505
1191.500	669.916	79.983	19.992	99.971	20.021	3.415	0.515
1192.000	670.077	79.983	19.993	99.967	20.018	3.660	0.498
1192.500	670.347	79.985	19.994	99.963	20.026	3.075	0.446
1193.001	670.631	79.981	19.994	99.965	20.017	3.770	0.492
1193.501	670.883	79.982	19.993	99.972	20.017	3.744	0.545
1194.001	671.114	79.980	19.993	99.978	20.017	3.703	0.509
1194.501	671.393	79.980	19.994	99.982	20.019	3.591	0.496
1195.001	671.615	79.981	19.993	99.982	20.019	3.599	0.506
1195.500	671.908	79.981	19.994	99.978	20.019	3.597	0.508
1196.000	672.137	79.981	19.994	99.972	20.023	3.277	0.519
1196.500	672.387	79.981	19.994	99.966	20.020	3.522	0.501
1197.000	672.631	79.981	19.994	99.964	20.022	3.322	0.486
1197.500	672.904	79.982	19.994	99.963	20.018	3.689	0.506
1198.000	673.174	79.980	19.993	99.964	20.018	3.693	0.530
1198.500	673.377	79.981	19.995	99.965	20.013	4.052	0.508
1199.000	673.663	79.981	19.994	99.965	20.019	3.569	0.481
1199.501	673.939	79.981	19.992	99.966	20.018	3.671	0.525
1200.001	674.179	79.979	19.992	99.968	20.022	3.385	0.539
1200.500	674.411	79.979	19.993	99.970	20.018	3.646	0.495
1201.001	674.678	79.981	19.994	99.969	20.015	3.889	0.486
1201.501	674.962	79.980	19.994	99.970	20.010	4.280	0.525
1202.000	675.166	79.981	19.993	99.971	20.014	3.940	0.519
1202.500	675.444	79.979	19.992	99.972	20.022	3.328	0.485
1203.001	675.679	79.983	19.994	99.972	20.014	3.997	0.497
1203.501	675.945	79.981	19.994	99.971	20.014	3.972	0.507
1204.001	676.159	79.980	19.992	99.972	20.019	3.601	0.490
1204.501	676.422	79.980	19.991	99.971	20.014	3.979	0.478
1205.001	676.685	79.981	19.993	99.968	20.012	4.079	0.502
1205.500	676.908	79.981	19.993	99.969	20.016	3.830	0.506
1206.000	677.157	79.981	19.992	99.972	20.016	3.832	0.479
1206.500	677.453	79.979	19.991	99.971	20.020	3.477	0.509
1207.000	677.671	79.981	19.992	99.975	20.016	3.779	0.530
1207.500	677.934	79.981	19.993	99.976	20.015	3.860	0.498
1208.000	678.197	79.981	19.993	99.973	20.015	3.860	0.503
1208.500	678.449	79.981	19.993	99.972	20.013	4.005	0.520
1209.001	678.675	79.980	19.992	99.978	20.017	3.722	0.497
1209.501	678.896	79.980	19.992	99.978	20.016	3.787	0.463
1210.000	679.146	79.981	19.992	99.977	20.013	4.071	0.458
1210.501	679.408	79.981	19.992	99.978	20.015	3.873	0.491
1211.001	679.616	79.980	19.992	99.978	20.007	4.450	0.492
1211.500	679.875	79.979	19.993	99.973	20.016	3.793	0.469
1212.001	680.139	79.979	19.992	99.970	20.010	4.234	0.494
1212.501	680.358	79.979	19.993	99.971	20.019	3.616	0.503
1213.001	680.606	79.980	19.993	99.969	20.011	4.201	0.476
1213.500	680.899	79.982	19.992	99.971	20.008	4.446	0.504
1214.000	681.113	79.980	19.993	99.972	20.012	4.077	0.524
1214.501	681.348	79.982	19.993	99.975	20.016	3.773	0.478
1215.001	681.597	79.981	19.991	99.978	20.012	4.132	0.466
1215.500	681.839	79.980	19.993	99.983	20.011	4.214	0.488
1216.000	682.066	79.980	19.993	99.986	20.014	3.948	0.480
1216.500	682.337	79.981	19.992	99.983	20.014	3.944	0.483
1217.000	682.576	79.980	19.992	99.983	20.016	3.832	0.505
1217.500	682.849	79.981	19.993	99.982	20.014	3.927	0.511
1218.000	683.050	79.981	19.993	99.980	20.015	3.903	0.493
1218.500	683.300	79.980	19.994	99.975	20.012	4.087	0.462
1219.001	683.561	79.981	19.993	99.975	20.017	3.760	0.481
1219.501	683.805	79.980	19.994	99.975	20.014	3.942	0.508
1220.000	684.032	79.980	19.994	99.975	20.014	3.973	0.488
1220.500	684.291	79.979	19.992	99.976	20.015	3.865	0.479
1221.001	684.545	79.980	19.994	99.979	20.016	3.818	0.500
1221.501	684.797	79.979	19.993	99.984	20.015	3.883	0.509
1222.001	685.072	79.978	19.991	99.986	20.013	4.012	0.516
1222.501	685.287	79.979	19.993	99.986	20.016	3.842	0.508
1223.001	685.574	79.979	19.992	99.984	20.010	4.232	0.496
1223.501	685.761	79.980	19.994	99.981	20.009	4.344	0.488
1224.000	686.072	79.978	19.993	99.977	20.012	4.113	0.486
1224.500	686.265	79.981	19.995	99.974	20.010	4.297	0.501
1225.000	686.508	79.979	19.993	99.976	20.010	4.226	0.470
1225.500	686.816	79.980	19.994	99.978	20.016	3.818	0.493
1226.000	687.007	79.978	19.994	99.984	20.013	4.024	0.525
1226.500	687.257	79.979	19.993	99.982	20.018	3.637	0.470
1227.000	687.534	79.979	19.995	99.981	20.018	3.696	0.484
1227.500	687.788	79.978	19.995	99.975	20.018	3.655	0.529
1228.001	688.017	79.980	19.994	99.972	20.013	4.045	0.507
1228.501	688.274	79.981	19.994	99.968	20.017	3.732	0.485
1229.000	688.485	79.980	19.996	99.974	20.014	3.946	0.477
1229.500	688.766	79.979	19.994	99.976	20.016	3.795	0.480
1230.000	689.037	79.982	19.994	99.980	20.014	3.932	0.522
1230.501	689.227	79.980	19.994	99.986	20.013	4.069	0.507
1231.001	689.528	79.980	19.994	99.990	20.016	3.804	0.476
1231.500	689.756	79.981	19.995	99.991	20.009	4.308	0.510
1232.000	689.999	79.980	19.993	99.995	20.016	3.841	0.500
1232.500	690.278	79.980	19.994	99.992	20.018	3.659	0.497
1233.000	690.510	79.981	19.993	99.986	20.013	4.000	0.516
1233.500	690.736	79.981	19.995	99.982	20.020	3.492	0.484
1234.000	691.014	79.979	19.994	99.979	20.016	3.781	0.481
1234.500	691.291	79.980	19.993	99.975	20.013	4.071	0.530
1235.000	691.535	79.981	19.993	99.978	20.020	3.542	0.538
1235.501	691.764	79.981	19.994	99.984	20.008	4.415	0.497
1236.001	692.031	79.981	19.993	99.988	20.013	4.007	0.485
1236.501	692.242	79.983	19.994	99.990	20.015	3.882	0.487
1237.001	692.499	79.980	19.995	99.994	20.015	3.917	0.473
1237.501	692.777	79.982	19.994	99.997	20.014	3.989	0.501
1238.001	693.052	79.982	19.993	99.995	20.013	4.026	0.544
1238.500	693.268	79.981	19.993	99.995	20.021	3.465	0.522
1239.000	693.517	79.980	19.994	99.995	20.014	3.930	0.478
1239.500	693.823	79.981	19.992	99.993	20.014	3.998	0.510
1240.000	694.074	79.984	19.993	99.987	20.010	4.291	0.556
1240.500	694.361	79.983	19.993	99.987	20.015	3.893	0.547
1241.000	694.568	79.983	19.994	99.987	20.017	3.761	0.516
1241.500	694.861	79.983	19.994	99.988	20.006	4.532	0.497
1242.000	695.116	79.981	19.994	99.991	20.010	4.293	0.524
1242.500	695.407	79.983	19.992	99.997	20.012	4.072	0.547
1243.000	695.614	79.982	19.994	99.999	20.017	3.697	0.522
1243.500	695.863	79.982	19.992	99.998	20.016	3.795	0.477
1244.000	696.094	79.983	19.993	99.997	20.012	4.127	0.468
1244.501	696.358	79.984	19.993	99.994	20.012	4.089	0.487
1245.001	696.633	79.983	19.993	99.990	20.009	4.352	0.517
1245.500	696.907	79.982	19.994	99.984	20.017	3.703	0.544
1246.000	697.147	79.983	19.993	99.977	20.016	3.803	0.532
1246.500	697.422	79.982	19.993	99.971	20.012	4.127	0.515
1247.000	697.634	79.982	19.994	99.967	20.012	4.099	0.501
1247.500	697.889	79.984	19.993	99.966	20.010	4.288	0.477
1248.000	698.160	79.981	19.993	99.966	20.010	4.237	0.496
1248.500	698.421	79.980	19.992	99.969	20.012	4.084	0.529
1249.000	698.685	79.981	19.994	99.975	20.013	4.029	0.528
1249.500	698.918	79.981	19.994	99.983	20.006	4.535	0.511
1250.000	699.176	79.982	19.994	99.987	20.014	3.991	0.494
1250.500	699.424	79.979	19.994	99.989	20.015	3.891	0.499
1251.000	699.659	79.981	19.994	99.989	20.016	3.826	0.495
1251.500	699.973	79.981	19.994	99.987	20.010	4.230	0.516
1252.000	700.227	79.979	19.992	99.984	20.014	3.924	0.558
1252.500	700.464	79.979	19.993	99.979	20.015	3.858	0.530
1253.000	700.695	79.981	19.995	99.977	20.013	4.018	0.480
1253.500	701.009	79.979	19.993	99.975	20.011	4.210	0.506
1254.000	701.220	79.980	19.995	99.973	20.013	4.059	0.534
1254.500	701.503	79.978	19.994	99.973	20.010	4.242	0.510
1255.000	701.740	79.982	19.994	99.974	20.008	4.422	0.507
1255.500	701.983	79.978	19.995	99.974	20.004	4.726	0.500
1256.000	702.202	79.978	19.994	99.972	20.009	4.326	0.471
1256.501	702.476	79.981	19.995	99.970	20.008	4.399	0.478
1257.001	702.760	79.980	19.993	99.969	20.013	4.018	0.526
1257.500	702.977	79.981	19.993	99.969	20.012	4.097	0.530
1258.000	703.192	79.980	19.993	99.968	20.018	3.673	0.467
1258.500	703.498	79.981	19.993	99.969	20.015	3.848	0.477
1259.000	703.757	79.980	19.994	99.969	20.014	3.930	0.543
1259.500	704.016	79.981	19.994	99.965	20.013	4.001	0.541
1260.000	704.227	79.982	19.993	99.962	20.013	4.020	0.494
1260.500	704.499	79.981	19.993	99.965	20.013	4.052	0.477
1261.000	704.761	79.983	19.995	99.970	20.011	4.174	0.508
1261.500	705.060	79.982	19.994	99.974	20.006	4.564	0.547
1262.000	705.242	79.982	19.993	99.977	20.011	4.207	0.521
1262.500	705.576	79.982	19.993	99.981	20.012	4.111	0.498
1263.000	705.808	79.983	19.994	99.982	20.011	4.199	0.541
1263.500	706.058	79.981	19.994	99.981	20.011	4.180	0.524
1264.000	706.281	79.984	19.994	99.982	20.014	3.981	0.478
1264.500	706.568	79.982	19.993	99.984	20.008	4.438	0.492
1265.000	706.844	79.982	19.992	99.984	20.014	3.983	0.536
1265.500	707.068	79.981	19.993	99.986	20.010	4.294	0.531
1266.001	707.347	79.982	19.992	99.987	20.006	4.583	0.501
1266.501	707.590	79.983	19.993	99.988	20.011	4.181	0.513
1267.000	707.857	79.981	19.992	99.989	20.011	4.206	0.516
1267.500	708.094	79.982	19.992	99.987	20.012	4.089	0.507
1268.000	708.349	79.983	19.993	99.985	20.013	4.061	0.498
1268.500	708.602	79.982	19.992	99.984	20.008	4.446	0.500
1269.000	708.836	79.983	19.993	99.979	20.015	3.848	0.497
1269.500	709.113	79.981	19.992	99.979	20.012	4.103	0.499
1270.000	709.372	79.982	19.993	99.981	20.012	4.083	0.524
1270.500	709.612	79.982	19.994	99.983	20.012	4.109	0.517
1271.000	709.839	79.985	19.992	99.983	20.010	4.250	0.483
1271.500	710.095	79.982	19.993	99.981	20.015	3.915	0.475
1272.001	710.341	79.982	19.992	99.976	20.015	3.856	0.492
1272.501	710.664	79.981	19.992	99.973	20.011	4.203	0.535
1273.001	710.870	79.982	19.994	99.969	20.019	3.583	0.549
1273.500	711.156	79.981	19.993	99.966	20.008	4.395	0.510
1274.000	711.395	79.980	19.993	99.967	20.010	4.270	0.508
1274.500	711.658	79.980	19.993	99.970	20.011	4.197	0.513
1275.000	711.917	79.980	19.994	99.976	20.011	4.213	0.512
1275.500	712.184	79.979	19.993	99.981	20.007	4.517	0.524
1276.000	712.424	79.979	19.993	99.988	20.007	4.494	0.516
1276.500	712.665	79.980	19.994	99.994	20.009	4.329	0.494
1277.000	712.953	79.980	19.993	99.996	20.012	4.132	0.505
1277.500	713.196	79.980	19.994	99.993	20.014	3.936	0.530
1278.000	713.467	79.980	19.993	99.993	20.012	4.095	0.523
1278.500	713.760	79.979	19.992	99.990	20.011	4.173	0.539
1279.000	713.997	79.980	19.994	99.986	20.004	4.687	0.547
1279.500	714.259	79.978	19.991	99.982	20.011	4.217	0.515
1280.000	714.526	79.978	19.992	99.980	20.013	4.029	0.514
1280.501	714.772	79.980	19.993	99.979	20.013	4.015	0.521
1281.001	715.046	79.980	19.992	99.979	20.009	4.300	0.517
1281.500	715.324	79.978	19.993	99.979	20.009	4.323	0.536
1282.000	715.548	79.979	19.994	99.978	20.008	4.423	0.527
1282.500	715.841	79.978	19.993	99.975	20.017	3.748	0.510
1283.000	716.083	79.980	19.992	99.975	20.011	4.209	0.526
1283.500	716.338	79.980	19.993	99.974	20.014	3.944	0.516
1284.000	716.595	79.979	19.993	99.974	20.013	4.021	0.504
1284.500	716.844	79.979	19.994	99.976	20.010	4.266	0.509
1285.000	717.120	79.980	19.992	99.976	20.015	3.909	0.515
1285.500	717.361	79.980	19.993	99.972	20.008	4.437	0.521
1286.000	717.620	79.979	19.992	99.969	20.012	4.133	0.509
1286.500	717.854	79.979	19.992	99.966	20.010	4.284	0.497
1287.000	718.138	79.981	19.993	99.966	20.015	3.895	0.505
1287.500	718.318	79.982	19.994	99.970	20.014	3.966	0.490
1288.000	718.593	79.981	19.994	99.973	20.017	3.768	0.459
1288.501	718.889	79.981	19.993	99.975	20.010	4.291	0.513
1289.001	719.110	79.981	19.994	99.981	20.016	3.834	0.544
1289.500	719.374	79.980	19.993	99.979	20.014	3.962	0.501
1290.001	719.628	79.980	19.993	99.974	20.014	3.954	0.501
1290.501	719.891	79.980	19.992	99.973	20.011	4.219	0.517
1291.001	720.144	79.981	19.993	99.969	20.005	4.641	0.516
1291.501	720.384	79.981	19.993	99.963	20.014	3.950	0.505
1292.000	720.687	79.981	19.992	99.963	20.016	3.846	0.519
1292.500	720.894	79.980	19.993	99.964	20.009	4.358	0.527
1293.000	721.180	79.980	19.993	99.967	20.017	3.766	0.501
1293.500	721.444	79.980	19.992	99.969	20.010	4.225	0.521
1294.000	721.645	79.982	19.993	99.969	20.009	4.359	0.507
1294.500	721.893	79.981	19.993	99.970	20.005	4.643	0.457
1295.000	722.152	79.983	19.994	99.971	20.015	3.854	0.479
1295.500	722.431	79.982	19.994	99.966	20.012	4.113	0.523
1296.000	722.707	79.981	19.993	99.965	20.009	4.299	0.546
1296.500	722.949	79.982	19.993	99.969	20.010	4.268	0.536
1297.000	723.217	79.980	19.993	99.968	20.007	4.499	0.514
1297.500	723.488	79.980	19.992	99.968	20.013	4.027	0.524
1298.000	723.747	79.978	19.992	99.972	20.019	3.607	0.535
1298.500	724.013	79.979	19.992	99.975	20.015	3.882	0.527
1299.000	724.220	79.981	19.993	99.972	20.014	3.980	0.499
1299.500	724.482	79.981	19.994	99.972	20.017	3.723	0.471
1300.000	724.723	79.980	19.994	99.972	20.009	4.319	0.486
1300.500	725.042	79.980	19.993	99.966	20.014	3.929	0.532
1301.000	725.233	79.981	19.993	99.962	20.010	4.239	0.535
1301.500	725.529	79.980	19.994	99.963	20.015	3.885	0.498
1302.000	725.799	79.981	19.993	99.964	20.018	3.631	0.526
1302.500	726.036	79.980	19.993	99.966	20.013	4.060	0.536
1303.000	726.312	79.980	19.992	99.966	20.016	3.811	0.510
1303.500	726.579	79.979	19.993	99.966	20.016	3.837	0.528
1304.000	726.753	79.980	19.992	99.964	20.017	3.768	0.492
1304.500	726.992	79.980	19.993	99.963	20.012	4.133	0.428
1305.000	727.347	79.982	19.993	99.960	20.015	3.854	0.504
1305.500	727.537	79.980	19.993	99.961	20.009	4.345	0.569
1306.000	727.778	79.980	19.994	99.966	20.018	3.658	0.488
1306.500	728.051	79.981	19.993	99.969	20.016	3.805	0.473
1307.000	728.315	79.979	19.993	99.971	20.013	4.015	0.526
1307.500	728.601	79.979	19.993	99.973	20.014	3.997	0.544
1308.000	728.830	79.979	19.993	99.974	20.013	4.040	0.533
1308.500	729.054	79.980	19.994	99.968	20.014	3.966	0.484
1309.000	729.329	79.980	19.994	99.965	20.018	3.660	0.476
1309.500	729.613	79.979	19.993	99.964	20.013	4.025	0.529
1310.001	729.876	79.979	19.994	99.963	20.011	4.201	0.553
1310.501	730.107	79.979	19.995	99.964	20.015	3.870	0.520
1311.000	730.403	79.979	19.993	99.964	20.011	4.195	0.510
1311.500	730.670	79.980	19.993	99.967	20.017	3.764	0.545
1312.000	730.889	79.981	19.993	99.969	20.013	3.999	0.525
1312.500	731.165	79.980	19.993	99.970	20.017	3.754	0.491
1313.000	731.411	79.979	19.993	99.969	20.010	4.244	0.508
1313.500	731.674	79.980	19.994	99.968	20.016	3.842	0.515
1314.000	731.913	79.979	19.995	99.965	20.012	4.079	0.506
1314.500	732.203	79.981	19.994	99.962	20.016	3.830	0.516
1315.000	732.419	79.980	19.993	99.960	20.011	4.197	0.517
1315.500	732.693	79.980	19.995	99.961	20.009	4.317	0.498
1316.000	732.945	79.982	19.994	99.965	20.014	3.985	0.508
1316.500	733.229	79.981	19.993	99.966	20.013	4.001	0.531
1317.000	733.467	79.980	19.994	99.967	20.015	3.911	0.529
1317.500	733.739	79.980	19.993	99.969	20.009	4.299	0.516
1318.000	734.020	79.981	19.993	99.969	20.008	4.413	0.531
1318.500	734.238	79.981	19.994	99.966	20.010	4.227	0.526
1319.000	734.505	79.980	19.992	99.969	20.014	3.925	0.492
1319.500	734.720	79.980	19.995	99.969	20.012	4.109	0.484
1320.000	734.995	79.981	19.993	99.968	20.012	4.113	0.486
1320.500	735.237	79.980	19.994	99.971	20.009	4.356	0.503
1321.001	735.485	79.982	19.995	99.970	20.014	3.952	0.503
1321.501	735.768	79.980	19.992	99.968	20.015	3.891	0.511
1322.001	735.990	79.982	19.995	99.967	20.011	4.213	0.518
1322.500	736.300	79.981	19.994	99.967	20.009	4.325	0.519
1323.001	736.513	79.983	19.994	99.965	20.007	4.468	0.528
1323.501	736.751	79.981	19.993	99.969	20.008	4.433	0.487
1324.000	737.055	79.982	19.994	99.971	20.007	4.521	0.496
1324.500	737.275	79.982	19.992	99.973	20.007	4.517	0.533
1325.001	737.539	79.983	19.994	99.974	20.012	4.125	0.504
1325.501	737.762	79.981	19.994	99.973	20.013	4.064	0.485
1326.000	738.027	79.981	19.994	99.969	20.011	4.219	0.488
1326.500	738.267	79.983	19.993	99.968	20.010	4.274	0.497
1327.000	738.532	79.980	19.994	99.972	20.010	4.262	0.505
1327.500	738.815	79.980	19.992	99.973	20.016	3.817	0.526
1328.000	739.032	79.981	19.993	99.976	20.010	4.227	0.524
1328.500	739.277	79.981	19.993	99.979	20.013	4.041	0.481
1329.000	739.538	79.980	19.993	99.979	20.009	4.339	0.484
1329.500	739.815	79.981	19.993	99.973	20.005	4.602	0.522
1330.000	740.031	79.980	19.993	99.972	20.013	4.019	0.516
1330.500	740.276	79.980	19.993	99.970	20.011	4.158	0.477
1331.000	740.538	79.982	19.994	99.968	20.008	4.421	0.484
1331.500	740.806	79.980	19.993	99.967	20.010	4.260	0.519
1332.000	741.043	79.979	19.993	99.967	20.010	4.227	0.518
1332.500	741.325	79.981	19.993	99.969	20.008	4.402	0.512
1333.001	741.539	79.980	19.993	99.967	20.012	4.072	0.508
1333.501	741.791	79.980	19.993	99.967	20.015	3.921	0.481
1334.001	742.082	79.979	19.992	99.967	20.015	3.888	0.505
1334.501	742.342	79.981	19.994	99.967	20.010	4.292	0.547
1335.000	742.535	79.980	19.993	99.965	20.008	4.376	0.502
1335.500	742.816	79.982	19.994	99.964	20.011	4.192	0.463
1336.000	743.064	79.981	19.994	99.965	20.013	4.035	0.501
1336.500	743.351	79.980	19.993	99.965	20.012	4.107	0.532
1337.000	743.599	79.981	19.994	99.965	20.012	4.121	0.535
1337.500	743.851	79.980	19.992	99.964	20.016	3.831	0.517
1338.000	744.108	79.981	19.994	99.963	20.011	4.180	0.505
1338.500	744.303	79.979	19.994	99.961	20.009	4.339	0.480
1339.000	744.594	79.981	19.993	99.961	20.011	4.188	0.469
1339.500	744.831	79.981	19.994	99.963	20.013	4.033	0.507
1340.000	745.129	79.981	19.995	99.964	20.013	4.054	0.532
1340.500	745.378	79.980	19.995	99.965	20.012	4.115	0.541
