Sample ID:	C:\MCC\MCC Cal\Test\LatexPillow_B_Inner_Fabric_MCC_30K_min_211210_R1.txt
Sample Weight (mg):	4.42
Heating Rate (C/s):	0.5
Combustor Temp (C):	900
N2 Flow Rate (cc/min):	80
O2 Flow Rate (cc/min):	20
Calibration File:	C:\MCC\MCC Cal\Coeff1 JN10440_30_210304.txt.txt
T Correction Coefficients:	0	1.024463	0
Time Shift (s):	14
*
Time (s)	Temperature (C)	N2 flow rate (cc/min)	O2 flow rate (cc/min)	Flow Rate (cc/min)	Oxygen (%)	HRR (W/g)	Heating rate (C/s)
0.000	108.624	80.009	19.998	103.085	20.269	-0.284	0.017
0.500	108.661	80.006	19.999	103.085	20.269	-0.252	0.005
1.000	108.647	80.007	19.997	103.080	20.265	0.032	0.021
1.500	108.661	80.008	19.997	103.074	20.265	-0.006	0.012
2.000	108.653	80.009	19.999	103.069	20.267	-0.148	0.003
2.500	108.625	80.008	19.996	103.064	20.265	0.024	-0.016
3.000	108.655	80.010	19.996	103.064	20.266	-0.058	-0.017
3.500	108.600	80.008	19.996	103.068	20.266	-0.068	-0.011
4.000	108.638	80.008	19.995	103.073	20.266	-0.036	-0.021
4.500	108.627	80.007	19.995	103.076	20.264	0.056	0.005
5.000	108.616	80.007	19.994	103.081	20.264	0.080	0.003
5.500	108.605	80.009	19.995	103.085	20.262	0.220	-0.022
6.000	108.642	80.008	19.996	103.087	20.261	0.267	0.002
6.500	108.602	80.008	19.995	103.090	20.264	0.114	0.011
7.000	108.629	80.009	19.995	103.095	20.262	0.222	-0.008
7.500	108.623	80.007	19.995	103.098	20.263	0.174	0.004
8.000	108.656	80.008	19.994	103.102	20.263	0.176	0.024
8.500	108.672	80.008	19.994	103.105	20.259	0.441	0.038
9.000	108.663	80.007	19.994	103.109	20.261	0.309	0.028
9.500	108.645	80.005	19.994	103.114	20.258	0.553	-0.010
10.000	108.669	80.007	19.995	103.114	20.260	0.345	-0.011
10.500	108.672	80.007	19.997	103.117	20.258	0.509	0.017
11.000	108.643	80.007	19.995	103.122	20.259	0.451	0.001
11.500	108.663	80.006	19.995	103.125	20.258	0.545	-0.018
12.000	108.673	80.005	19.994	103.125	20.258	0.511	0.010
12.500	108.664	80.006	19.995	103.130	20.257	0.561	0.016
13.001	108.697	80.006	19.996	103.131	20.254	0.812	0.013
13.501	108.704	80.006	19.994	103.133	20.256	0.668	0.032
14.000	108.692	80.005	19.995	103.136	20.251	1.027	0.017
14.500	108.745	80.006	19.996	103.140	20.252	0.983	0.018
15.000	108.756	80.005	19.996	103.148	20.251	1.063	0.053
15.500	108.774	80.005	19.996	103.154	20.251	1.031	0.046
16.000	108.760	80.005	19.994	103.160	20.253	0.914	0.016
16.500	108.795	80.004	19.995	103.166	20.251	1.003	0.013
17.000	108.790	80.006	19.996	103.170	20.250	1.073	0.026
17.500	108.847	80.005	19.995	103.172	20.249	1.137	0.041
18.000	108.834	80.005	19.995	103.177	20.250	1.089	0.048
18.500	108.910	80.004	19.995	103.184	20.248	1.236	0.053
19.001	108.868	80.005	19.995	103.190	20.248	1.266	0.048
19.500	108.931	80.004	19.995	103.194	20.246	1.424	0.028
20.000	108.928	80.004	19.996	103.196	20.248	1.246	0.041
20.500	108.972	80.005	19.996	103.199	20.249	1.165	0.050
21.000	109.009	80.004	19.996	103.200	20.247	1.288	0.061
21.500	109.034	80.006	19.996	103.201	20.247	1.350	0.072
22.000	109.088	80.005	19.997	103.207	20.243	1.615	0.071
22.500	109.108	80.005	19.995	103.213	20.244	1.548	0.076
23.000	109.152	80.004	19.995	103.215	20.243	1.643	0.069
23.500	109.188	80.004	19.996	103.215	20.240	1.865	0.072
24.000	109.252	80.003	19.996	103.218	20.238	1.962	0.090
24.500	109.256	80.004	19.995	103.223	20.239	1.914	0.083
25.000	109.321	80.004	19.996	103.229	20.238	1.970	0.068
25.500	109.346	80.004	19.995	103.237	20.237	2.060	0.080
26.000	109.430	80.004	19.995	103.244	20.234	2.303	0.100
26.500	109.425	80.004	19.996	103.249	20.236	2.092	0.094
27.000	109.507	80.006	19.996	103.255	20.236	2.144	0.078
27.500	109.547	80.005	19.996	103.262	20.235	2.226	0.099
28.000	109.612	80.006	19.995	103.267	20.236	2.132	0.114
28.500	109.651	80.005	19.995	103.270	20.235	2.217	0.105
29.000	109.736	80.005	19.996	103.276	20.236	2.124	0.114
29.500	109.799	80.005	19.995	103.275	20.235	2.181	0.136
30.000	109.899	80.005	19.996	103.272	20.232	2.413	0.156
30.500	109.897	80.006	19.995	103.267	20.232	2.435	0.131
31.000	110.027	80.005	19.996	103.270	20.232	2.387	0.113
31.500	110.073	80.005	19.995	103.268	20.233	2.365	0.152
32.000	110.118	80.005	19.996	103.267	20.231	2.518	0.134
32.500	110.190	80.006	19.995	103.266	20.232	2.426	0.105
33.000	110.248	80.005	19.995	103.268	20.234	2.293	0.123
33.500	110.345	80.004	19.995	103.266	20.231	2.466	0.142
34.001	110.435	80.005	19.994	103.267	20.232	2.438	0.171
34.501	110.529	80.003	19.995	103.273	20.228	2.726	0.186
35.000	110.593	80.005	19.994	103.277	20.230	2.582	0.171
35.500	110.669	80.005	19.995	103.278	20.231	2.514	0.149
36.001	110.722	80.004	19.997	103.275	20.233	2.347	0.134
36.501	110.797	80.004	19.995	103.271	20.232	2.423	0.129
37.000	110.894	80.006	19.995	103.266	20.230	2.560	0.150
37.500	110.966	80.004	19.996	103.261	20.232	2.387	0.170
38.001	111.054	80.005	19.995	103.258	20.233	2.353	0.165
38.501	111.132	80.005	19.995	103.266	20.231	2.484	0.163
39.001	111.204	80.004	19.993	103.273	20.230	2.548	0.158
39.500	111.286	80.005	19.994	103.277	20.227	2.744	0.152
40.000	111.406	80.004	19.995	103.282	20.231	2.493	0.178
40.500	111.468	80.005	19.994	103.287	20.231	2.467	0.192
41.000	111.586	80.004	19.994	103.286	20.225	2.891	0.181
41.500	111.717	80.005	19.994	103.287	20.226	2.859	0.215
42.000	111.797	80.005	19.995	103.289	20.229	2.614	0.230
42.500	111.918	80.006	19.994	103.290	20.227	2.770	0.206
43.000	111.970	80.005	19.994	103.293	20.228	2.668	0.187
43.500	112.088	80.004	19.994	103.294	20.226	2.818	0.172
44.000	112.191	80.005	19.995	103.294	20.225	2.905	0.196
44.500	112.284	80.005	19.994	103.294	20.231	2.478	0.209
45.000	112.415	80.007	19.995	103.293	20.228	2.708	0.210
45.500	112.514	80.005	19.995	103.291	20.226	2.819	0.227
46.000	112.612	80.006	19.996	103.291	20.227	2.776	0.213
46.501	112.715	80.006	19.995	103.291	20.227	2.774	0.199
47.001	112.857	80.005	19.995	103.290	20.228	2.704	0.224
47.501	112.957	80.005	19.995	103.290	20.229	2.614	0.244
48.000	113.068	80.006	19.995	103.289	20.228	2.700	0.226
48.500	113.136	80.006	19.995	103.289	20.225	2.939	0.195
49.000	113.281	80.006	19.995	103.288	20.228	2.730	0.196
49.500	113.359	80.006	19.993	103.286	20.229	2.598	0.218
50.000	113.505	80.005	19.994	103.284	20.232	2.435	0.223
50.500	113.645	80.006	19.995	103.284	20.229	2.666	0.255
51.000	113.779	80.006	19.995	103.284	20.228	2.704	0.280
51.500	113.923	80.006	19.995	103.284	20.225	2.901	0.276
52.000	114.040	80.007	19.994	103.287	20.227	2.786	0.270
52.500	114.127	80.006	19.995	103.287	20.227	2.776	0.232
53.000	114.272	80.006	19.994	103.284	20.228	2.732	0.218
53.500	114.357	80.006	19.995	103.285	20.227	2.766	0.231
54.000	114.500	80.008	19.994	103.284	20.227	2.785	0.229
54.500	114.642	80.006	19.995	103.284	20.226	2.841	0.256
55.000	114.754	80.008	19.995	103.285	20.231	2.498	0.269
55.500	114.872	80.007	19.995	103.288	20.227	2.781	0.242
56.001	115.047	80.007	19.995	103.287	20.230	2.580	0.262
56.501	115.149	80.008	19.994	103.287	20.229	2.626	0.285
57.001	115.293	80.008	19.995	103.287	20.232	2.439	0.262
57.501	115.442	80.008	19.994	103.287	20.231	2.504	0.270
58.000	115.554	80.007	19.997	103.288	20.232	2.416	0.277
58.500	115.718	80.008	19.997	103.288	20.232	2.414	0.268
59.000	115.832	80.007	19.997	103.288	20.230	2.572	0.277
59.500	115.979	80.007	19.995	103.288	20.231	2.504	0.269
60.001	116.081	80.008	19.996	103.287	20.225	2.931	0.255
60.501	116.226	80.008	19.996	103.287	20.230	2.588	0.248
61.000	116.381	80.008	19.996	103.286	20.231	2.518	0.273
61.500	116.499	80.007	19.995	103.286	20.228	2.728	0.286
62.000	116.651	80.008	19.995	103.287	20.228	2.734	0.272
62.500	116.782	80.007	19.994	103.287	20.228	2.716	0.277
63.000	116.933	80.008	19.995	103.288	20.226	2.861	0.282
63.500	117.110	80.008	19.995	103.289	20.226	2.865	0.305
64.000	117.229	80.008	19.995	103.289	20.227	2.771	0.312
64.500	117.363	80.008	19.995	103.290	20.226	2.837	0.275
65.000	117.514	80.007	19.994	103.293	20.225	2.938	0.269
65.500	117.624	80.008	19.994	103.295	20.226	2.873	0.273
66.000	117.791	80.006	19.996	103.294	20.228	2.705	0.269
66.500	117.917	80.008	19.993	103.294	20.226	2.847	0.285
67.000	118.078	80.009	19.996	103.293	20.225	2.930	0.290
67.500	118.236	80.008	19.995	103.289	20.226	2.842	0.303
68.001	118.401	80.007	19.995	103.288	20.227	2.793	0.321
68.501	118.559	80.007	19.995	103.291	20.226	2.874	0.323
69.000	118.734	80.007	19.996	103.299	20.223	3.038	0.328
69.500	118.882	80.007	19.995	103.306	20.225	2.900	0.328
70.000	119.055	80.008	19.995	103.308	20.223	3.052	0.322
70.500	119.174	80.007	19.994	103.307	20.224	3.032	0.306
71.000	119.338	80.008	19.995	103.304	20.225	2.898	0.288
71.500	119.477	80.007	19.995	103.296	20.226	2.888	0.293
72.000	119.679	80.007	19.995	103.291	20.226	2.824	0.322
72.500	119.800	80.006	19.995	103.290	20.224	3.018	0.332
73.000	120.003	80.007	19.994	103.291	20.227	2.786	0.324
73.500	120.142	80.007	19.993	103.292	20.228	2.705	0.333
74.001	120.246	80.007	19.995	103.294	20.226	2.882	0.293
74.501	120.444	80.007	19.994	103.296	20.225	2.906	0.273
75.001	120.642	80.009	19.994	103.301	20.223	3.048	0.349
75.501	120.759	80.009	19.994	103.308	20.226	2.856	0.356
76.000	120.971	80.006	19.995	103.308	20.226	2.854	0.322
76.501	121.141	80.008	19.994	103.311	20.225	2.944	0.355
77.001	121.307	80.009	19.994	103.314	20.224	3.022	0.359
77.500	121.457	80.008	19.991	103.314	20.224	2.972	0.326
78.000	121.631	80.008	19.993	103.313	20.226	2.874	0.320
78.500	121.797	80.008	19.994	103.320	20.222	3.155	0.332
79.000	121.951	80.009	19.994	103.322	20.225	2.956	0.330
79.500	122.115	80.008	19.995	103.323	20.223	3.079	0.319
80.000	122.316	80.007	19.994	103.324	20.221	3.197	0.342
80.500	122.497	80.009	19.994	103.325	20.224	3.028	0.373
81.000	122.650	80.009	19.994	103.321	20.221	3.201	0.358
81.500	122.823	80.008	19.994	103.321	20.220	3.277	0.330
82.000	122.999	80.010	19.995	103.322	20.220	3.263	0.337
82.500	123.186	80.008	19.994	103.322	20.220	3.263	0.356
83.000	123.337	80.009	19.994	103.323	20.223	3.050	0.350
83.500	123.525	80.009	19.994	103.326	20.224	3.022	0.338
84.000	123.688	80.009	19.995	103.326	20.218	3.400	0.345
84.500	123.891	80.009	19.994	103.326	20.221	3.213	0.359
85.000	124.075	80.009	19.995	103.326	20.222	3.133	0.376
85.501	124.259	80.010	19.995	103.327	20.224	3.020	0.378
86.001	124.432	80.009	19.993	103.328	20.221	3.221	0.363
86.500	124.630	80.009	19.994	103.327	20.219	3.329	0.364
87.000	124.798	80.009	19.995	103.327	20.222	3.143	0.369
87.500	125.013	80.008	19.994	103.327	20.221	3.183	0.375
88.000	125.184	80.009	19.995	103.326	20.217	3.518	0.384
88.500	125.348	80.007	19.995	103.327	20.224	3.016	0.360
89.000	125.539	80.009	19.993	103.327	20.221	3.199	0.345
89.500	125.733	80.007	19.995	103.327	20.223	3.087	0.370
90.000	125.941	80.009	19.995	103.327	20.219	3.346	0.394
90.500	126.116	80.008	19.995	103.327	20.220	3.319	0.393
91.000	126.314	80.007	19.994	103.327	20.221	3.233	0.378
91.500	126.487	80.006	19.996	103.327	20.221	3.193	0.372
92.000	126.691	80.007	19.995	103.327	20.220	3.325	0.374
92.500	126.909	80.005	19.995	103.326	20.216	3.566	0.399
93.000	127.053	80.005	19.996	103.326	20.219	3.358	0.392
93.500	127.288	80.006	19.995	103.326	20.217	3.494	0.370
94.000	127.435	80.005	19.996	103.327	20.218	3.408	0.380
94.500	127.641	80.005	19.995	103.327	20.219	3.392	0.367
95.001	127.825	80.006	19.996	103.327	20.214	3.691	0.372
95.501	128.051	80.006	19.995	103.327	20.217	3.494	0.400
96.000	128.237	80.007	19.994	103.327	20.215	3.622	0.412
96.500	128.434	80.006	19.997	103.327	20.215	3.661	0.398
97.000	128.665	80.006	19.995	103.327	20.217	3.510	0.405
97.501	128.846	80.005	19.995	103.327	20.216	3.550	0.420
98.001	129.053	80.006	19.995	103.328	20.216	3.582	0.400
98.501	129.236	80.004	19.995	103.328	20.214	3.713	0.389
99.001	129.445	80.006	19.996	103.328	20.217	3.528	0.392
99.501	129.658	80.006	19.996	103.329	20.216	3.580	0.407
100.000	129.873	80.007	19.995	103.329	20.216	3.584	0.425
100.500	130.044	80.005	19.995	103.330	20.215	3.624	0.407
101.000	130.243	80.005	19.995	103.329	20.215	3.653	0.378
101.500	130.461	80.006	19.996	103.329	20.213	3.797	0.393
102.000	130.655	80.004	19.995	103.328	20.215	3.634	0.415
102.500	130.891	80.004	19.994	103.329	20.216	3.562	0.421
103.000	131.071	80.006	19.996	103.329	20.216	3.590	0.423
103.500	131.253	80.005	19.996	103.329	20.214	3.691	0.389
104.000	131.489	80.005	19.995	103.330	20.215	3.681	0.390
104.500	131.672	80.005	19.995	103.331	20.215	3.687	0.419
105.000	131.893	80.005	19.994	103.330	20.216	3.550	0.412
105.500	132.087	80.006	19.995	103.329	20.214	3.711	0.409
106.000	132.310	80.006	19.995	103.329	20.215	3.624	0.416
106.500	132.513	80.005	19.995	103.330	20.214	3.691	0.422
107.000	132.727	80.006	19.995	103.329	20.212	3.895	0.422
107.500	132.944	80.005	19.995	103.330	20.216	3.592	0.424
108.000	133.129	80.006	19.996	103.330	20.216	3.588	0.416
108.501	133.312	80.006	19.995	103.330	20.217	3.478	0.385
109.001	133.536	80.006	19.995	103.328	20.218	3.440	0.388
109.501	133.771	80.005	19.995	103.328	20.218	3.464	0.433
110.001	133.992	80.006	19.995	103.328	20.217	3.530	0.457
110.500	134.168	80.005	19.995	103.327	20.216	3.550	0.426
111.001	134.426	80.006	19.996	103.327	20.215	3.682	0.415
111.501	134.646	80.006	19.995	103.327	20.216	3.584	0.456
112.001	134.845	80.005	19.995	103.328	20.219	3.390	0.448
112.501	135.064	80.006	19.995	103.328	20.215	3.626	0.418
113.000	135.248	80.005	19.995	103.328	20.219	3.379	0.411
113.500	135.477	80.006	19.995	103.328	20.216	3.574	0.409
114.001	135.694	80.007	19.996	103.327	20.218	3.438	0.430
114.501	135.935	80.006	19.996	103.325	20.217	3.498	0.452
115.000	136.119	80.005	19.996	103.325	20.218	3.448	0.442
115.501	136.327	80.006	19.995	103.326	20.219	3.390	0.409
116.001	136.542	80.006	19.996	103.327	20.217	3.476	0.407
116.500	136.805	80.004	19.997	103.328	20.215	3.675	0.450
117.001	137.047	80.007	19.996	103.328	20.218	3.464	0.491
117.501	137.258	80.005	19.994	103.328	20.218	3.456	0.479
118.000	137.454	80.006	19.998	103.327	20.217	3.516	0.430
118.500	137.725	80.007	19.998	103.327	20.215	3.628	0.437
119.001	137.906	80.005	19.997	103.326	20.216	3.600	0.459
119.501	138.164	80.007	19.996	103.326	20.214	3.753	0.446
120.000	138.370	80.007	19.997	103.326	20.216	3.576	0.452
120.500	138.600	80.007	19.997	103.326	20.215	3.665	0.450
121.000	138.813	80.006	19.997	103.325	20.217	3.538	0.440
121.500	139.011	80.006	19.996	103.324	20.216	3.612	0.427
122.000	139.265	80.006	19.997	103.324	20.215	3.689	0.431
122.500	139.490	80.007	19.997	103.324	20.214	3.749	0.465
123.000	139.743	80.005	19.997	103.325	20.212	3.879	0.478
123.500	139.958	80.006	19.998	103.325	20.213	3.797	0.473
124.000	140.163	80.006	19.997	103.325	20.215	3.646	0.444
124.501	140.391	80.005	19.996	103.324	20.216	3.578	0.427
125.001	140.646	80.006	19.996	103.325	20.218	3.434	0.458
125.500	140.881	80.006	19.995	103.324	20.211	3.927	0.486
126.000	141.087	80.005	19.996	103.324	20.213	3.813	0.466
126.501	141.331	80.005	19.996	103.324	20.214	3.705	0.445
127.001	141.576	80.005	19.996	103.326	20.215	3.628	0.469
127.501	141.809	80.006	19.995	103.325	20.217	3.528	0.483
128.000	142.039	80.005	19.995	103.325	20.217	3.488	0.470
128.500	142.256	80.006	19.996	103.325	20.217	3.544	0.455
129.000	142.488	80.005	19.995	103.325	20.216	3.578	0.448
129.500	142.720	80.005	19.996	103.325	20.218	3.424	0.457
130.000	142.946	80.005	19.996	103.327	20.218	3.470	0.461
130.500	143.190	80.005	19.995	103.326	20.216	3.576	0.464
131.000	143.461	80.005	19.996	103.327	20.219	3.354	0.492
131.500	143.642	80.006	19.996	103.326	20.219	3.392	0.483
132.000	143.889	80.006	19.995	103.327	20.217	3.532	0.440
132.500	144.117	80.008	19.995	103.326	20.217	3.544	0.452
133.000	144.356	80.007	19.996	103.327	20.219	3.381	0.471
133.500	144.577	80.007	19.995	103.326	20.221	3.237	0.463
134.000	144.859	80.006	19.995	103.327	20.217	3.508	0.482
134.500	145.039	80.007	19.995	103.326	20.218	3.418	0.483
135.000	145.305	80.008	19.994	103.326	20.221	3.201	0.454
135.500	145.560	80.008	19.994	103.325	20.220	3.309	0.483
136.000	145.750	80.007	19.994	103.326	20.219	3.354	0.483
136.500	146.010	80.007	19.993	103.326	20.221	3.209	0.448
137.000	146.243	80.006	19.995	103.326	20.218	3.412	0.472
137.500	146.464	80.008	19.993	103.326	20.219	3.392	0.473
138.000	146.733	80.006	19.994	103.327	20.217	3.506	0.472
138.500	146.956	80.009	19.994	103.327	20.218	3.408	0.491
139.000	147.198	80.008	19.995	103.327	20.219	3.390	0.479
139.500	147.415	80.007	19.994	103.326	20.222	3.119	0.462
140.000	147.663	80.008	19.995	103.327	20.218	3.412	0.461
140.500	147.907	80.008	19.995	103.329	20.219	3.329	0.478
141.000	148.167	80.008	19.994	103.330	20.219	3.370	0.498
141.500	148.397	80.008	19.994	103.329	20.218	3.416	0.497
142.000	148.639	80.007	19.993	103.330	20.219	3.377	0.481
142.500	148.906	80.008	19.994	103.329	20.219	3.374	0.490
143.000	149.177	80.009	19.995	103.325	20.217	3.524	0.523
143.501	149.379	80.008	19.995	103.321	20.219	3.347	0.506
144.001	149.643	80.007	19.995	103.321	20.217	3.486	0.470
144.500	149.862	80.007	19.994	103.321	20.218	3.408	0.475
145.000	150.141	80.007	19.995	103.323	20.221	3.209	0.490
145.500	150.382	80.007	19.993	103.325	20.218	3.424	0.509
146.000	150.580	80.008	19.994	103.328	20.220	3.273	0.480
146.500	150.872	80.007	19.995	103.329	20.218	3.414	0.464
147.000	151.101	80.007	19.994	103.329	20.218	3.428	0.505
147.500	151.340	80.008	19.994	103.327	20.219	3.327	0.495
148.000	151.605	80.007	19.993	103.326	20.219	3.335	0.486
148.500	151.844	80.007	19.993	103.326	20.220	3.291	0.504
149.000	152.095	80.006	19.995	103.326	20.223	3.103	0.497
149.500	152.315	80.008	19.994	103.326	20.223	3.079	0.481
150.000	152.581	80.007	19.995	103.326	20.223	3.073	0.478
150.500	152.828	80.007	19.995	103.327	20.222	3.143	0.500
151.000	153.054	80.007	19.995	103.327	20.221	3.231	0.493
151.500	153.281	80.006	19.997	103.327	20.220	3.263	0.463
152.000	153.533	80.007	19.995	103.327	20.221	3.181	0.466
152.500	153.762	80.006	19.996	103.325	20.226	2.854	0.480
153.000	154.001	80.005	19.996	103.324	20.224	2.964	0.474
153.500	154.291	80.007	19.995	103.327	20.220	3.265	0.499
154.000	154.489	80.007	19.995	103.326	20.222	3.114	0.509
154.500	154.771	80.006	19.994	103.327	20.221	3.251	0.484
155.000	154.988	80.007	19.995	103.327	20.220	3.277	0.490
155.500	155.215	80.008	19.995	103.326	20.223	3.099	0.471
156.000	155.445	80.007	19.995	103.326	20.222	3.119	0.450
156.500	155.720	80.006	19.993	103.326	20.220	3.275	0.481
157.000	155.926	80.007	19.995	103.325	20.221	3.237	0.493
157.500	156.178	80.007	19.995	103.326	20.220	3.321	0.470
158.000	156.453	80.006	19.994	103.327	20.221	3.187	0.493
158.500	156.695	80.007	19.996	103.325	20.220	3.311	0.522
159.000	156.930	80.007	19.995	103.326	20.219	3.385	0.497
159.500	157.139	80.008	19.996	103.327	20.217	3.489	0.461
160.000	157.441	80.009	19.995	103.327	20.221	3.200	0.478
160.500	157.672	80.007	19.995	103.327	20.218	3.403	0.522
161.000	157.946	80.007	19.994	103.328	20.218	3.453	0.518
161.500	158.206	80.008	19.995	103.328	20.219	3.345	0.519
162.001	158.441	80.007	19.994	103.328	20.220	3.297	0.515
162.500	158.697	80.008	19.994	103.328	20.218	3.437	0.493
163.000	158.925	80.008	19.994	103.327	20.222	3.118	0.487
163.500	159.156	80.007	19.994	103.325	20.221	3.243	0.472
164.000	159.427	80.007	19.994	103.321	20.220	3.283	0.481
164.500	159.651	80.008	19.994	103.321	20.220	3.253	0.499
165.000	159.924	80.008	19.994	103.320	20.221	3.197	0.496
165.500	160.158	80.009	19.994	103.319	20.219	3.343	0.502
166.000	160.390	80.008	19.993	103.322	20.221	3.205	0.486
166.500	160.677	80.008	19.994	103.325	20.221	3.215	0.493
167.000	160.906	80.008	19.994	103.325	20.222	3.140	0.518
167.500	161.168	80.009	19.994	103.327	20.220	3.287	0.503
168.000	161.404	80.009	19.993	103.326	20.219	3.337	0.495
168.500	161.649	80.007	19.993	103.324	20.220	3.301	0.490
169.000	161.910	80.009	19.994	103.319	20.221	3.237	0.494
169.500	162.163	80.008	19.993	103.314	20.222	3.156	0.510
170.000	162.418	80.010	19.994	103.311	20.221	3.212	0.510
170.500	162.681	80.007	19.995	103.308	20.221	3.216	0.513
171.000	162.877	80.008	19.994	103.308	20.223	3.040	0.489
171.500	163.132	80.007	19.994	103.311	20.225	2.959	0.455
172.000	163.370	80.008	19.993	103.317	20.224	2.988	0.472
172.500	163.633	80.008	19.993	103.318	20.223	3.100	0.497
173.000	163.877	80.008	19.993	103.318	20.226	2.859	0.504
173.500	164.111	80.008	19.993	103.315	20.225	2.895	0.492
174.000	164.409	80.007	19.995	103.315	20.221	3.180	0.505
174.500	164.634	80.007	19.995	103.312	20.224	2.991	0.528
175.000	164.906	80.007	19.995	103.313	20.222	3.108	0.510
175.500	165.146	80.007	19.995	103.317	20.222	3.112	0.504
176.001	165.408	80.007	19.994	103.318	20.223	3.058	0.507
176.500	165.701	80.005	19.994	103.319	20.224	2.998	0.528
177.000	165.927	80.007	19.995	103.317	20.225	2.917	0.537
177.500	166.123	80.005	19.994	103.311	20.225	2.895	0.471
178.000	166.401	80.007	19.995	103.313	20.224	3.021	0.449
178.500	166.664	80.006	19.996	103.312	20.227	2.763	0.507
179.000	166.912	80.006	19.997	103.312	20.225	2.895	0.525
179.500	167.124	80.006	19.995	103.313	20.226	2.819	0.486
180.000	167.409	80.006	19.996	103.316	20.225	2.893	0.479
180.500	167.630	80.006	19.994	103.312	20.229	2.600	0.501
181.000	167.896	80.005	19.995	103.311	20.227	2.807	0.496
181.500	168.160	80.007	19.996	103.308	20.224	2.963	0.509
182.000	168.430	80.006	19.994	103.304	20.224	2.977	0.532
182.500	168.646	80.006	19.996	103.304	20.227	2.789	0.510
183.000	168.918	80.006	19.995	103.304	20.228	2.694	0.487
183.500	169.147	80.005	19.994	103.308	20.228	2.668	0.494
184.000	169.420	80.006	19.995	103.306	20.227	2.770	0.501
184.500	169.658	80.006	19.995	103.305	20.227	2.747	0.506
185.000	169.969	80.006	19.995	103.303	20.227	2.811	0.530
185.500	170.176	80.005	19.997	103.300	20.228	2.676	0.533
186.000	170.438	80.006	19.995	103.296	20.228	2.723	0.493
186.500	170.663	80.005	19.995	103.298	20.226	2.821	0.478
187.000	170.969	80.007	19.996	103.300	20.222	3.132	0.509
187.500	171.183	80.006	19.996	103.302	20.226	2.843	0.526
188.000	171.423	80.006	19.995	103.302	20.226	2.885	0.487
188.500	171.671	80.005	19.995	103.299	20.228	2.728	0.471
189.001	171.927	80.007	19.996	103.297	20.225	2.921	0.496
189.500	172.180	80.006	19.996	103.295	20.225	2.953	0.507
190.000	172.467	80.007	19.995	103.291	20.223	3.105	0.524
190.500	172.687	80.007	19.995	103.290	20.223	3.045	0.523
191.000	172.910	80.006	19.994	103.289	20.225	2.953	0.475
191.500	173.216	80.005	19.994	103.288	20.228	2.718	0.487
192.000	173.462	80.005	19.995	103.288	20.227	2.805	0.541
192.500	173.697	80.006	19.994	103.288	20.228	2.704	0.516
193.000	173.970	80.007	19.995	103.289	20.227	2.777	0.495
193.500	174.152	80.006	19.995	103.290	20.226	2.883	0.482
194.000	174.482	80.008	19.995	103.289	20.226	2.819	0.483
194.500	174.685	80.007	19.996	103.289	20.222	3.174	0.522
195.000	174.935	80.007	19.995	103.290	20.226	2.879	0.494
195.500	175.173	80.006	19.996	103.295	20.224	3.023	0.471
196.000	175.425	80.006	19.995	103.296	20.224	2.965	0.489
196.500	175.679	80.006	19.995	103.298	20.224	2.967	0.497
197.000	175.940	80.007	19.994	103.303	20.226	2.817	0.510
197.500	176.202	80.006	19.995	103.301	20.224	3.009	0.519
198.000	176.461	80.006	19.996	103.295	20.225	2.889	0.523
198.500	176.683	80.006	19.995	103.297	20.226	2.887	0.501
199.000	176.931	80.006	19.995	103.295	20.226	2.871	0.475
199.500	177.155	80.007	19.996	103.290	20.225	2.889	0.471
200.000	177.411	80.007	19.995	103.290	20.223	3.086	0.476
200.500	177.624	80.005	19.995	103.290	20.225	2.907	0.474
201.000	177.883	80.007	19.995	103.287	20.226	2.825	0.471
201.500	178.165	80.007	19.994	103.287	20.226	2.831	0.507
202.000	178.399	80.006	19.994	103.288	20.226	2.881	0.529
202.500	178.671	80.006	19.995	103.289	20.226	2.819	0.511
203.000	178.893	80.006	19.995	103.289	20.225	2.903	0.500
203.500	179.153	80.004	19.995	103.290	20.225	2.927	0.488
204.000	179.381	80.006	19.995	103.297	20.225	2.891	0.485
204.500	179.659	80.005	19.996	103.298	20.228	2.732	0.497
205.000	179.882	80.005	19.994	103.298	20.225	2.941	0.504
205.500	180.142	80.004	19.996	103.298	20.225	2.939	0.492
206.000	180.388	80.006	19.996	103.297	20.226	2.861	0.494
206.500	180.643	80.005	19.995	103.291	20.226	2.833	0.503
207.000	180.908	80.004	19.997	103.290	20.226	2.819	0.511
207.500	181.142	80.006	19.995	103.290	20.227	2.795	0.510
208.000	181.377	80.005	19.995	103.291	20.226	2.887	0.484
208.500	181.655	80.005	20.000	103.290	20.227	2.756	0.491
209.000	181.894	80.005	19.997	103.295	20.226	2.843	0.515
209.500	182.114	80.004	19.999	103.296	20.228	2.712	0.488
210.000	182.354	80.005	19.997	103.295	20.226	2.825	0.460
210.500	182.588	80.005	19.997	103.295	20.228	2.696	0.467
211.000	182.858	80.006	19.996	103.295	20.231	2.490	0.489
211.500	183.093	80.005	19.997	103.291	20.229	2.660	0.505
212.000	183.361	80.004	19.996	103.290	20.229	2.602	0.504
212.500	183.608	80.005	19.996	103.293	20.227	2.809	0.509
213.000	183.868	80.004	19.996	103.296	20.228	2.724	0.511
213.500	184.120	80.005	19.997	103.296	20.228	2.706	0.510
214.000	184.385	80.005	19.996	103.296	20.229	2.656	0.514
214.500	184.599	80.004	19.996	103.296	20.228	2.672	0.497
215.000	184.855	80.005	19.996	103.293	20.228	2.668	0.474
215.500	185.116	80.005	19.996	103.289	20.227	2.744	0.494
216.000	185.369	80.005	19.995	103.289	20.227	2.770	0.516
216.500	185.619	80.005	19.997	103.290	20.228	2.724	0.509
217.000	185.898	80.004	19.997	103.290	20.229	2.630	0.516
217.500	186.152	80.006	19.996	103.291	20.228	2.712	0.531
218.000	186.397	80.004	19.995	103.291	20.232	2.441	0.516
218.500	186.636	80.005	19.996	103.291	20.227	2.774	0.492
219.000	186.872	80.006	19.996	103.291	20.228	2.698	0.479
219.500	187.137	80.006	19.996	103.291	20.232	2.447	0.488
220.000	187.383	80.006	19.995	103.290	20.229	2.656	0.507
220.501	187.662	80.007	19.996	103.290	20.232	2.443	0.518
221.001	187.865	80.006	19.996	103.289	20.232	2.427	0.503
221.501	188.165	80.006	19.996	103.289	20.229	2.646	0.492
222.001	188.367	80.007	19.996	103.289	20.231	2.522	0.503
222.500	188.645	80.007	19.996	103.289	20.229	2.616	0.491
223.000	188.900	80.006	19.996	103.288	20.232	2.383	0.506
223.500	189.160	80.005	19.995	103.289	20.228	2.718	0.524
224.000	189.397	80.007	19.996	103.289	20.228	2.718	0.506
224.500	189.638	80.007	19.996	103.288	20.229	2.640	0.487
225.000	189.869	80.009	19.996	103.288	20.230	2.586	0.475
225.500	190.176	80.007	19.996	103.290	20.228	2.696	0.505
226.000	190.421	80.008	19.995	103.289	20.229	2.648	0.545
226.500	190.650	80.007	19.995	103.289	20.231	2.498	0.512
227.000	190.888	80.006	19.994	103.289	20.229	2.646	0.470
227.500	191.159	80.006	19.995	103.288	20.230	2.552	0.488
228.000	191.389	80.007	19.995	103.287	20.229	2.652	0.505
228.500	191.643	80.008	19.994	103.288	20.228	2.676	0.493
229.000	191.889	80.008	19.995	103.288	20.229	2.638	0.492
229.500	192.120	80.007	19.995	103.289	20.230	2.586	0.489
230.000	192.350	80.006	19.995	103.291	20.231	2.518	0.469
230.500	192.587	80.007	19.994	103.290	20.231	2.449	0.464
231.000	192.872	80.006	19.994	103.289	20.232	2.445	0.494
231.500	193.146	80.007	19.996	103.290	20.230	2.572	0.540
232.000	193.376	80.008	19.994	103.290	20.233	2.371	0.532
232.500	193.592	80.007	19.995	103.290	20.233	2.321	0.475
233.000	193.834	80.007	19.995	103.291	20.233	2.305	0.452
233.500	194.099	80.007	19.995	103.291	20.234	2.269	0.482
234.000	194.382	80.007	19.994	103.291	20.230	2.584	0.528
234.500	194.602	80.006	19.994	103.291	20.230	2.568	0.526
235.000	194.828	80.008	19.994	103.290	20.234	2.269	0.475
235.500	195.125	80.007	19.994	103.290	20.229	2.646	0.484
236.000	195.341	80.007	19.995	103.290	20.229	2.666	0.518
236.500	195.563	80.008	19.995	103.290	20.230	2.570	0.476
237.000	195.817	80.006	19.995	103.291	20.232	2.429	0.457
237.500	196.069	80.006	19.995	103.292	20.229	2.658	0.491
238.000	196.327	80.007	19.996	103.292	20.231	2.503	0.508
238.500	196.548	80.006	19.995	103.292	20.230	2.563	0.494
239.000	196.815	80.007	19.995	103.291	20.231	2.515	0.484
239.500	197.070	80.008	19.996	103.290	20.231	2.507	0.505
240.000	197.302	80.007	19.994	103.290	20.228	2.672	0.504
240.500	197.574	80.007	19.996	103.290	20.229	2.620	0.495
241.000	197.761	80.008	19.995	103.289	20.229	2.614	0.481
241.500	198.068	80.008	19.994	103.289	20.227	2.758	0.477
242.000	198.307	80.007	19.996	103.288	20.228	2.678	0.520
242.500	198.549	80.007	19.994	103.288	20.230	2.568	0.513
243.000	198.814	80.008	19.995	103.288	20.231	2.505	0.494
243.500	199.052	80.007	19.995	103.286	20.231	2.489	0.505
244.000	199.340	80.008	19.994	103.285	20.228	2.686	0.514
244.500	199.525	80.009	19.994	103.286	20.229	2.604	0.500
245.000	199.792	80.007	19.994	103.286	20.232	2.383	0.463
245.500	200.025	80.008	19.994	103.285	20.228	2.700	0.476
246.000	200.305	80.008	19.994	103.285	20.229	2.652	0.507
246.500	200.550	80.009	19.994	103.286	20.231	2.477	0.519
247.001	200.797	80.008	19.995	103.285	20.228	2.734	0.509
247.500	201.027	80.009	19.996	103.285	20.228	2.668	0.484
248.000	201.275	80.009	19.995	103.284	20.231	2.518	0.477
248.500	201.515	80.009	19.994	103.281	20.226	2.825	0.483
249.000	201.764	80.009	19.995	103.277	20.230	2.564	0.488
249.500	201.975	80.008	19.995	103.273	20.225	2.917	0.475
250.000	202.231	80.009	19.994	103.272	20.227	2.802	0.464
250.500	202.509	80.008	19.996	103.270	20.226	2.820	0.500
251.000	202.707	80.009	19.994	103.272	20.226	2.873	0.505
251.500	202.973	80.008	19.995	103.275	20.225	2.921	0.470
252.000	203.237	80.008	19.996	103.279	20.225	2.891	0.497
252.500	203.512	80.009	19.994	103.277	20.227	2.812	0.535
253.000	203.706	80.008	19.994	103.277	20.228	2.736	0.504
253.500	203.983	80.009	19.994	103.277	20.228	2.716	0.470
254.000	204.223	80.008	19.995	103.276	20.229	2.662	0.494
254.500	204.428	80.007	19.995	103.275	20.228	2.700	0.481
255.000	204.703	80.009	19.996	103.275	20.224	2.977	0.462
255.500	204.928	80.008	19.994	103.274	20.226	2.822	0.490
256.000	205.182	80.007	19.994	103.276	20.227	2.806	0.489
256.500	205.427	80.008	19.993	103.277	20.228	2.698	0.489
257.000	205.671	80.007	19.995	103.279	20.227	2.788	0.494
257.500	205.919	80.007	19.996	103.283	20.229	2.604	0.491
258.000	206.186	80.007	19.995	103.286	20.228	2.706	0.504
258.500	206.427	80.007	19.995	103.286	20.230	2.592	0.511
259.000	206.687	80.006	19.995	103.286	20.226	2.834	0.504
259.500	206.934	80.007	19.995	103.286	20.228	2.672	0.504
260.000	207.167	80.006	19.995	103.284	20.230	2.532	0.494
260.500	207.440	80.006	19.994	103.284	20.231	2.459	0.493
261.000	207.687	80.006	19.994	103.284	20.230	2.580	0.513
261.500	207.930	80.006	19.994	103.284	20.230	2.544	0.505
262.000	208.164	80.006	19.995	103.282	20.233	2.369	0.484
262.500	208.421	80.008	19.996	103.283	20.233	2.311	0.484
263.000	208.673	80.008	19.994	103.283	20.231	2.481	0.500
263.500	208.892	80.008	19.995	103.282	20.233	2.327	0.490
264.000	209.141	80.006	19.995	103.281	20.235	2.189	0.469
264.500	209.389	80.007	19.996	103.280	20.231	2.449	0.482
265.000	209.631	80.007	19.996	103.276	20.232	2.385	0.494
265.500	209.845	80.007	19.995	103.275	20.231	2.511	0.473
266.000	210.091	80.007	19.996	103.274	20.231	2.481	0.458
266.500	210.390	80.005	19.996	103.276	20.230	2.551	0.502
267.000	210.627	80.006	19.995	103.277	20.230	2.553	0.540
267.500	210.861	80.007	19.995	103.276	20.227	2.810	0.504
268.000	211.108	80.008	19.997	103.274	20.229	2.640	0.476
268.500	211.339	80.007	19.996	103.274	20.228	2.676	0.480
269.000	211.603	80.008	19.996	103.274	20.228	2.698	0.486
269.500	211.817	80.006	19.996	103.276	20.226	2.830	0.486
270.000	212.079	80.007	19.996	103.279	20.228	2.734	0.477
270.500	212.333	80.006	19.995	103.284	20.228	2.676	0.497
271.000	212.597	80.007	19.996	103.283	20.232	2.433	0.517
271.500	212.848	80.007	19.996	103.283	20.227	2.762	0.517
272.000	213.077	80.007	19.994	103.283	20.232	2.437	0.497
272.500	213.347	80.007	19.995	103.284	20.227	2.768	0.489
273.000	213.605	80.008	19.995	103.278	20.228	2.688	0.514
273.500	213.856	80.009	19.994	103.280	20.233	2.367	0.518
274.000	214.097	80.007	19.994	103.280	20.233	2.351	0.500
274.500	214.377	80.007	19.996	103.280	20.231	2.511	0.506
275.000	214.647	80.006	19.994	103.281	20.227	2.748	0.536
275.500	214.890	80.006	19.994	103.287	20.229	2.666	0.532
276.000	215.160	80.007	19.995	103.282	20.230	2.559	0.513
276.500	215.375	80.006	19.995	103.278	20.229	2.610	0.499
277.000	215.604	80.007	19.995	103.275	20.229	2.596	0.465
277.500	215.857	80.006	19.995	103.273	20.226	2.836	0.463
278.000	216.122	80.006	19.995	103.273	20.225	2.955	0.500
278.501	216.347	80.006	19.995	103.278	20.226	2.838	0.504
279.000	216.591	80.006	19.996	103.280	20.230	2.532	0.480
279.500	216.855	80.007	19.996	103.279	20.229	2.652	0.488
280.000	217.108	80.006	19.997	103.279	20.227	2.758	0.512
280.500	217.316	80.006	19.995	103.280	20.230	2.569	0.489
281.000	217.610	80.006	19.996	103.279	20.232	2.421	0.482
281.500	217.850	80.006	19.994	103.280	20.231	2.459	0.518
282.000	218.048	80.007	19.995	103.280	20.230	2.549	0.486
282.500	218.315	80.007	19.995	103.279	20.231	2.519	0.451
283.000	218.559	80.007	19.996	103.274	20.234	2.275	0.488
283.500	218.787	80.007	19.996	103.272	20.231	2.511	0.492
284.000	219.029	80.007	19.996	103.273	20.231	2.483	0.471
284.500	219.315	80.007	19.995	103.275	20.232	2.405	0.499
285.000	219.572	80.006	19.996	103.275	20.232	2.431	0.535
285.500	219.771	80.005	19.995	103.273	20.230	2.569	0.499
286.000	220.036	80.006	19.995	103.274	20.231	2.483	0.460
286.500	220.261	80.005	19.996	103.272	20.232	2.425	0.477
287.000	220.534	80.005	19.995	103.270	20.233	2.329	0.494
287.500	220.762	80.005	19.995	103.272	20.233	2.367	0.499
288.000	221.057	80.005	19.994	103.278	20.231	2.495	0.512
288.500	221.253	80.006	19.995	103.280	20.228	2.682	0.507
289.000	221.513	80.006	19.996	103.281	20.231	2.471	0.474
289.500	221.775	80.005	19.994	103.281	20.232	2.389	0.489
290.000	222.042	80.005	19.996	103.280	20.233	2.333	0.526
290.500	222.249	80.006	19.995	103.274	20.232	2.429	0.501
291.000	222.520	80.005	19.996	103.268	20.233	2.337	0.476
291.500	222.773	80.006	19.995	103.262	20.236	2.112	0.501
292.000	223.019	80.005	19.995	103.260	20.234	2.280	0.511
292.500	223.249	80.004	19.993	103.259	20.234	2.286	0.488
293.000	223.514	80.005	19.996	103.258	20.236	2.116	0.486
293.500	223.780	80.005	19.996	103.262	20.232	2.447	0.513
294.000	224.012	80.006	19.995	103.269	20.234	2.293	0.514
294.500	224.279	80.005	19.994	103.269	20.233	2.363	0.498
295.000	224.501	80.007	19.996	103.271	20.233	2.315	0.494
295.500	224.756	80.005	19.994	103.275	20.232	2.397	0.483
296.000	224.996	80.005	19.996	103.274	20.232	2.447	0.487
296.500	225.243	80.005	19.995	103.268	20.233	2.361	0.491
297.000	225.538	80.005	19.995	103.266	20.233	2.349	0.514
297.500	225.780	80.004	19.994	103.262	20.232	2.419	0.539
298.000	225.983	80.005	19.996	103.262	20.233	2.356	0.491
298.500	226.275	80.005	19.996	103.262	20.235	2.196	0.470
299.000	226.534	80.006	19.994	103.268	20.230	2.531	0.523
299.500	226.810	80.006	19.995	103.272	20.232	2.398	0.543
300.000	227.016	80.005	19.996	103.277	20.234	2.282	0.509
300.500	227.302	80.006	19.995	103.277	20.233	2.356	0.487
301.000	227.525	80.007	19.996	103.275	20.234	2.280	0.501
301.500	227.765	80.006	19.996	103.272	20.235	2.176	0.486
302.000	228.026	80.006	19.996	103.269	20.233	2.341	0.482
302.500	228.264	80.007	19.994	103.262	20.235	2.162	0.499
303.000	228.543	80.006	19.996	103.263	20.234	2.291	0.508
303.500	228.809	80.007	19.996	103.264	20.233	2.325	0.531
304.001	229.064	80.008	19.996	103.266	20.232	2.427	0.533
304.500	229.340	80.006	19.996	103.269	20.231	2.511	0.526
305.000	229.559	80.007	19.997	103.271	20.235	2.204	0.513
305.500	229.827	80.008	19.996	103.268	20.232	2.391	0.491
306.000	230.106	80.008	19.996	103.268	20.235	2.178	0.517
306.500	230.340	80.007	19.995	103.262	20.236	2.098	0.530
307.000	230.631	80.006	19.995	103.260	20.234	2.264	0.519
307.500	230.814	80.008	19.996	103.259	20.235	2.224	0.500
308.000	231.098	80.009	19.996	103.260	20.233	2.326	0.470
308.500	231.342	80.008	19.997	103.257	20.230	2.535	0.497
309.000	231.578	80.007	19.997	103.257	20.235	2.214	0.504
309.500	231.816	80.008	19.996	103.254	20.233	2.340	0.477
310.001	232.059	80.008	19.995	103.254	20.233	2.355	0.478
310.501	232.324	80.008	19.995	103.251	20.232	2.379	0.495
311.000	232.608	80.007	19.995	103.251	20.233	2.311	0.529
311.500	232.859	80.007	19.997	103.250	20.234	2.244	0.542
312.000	233.096	80.007	19.997	103.256	20.232	2.389	0.511
312.500	233.350	80.006	19.996	103.257	20.236	2.112	0.489
313.000	233.573	80.007	19.996	103.263	20.234	2.294	0.484
313.500	233.843	80.007	19.996	103.269	20.233	2.346	0.485
314.000	234.090	80.007	19.994	103.275	20.232	2.389	0.505
314.500	234.340	80.007	19.997	103.273	20.237	2.018	0.507
315.000	234.610	80.006	19.996	103.271	20.234	2.252	0.508
315.500	234.826	80.007	19.996	103.265	20.234	2.272	0.503
316.000	235.104	80.005	19.994	103.259	20.235	2.174	0.490
316.500	235.399	80.006	19.996	103.255	20.233	2.357	0.534
317.000	235.625	80.007	19.996	103.255	20.234	2.260	0.547
317.500	235.875	80.006	19.997	103.257	20.233	2.364	0.499
318.000	236.118	80.008	19.996	103.257	20.233	2.372	0.485
318.500	236.360	80.006	19.996	103.256	20.233	2.350	0.489
319.000	236.611	80.007	19.995	103.254	20.234	2.294	0.489
319.500	236.910	80.007	19.996	103.251	20.233	2.330	0.521
320.001	237.115	80.007	19.996	103.251	20.235	2.166	0.527
320.501	237.398	80.008	19.995	103.258	20.232	2.398	0.496
321.001	237.619	80.006	19.995	103.264	20.235	2.202	0.496
321.501	237.843	80.006	19.995	103.266	20.238	1.965	0.475
322.000	238.122	80.007	19.995	103.265	20.239	1.877	0.474
322.500	238.407	80.007	19.996	103.262	20.237	2.058	0.534
323.000	238.632	80.008	19.995	103.258	20.236	2.100	0.537
323.500	238.880	80.007	19.995	103.253	20.237	2.048	0.492
324.000	239.142	80.007	19.996	103.256	20.240	1.859	0.492
324.500	239.366	80.007	19.995	103.258	20.236	2.100	0.498
325.000	239.633	80.007	19.995	103.263	20.237	2.051	0.488
325.500	239.876	80.009	19.994	103.266	20.240	1.841	0.500
326.000	240.124	80.008	19.994	103.269	20.241	1.777	0.500
326.500	240.376	80.007	19.995	103.266	20.236	2.100	0.496
327.000	240.642	80.007	19.995	103.263	20.238	2.009	0.509
327.500	240.857	80.008	19.994	103.260	20.238	2.003	0.500
328.000	241.111	80.007	19.995	103.256	20.237	2.078	0.475
328.500	241.353	80.007	19.994	103.254	20.234	2.238	0.482
329.000	241.618	80.008	19.994	103.254	20.240	1.839	0.502
329.500	241.858	80.007	19.995	103.255	20.237	2.021	0.506
330.000	242.136	80.008	19.995	103.253	20.235	2.208	0.511
330.500	242.342	80.009	19.994	103.253	20.237	2.084	0.501
331.000	242.614	80.009	19.996	103.250	20.235	2.210	0.481
331.500	242.878	80.008	19.994	103.250	20.235	2.160	0.507
332.000	243.137	80.008	19.994	103.247	20.237	2.039	0.529
332.500	243.377	80.008	19.995	103.249	20.238	2.003	0.511
333.000	243.660	80.008	19.994	103.251	20.237	2.045	0.511
333.500	243.848	80.010	19.994	103.252	20.236	2.086	0.497
334.000	244.087	80.008	19.995	103.252	20.237	2.033	0.448
334.500	244.349	80.010	19.994	103.252	20.236	2.104	0.463
335.000	244.629	80.008	19.995	103.250	20.236	2.096	0.522
335.500	244.899	80.008	19.995	103.248	20.237	2.039	0.546
336.000	245.151	80.008	19.996	103.247	20.237	2.082	0.536
336.500	245.386	80.009	19.996	103.247	20.237	2.036	0.504
337.000	245.646	80.008	19.996	103.248	20.236	2.124	0.491
337.500	245.887	80.006	19.995	103.249	20.238	2.001	0.498
338.000	246.182	80.008	19.996	103.251	20.239	1.933	0.518
338.500	246.378	80.008	19.996	103.251	20.236	2.144	0.513
339.000	246.620	80.007	19.996	103.252	20.237	2.068	0.465
339.500	246.906	80.007	19.995	103.251	20.234	2.248	0.483
340.000	247.167	80.007	19.997	103.250	20.237	2.017	0.537
340.500	247.371	80.006	19.995	103.249	20.236	2.096	0.506
341.000	247.632	80.006	19.996	103.248	20.240	1.837	0.465
341.500	247.869	80.005	19.996	103.248	20.237	2.033	0.482
342.000	248.116	80.005	19.996	103.248	20.238	1.975	0.491
342.500	248.324	80.005	19.995	103.249	20.239	1.937	0.469
343.000	248.587	80.004	19.995	103.249	20.238	1.941	0.463
343.500	248.808	80.004	19.996	103.250	20.242	1.701	0.478
344.000	249.093	80.005	19.995	103.251	20.240	1.835	0.495
344.500	249.402	80.007	19.995	103.251	20.238	1.949	0.549
345.000	249.637	80.005	19.995	103.251	20.238	2.009	0.569
345.500	249.849	80.005	19.996	103.251	20.239	1.891	0.496
346.000	250.123	80.006	19.993	103.252	20.238	1.979	0.466
346.500	250.383	80.005	19.996	103.252	20.237	2.048	0.510
347.000	250.607	80.006	19.995	103.252	20.236	2.086	0.509
347.500	250.812	80.004	19.995	103.252	20.237	2.032	0.457
348.000	251.109	80.006	19.996	103.253	20.240	1.797	0.466
348.500	251.390	80.005	19.995	103.253	20.239	1.937	0.540
349.000	251.607	80.004	19.996	103.253	20.238	1.959	0.538
349.500	251.876	80.006	19.996	103.252	20.239	1.921	0.492
350.000	252.064	80.006	19.993	103.252	20.240	1.813	0.471
350.500	252.346	80.005	19.994	103.251	20.238	1.993	0.464
351.000	252.572	80.006	19.996	103.251	20.237	2.084	0.489
351.500	252.817	80.006	19.995	103.252	20.240	1.863	0.490
352.000	253.057	80.005	19.995	103.252	20.237	2.029	0.478
352.500	253.324	80.006	19.996	103.252	20.239	1.873	0.496
353.000	253.578	80.006	19.994	103.252	20.237	2.019	0.514
353.500	253.801	80.005	19.995	103.252	20.240	1.857	0.499
354.000	254.059	80.005	19.995	103.252	20.236	2.136	0.479
354.500	254.267	80.006	19.995	103.252	20.236	2.108	0.473
355.000	254.501	80.007	19.994	103.252	20.233	2.310	0.454
355.500	254.762	80.005	19.995	103.252	20.236	2.110	0.469
356.000	255.000	80.005	19.995	103.253	20.239	1.879	0.497
356.500	255.251	80.005	19.994	103.255	20.237	2.080	0.494
357.000	255.535	80.005	19.995	103.258	20.236	2.144	0.512
357.500	255.779	80.006	19.994	103.259	20.236	2.090	0.531
358.000	256.058	80.006	19.995	103.259	20.235	2.218	0.525
358.500	256.257	80.007	19.996	103.258	20.236	2.090	0.501
359.000	256.471	80.006	19.995	103.256	20.235	2.180	0.446
359.500	256.698	80.006	19.996	103.252	20.235	2.188	0.427
360.000	256.936	80.006	19.996	103.253	20.233	2.322	0.453
360.500	257.209	80.006	19.995	103.255	20.236	2.126	0.488
361.000	257.449	80.005	19.995	103.255	20.236	2.138	0.512
361.500	257.691	80.007	19.995	103.255	20.237	2.068	0.497
362.000	257.960	80.007	19.994	103.256	20.232	2.422	0.496
362.500	258.199	80.006	19.996	103.254	20.234	2.270	0.509
363.000	258.436	80.006	19.994	103.252	20.235	2.208	0.492
363.500	258.683	80.006	19.993	103.252	20.234	2.242	0.481
364.000	258.898	80.007	19.994	103.253	20.232	2.428	0.473
364.500	259.160	80.007	19.994	103.252	20.230	2.531	0.469
365.000	259.389	80.007	19.994	103.253	20.233	2.364	0.484
365.500	259.610	80.007	19.996	103.254	20.233	2.374	0.471
366.000	259.887	80.006	19.995	103.254	20.231	2.511	0.474
366.500	260.098	80.006	19.995	103.254	20.234	2.276	0.493
367.000	260.385	80.005	19.995	103.255	20.233	2.326	0.493
367.500	260.603	80.007	19.996	103.255	20.236	2.134	0.502
368.000	260.867	80.006	19.995	103.254	20.238	1.995	0.494
368.500	261.078	80.005	19.994	103.253	20.234	2.276	0.479
369.000	261.291	80.007	19.995	103.253	20.236	2.116	0.449
369.500	261.637	80.006	19.995	103.251	20.234	2.280	0.491
370.000	261.837	80.005	19.995	103.251	20.236	2.122	0.552
370.500	262.066	80.006	19.995	103.251	20.238	1.983	0.488
371.000	262.324	80.006	19.995	103.250	20.241	1.775	0.458
371.500	262.519	80.004	19.996	103.250	20.234	2.264	0.470
372.000	262.785	80.006	19.995	103.250	20.235	2.178	0.457
372.500	263.027	80.006	19.995	103.250	20.238	1.983	0.484
373.000	263.239	80.006	19.996	103.249	20.234	2.254	0.481
373.500	263.536	80.006	19.996	103.249	20.235	2.200	0.482
374.000	263.737	80.007	19.995	103.249	20.233	2.310	0.503
374.500	264.010	80.004	19.996	103.249	20.237	2.076	0.486
375.000	264.273	80.007	19.995	103.249	20.235	2.172	0.505
375.500	264.493	80.006	19.995	103.247	20.232	2.398	0.510
376.000	264.753	80.005	19.995	103.243	20.236	2.144	0.482
376.500	264.976	80.007	19.996	103.242	20.236	2.134	0.481
377.000	265.240	80.006	19.996	103.242	20.237	2.080	0.485
377.500	265.455	80.005	19.995	103.241	20.235	2.160	0.483
378.000	265.706	80.005	19.996	103.243	20.237	2.013	0.473
378.500	265.936	80.006	19.997	103.248	20.236	2.138	0.473
379.000	266.141	80.006	19.996	103.250	20.238	1.977	0.458
379.500	266.415	80.005	19.995	103.250	20.236	2.100	0.458
380.000	266.647	80.007	19.995	103.249	20.234	2.262	0.493
380.500	266.928	80.007	19.996	103.246	20.236	2.098	0.509
381.000	267.182	80.007	19.997	103.245	20.238	1.963	0.524
381.500	267.449	80.006	19.996	103.244	20.236	2.120	0.528
382.000	267.668	80.007	19.996	103.244	20.237	2.063	0.503
382.500	267.919	80.006	19.996	103.245	20.236	2.134	0.478
383.000	268.147	80.006	19.996	103.247	20.237	2.070	0.475
383.500	268.395	80.006	19.996	103.246	20.239	1.881	0.477
384.000	268.662	80.008	19.994	103.246	20.239	1.899	0.496
384.500	268.942	80.006	19.996	103.247	20.237	2.015	0.531
385.000	269.187	80.006	19.996	103.247	20.238	1.975	0.536
385.500	269.437	80.006	19.995	103.248	20.236	2.130	0.510
386.000	269.681	80.007	19.996	103.249	20.236	2.136	0.495
386.500	269.901	80.007	19.996	103.249	20.236	2.146	0.479
387.000	270.141	80.007	19.996	103.249	20.235	2.210	0.462
387.500	270.408	80.008	19.996	103.249	20.236	2.150	0.483
388.000	270.688	80.008	19.996	103.249	20.234	2.250	0.527
388.500	270.947	80.008	19.995	103.249	20.232	2.382	0.543
389.000	271.211	80.007	19.995	103.249	20.233	2.306	0.531
389.500	271.428	80.007	19.995	103.249	20.234	2.234	0.502
390.000	271.703	80.009	19.996	103.248	20.234	2.256	0.486
390.500	271.951	80.008	19.996	103.248	20.234	2.302	0.508
391.000	272.212	80.008	19.995	103.248	20.237	2.084	0.516
391.500	272.439	80.008	19.995	103.248	20.230	2.537	0.499
392.000	272.713	80.009	19.996	103.247	20.236	2.110	0.495
392.500	272.970	80.010	19.996	103.249	20.232	2.434	0.516
393.000	273.181	80.008	19.995	103.248	20.233	2.318	0.499
393.500	273.450	80.009	19.996	103.249	20.233	2.358	0.474
394.000	273.659	80.008	19.996	103.248	20.232	2.382	0.479
394.500	273.945	80.009	19.996	103.249	20.233	2.372	0.486
395.000	274.211	80.007	19.995	103.249	20.234	2.300	0.523
395.500	274.424	80.009	19.997	103.246	20.235	2.198	0.515
396.000	274.686	80.007	19.996	103.243	20.231	2.456	0.477
396.500	274.971	80.009	19.995	103.243	20.234	2.254	0.511
397.000	275.214	80.007	19.997	103.242	20.233	2.354	0.538
397.500	275.467	80.008	19.995	103.242	20.232	2.428	0.512
398.001	275.750	80.007	19.996	103.245	20.235	2.162	0.516
398.500	275.950	80.007	19.996	103.247	20.234	2.294	0.510
399.000	276.163	80.009	19.996	103.248	20.234	2.290	0.448
399.501	276.455	80.007	19.996	103.247	20.236	2.136	0.459
400.000	276.652	80.007	19.996	103.247	20.237	2.067	0.497
400.500	276.941	80.007	19.995	103.247	20.235	2.176	0.487
401.000	277.201	80.007	19.996	103.247	20.234	2.230	0.518
401.500	277.403	80.007	19.996	103.247	20.233	2.316	0.506
402.000	277.658	80.007	19.996	103.248	20.232	2.418	0.460
402.500	277.893	80.007	19.995	103.248	20.234	2.294	0.473
403.000	278.157	80.007	19.995	103.248	20.236	2.116	0.494
403.500	278.407	80.006	19.996	103.246	20.235	2.214	0.507
404.000	278.634	80.007	19.996	103.245	20.237	2.071	0.496
404.500	278.892	80.007	19.997	103.245	20.236	2.144	0.481
405.001	279.145	80.007	19.996	103.245	20.236	2.136	0.498
405.501	279.390	80.006	19.996	103.245	20.235	2.160	0.505
406.000	279.620	80.006	19.995	103.247	20.237	2.031	0.487
406.500	279.904	80.006	19.996	103.246	20.236	2.150	0.494
407.000	280.142	80.006	19.996	103.244	20.234	2.256	0.518
407.500	280.369	80.007	19.996	103.244	20.239	1.907	0.493
408.000	280.622	80.007	19.996	103.241	20.239	1.925	0.472
408.500	280.868	80.007	19.995	103.242	20.238	1.985	0.490
409.000	281.110	80.007	19.996	103.244	20.236	2.102	0.494
409.500	281.348	80.006	19.997	103.246	20.234	2.234	0.484
410.000	281.586	80.008	19.995	103.245	20.239	1.931	0.478
410.500	281.830	80.007	19.996	103.248	20.238	2.005	0.479
411.000	282.122	80.006	19.997	103.248	20.238	1.959	0.509
411.500	282.372	80.009	19.996	103.248	20.240	1.795	0.539
412.000	282.609	80.007	19.996	103.247	20.236	2.152	0.514
412.501	282.857	80.010	19.995	103.248	20.238	1.949	0.486
413.000	283.111	80.008	19.995	103.248	20.236	2.104	0.494
413.500	283.368	80.008	19.995	103.248	20.235	2.186	0.506
414.000	283.623	80.008	19.996	103.248	20.238	2.009	0.511
414.500	283.866	80.009	19.994	103.246	20.235	2.170	0.505
415.000	284.126	80.008	19.995	103.241	20.236	2.108	0.501
415.500	284.308	80.008	19.995	103.239	20.235	2.184	0.473
416.000	284.614	80.008	19.995	103.240	20.239	1.891	0.465
416.500	284.849	80.008	19.995	103.238	20.237	2.051	0.514
417.000	285.145	80.009	19.993	103.241	20.235	2.164	0.536
417.501	285.347	80.007	19.996	103.245	20.236	2.112	0.515
418.000	285.629	80.009	19.997	103.247	20.240	1.859	0.491
418.500	285.838	80.009	19.996	103.247	20.237	2.067	0.488
419.000	286.143	80.007	19.995	103.247	20.235	2.188	0.502
419.500	286.383	80.007	19.994	103.247	20.235	2.166	0.529
420.000	286.644	80.008	19.995	103.245	20.237	2.060	0.523
420.500	286.872	80.008	19.994	103.238	20.237	2.029	0.495
421.000	287.122	80.007	19.994	103.234	20.242	1.703	0.484
421.500	287.393	80.007	19.995	103.234	20.237	2.076	0.500
422.000	287.634	80.007	19.994	103.234	20.236	2.116	0.516
422.500	287.913	80.006	19.995	103.236	20.236	2.132	0.516
423.000	288.139	80.007	19.996	103.244	20.238	1.961	0.513
423.500	288.390	80.007	19.993	103.248	20.240	1.835	0.491
424.000	288.645	80.008	19.993	103.249	20.241	1.755	0.491
424.500	288.871	80.007	19.993	103.248	20.238	1.943	0.493
425.000	289.136	80.006	19.993	103.243	20.240	1.821	0.486
425.500	289.391	80.005	19.997	103.241	20.243	1.634	0.505
426.000	289.667	80.006	19.995	103.243	20.240	1.819	0.525
426.500	289.879	80.006	19.996	103.243	20.240	1.819	0.510
427.000	290.134	80.006	19.996	103.243	20.240	1.849	0.478
427.500	290.408	80.005	19.995	103.247	20.238	1.949	0.498
428.000	290.648	80.005	19.995	103.247	20.240	1.843	0.521
428.500	290.917	80.006	19.994	103.243	20.240	1.799	0.511
429.000	291.169	80.006	19.996	103.242	20.242	1.713	0.515
429.500	291.416	80.006	19.994	103.243	20.239	1.895	0.510
430.000	291.681	80.005	19.994	103.245	20.238	1.959	0.506
430.500	291.938	80.006	19.995	103.247	20.240	1.825	0.517
431.000	292.204	80.005	19.995	103.251	20.240	1.821	0.522
431.500	292.430	80.005	19.996	103.252	20.237	2.039	0.507
432.000	292.699	80.004	19.994	103.253	20.239	1.873	0.494
432.500	292.956	80.006	19.996	103.252	20.238	2.003	0.511
433.000	293.191	80.007	19.995	103.253	20.237	2.065	0.509
433.500	293.446	80.005	19.996	103.252	20.236	2.086	0.491
434.000	293.691	80.006	19.995	103.250	20.240	1.795	0.494
434.500	293.947	80.004	19.995	103.248	20.241	1.735	0.500
435.000	294.203	80.006	19.997	103.247	20.237	2.053	0.507
435.500	294.494	80.005	19.998	103.245	20.239	1.929	0.530
436.000	294.744	80.007	19.997	103.241	20.237	2.065	0.544
436.500	294.994	80.006	19.998	103.240	20.241	1.753	0.520
437.000	295.268	80.005	19.995	103.236	20.240	1.835	0.512
437.500	295.479	80.007	19.997	103.237	20.239	1.925	0.504
438.000	295.757	80.005	19.995	103.238	20.240	1.853	0.487
438.500	296.022	80.006	19.995	103.242	20.239	1.873	0.516
439.000	296.299	80.006	19.995	103.245	20.238	1.943	0.542
439.500	296.531	80.007	19.996	103.249	20.241	1.781	0.526
440.000	296.786	80.005	19.995	103.248	20.240	1.859	0.498
440.500	297.034	80.006	19.995	103.247	20.237	2.059	0.495
441.000	297.322	80.007	19.996	103.247	20.240	1.837	0.519
441.500	297.574	80.007	19.995	103.247	20.236	2.089	0.538
442.000	297.804	80.007	19.995	103.247	20.236	2.089	0.511
442.500	298.049	80.005	19.996	103.248	20.237	2.045	0.478
443.000	298.351	80.006	19.995	103.247	20.234	2.234	0.511
443.500	298.558	80.005	19.997	103.246	20.235	2.228	0.528
444.000	298.850	80.006	19.995	103.246	20.232	2.428	0.504
444.500	299.081	80.007	19.994	103.246	20.234	2.256	0.511
445.000	299.343	80.008	19.993	103.246	20.235	2.192	0.508
445.500	299.559	80.005	19.993	103.246	20.234	2.290	0.486
446.000	299.825	80.007	19.995	103.247	20.238	1.955	0.480
446.500	300.085	80.007	19.995	103.247	20.240	1.833	0.504
447.000	300.324	80.006	19.994	103.246	20.238	1.959	0.513
447.500	300.579	80.006	19.995	103.247	20.240	1.859	0.497
448.000	300.857	80.006	19.995	103.248	20.242	1.708	0.513
448.500	301.134	80.006	19.996	103.246	20.241	1.749	0.544
449.000	301.353	80.007	19.996	103.244	20.239	1.883	0.525
449.500	301.627	80.007	19.995	103.245	20.238	2.009	0.494
450.000	301.854	80.006	19.996	103.245	20.237	2.015	0.497
450.500	302.120	80.005	19.995	103.244	20.238	1.943	0.497
451.000	302.381	80.005	19.996	103.243	20.241	1.761	0.510
451.500	302.669	80.006	19.996	103.242	20.237	2.057	0.539
452.000	302.921	80.006	19.993	103.241	20.240	1.843	0.545
452.500	303.185	80.006	19.995	103.241	20.238	1.941	0.527
453.000	303.459	80.006	19.995	103.241	20.241	1.775	0.527
453.500	303.709	80.007	19.994	103.242	20.240	1.845	0.532
454.001	303.951	80.007	19.994	103.244	20.243	1.590	0.508
454.501	304.182	80.005	19.996	103.245	20.237	2.021	0.482
455.000	304.415	80.007	19.994	103.246	20.242	1.706	0.469
455.500	304.661	80.006	19.995	103.242	20.240	1.861	0.472
456.000	304.943	80.007	19.994	103.243	20.239	1.915	0.503
456.500	305.185	80.005	19.994	103.244	20.240	1.831	0.526
457.000	305.450	80.005	19.994	103.244	20.240	1.853	0.515
457.500	305.711	80.005	19.994	103.240	20.241	1.736	0.516
458.000	305.966	80.007	19.994	103.244	20.240	1.857	0.521
458.500	306.187	80.006	19.995	103.244	20.236	2.085	0.496
459.000	306.487	80.005	19.995	103.242	20.237	2.051	0.499
459.500	306.754	80.005	19.995	103.240	20.238	1.983	0.544
460.000	306.992	80.005	19.995	103.242	20.238	1.957	0.536
460.500	307.266	80.004	19.994	103.240	20.239	1.923	0.508
461.000	307.551	80.007	19.996	103.238	20.237	2.067	0.536
461.500	307.798	80.006	19.996	103.239	20.241	1.752	0.546
462.000	308.068	80.006	19.994	103.239	20.236	2.129	0.524
462.500	308.297	80.006	19.995	103.240	20.235	2.157	0.508
463.000	308.547	80.007	19.995	103.242	20.236	2.123	0.489
463.500	308.817	80.005	19.994	103.240	20.235	2.157	0.500
464.000	309.065	80.006	19.994	103.239	20.236	2.139	0.519
464.500	309.312	80.005	19.994	103.239	20.234	2.237	0.506
465.000	309.579	80.007	19.996	103.237	20.238	1.983	0.504
465.500	309.837	80.006	19.994	103.233	20.236	2.139	0.520
466.000	310.053	80.006	19.995	103.233	20.239	1.907	0.500
466.500	310.381	80.006	19.996	103.233	20.241	1.730	0.509
467.000	310.617	80.006	19.994	103.232	20.238	1.981	0.554
467.500	310.891	80.006	19.996	103.229	20.238	1.955	0.537
468.000	311.141	80.007	19.995	103.228	20.240	1.861	0.517
468.500	311.356	80.007	19.995	103.228	20.239	1.927	0.494
469.000	311.666	80.007	19.996	103.230	20.235	2.180	0.495
469.500	311.947	80.007	19.995	103.233	20.236	2.091	0.558
470.000	312.203	80.007	19.996	103.231	20.240	1.831	0.564
470.500	312.472	80.006	19.995	103.231	20.239	1.891	0.531
471.000	312.717	80.007	19.994	103.229	20.238	1.987	0.520
471.500	313.003	80.007	19.994	103.226	20.243	1.606	0.522
472.000	313.220	80.005	19.995	103.222	20.240	1.818	0.517
472.500	313.461	80.006	19.996	103.227	20.239	1.895	0.480
473.000	313.727	80.007	19.995	103.230	20.240	1.865	0.483
473.500	313.960	80.006	19.995	103.235	20.239	1.929	0.503
474.000	314.210	80.006	19.995	103.233	20.239	1.929	0.491
474.500	314.472	80.007	19.995	103.232	20.241	1.722	0.498
475.000	314.759	80.006	19.996	103.231	20.242	1.670	0.531
475.500	315.010	80.007	19.995	103.227	20.239	1.935	0.544
476.000	315.244	80.007	19.995	103.220	20.243	1.610	0.511
476.500	315.505	80.006	19.995	103.221	20.240	1.804	0.490
477.000	315.729	80.006	19.996	103.225	20.240	1.836	0.490
477.500	316.025	80.006	19.997	103.228	20.239	1.867	0.503
478.000	316.263	80.006	19.997	103.234	20.242	1.676	0.528
478.500	316.511	80.006	19.997	103.242	20.241	1.742	0.510
479.000	316.730	80.007	19.996	103.246	20.241	1.738	0.477
479.500	317.013	80.007	19.998	103.246	20.238	2.001	0.484
480.000	317.290	80.006	19.997	103.241	20.240	1.850	0.531
480.500	317.551	80.007	19.995	103.238	20.243	1.586	0.549
481.000	317.787	80.006	19.995	103.234	20.238	1.953	0.518
481.500	318.031	80.006	19.996	103.228	20.242	1.648	0.488
482.000	318.303	80.007	19.995	103.223	20.238	1.959	0.498
482.500	318.560	80.006	19.995	103.221	20.241	1.768	0.522
483.000	318.764	80.005	19.995	103.221	20.241	1.788	0.495
483.500	319.032	80.006	19.994	103.223	20.243	1.576	0.466
484.000	319.308	80.007	19.995	103.228	20.241	1.756	0.508
484.500	319.588	80.006	19.996	103.231	20.239	1.907	0.550
485.000	319.808	80.006	19.995	103.230	20.239	1.929	0.528
485.500	320.074	80.006	19.994	103.228	20.242	1.708	0.493
486.000	320.315	80.005	19.994	103.223	20.241	1.750	0.496
486.501	320.562	80.007	19.995	103.217	20.240	1.849	0.498
487.001	320.809	80.005	19.995	103.217	20.242	1.680	0.491
487.500	321.087	80.007	19.995	103.220	20.241	1.762	0.509
488.000	321.354	80.007	19.995	103.222	20.241	1.734	0.535
488.500	321.619	80.006	19.995	103.224	20.244	1.572	0.538
489.000	321.860	80.006	19.995	103.225	20.244	1.502	0.519
489.500	322.070	80.007	19.995	103.225	20.244	1.542	0.478
490.000	322.362	80.006	19.996	103.223	20.240	1.802	0.476
490.500	322.584	80.006	19.996	103.224	20.239	1.877	0.508
491.000	322.855	80.006	19.997	103.222	20.243	1.634	0.504
491.500	323.085	80.006	19.995	103.224	20.238	1.991	0.497
492.000	323.380	80.007	19.995	103.223	20.242	1.672	0.513
492.500	323.623	80.006	19.996	103.226	20.242	1.710	0.532
493.000	323.849	80.006	19.995	103.227	20.241	1.756	0.504
493.500	324.113	80.008	19.996	103.225	20.242	1.668	0.480
494.000	324.361	80.007	19.995	103.223	20.242	1.704	0.501
494.500	324.607	80.007	19.997	103.223	20.241	1.746	0.503
495.000	324.865	80.008	19.996	103.222	20.242	1.670	0.499
495.500	325.147	80.009	19.995	103.219	20.243	1.628	0.522
496.000	325.372	80.008	19.996	103.223	20.242	1.652	0.524
496.501	325.662	80.007	19.996	103.228	20.243	1.630	0.511
497.000	325.909	80.008	19.994	103.229	20.240	1.850	0.526
497.500	326.163	80.008	19.996	103.226	20.240	1.828	0.519
498.000	326.386	80.008	19.997	103.227	20.239	1.931	0.489
498.500	326.669	80.008	19.997	103.224	20.241	1.740	0.491
499.000	326.891	80.008	19.996	103.224	20.239	1.880	0.506
499.500	327.174	80.009	19.995	103.228	20.238	1.941	0.505
500.000	327.417	80.007	19.997	103.231	20.237	2.069	0.516
500.500	327.639	80.009	19.996	103.231	20.239	1.878	0.496
501.000	327.931	80.008	19.996	103.230	20.239	1.924	0.490
501.500	328.165	80.009	19.996	103.223	20.239	1.936	0.520
502.000	328.424	80.008	19.997	103.216	20.238	2.003	0.509
502.501	328.696	80.008	19.996	103.214	20.237	2.043	0.512
503.000	328.936	80.007	19.997	103.216	20.239	1.898	0.522
503.500	329.168	80.008	19.996	103.220	20.240	1.794	0.492
504.000	329.431	80.007	19.997	103.227	20.242	1.660	0.483
504.500	329.668	80.008	19.997	103.228	20.242	1.668	0.497
505.000	329.915	80.008	19.997	103.232	20.238	1.947	0.492
505.500	330.176	80.006	19.997	103.234	20.240	1.800	0.496
506.000	330.380	80.005	19.996	103.235	20.242	1.692	0.487
506.500	330.666	80.006	19.995	103.228	20.240	1.861	0.478
507.000	330.885	80.007	19.995	103.226	20.243	1.600	0.497
507.500	331.164	80.005	19.995	103.222	20.241	1.788	0.502
508.000	331.445	80.006	19.996	103.218	20.243	1.586	0.529
508.500	331.652	80.006	19.997	103.215	20.241	1.758	0.524
509.000	331.904	80.007	19.996	103.218	20.238	1.957	0.474
509.500	332.166	80.007	19.996	103.218	20.240	1.834	0.487
510.000	332.454	80.007	19.997	103.217	20.241	1.752	0.532
510.500	332.686	80.007	19.994	103.216	20.243	1.578	0.534
511.000	332.922	80.007	19.995	103.214	20.242	1.708	0.494
511.501	333.172	80.007	19.994	103.210	20.241	1.768	0.477
512.001	333.443	80.005	19.995	103.211	20.240	1.824	0.503
512.501	333.691	80.006	19.994	103.211	20.242	1.668	0.520
513.000	333.951	80.007	19.996	103.211	20.244	1.544	0.514
513.500	334.190	80.006	19.996	103.215	20.240	1.842	0.503
514.000	334.427	80.007	19.994	103.217	20.241	1.758	0.488
514.500	334.696	80.006	19.996	103.217	20.243	1.610	0.491
515.000	334.932	80.006	19.994	103.222	20.242	1.660	0.505
515.500	335.200	80.007	19.995	103.225	20.242	1.694	0.505
516.000	335.424	80.008	19.996	103.223	20.242	1.704	0.498
516.500	335.705	80.008	19.995	103.223	20.240	1.858	0.498
517.000	335.951	80.007	19.997	103.227	20.241	1.766	0.516
517.500	336.203	80.006	19.995	103.224	20.240	1.860	0.512
518.000	336.473	80.006	19.994	103.220	20.238	1.995	0.511
518.500	336.689	80.007	19.997	103.220	20.240	1.844	0.504
519.000	336.990	80.006	19.996	103.218	20.239	1.931	0.501
519.500	337.210	80.007	19.996	103.214	20.240	1.824	0.519
520.001	337.464	80.007	19.996	103.215	20.237	2.019	0.498
520.501	337.710	80.007	19.995	103.219	20.236	2.105	0.487
521.000	337.997	80.006	19.996	103.225	20.241	1.776	0.516
521.500	338.249	80.008	19.996	103.226	20.237	2.013	0.536
522.000	338.492	80.006	19.994	103.225	20.239	1.929	0.517
522.500	338.767	80.007	19.996	103.223	20.239	1.935	0.506
523.000	338.968	80.007	19.996	103.221	20.236	2.127	0.497
523.500	339.258	80.008	19.995	103.218	20.237	2.015	0.484
524.000	339.498	80.006	19.997	103.218	20.237	2.011	0.511
524.500	339.745	80.007	19.995	103.218	20.243	1.632	0.508
525.000	340.022	80.007	19.996	103.223	20.238	1.945	0.505
525.500	340.246	80.007	19.995	103.228	20.236	2.129	0.513
526.000	340.538	80.007	19.996	103.228	20.236	2.123	0.508
526.500	340.810	80.007	19.996	103.226	20.238	1.947	0.540
527.000	341.016	80.007	19.996	103.225	20.236	2.121	0.521
527.500	341.281	80.006	19.993	103.219	20.238	1.969	0.475
528.000	341.537	80.007	19.996	103.213	20.237	2.047	0.496
528.500	341.816	80.008	19.995	103.215	20.238	1.995	0.528
529.000	342.016	80.006	19.996	103.216	20.238	1.985	0.507
529.500	342.276	80.007	19.994	103.218	20.239	1.921	0.469
530.000	342.494	80.008	19.996	103.218	20.238	1.983	0.469
530.500	342.752	80.006	19.996	103.222	20.238	1.955	0.477
531.000	343.008	80.006	19.996	103.225	20.239	1.935	0.495
531.501	343.228	80.005	19.996	103.225	20.241	1.758	0.495
532.000	343.501	80.007	19.994	103.225	20.241	1.776	0.484
532.500	343.720	80.007	19.994	103.226	20.240	1.830	0.492
533.000	343.949	80.006	19.995	103.222	20.238	1.949	0.470
533.500	344.242	80.006	19.998	103.216	20.240	1.856	0.485
534.000	344.497	80.008	19.996	103.215	20.245	1.496	0.535
534.501	344.705	80.006	19.995	103.218	20.240	1.836	0.505
535.001	345.019	80.007	19.997	103.224	20.238	1.975	0.493
535.500	345.227	80.005	19.996	103.227	20.239	1.882	0.522
536.001	345.497	80.006	19.996	103.232	20.241	1.762	0.500
536.501	345.734	80.006	19.995	103.233	20.241	1.766	0.492
537.000	345.986	80.006	19.994	103.229	20.241	1.746	0.498
537.500	346.269	80.004	19.995	103.225	20.243	1.602	0.512
538.000	346.494	80.004	19.998	103.222	20.240	1.792	0.521
538.500	346.782	80.006	19.996	103.219	20.242	1.690	0.510
539.000	347.036	80.005	19.997	103.216	20.239	1.909	0.527
539.500	347.263	80.005	19.997	103.217	20.239	1.881	0.512
540.000	347.500	80.006	19.996	103.217	20.240	1.824	0.473
540.500	347.753	80.005	19.997	103.219	20.241	1.778	0.477
541.000	347.995	80.005	19.995	103.220	20.241	1.732	0.492
541.500	348.267	80.006	19.996	103.220	20.236	2.105	0.505
542.000	348.503	80.005	19.996	103.220	20.239	1.931	0.512
542.500	348.753	80.004	19.997	103.221	20.238	1.967	0.497
543.000	349.020	80.006	19.997	103.220	20.240	1.806	0.501
543.500	349.330	80.006	19.997	103.218	20.240	1.820	0.547
544.000	349.560	80.007	19.997	103.219	20.238	1.955	0.559
544.500	349.814	80.006	19.995	103.219	20.238	1.985	0.512
545.000	350.073	80.007	19.995	103.217	20.242	1.704	0.499
545.500	350.332	80.005	19.996	103.216	20.238	1.947	0.516
546.000	350.586	80.006	19.996	103.217	20.235	2.173	0.515
546.500	350.813	80.007	19.996	103.219	20.236	2.101	0.497
547.000	351.082	80.006	19.997	103.218	20.238	1.993	0.489
547.500	351.325	80.007	19.996	103.220	20.238	1.965	0.504
548.000	351.556	80.006	19.996	103.221	20.236	2.149	0.493
548.500	351.834	80.008	19.996	103.219	20.236	2.117	0.491
549.000	352.065	80.006	19.996	103.218	20.241	1.756	0.509
549.500	352.344	80.008	19.995	103.219	20.236	2.111	0.510
550.000	352.635	80.008	19.996	103.221	20.236	2.113	0.540
550.500	352.888	80.007	19.994	103.222	20.239	1.903	0.558
551.000	353.145	80.009	19.995	103.221	20.238	1.995	0.528
551.500	353.378	80.009	19.995	103.220	20.239	1.878	0.500
552.001	353.670	80.007	19.995	103.220	20.238	1.989	0.507
552.500	353.870	80.007	19.996	103.217	20.236	2.143	0.509
553.000	354.134	80.008	19.994	103.216	20.237	2.037	0.478
553.500	354.370	80.007	19.996	103.216	20.235	2.204	0.482
554.000	354.668	80.007	19.994	103.217	20.236	2.147	0.517
554.500	354.923	80.007	19.994	103.218	20.235	2.179	0.543
555.000	355.178	80.007	19.993	103.217	20.233	2.314	0.531
555.501	355.370	80.007	19.995	103.217	20.234	2.234	0.479
556.001	355.661	80.006	19.995	103.217	20.236	2.087	0.466
556.500	355.900	80.007	19.997	103.216	20.234	2.240	0.507
557.000	356.139	80.006	19.996	103.217	20.236	2.113	0.504
557.500	356.378	80.007	19.994	103.218	20.234	2.269	0.478
558.000	356.656	80.006	19.994	103.221	20.238	2.009	0.497
558.500	356.912	80.006	19.995	103.223	20.233	2.306	0.526
559.000	357.207	80.007	19.995	103.228	20.233	2.308	0.542
559.500	357.406	80.007	19.994	103.233	20.232	2.446	0.522
560.000	357.692	80.008	19.996	103.234	20.235	2.207	0.490
560.500	357.900	80.005	19.995	103.231	20.232	2.414	0.489
561.000	358.195	80.007	19.995	103.229	20.231	2.508	0.498
561.500	358.421	80.005	19.996	103.225	20.230	2.560	0.512
562.000	358.684	80.006	19.996	103.219	20.233	2.330	0.506
562.500	358.945	80.006	19.994	103.217	20.232	2.382	0.507
563.000	359.197	80.007	19.995	103.219	20.234	2.264	0.518
563.500	359.429	80.006	19.996	103.226	20.230	2.539	0.498
564.000	359.722	80.005	19.998	103.231	20.230	2.585	0.505
564.501	359.987	80.007	19.995	103.232	20.231	2.508	0.541
565.000	360.225	80.005	19.997	103.230	20.233	2.308	0.531
565.500	360.461	80.006	19.996	103.233	20.230	2.532	0.489
566.000	360.704	80.007	19.996	103.232	20.232	2.434	0.476
566.500	360.976	80.007	19.997	103.232	20.229	2.610	0.497
567.000	361.231	80.007	19.996	103.232	20.231	2.500	0.521
567.500	361.505	80.005	19.996	103.235	20.231	2.496	0.528
568.000	361.763	80.005	19.995	103.230	20.226	2.817	0.531
568.500	361.971	80.007	19.996	103.223	20.228	2.681	0.499
569.000	362.245	80.007	19.996	103.222	20.227	2.805	0.474
569.500	362.475	80.007	19.996	103.223	20.230	2.541	0.493
570.000	362.745	80.008	19.995	103.222	20.226	2.845	0.502
570.500	362.987	80.007	19.997	103.222	20.221	3.210	0.506
571.000	363.265	80.007	19.997	103.222	20.225	2.944	0.516
571.500	363.501	80.007	19.995	103.220	20.226	2.861	0.517
572.000	363.746	80.007	19.995	103.222	20.227	2.809	0.497
572.500	364.002	80.008	19.996	103.225	20.226	2.845	0.491
573.001	364.240	80.007	19.995	103.229	20.222	3.154	0.498
573.500	364.551	80.008	19.997	103.233	20.223	3.044	0.522
574.000	364.745	80.007	19.996	103.239	20.221	3.238	0.526
574.500	365.007	80.008	19.996	103.241	20.221	3.182	0.480
575.000	365.277	80.008	19.996	103.240	20.223	3.086	0.494
575.500	365.524	80.007	19.997	103.235	20.220	3.252	0.525
576.000	365.776	80.007	19.996	103.234	20.220	3.322	0.508
576.500	366.052	80.008	19.996	103.228	20.219	3.333	0.514
577.000	366.295	80.008	19.996	103.221	20.218	3.437	0.524
577.500	366.541	80.007	19.997	103.219	20.218	3.427	0.504
578.000	366.798	80.009	19.994	103.225	20.218	3.401	0.496
578.500	367.074	80.008	19.995	103.227	20.215	3.617	0.518
579.000	367.337	80.009	19.995	103.233	20.218	3.401	0.536
579.500	367.573	80.008	19.997	103.240	20.216	3.575	0.519
580.000	367.812	80.008	19.996	103.246	20.216	3.587	0.487
580.500	368.095	80.009	19.996	103.244	20.216	3.569	0.498
581.000	368.330	80.010	19.995	103.243	20.215	3.647	0.519
581.500	368.596	80.009	19.997	103.242	20.214	3.754	0.509
582.000	368.852	80.008	19.995	103.239	20.214	3.714	0.511
582.500	369.101	80.009	19.996	103.237	20.212	3.898	0.513
583.000	369.368	80.007	19.994	103.239	20.210	4.035	0.511
583.500	369.614	80.009	19.995	103.238	20.208	4.133	0.515
584.000	369.878	80.009	19.995	103.235	20.205	4.390	0.512
584.500	370.126	80.009	19.996	103.235	20.206	4.277	0.511
585.000	370.375	80.008	19.995	103.231	20.210	4.035	0.505
585.500	370.655	80.009	19.995	103.229	20.205	4.374	0.513
586.000	370.904	80.009	19.995	103.226	20.203	4.496	0.529
586.500	371.159	80.007	19.995	103.230	20.203	4.548	0.516
587.000	371.369	80.008	19.995	103.233	20.203	4.538	0.484
587.500	371.651	80.008	19.995	103.238	20.200	4.737	0.478
588.000	371.890	80.006	19.996	103.241	20.200	4.743	0.506
588.500	372.139	80.006	19.995	103.244	20.202	4.594	0.505
589.000	372.415	80.007	19.997	103.244	20.199	4.835	0.507
589.500	372.668	80.005	19.995	103.241	20.195	5.086	0.527
590.000	372.933	80.006	19.996	103.241	20.195	5.076	0.523
590.500	373.167	80.006	19.996	103.242	20.197	4.993	0.509
591.000	373.473	80.006	19.996	103.240	20.193	5.238	0.520
591.500	373.705	80.005	19.995	103.239	20.189	5.533	0.538
592.000	373.963	80.006	19.996	103.242	20.192	5.348	0.514
592.500	374.225	80.005	19.996	103.243	20.190	5.441	0.506
593.000	374.487	80.006	19.996	103.245	20.186	5.794	0.522
593.500	374.736	80.004	19.997	103.246	20.189	5.541	0.517
594.000	374.999	80.006	19.996	103.247	20.183	5.956	0.512
594.500	375.293	80.005	19.997	103.246	20.185	5.860	0.535
595.000	375.504	80.007	19.997	103.246	20.184	5.920	0.531
595.500	375.777	80.006	19.996	103.246	20.182	6.062	0.495
596.000	376.033	80.006	19.996	103.246	20.180	6.235	0.507
596.500	376.297	80.005	19.997	103.246	20.177	6.403	0.525
597.000	376.544	80.006	19.996	103.246	20.179	6.251	0.516
597.500	376.827	80.005	19.996	103.247	20.174	6.612	0.520
598.000	377.094	80.005	19.996	103.247	20.172	6.756	0.540
598.500	377.274	80.004	19.999	103.247	20.175	6.596	0.499
599.000	377.589	80.005	19.997	103.248	20.171	6.859	0.471
599.500	377.845	80.007	19.998	103.249	20.170	6.903	0.533
600.000	378.094	80.005	19.996	103.249	20.171	6.838	0.538
600.500	378.347	80.005	19.995	103.249	20.168	7.067	0.503
601.000	378.613	80.005	19.996	103.249	20.164	7.342	0.511
601.500	378.857	80.005	19.996	103.250	20.167	7.153	0.515
602.000	379.136	80.005	19.995	103.250	20.161	7.587	0.516
602.500	379.412	80.005	19.996	103.250	20.161	7.603	0.539
603.000	379.655	80.006	19.996	103.251	20.160	7.679	0.537
603.500	379.905	80.006	19.995	103.251	20.154	8.127	0.506
604.000	380.168	80.005	19.996	103.250	20.152	8.228	0.503
604.500	380.463	80.005	19.994	103.251	20.153	8.164	0.535
605.000	380.724	80.004	19.995	103.251	20.150	8.404	0.556
605.500	380.956	80.007	19.995	103.252	20.147	8.601	0.524
606.000	381.203	80.007	19.996	103.252	20.147	8.629	0.486
606.500	381.505	80.008	19.996	103.253	20.145	8.753	0.514
607.000	381.714	80.007	19.995	103.253	20.145	8.772	0.530
607.500	382.012	80.006	19.995	103.253	20.144	8.822	0.509
608.000	382.283	80.008	19.995	103.253	20.142	9.003	0.538
608.500	382.525	80.008	19.994	103.252	20.143	8.875	0.540
609.001	382.805	80.006	19.994	103.252	20.142	8.991	0.517
609.500	383.075	80.007	19.994	103.252	20.141	9.047	0.536
610.000	383.316	80.008	19.996	103.252	20.137	9.328	0.531
610.500	383.620	80.007	19.996	103.252	20.142	8.981	0.528
611.000	383.845	80.007	19.995	103.252	20.139	9.195	0.537
611.500	384.119	80.006	19.994	103.252	20.141	9.077	0.514
612.000	384.356	80.006	19.994	103.253	20.134	9.526	0.505
612.500	384.604	80.006	19.994	103.253	20.132	9.695	0.498
613.000	384.879	80.006	19.994	103.253	20.130	9.847	0.504
613.500	385.141	80.006	19.997	103.257	20.132	9.704	0.530
614.000	385.457	80.007	19.994	103.260	20.130	9.813	0.558
614.500	385.692	80.007	19.994	103.266	20.129	9.915	0.564
615.000	385.947	80.007	19.994	103.270	20.130	9.863	0.520
615.500	386.187	80.007	19.993	103.272	20.126	10.128	0.493
616.000	386.468	80.006	19.994	103.271	20.125	10.194	0.508
616.500	386.696	80.007	19.995	103.271	20.122	10.425	0.515
617.000	386.980	80.005	19.995	103.270	20.123	10.329	0.510
617.500	387.265	80.006	19.997	103.273	20.122	10.424	0.541
618.001	387.496	80.006	19.994	103.275	20.118	10.755	0.543
618.500	387.747	80.006	19.995	103.279	20.120	10.606	0.499
619.000	388.003	80.005	19.995	103.281	20.117	10.769	0.495
619.500	388.296	80.006	19.994	103.282	20.115	10.943	0.528
620.000	388.553	80.007	19.994	103.281	20.114	11.013	0.550
620.500	388.790	80.005	19.994	103.280	20.112	11.199	0.522
621.000	389.053	80.006	19.994	103.280	20.109	11.373	0.497
621.500	389.374	80.005	19.994	103.280	20.105	11.692	0.542
622.000	389.602	80.004	19.995	103.280	20.103	11.789	0.567
622.501	389.877	80.004	19.993	103.277	20.101	11.991	0.526
623.001	390.103	80.004	19.996	103.280	20.097	12.239	0.502
623.500	390.374	80.005	19.995	103.279	20.096	12.353	0.499
624.000	390.655	80.005	19.996	103.276	20.092	12.587	0.524
624.500	390.905	80.006	19.995	103.277	20.089	12.809	0.541
625.000	391.184	80.006	19.995	103.279	20.089	12.849	0.530
625.500	391.462	80.005	19.994	103.274	20.086	13.082	0.543
626.000	391.679	80.005	19.996	103.273	20.082	13.314	0.526
626.500	391.988	80.005	19.994	103.276	20.080	13.477	0.510
627.000	392.184	80.004	19.996	103.276	20.076	13.814	0.515
627.500	392.476	80.005	19.997	103.278	20.071	14.117	0.497
628.000	392.724	80.005	19.994	103.285	20.065	14.560	0.515
628.500	392.984	80.006	19.995	103.288	20.061	14.882	0.524
629.000	393.276	80.006	19.996	103.286	20.054	15.419	0.529
629.500	393.540	80.005	19.995	103.288	20.051	15.627	0.554
630.000	393.809	80.006	19.995	103.293	20.045	16.041	0.545
630.500	394.060	80.007	19.996	103.299	20.041	16.316	0.526
631.000	394.311	80.008	19.994	103.297	20.036	16.703	0.511
631.500	394.583	80.007	19.994	103.296	20.038	16.557	0.513
632.000	394.863	80.007	19.994	103.296	20.029	17.253	0.537
632.500	395.136	80.007	19.995	103.289	20.028	17.319	0.552
633.000	395.379	80.007	19.996	103.280	20.029	17.221	0.535
633.500	395.663	80.007	19.996	103.275	20.027	17.384	0.521
634.000	395.916	80.007	19.996	103.273	20.021	17.805	0.532
634.500	396.225	80.006	19.996	103.265	20.023	17.692	0.550
635.000	396.425	80.008	19.995	103.261	20.022	17.732	0.536
635.500	396.700	80.008	19.995	103.256	20.019	17.979	0.492
636.000	396.962	80.007	19.997	103.255	20.016	18.141	0.506
636.500	397.214	80.007	19.996	103.254	20.017	18.059	0.525
637.000	397.485	80.008	19.995	103.254	20.014	18.313	0.518
637.500	397.754	80.007	19.994	103.253	20.011	18.515	0.531
638.000	397.996	80.008	19.996	103.261	20.010	18.640	0.525
638.500	398.239	80.008	19.996	103.274	20.005	18.939	0.498
639.000	398.495	80.008	19.997	103.288	20.003	19.125	0.492
639.500	398.785	80.009	19.995	103.303	20.001	19.274	0.522
640.000	399.028	80.008	19.995	103.316	19.999	19.402	0.539
640.500	399.306	80.009	19.995	103.324	19.991	19.980	0.528
641.000	399.568	80.008	19.994	103.326	19.987	20.283	0.531
641.500	399.779	80.009	19.994	103.328	19.985	20.405	0.506
642.000	400.040	80.008	19.994	103.328	19.981	20.699	0.472
642.500	400.297	80.009	19.994	103.328	19.978	20.978	0.495
643.000	400.547	80.009	19.995	103.327	19.975	21.142	0.513
643.500	400.859	80.009	19.994	103.327	19.970	21.545	0.535
644.000	401.100	80.007	19.994	103.327	19.966	21.791	0.557
644.500	401.332	80.008	19.994	103.327	19.962	22.140	0.513
645.001	401.592	80.008	19.995	103.325	19.957	22.503	0.483
645.500	401.856	80.008	19.995	103.323	19.949	23.086	0.508
646.000	402.118	80.010	19.996	103.323	19.946	23.266	0.525
646.500	402.358	80.008	19.996	103.323	19.943	23.471	0.514
647.000	402.608	80.008	19.995	103.323	19.939	23.766	0.496
647.500	402.900	80.007	19.995	103.325	19.937	23.932	0.516
648.000	403.119	80.007	19.995	103.327	19.931	24.404	0.526
648.500	403.411	80.008	19.995	103.327	19.928	24.625	0.511
649.000	403.653	80.006	19.994	103.327	19.923	24.951	0.523
649.500	403.917	80.008	19.994	103.326	19.918	25.300	0.520
650.000	404.168	80.007	19.994	103.327	19.915	25.556	0.511
650.500	404.448	80.007	19.996	103.327	19.910	25.934	0.523
651.000	404.636	80.007	19.994	103.327	19.904	26.361	0.500
651.500	404.908	80.008	19.994	103.327	19.900	26.608	0.464
652.000	405.190	80.008	19.997	103.327	19.894	27.080	0.507
652.500	405.468	80.007	19.997	103.332	19.884	27.774	0.557
653.000	405.685	80.008	19.996	103.340	19.880	28.076	0.528
653.500	405.944	80.007	19.995	103.348	19.876	28.397	0.485
654.000	406.162	80.008	19.995	103.356	19.868	28.997	0.476
654.500	406.403	80.006	19.996	103.363	19.858	29.712	0.468
655.000	406.654	80.007	19.995	103.365	19.851	30.228	0.476
655.500	406.938	80.008	19.995	103.366	19.844	30.761	0.514
656.000	407.185	80.008	19.995	103.366	19.832	31.627	0.533
656.500	407.438	80.007	19.995	103.369	19.825	32.145	0.515
657.000	407.698	80.007	19.995	103.373	19.816	32.804	0.507
657.500	407.949	80.007	19.993	103.372	19.808	33.365	0.512
658.000	408.219	80.007	19.996	103.371	19.803	33.745	0.516
658.500	408.459	80.008	19.997	103.378	19.794	34.369	0.515
659.000	408.702	80.009	19.996	103.381	19.785	35.050	0.497
659.500	408.920	80.007	19.994	103.379	19.776	35.733	0.472
660.000	409.224	80.007	19.995	103.382	19.769	36.203	0.491
660.500	409.455	80.009	19.996	103.384	19.757	37.070	0.528
661.000	409.713	80.009	19.996	103.378	19.752	37.500	0.512
661.500	409.983	80.008	19.997	103.372	19.745	37.997	0.509
662.000	410.200	80.007	19.994	103.371	19.733	38.842	0.508
662.500	410.455	80.008	19.996	103.369	19.724	39.527	0.479
663.000	410.714	80.008	19.995	103.369	19.713	40.290	0.493
663.500	410.974	80.008	19.997	103.369	19.704	40.966	0.517
664.000	411.242	80.008	19.996	103.369	19.697	41.479	0.523
664.500	411.508	80.009	19.996	103.377	19.684	42.462	0.531
665.001	411.736	80.009	19.996	103.392	19.676	43.006	0.514
665.500	412.021	80.008	19.996	103.406	19.666	43.812	0.504
666.000	412.248	80.007	19.996	103.419	19.657	44.410	0.512
666.500	412.507	80.009	19.994	103.434	19.646	45.249	0.499
667.000	412.693	80.010	19.995	103.440	19.638	45.816	0.466
667.500	412.940	80.008	19.995	103.441	19.630	46.426	0.439
668.000	413.213	80.009	19.995	103.441	19.621	47.060	0.476
668.500	413.465	80.009	19.995	103.443	19.612	47.767	0.523
669.000	413.713	80.008	19.995	103.442	19.606	48.137	0.513
669.500	413.928	80.008	19.995	103.441	19.598	48.784	0.481
670.000	414.174	80.009	19.997	103.440	19.585	49.666	0.462
670.500	414.422	80.007	19.995	103.440	19.580	50.097	0.478
671.000	414.674	80.008	19.995	103.440	19.572	50.616	0.497
671.500	414.921	80.007	19.996	103.442	19.563	51.315	0.500
672.000	415.165	80.008	19.996	103.443	19.553	52.007	0.495
672.500	415.412	80.006	19.995	103.445	19.542	52.830	0.491
673.001	415.668	80.006	19.996	103.448	19.532	53.595	0.497
673.501	415.907	80.004	19.995	103.457	19.520	54.446	0.499
674.000	416.146	80.005	19.994	103.466	19.508	55.370	0.486
674.500	416.366	80.006	19.996	103.474	19.492	56.526	0.469
675.000	416.650	80.007	19.995	103.480	19.474	57.866	0.482
675.500	416.923	80.006	19.995	103.490	19.452	59.469	0.530
676.000	417.143	80.005	19.995	103.504	19.436	60.646	0.525
676.500	417.397	80.004	19.994	103.527	19.419	61.910	0.483
677.000	417.624	80.005	19.994	103.542	19.403	63.116	0.478
677.500	417.903	80.006	19.995	103.553	19.388	64.150	0.493
678.000	418.148	80.005	19.995	103.557	19.376	65.050	0.515
678.500	418.401	80.006	19.994	103.557	19.360	66.218	0.511
679.000	418.627	80.006	19.995	103.549	19.353	66.749	0.489
679.500	418.894	80.005	19.995	103.544	19.340	67.682	0.486
680.000	419.135	80.005	19.995	103.540	19.326	68.692	0.500
680.500	419.375	80.004	19.994	103.538	19.313	69.669	0.494
681.000	419.600	80.007	19.995	103.532	19.301	70.498	0.473
681.501	419.821	80.005	19.995	103.525	19.289	71.378	0.456
682.000	420.095	80.006	19.997	103.522	19.273	72.548	0.471
682.500	420.368	80.005	19.995	103.521	19.253	74.040	0.521
683.000	420.615	80.005	19.995	103.516	19.240	74.989	0.534
683.500	420.840	80.005	19.996	103.510	19.224	76.182	0.496
684.000	421.087	80.006	19.995	103.508	19.204	77.653	0.472
684.500	421.324	80.006	19.996	103.517	19.188	78.845	0.479
685.000	421.620	80.006	19.995	103.546	19.170	80.208	0.509
685.500	421.877	80.006	19.996	103.574	19.153	81.445	0.543
686.000	422.104	80.005	19.996	103.604	19.136	82.693	0.518
686.500	422.337	80.005	19.995	103.630	19.121	83.785	0.472
687.000	422.588	80.006	19.996	103.650	19.107	84.789	0.472
687.500	422.862	80.006	19.996	103.653	19.093	85.793	0.504
688.000	423.109	80.004	19.996	103.659	19.078	86.929	0.523
688.500	423.332	80.006	19.996	103.659	19.065	87.884	0.495
689.000	423.588	80.005	19.997	103.650	19.047	89.174	0.474
689.500	423.803	80.003	19.995	103.637	19.032	90.277	0.475
690.000	424.114	80.004	19.995	103.627	19.019	91.283	0.498
690.500	424.333	80.004	19.996	103.620	19.004	92.318	0.528
691.000	424.567	80.005	19.996	103.622	18.985	93.730	0.491
691.500	424.846	80.005	19.997	103.630	18.976	94.412	0.483
692.000	425.051	80.006	19.996	103.629	18.960	95.583	0.499
692.500	425.322	80.006	19.997	103.627	18.945	96.649	0.480
693.000	425.576	80.007	19.994	103.627	18.930	97.749	0.500
693.500	425.788	80.005	19.996	103.634	18.915	98.874	0.495
694.000	426.061	80.006	19.996	103.644	18.893	100.495	0.475
694.500	426.298	80.006	19.996	103.665	18.875	101.829	0.498
695.000	426.552	80.005	19.997	103.685	18.859	103.051	0.501
695.500	426.799	80.006	19.996	103.708	18.837	104.655	0.496
696.000	427.074	80.007	19.997	103.729	18.818	106.095	0.512
696.500	427.330	80.007	19.996	103.742	18.802	107.243	0.527
697.000	427.568	80.006	19.996	103.751	18.785	108.483	0.513
697.500	427.802	80.006	19.995	103.754	18.766	109.934	0.483
698.000	428.077	80.006	19.996	103.747	18.746	111.404	0.490
698.500	428.288	80.007	19.996	103.734	18.728	112.676	0.498
699.000	428.574	80.006	19.995	103.733	18.713	113.787	0.492
699.500	428.829	80.007	19.996	103.734	18.696	115.006	0.519
700.000	429.087	80.005	19.995	103.734	18.679	116.257	0.527
700.500	429.310	80.007	19.995	103.737	18.661	117.608	0.497
701.000	429.558	80.006	19.994	103.745	18.641	119.048	0.476
701.500	429.824	80.005	19.995	103.747	18.626	120.138	0.493
702.000	430.079	80.005	19.995	103.746	18.613	121.129	0.518
702.501	430.325	80.005	19.996	103.750	18.597	122.320	0.511
703.000	430.581	80.006	19.995	103.754	18.583	123.351	0.501
703.500	430.786	80.005	19.995	103.751	18.566	124.620	0.481
704.000	431.092	80.005	19.995	103.751	18.546	126.084	0.486
704.500	431.331	80.006	19.993	103.763	18.530	127.255	0.528
705.000	431.584	80.006	19.995	103.780	18.512	128.592	0.518
705.500	431.810	80.006	19.996	103.796	18.497	129.735	0.486
706.000	432.076	80.006	19.996	103.814	18.477	131.155	0.486
706.500	432.355	80.006	19.994	103.829	18.463	132.262	0.518
707.000	432.562	80.006	19.995	103.835	18.445	133.593	0.515
707.500	432.839	80.006	19.994	103.842	18.430	134.689	0.485
708.000	433.068	80.004	19.995	103.849	18.417	135.647	0.495
708.500	433.356	80.005	19.995	103.858	18.398	137.058	0.512
709.000	433.572	80.005	19.996	103.865	18.386	137.972	0.511
709.500	433.845	80.006	19.995	103.871	18.370	139.108	0.497
710.000	434.096	80.007	19.996	103.869	18.355	140.193	0.507
710.501	434.317	80.005	19.997	103.865	18.342	141.169	0.498
711.001	434.618	80.007	19.996	103.859	18.332	141.860	0.497
711.500	434.814	80.005	19.995	103.856	18.323	142.497	0.509
712.000	435.066	80.007	19.998	103.857	18.309	143.543	0.473
712.500	435.339	80.005	19.995	103.861	18.297	144.425	0.487
713.000	435.576	80.006	19.994	103.864	18.285	145.350	0.518
713.500	435.849	80.007	19.995	103.870	18.271	146.386	0.510
714.000	436.093	80.007	19.995	103.879	18.259	147.238	0.513
714.500	436.288	80.007	19.995	103.885	18.246	148.213	0.478
715.000	436.556	80.008	19.994	103.893	18.230	149.397	0.451
715.500	436.800	80.008	19.994	103.901	18.216	150.453	0.487
716.000	437.089	80.006	19.995	103.914	18.199	151.659	0.522
716.500	437.360	80.007	19.994	103.922	18.186	152.664	0.547
717.000	437.607	80.007	19.995	103.933	18.172	153.715	0.539
717.500	437.838	80.006	19.994	103.947	18.155	154.964	0.498
718.000	438.126	80.008	19.997	103.961	18.141	155.988	0.499
718.500	438.347	80.007	19.998	103.975	18.125	157.171	0.514
719.000	438.596	80.008	19.994	103.989	18.108	158.401	0.490
719.500	438.873	80.007	19.996	103.996	18.096	159.309	0.498
720.000	439.079	80.007	19.995	103.998	18.084	160.218	0.504
720.500	439.359	80.007	19.995	103.995	18.073	161.020	0.484
721.000	439.587	80.009	19.996	103.986	18.062	161.829	0.497
721.500	439.827	80.008	19.995	103.980	18.052	162.529	0.488
722.000	440.108	80.009	19.995	103.974	18.038	163.589	0.494
722.500	440.376	80.007	19.995	103.969	18.030	164.209	0.535
723.000	440.601	80.008	19.995	103.971	18.019	165.019	0.521
723.500	440.876	80.007	19.994	103.974	18.005	166.026	0.496
724.000	441.085	80.007	19.996	103.973	17.992	166.941	0.492
724.500	441.364	80.008	19.997	103.978	17.982	167.716	0.485
725.000	441.597	80.008	19.994	103.982	17.970	168.631	0.500
725.500	441.887	80.007	19.995	103.984	17.959	169.393	0.518
726.000	442.133	80.007	19.995	103.989	17.949	170.156	0.530
726.500	442.365	80.009	19.995	103.997	17.938	170.973	0.507
727.000	442.610	80.008	19.995	104.006	17.927	171.753	0.478
727.500	442.878	80.009	19.996	104.014	17.919	172.340	0.495
728.000	443.122	80.008	19.996	104.022	17.908	173.161	0.513
728.500	443.396	80.007	19.995	104.028	17.900	173.778	0.515
729.000	443.637	80.007	19.996	104.032	17.893	174.284	0.517
729.500	443.902	80.006	19.995	104.039	17.885	174.882	0.510
730.000	444.146	80.008	19.996	104.046	17.873	175.776	0.508
730.500	444.400	80.008	19.996	104.055	17.867	176.217	0.503
731.000	444.651	80.007	19.996	104.062	17.859	176.775	0.501
731.500	444.906	80.007	19.994	104.067	17.853	177.234	0.505
732.000	445.187	80.008	19.996	104.065	17.843	177.916	0.521
732.500	445.439	80.007	19.995	104.063	17.836	178.414	0.535
733.000	445.662	80.009	19.994	104.060	17.829	178.928	0.504
733.500	445.952	80.009	19.995	104.059	17.822	179.435	0.494
734.000	446.157	80.008	19.995	104.060	17.816	179.897	0.504
734.500	446.420	80.008	19.995	104.064	17.808	180.441	0.481
735.000	446.703	80.008	19.996	104.066	17.801	180.980	0.507
735.500	446.951	80.008	19.994	104.069	17.802	180.888	0.539
736.000	447.165	80.009	19.995	104.071	17.793	181.550	0.497
736.500	447.433	80.007	19.993	104.070	17.788	181.935	0.472
737.000	447.681	80.010	19.992	104.071	17.781	182.424	0.499
737.500	447.990	80.008	19.994	104.071	17.781	182.396	0.537
738.000	448.168	80.008	19.996	104.073	17.776	182.791	0.522
738.500	448.464	80.007	19.995	104.075	17.776	182.802	0.481
739.000	448.687	80.008	19.994	104.080	17.775	182.842	0.497
739.500	448.968	80.008	19.995	104.082	17.775	182.884	0.511
740.000	449.202	80.010	19.995	104.085	17.774	182.955	0.509
740.500	449.414	80.009	19.994	104.087	17.773	182.964	0.480
741.000	449.737	80.009	19.994	104.085	17.774	182.904	0.490
741.500	449.958	80.009	19.995	104.081	17.779	182.525	0.540
742.000	450.212	80.009	19.994	104.079	17.779	182.536	0.509
742.500	450.505	80.009	19.995	104.074	17.784	182.140	0.511
743.000	450.696	80.011	19.995	104.070	17.789	181.731	0.515
743.500	450.995	80.009	19.995	104.069	17.794	181.386	0.487
744.000	451.252	80.009	19.994	104.068	17.802	180.748	0.523
744.500	451.498	80.011	19.995	104.066	17.806	180.478	0.530
745.000	451.739	80.010	19.994	104.064	17.816	179.753	0.495
745.500	452.035	80.009	19.994	104.056	17.823	179.208	0.512
746.000	452.235	80.009	19.994	104.049	17.832	178.509	0.517
746.500	452.515	80.009	19.994	104.041	17.843	177.686	0.488
747.000	452.716	80.008	19.995	104.035	17.855	176.770	0.480
747.500	452.983	80.008	19.995	104.032	17.868	175.837	0.474
748.000	453.280	80.010	19.994	104.031	17.876	175.239	0.516
748.500	453.542	80.009	19.994	104.031	17.896	173.763	0.562
749.000	453.705	80.008	19.995	104.031	17.903	173.212	0.492
749.500	454.063	80.010	19.994	104.030	17.921	171.900	0.473
750.000	454.239	80.010	19.994	104.029	17.939	170.524	0.527
750.500	454.519	80.007	19.994	104.030	17.964	168.698	0.494
751.000	454.774	80.008	19.996	104.030	17.981	167.454	0.495
751.500	455.059	80.009	19.995	104.023	17.992	166.590	0.538
752.000	455.301	80.007	19.995	104.015	18.000	166.040	0.533
752.500	455.532	80.007	19.996	104.008	18.016	164.807	0.500
753.000	455.881	80.007	19.995	104.000	18.045	162.657	0.527
753.500	456.053	80.008	19.994	103.992	18.064	161.277	0.551
754.000	456.427	80.007	19.996	103.988	18.089	159.406	0.533
754.500	456.591	80.006	19.996	103.983	18.111	157.807	0.542
755.000	456.879	80.006	19.995	103.977	18.133	156.192	0.495
755.500	457.231	80.006	19.996	103.969	18.156	154.474	0.546
756.000	457.392	80.005	19.996	103.962	18.178	152.837	0.576
756.501	457.582	80.006	19.995	103.951	18.205	150.891	0.432
757.000	458.010	80.006	19.995	103.943	18.228	149.178	0.484
757.500	458.186	80.006	19.996	103.934	18.255	147.192	0.611
758.000	458.395	80.005	19.996	103.925	18.281	145.223	0.495
758.500	458.689	80.007	19.994	103.915	18.301	143.767	0.444
759.000	458.957	80.005	19.995	103.905	18.331	141.569	0.532
759.500	459.148	80.006	19.995	103.896	18.356	139.688	0.510
760.000	459.312	80.007	19.994	103.882	18.387	137.457	0.407
760.500	459.733	80.005	19.995	103.870	18.414	135.407	0.470
761.000	460.152	80.006	19.997	103.858	18.442	133.364	0.712
761.500	460.297	80.007	19.998	103.852	18.472	131.183	0.702
762.000	460.481	80.007	19.997	103.844	18.497	129.313	0.446
762.500	460.742	80.006	19.996	103.839	18.523	127.437	0.387
763.000	461.016	80.007	19.995	103.828	18.551	125.380	0.490
763.500	461.114	80.006	19.994	103.819	18.585	122.879	0.454
764.000	461.850	80.006	19.996	103.809	18.609	121.097	0.603
764.500	462.075	80.007	19.995	103.798	18.641	118.788	0.897
765.001	462.352	80.009	19.996	103.789	18.669	116.741	0.731
765.500	462.723	80.007	19.997	103.781	18.703	114.215	0.575
766.000	462.611	80.008	19.995	103.773	18.733	111.999	0.454
766.500	462.401	80.007	19.997	103.763	18.770	109.334	-0.031
767.000	463.132	80.006	19.995	103.755	18.802	106.980	0.099
767.500	463.309	80.007	19.995	103.744	18.832	104.738	0.714
768.000	463.491	80.006	19.996	103.736	18.866	102.289	0.633
768.500	463.926	80.006	19.996	103.726	18.902	99.666	0.488
769.000	464.058	80.007	19.996	103.714	18.935	97.247	0.592
769.500	464.262	80.006	19.995	103.701	18.966	94.915	0.451
770.000	464.622	80.007	19.994	103.693	18.997	92.667	0.450
770.500	464.802	80.007	19.996	103.680	19.030	90.249	0.552
771.000	465.097	80.006	19.995	103.666	19.060	88.049	0.508
771.500	465.329	80.008	19.995	103.657	19.092	85.700	0.501
772.000	465.617	80.007	19.997	103.649	19.119	83.678	0.524
772.500	465.804	80.007	19.995	103.641	19.154	81.186	0.497
773.000	466.056	80.009	19.996	103.636	19.184	78.988	0.457
773.500	466.338	80.007	19.995	103.633	19.214	76.745	0.486
774.000	466.647	80.006	19.996	103.629	19.241	74.748	0.563
774.500	466.911	80.007	19.995	103.622	19.271	72.559	0.582
775.000	467.071	80.007	19.995	103.616	19.297	70.693	0.498
775.500	467.450	80.007	19.996	103.610	19.323	68.768	0.481
776.000	467.602	80.006	19.994	103.605	19.349	66.888	0.535
776.500	467.933	80.006	19.995	103.593	19.376	64.931	0.507
777.000	468.133	80.006	19.997	103.585	19.398	63.301	0.507
777.500	468.451	80.005	19.996	103.576	19.422	61.575	0.524
778.000	468.662	80.007	19.998	103.567	19.446	59.806	0.523
778.500	468.900	80.007	19.997	103.561	19.467	58.272	0.489
779.000	469.208	80.008	19.996	103.560	19.490	56.585	0.497
779.500	469.369	80.007	19.997	103.556	19.512	54.999	0.507
780.000	469.693	80.007	19.996	103.548	19.529	53.706	0.477
780.500	469.937	80.007	19.995	103.534	19.553	51.999	0.527
781.000	470.173	80.008	19.997	103.518	19.569	50.800	0.524
781.500	470.465	80.006	19.996	103.503	19.588	49.412	0.504
782.000	470.712	80.008	19.996	103.491	19.608	47.940	0.533
782.500	470.988	80.007	19.996	103.483	19.622	46.912	0.531
783.000	471.248	80.008	19.996	103.479	19.638	45.722	0.529
783.500	471.507	80.007	19.998	103.473	19.656	44.451	0.527
784.000	471.720	80.006	19.996	103.466	19.673	43.224	0.495
784.500	472.010	80.005	19.996	103.457	19.688	42.105	0.487
785.000	472.229	80.006	19.996	103.447	19.704	40.952	0.506
785.500	472.501	80.006	19.997	103.440	19.721	39.721	0.501
786.000	472.781	80.006	19.997	103.437	19.736	38.622	0.522
786.500	473.002	80.005	19.997	103.434	19.749	37.627	0.527
787.000	473.258	80.006	19.996	103.431	19.763	36.656	0.489
787.500	473.585	80.006	19.997	103.428	19.773	35.875	0.530
788.000	473.846	80.007	19.997	103.423	19.784	35.086	0.585
788.500	474.099	80.004	19.995	103.416	19.795	34.322	0.551
789.000	474.365	80.006	19.997	103.410	19.808	33.320	0.517
789.500	474.654	80.006	19.997	103.404	19.817	32.660	0.537
790.000	474.896	80.006	19.998	103.399	19.832	31.611	0.543
790.500	475.160	80.005	19.996	103.392	19.838	31.115	0.518
791.000	475.402	80.007	19.996	103.385	19.851	30.173	0.506
791.500	475.652	80.007	19.995	103.378	19.861	29.439	0.499
792.000	475.947	80.006	19.997	103.372	19.871	28.738	0.519
792.500	476.177	80.008	19.997	103.367	19.882	27.936	0.535
793.000	476.440	80.007	19.998	103.366	19.891	27.321	0.509
793.500	476.675	80.008	19.997	103.366	19.900	26.632	0.495
794.000	476.911	80.007	19.995	103.366	19.910	25.897	0.484
794.500	477.218	80.007	19.996	103.366	19.916	25.490	0.507
795.000	477.450	80.006	19.997	103.366	19.927	24.648	0.541
795.500	477.694	80.008	19.996	103.363	19.934	24.167	0.508
796.000	477.979	80.008	19.996	103.362	19.944	23.388	0.503
796.500	478.263	80.009	19.995	103.361	19.946	23.240	0.549
797.000	478.505	80.007	19.995	103.358	19.956	22.572	0.547
797.500	478.776	80.007	19.996	103.350	19.963	22.007	0.519
798.000	479.048	80.008	19.995	103.344	19.969	21.612	0.528
798.500	479.332	80.007	19.994	103.338	19.975	21.133	0.550
799.001	479.551	80.008	19.995	103.331	19.982	20.671	0.530
799.500	479.793	80.005	19.994	103.328	19.987	20.304	0.482
800.000	480.097	80.009	19.995	103.328	19.993	19.840	0.504
800.500	480.325	80.008	19.996	103.327	20.000	19.318	0.539
801.000	480.604	80.009	19.995	103.324	20.007	18.847	0.520
801.500	480.832	80.009	19.995	103.321	20.010	18.597	0.507
802.000	481.073	80.008	19.995	103.321	20.015	18.246	0.488
802.500	481.369	80.009	19.994	103.320	20.024	17.582	0.503
803.000	481.605	80.009	19.995	103.319	20.029	17.243	0.534
803.500	481.872	80.009	19.993	103.322	20.031	17.082	0.517
804.000	482.126	80.008	19.994	103.323	20.038	16.581	0.512
804.500	482.365	80.008	19.994	103.321	20.044	16.143	0.507
805.001	482.609	80.008	19.994	103.319	20.046	15.966	0.488
805.501	482.895	80.009	19.995	103.314	20.051	15.642	0.506
806.000	483.165	80.010	19.995	103.309	20.056	15.268	0.543
806.500	483.429	80.007	19.996	103.304	20.058	15.125	0.545
807.000	483.652	80.008	19.996	103.302	20.066	14.519	0.511
807.500	483.950	80.008	19.997	103.300	20.066	14.514	0.504
808.000	484.178	80.008	19.994	103.301	20.074	13.897	0.523
808.500	484.440	80.008	19.994	103.298	20.077	13.701	0.508
809.000	484.700	80.009	19.994	103.299	20.076	13.795	0.506
809.500	484.962	80.009	19.995	103.302	20.081	13.427	0.522
810.000	485.207	80.008	19.995	103.299	20.089	12.849	0.514
810.500	485.505	80.007	19.993	103.298	20.091	12.659	0.525
811.000	485.770	80.008	19.995	103.295	20.093	12.537	0.554
811.500	486.035	80.006	19.995	103.294	20.096	12.338	0.546
812.000	486.293	80.006	19.995	103.288	20.099	12.118	0.526
812.500	486.535	80.008	19.994	103.288	20.102	11.867	0.511
813.000	486.790	80.007	19.995	103.288	20.107	11.512	0.498
813.500	487.055	80.007	19.995	103.289	20.109	11.373	0.509
814.000	487.266	80.008	19.995	103.289	20.114	11.012	0.499
814.500	487.508	80.008	19.995	103.289	20.117	10.821	0.464
815.000	487.775	80.007	19.994	103.289	20.118	10.707	0.481
815.500	488.020	80.008	19.995	103.289	20.123	10.348	0.511
816.000	488.335	80.006	19.995	103.284	20.123	10.362	0.536
816.500	488.608	80.007	19.994	103.277	20.126	10.105	0.574
817.001	488.869	80.006	19.996	103.270	20.130	9.842	0.560
817.500	489.115	80.007	19.995	103.267	20.128	9.966	0.520
818.000	489.344	80.008	19.994	103.266	20.134	9.539	0.491
818.500	489.634	80.007	19.995	103.270	20.137	9.353	0.497
819.000	489.866	80.007	19.995	103.277	20.137	9.311	0.520
819.500	490.158	80.008	19.996	103.285	20.141	9.058	0.523
820.001	490.419	80.008	19.995	103.282	20.144	8.815	0.539
820.501	490.658	80.007	19.995	103.277	20.147	8.641	0.527
821.000	490.913	80.008	19.995	103.270	20.148	8.500	0.497
821.500	491.207	80.007	19.994	103.262	20.148	8.502	0.521
822.001	491.440	80.009	19.995	103.259	20.152	8.213	0.538
822.500	491.726	80.007	19.996	103.261	20.150	8.384	0.523
823.000	491.942	80.009	19.994	103.260	20.152	8.208	0.511
823.500	492.240	80.008	19.995	103.260	20.153	8.206	0.508
824.000	492.490	80.009	19.995	103.260	20.157	7.885	0.531
824.500	492.754	80.008	19.994	103.255	20.157	7.857	0.531
825.000	493.051	80.010	19.995	103.252	20.158	7.782	0.537
825.500	493.299	80.010	19.995	103.253	20.161	7.559	0.553
826.000	493.536	80.010	19.995	103.256	20.165	7.284	0.515
826.500	493.840	80.011	19.996	103.255	20.164	7.350	0.513
827.000	494.112	80.010	19.996	103.255	20.165	7.326	0.559
827.500	494.347	80.010	19.994	103.252	20.165	7.278	0.541
828.000	494.648	80.010	19.995	103.249	20.167	7.114	0.521
828.500	494.918	80.009	19.995	103.245	20.167	7.150	0.554
829.000	495.175	80.011	19.995	103.245	20.170	6.963	0.549
829.500	495.434	80.011	19.993	103.244	20.170	6.901	0.521
830.001	495.672	80.011	19.995	103.245	20.173	6.696	0.507
830.500	495.979	80.011	19.995	103.246	20.173	6.704	0.521
831.000	496.213	80.010	19.993	103.245	20.175	6.581	0.543
831.500	496.475	80.010	19.995	103.244	20.176	6.527	0.518
832.000	496.771	80.011	19.995	103.244	20.175	6.541	0.527
832.500	497.025	80.011	19.994	103.244	20.174	6.668	0.554
833.000	497.321	80.009	19.995	103.243	20.176	6.472	0.550
833.500	497.548	80.010	19.995	103.243	20.181	6.123	0.537
834.000	497.822	80.010	19.994	103.245	20.180	6.227	0.512
834.500	498.109	80.010	19.994	103.244	20.183	5.956	0.531
835.000	498.336	80.009	19.993	103.245	20.182	6.070	0.537
835.500	498.612	80.008	19.993	103.244	20.185	5.822	0.508
836.000	498.865	80.009	19.994	103.240	20.188	5.581	0.516
836.500	499.125	80.009	19.994	103.234	20.188	5.589	0.521
837.001	499.376	80.008	19.994	103.233	20.189	5.515	0.512
837.500	499.638	80.007	19.996	103.227	20.191	5.416	0.512
838.000	499.939	80.008	19.995	103.226	20.190	5.449	0.538
838.500	500.204	80.007	19.995	103.229	20.192	5.332	0.565
839.000	500.449	80.008	19.996	103.235	20.192	5.334	0.538
839.500	500.712	80.008	19.995	103.233	20.195	5.076	0.509
840.000	500.980	80.007	19.995	103.231	20.194	5.144	0.519
840.500	501.254	80.006	19.995	103.226	20.197	4.947	0.536
841.000	501.493	80.007	19.996	103.221	20.196	5.053	0.527
841.500	501.767	80.006	19.996	103.214	20.196	5.057	0.513
842.000	502.021	80.008	19.995	103.211	20.197	4.985	0.521
842.500	502.273	80.008	19.996	103.214	20.199	4.817	0.517
843.000	502.587	80.006	19.996	103.215	20.196	5.039	0.536
843.500	502.813	80.008	19.996	103.216	20.200	4.771	0.553
844.000	503.083	80.007	19.996	103.221	20.198	4.865	0.518
844.500	503.341	80.008	19.995	103.220	20.200	4.755	0.512
845.000	503.622	80.007	19.995	103.217	20.201	4.662	0.533
845.500	503.856	80.008	19.996	103.218	20.199	4.781	0.527
846.000	504.104	80.007	19.995	103.218	20.201	4.676	0.499
846.500	504.367	80.007	19.996	103.214	20.201	4.636	0.496
847.000	504.600	80.007	19.996	103.216	20.204	4.418	0.503
847.500	504.868	80.007	19.995	103.215	20.204	4.444	0.498
848.000	505.171	80.007	19.995	103.213	20.204	4.446	0.536
848.500	505.445	80.007	19.996	103.211	20.205	4.360	0.574
849.000	505.720	80.006	19.994	103.210	20.202	4.600	0.563
849.500	506.014	80.008	19.996	103.209	20.202	4.594	0.559
850.000	506.253	80.007	19.995	103.208	20.203	4.506	0.551
850.500	506.509	80.008	19.996	103.207	20.201	4.642	0.514
851.000	506.787	80.008	19.995	103.207	20.205	4.368	0.515
851.500	507.076	80.007	19.996	103.207	20.204	4.476	0.551
852.000	507.310	80.008	19.997	103.207	20.203	4.492	0.545
852.500	507.602	80.007	19.996	103.207	20.201	4.691	0.524
853.000	507.863	80.007	19.997	103.208	20.203	4.518	0.540
853.500	508.144	80.007	19.995	103.208	20.203	4.546	0.548
854.000	508.414	80.007	19.996	103.208	20.205	4.378	0.546
854.500	508.654	80.007	19.997	103.207	20.202	4.576	0.530
855.000	508.923	80.008	19.995	103.207	20.203	4.494	0.510
855.500	509.207	80.008	19.995	103.206	20.205	4.362	0.531
856.000	509.473	80.007	19.995	103.205	20.202	4.614	0.551
856.500	509.717	80.007	19.995	103.205	20.207	4.203	0.530
857.000	509.961	80.008	19.996	103.201	20.206	4.280	0.499
857.500	510.248	80.008	19.995	103.197	20.207	4.260	0.510
858.000	510.491	80.007	19.997	103.198	20.203	4.524	0.531
858.501	510.731	80.008	19.996	103.200	20.205	4.400	0.507
859.000	511.023	80.008	19.996	103.200	20.204	4.446	0.508
859.500	511.274	80.009	19.996	103.200	20.207	4.246	0.538
860.000	511.531	80.008	19.996	103.200	20.208	4.139	0.525
860.500	511.795	80.008	19.996	103.199	20.206	4.292	0.514
861.000	512.060	80.007	19.996	103.199	20.207	4.232	0.525
861.500	512.334	80.007	19.995	103.199	20.206	4.290	0.534
862.000	512.627	80.007	19.996	103.204	20.210	4.003	0.553
862.500	512.864	80.007	19.995	103.207	20.206	4.326	0.549
863.000	513.105	80.009	19.994	103.209	20.206	4.290	0.504
863.500	513.398	80.007	19.995	103.209	20.207	4.266	0.506
864.000	513.658	80.007	19.995	103.210	20.209	4.073	0.544
864.500	513.919	80.006	19.995	103.211	20.209	4.059	0.537
865.000	514.204	80.007	19.996	103.212	20.209	4.109	0.533
865.500	514.460	80.005	19.994	103.210	20.211	3.971	0.543
866.000	514.734	80.006	19.996	103.209	20.211	3.957	0.535
866.500	515.006	80.007	19.996	103.207	20.212	3.877	0.539
867.000	515.235	80.007	19.996	103.206	20.212	3.834	0.523
867.500	515.538	80.008	19.996	103.206	20.213	3.766	0.516
868.000	515.763	80.006	19.996	103.207	20.214	3.752	0.530
868.500	516.080	80.007	19.996	103.207	20.213	3.764	0.535
869.000	516.279	80.006	19.995	103.209	20.212	3.834	0.529
869.500	516.546	80.005	19.995	103.210	20.214	3.756	0.491
870.000	516.787	80.007	19.995	103.209	20.213	3.814	0.486
870.500	517.096	80.007	19.995	103.209	20.210	4.043	0.528
871.000	517.340	80.005	19.996	103.208	20.211	3.918	0.552
871.500	517.573	80.006	19.995	103.207	20.214	3.752	0.516
872.000	517.857	80.007	19.995	103.207	20.214	3.694	0.497
872.500	518.136	80.006	19.995	103.207	20.214	3.720	0.540
873.000	518.422	80.006	19.995	103.203	20.215	3.684	0.564
873.500	518.639	80.005	19.995	103.203	20.215	3.642	0.534
874.000	518.900	80.006	19.995	103.203	20.214	3.702	0.490
874.500	519.156	80.005	19.995	103.204	20.218	3.446	0.497
875.000	519.431	80.006	19.995	103.205	20.218	3.460	0.524
875.500	519.672	80.005	19.997	103.207	20.215	3.622	0.524
876.000	519.978	80.008	19.996	103.208	20.219	3.345	0.531
876.500	520.231	80.006	19.996	103.207	20.216	3.600	0.553
877.000	520.470	80.006	19.996	103.206	20.217	3.511	0.526
877.500	520.730	80.006	19.996	103.202	20.216	3.603	0.496
878.000	521.002	80.007	19.996	103.199	20.216	3.563	0.516
878.500	521.249	80.005	19.996	103.195	20.214	3.742	0.526
879.000	521.493	80.005	19.996	103.192	20.214	3.726	0.505
879.500	521.781	80.007	19.996	103.189	20.216	3.560	0.512
880.000	522.040	80.006	19.996	103.191	20.217	3.534	0.539
880.500	522.269	80.006	19.997	103.193	20.213	3.798	0.517
881.000	522.551	80.007	19.997	103.197	20.215	3.666	0.499
881.500	522.812	80.007	19.997	103.194	20.214	3.688	0.527
882.000	523.072	80.006	19.997	103.194	20.213	3.792	0.532
882.500	523.322	80.007	19.996	103.195	20.213	3.810	0.516
883.000	523.598	80.007	19.996	103.197	20.214	3.700	0.518
883.500	523.851	80.007	19.997	103.194	20.213	3.794	0.528
884.000	524.092	80.007	19.995	103.199	20.216	3.606	0.512
884.500	524.326	80.007	19.995	103.201	20.215	3.620	0.484
885.000	524.603	80.008	19.996	103.201	20.214	3.750	0.493
885.500	524.808	80.007	19.995	103.200	20.214	3.728	0.496
886.000	525.141	80.007	19.995	103.202	20.212	3.866	0.510
886.500	525.416	80.008	19.995	103.203	20.215	3.682	0.573
887.000	525.655	80.008	19.996	103.200	20.213	3.806	0.562
887.500	525.886	80.008	19.995	103.197	20.213	3.760	0.492
888.000	526.159	80.007	19.995	103.191	20.213	3.806	0.487
888.500	526.412	80.007	19.996	103.187	20.212	3.881	0.515
889.000	526.638	80.007	19.995	103.185	20.213	3.787	0.502
889.500	526.921	80.009	19.996	103.185	20.213	3.777	0.494
890.000	527.176	80.008	19.996	103.189	20.216	3.592	0.523
890.500	527.420	80.009	19.995	103.195	20.212	3.869	0.518
891.000	527.673	80.008	19.997	103.197	20.214	3.732	0.498
891.500	527.957	80.008	19.996	103.196	20.215	3.678	0.517
892.000	528.185	80.008	19.997	103.193	20.218	3.454	0.524
892.501	528.444	80.008	19.994	103.194	20.211	3.935	0.499
893.000	528.718	80.006	19.996	103.192	20.213	3.830	0.510
893.500	528.931	80.008	19.994	103.195	20.212	3.890	0.510
894.000	529.143	80.008	19.995	103.199	20.217	3.512	0.456
894.500	529.417	80.007	19.995	103.199	20.214	3.734	0.455
895.000	529.698	80.007	19.995	103.195	20.214	3.704	0.520
895.500	529.947	80.009	19.994	103.193	20.215	3.682	0.542
896.000	530.201	80.007	19.995	103.191	20.209	4.067	0.517
896.500	530.419	80.008	19.995	103.191	20.212	3.895	0.488
897.000	530.688	80.008	19.996	103.194	20.211	3.959	0.479
897.500	530.949	80.008	19.995	103.194	20.214	3.712	0.508
898.000	531.223	80.009	19.997	103.198	20.215	3.640	0.532
898.500	531.453	80.008	19.998	103.200	20.212	3.868	0.519
899.000	531.691	80.008	19.997	103.202	20.215	3.666	0.487
899.500	531.955	80.008	19.997	103.203	20.214	3.758	0.485
900.000	532.227	80.009	19.997	103.207	20.213	3.760	0.519
900.500	532.452	80.008	19.995	103.208	20.216	3.572	0.517
901.000	532.709	80.008	19.996	103.208	20.213	3.826	0.490
901.500	532.950	80.008	19.995	103.207	20.214	3.736	0.490
902.000	533.218	80.009	19.995	103.205	20.214	3.730	0.503
902.500	533.499	80.008	19.996	103.204	20.215	3.662	0.529
903.000	533.755	80.008	19.996	103.204	20.215	3.638	0.543
903.500	533.999	80.007	19.996	103.201	20.215	3.638	0.518
904.000	534.275	80.008	19.995	103.201	20.218	3.450	0.510
904.500	534.517	80.009	19.996	103.197	20.214	3.688	0.519
905.000	534.772	80.009	19.995	103.197	20.217	3.496	0.507
905.500	535.077	80.008	19.996	103.197	20.211	3.905	0.528
906.000	535.346	80.008	19.996	103.198	20.217	3.512	0.567
906.500	535.566	80.008	19.994	103.197	20.218	3.448	0.532
907.000	535.810	80.009	19.995	103.202	20.215	3.650	0.476
907.500	536.078	80.009	19.994	103.204	20.217	3.483	0.487
908.000	536.363	80.009	19.996	103.202	20.212	3.852	0.532
908.500	536.589	80.009	19.995	103.199	20.213	3.768	0.532
909.000	536.844	80.009	19.994	103.200	20.215	3.658	0.496
909.500	537.056	80.009	19.994	103.200	20.214	3.716	0.474
910.000	537.358	80.010	19.994	103.197	20.217	3.540	0.491
910.500	537.621	80.009	19.993	103.197	20.215	3.616	0.539
911.000	537.818	80.008	19.993	103.197	20.216	3.604	0.513
911.500	538.094	80.009	19.996	103.196	20.218	3.447	0.466
912.000	538.343	80.011	19.994	103.196	20.216	3.594	0.498
912.500	538.595	80.009	19.994	103.199	20.215	3.640	0.513
913.000	538.858	80.009	19.993	103.201	20.215	3.668	0.508
913.500	539.124	80.009	19.994	103.202	20.217	3.532	0.522
914.000	539.405	80.010	19.995	103.204	20.217	3.492	0.538
914.500	539.622	80.010	19.994	103.201	20.215	3.638	0.523
915.000	539.921	80.009	19.995	103.201	20.219	3.356	0.507
915.500	540.128	80.010	19.995	103.199	20.218	3.396	0.511
916.000	540.381	80.009	19.994	103.201	20.219	3.327	0.483
916.500	540.688	80.009	19.995	103.201	20.216	3.556	0.510
917.000	540.923	80.009	19.995	103.199	20.220	3.295	0.551
917.500	541.206	80.009	19.995	103.199	20.218	3.447	0.530
918.000	541.418	80.010	19.994	103.197	20.216	3.552	0.506
918.500	541.712	80.009	19.994	103.193	20.218	3.434	0.501
919.000	541.974	80.008	19.994	103.193	20.217	3.500	0.531
919.500	542.230	80.010	19.994	103.197	20.215	3.620	0.537
920.000	542.493	80.008	19.995	103.197	20.215	3.636	0.519
920.500	542.756	80.009	19.994	103.200	20.218	3.401	0.523
921.000	542.991	80.009	19.995	103.204	20.218	3.407	0.512
921.500	543.281	80.008	19.995	103.203	20.215	3.640	0.511
922.000	543.535	80.007	19.994	103.197	20.217	3.488	0.535
922.500	543.718	80.007	19.995	103.195	20.216	3.556	0.490
923.000	543.991	80.007	19.995	103.189	20.216	3.550	0.446
923.500	544.228	80.007	19.995	103.189	20.218	3.456	0.483
924.000	544.519	80.008	19.995	103.190	20.220	3.321	0.519
924.500	544.759	80.006	19.995	103.194	20.218	3.454	0.530
925.000	545.015	80.006	19.995	103.198	20.220	3.283	0.513
925.500	545.268	80.007	19.996	103.205	20.219	3.325	0.503
926.000	545.520	80.007	19.995	103.204	20.218	3.459	0.508
926.500	545.780	80.009	19.997	103.205	20.218	3.395	0.509
927.000	546.046	80.006	19.995	103.200	20.218	3.430	0.518
927.500	546.322	80.008	19.994	103.198	20.217	3.496	0.534
928.000	546.558	80.006	19.996	103.195	20.218	3.424	0.527
928.500	546.820	80.007	19.994	103.196	20.218	3.460	0.505
929.000	547.069	80.006	19.995	103.198	20.215	3.618	0.505
929.500	547.331	80.007	19.995	103.203	20.215	3.656	0.511
930.000	547.605	80.008	19.994	103.204	20.219	3.349	0.524
930.500	547.850	80.007	19.995	103.202	20.218	3.417	0.527
931.000	548.138	80.006	19.994	103.200	20.217	3.524	0.526
931.500	548.381	80.007	19.995	103.201	20.216	3.586	0.532
932.000	548.638	80.007	19.994	103.200	20.217	3.492	0.516
932.500	548.859	80.007	19.995	103.198	20.219	3.378	0.489
933.000	549.120	80.007	19.994	103.201	20.216	3.568	0.480
933.500	549.394	80.007	19.994	103.201	20.220	3.321	0.508
934.000	549.652	80.006	19.995	103.198	20.221	3.227	0.533
934.500	549.909	80.006	19.995	103.201	20.218	3.432	0.523
935.000	550.147	80.005	19.996	103.203	20.218	3.446	0.505
935.500	550.366	80.007	19.995	103.199	20.220	3.293	0.476
936.000	550.637	80.008	19.995	103.196	20.220	3.293	0.474
936.500	550.900	80.005	19.995	103.197	20.217	3.484	0.512
937.000	551.196	80.007	19.995	103.197	20.216	3.584	0.546
937.500	551.442	80.007	19.994	103.198	20.215	3.624	0.550
938.000	551.678	80.008	19.995	103.202	20.217	3.471	0.512
938.500	551.945	80.008	19.996	103.203	20.218	3.445	0.492
939.000	552.241	80.007	19.995	103.201	20.220	3.321	0.533
939.500	552.459	80.005	19.995	103.199	20.218	3.461	0.539
940.000	552.701	80.007	19.995	103.193	20.218	3.433	0.487
940.500	552.973	80.006	19.996	103.190	20.216	3.605	0.487
941.000	553.241	80.007	19.996	103.195	20.219	3.381	0.526
941.500	553.497	80.006	19.995	103.199	20.220	3.267	0.532
942.000	553.709	80.007	19.995	103.202	20.218	3.405	0.496
942.500	554.028	80.006	19.995	103.207	20.218	3.459	0.500
943.000	554.282	80.005	19.994	103.209	20.223	3.088	0.552
943.500	554.536	80.006	19.996	103.208	20.219	3.339	0.541
944.000	554.774	80.007	19.995	103.207	20.219	3.377	0.500
944.500	555.060	80.007	19.996	103.204	20.220	3.281	0.508
945.000	555.326	80.007	19.996	103.203	20.218	3.397	0.538
945.500	555.574	80.007	19.995	103.205	20.218	3.444	0.533
946.000	555.835	80.007	19.995	103.205	20.218	3.416	0.511
946.500	556.093	80.008	19.995	103.203	20.219	3.367	0.514
947.000	556.350	80.006	19.996	103.201	20.222	3.131	0.517
947.500	556.614	80.007	19.995	103.200	20.217	3.468	0.518
948.000	556.855	80.007	19.995	103.197	20.217	3.496	0.513
948.500	557.113	80.006	19.996	103.193	20.216	3.544	0.502
949.000	557.366	80.006	19.996	103.193	20.217	3.473	0.505
949.500	557.596	80.005	19.994	103.194	20.217	3.521	0.498
950.000	557.916	80.006	19.996	103.196	20.216	3.559	0.517
950.500	558.149	80.006	19.995	103.193	20.217	3.507	0.551
951.000	558.395	80.006	19.996	103.190	20.220	3.294	0.516
951.500	558.670	80.005	19.996	103.188	20.217	3.531	0.500
952.000	558.906	80.006	19.996	103.185	20.220	3.309	0.516
952.500	559.184	80.005	19.996	103.185	20.215	3.627	0.513
953.000	559.420	80.007	19.996	103.184	20.219	3.335	0.514
953.500	559.695	80.006	19.996	103.184	20.216	3.602	0.512
954.000	559.917	80.006	19.995	103.187	20.216	3.604	0.504
954.500	560.177	80.006	19.996	103.186	20.213	3.802	0.490
955.000	560.470	80.006	19.996	103.186	20.219	3.375	0.518
955.500	560.742	80.009	19.995	103.193	20.216	3.608	0.559
956.000	560.973	80.006	19.996	103.200	20.217	3.507	0.534
956.500	561.243	80.006	19.996	103.200	20.215	3.620	0.502
957.000	561.524	80.007	19.996	103.202	20.213	3.764	0.526
957.500	561.723	80.006	19.996	103.201	20.217	3.491	0.516
958.000	561.998	80.006	19.998	103.201	20.215	3.661	0.477
958.500	562.256	80.007	19.997	103.201	20.219	3.377	0.504
959.000	562.523	80.007	19.996	103.201	20.217	3.533	0.529
959.500	562.775	80.007	19.997	103.199	20.215	3.667	0.522
960.000	563.017	80.006	19.997	103.192	20.213	3.820	0.506
960.500	563.269	80.007	19.996	103.186	20.212	3.832	0.494
961.000	563.537	80.007	19.995	103.180	20.217	3.507	0.507
961.500	563.785	80.007	19.995	103.177	20.215	3.627	0.518
962.000	563.997	80.008	19.996	103.176	20.216	3.577	0.488
962.500	564.292	80.007	19.995	103.181	20.214	3.732	0.484
963.000	564.539	80.007	19.996	103.179	20.217	3.479	0.524
963.500	564.793	80.009	19.996	103.184	20.212	3.832	0.522
964.000	565.073	80.009	19.996	103.190	20.215	3.670	0.518
964.500	565.307	80.007	19.996	103.195	20.216	3.604	0.524
965.000	565.546	80.008	19.996	103.195	20.213	3.766	0.493
965.500	565.833	80.006	19.996	103.194	20.218	3.455	0.500
966.000	566.080	80.006	19.995	103.191	20.215	3.640	0.530
966.500	566.307	80.008	19.996	103.191	20.216	3.604	0.504
967.000	566.590	80.008	19.996	103.190	20.212	3.898	0.492
967.500	566.867	80.008	19.997	103.187	20.214	3.710	0.535
968.000	567.134	80.007	19.995	103.189	20.215	3.620	0.552
968.500	567.292	80.008	19.996	103.185	20.213	3.810	0.485
969.000	567.600	80.007	19.996	103.179	20.215	3.680	0.445
969.500	567.805	80.008	19.996	103.177	20.217	3.527	0.489
970.000	568.093	80.008	19.996	103.177	20.213	3.788	0.503
970.500	568.341	80.009	19.996	103.177	20.213	3.782	0.515
971.000	568.561	80.007	19.997	103.181	20.215	3.658	0.503
971.500	568.851	80.006	19.995	103.186	20.214	3.756	0.489
972.000	569.105	80.007	19.995	103.184	20.215	3.682	0.527
972.500	569.328	80.007	19.996	103.185	20.214	3.744	0.510
973.000	569.588	80.006	19.996	103.187	20.216	3.604	0.480
973.500	569.869	80.008	19.997	103.189	20.214	3.752	0.512
974.000	570.083	80.008	19.996	103.187	20.214	3.688	0.519
974.500	570.338	80.007	19.995	103.189	20.216	3.554	0.482
975.000	570.608	80.007	19.997	103.193	20.215	3.652	0.496
975.500	570.846	80.006	19.996	103.196	20.214	3.734	0.516
976.000	571.119	80.007	19.995	103.195	20.213	3.802	0.509
976.500	571.377	80.007	19.996	103.194	20.215	3.664	0.521
977.000	571.636	80.007	19.996	103.192	20.212	3.878	0.524
977.500	571.829	80.007	19.995	103.192	20.219	3.375	0.485
978.000	572.119	80.007	19.996	103.191	20.215	3.618	0.468
978.500	572.394	80.008	19.996	103.188	20.215	3.656	0.524
979.001	572.646	80.007	19.996	103.189	20.217	3.474	0.546
979.500	572.936	80.007	19.996	103.187	20.215	3.622	0.534
980.000	573.190	80.007	19.997	103.188	20.217	3.516	0.543
980.500	573.452	80.008	19.996	103.188	20.214	3.694	0.530
981.000	573.705	80.006	19.996	103.192	20.218	3.409	0.515
981.500	573.938	80.008	19.996	103.190	20.216	3.610	0.500
982.000	574.222	80.006	19.995	103.189	20.215	3.628	0.501
982.501	574.487	80.007	19.996	103.186	20.216	3.611	0.533
983.000	574.733	80.007	19.996	103.186	20.214	3.714	0.530
983.500	575.017	80.007	19.996	103.189	20.213	3.784	0.521
984.000	575.302	80.007	19.996	103.194	20.217	3.507	0.549
984.500	575.516	80.007	19.997	103.201	20.212	3.868	0.534
985.000	575.792	80.008	19.997	103.204	20.215	3.626	0.495
985.500	576.030	80.009	19.994	103.201	20.212	3.878	0.502
986.000	576.295	80.006	19.995	103.198	20.214	3.718	0.508
986.500	576.581	80.008	19.997	103.197	20.215	3.684	0.527
987.000	576.827	80.007	19.997	103.196	20.215	3.668	0.541
987.500	577.064	80.008	19.997	103.194	20.217	3.526	0.507
988.000	577.305	80.007	19.996	103.197	20.216	3.606	0.480
988.500	577.553	80.007	19.995	103.201	20.215	3.644	0.484
989.000	577.818	80.008	19.996	103.200	20.215	3.622	0.501
989.500	578.092	80.008	19.997	103.199	20.218	3.425	0.526
990.000	578.346	80.008	19.997	103.198	20.217	3.538	0.534
990.500	578.610	80.008	19.997	103.197	20.218	3.466	0.523
991.000	578.850	80.008	19.998	103.194	20.215	3.628	0.511
991.500	579.150	80.009	19.996	103.193	20.216	3.562	0.522
992.000	579.399	80.008	19.997	103.189	20.211	3.953	0.545
992.500	579.638	80.008	19.996	103.190	20.213	3.788	0.518
993.000	579.902	80.009	19.995	103.188	20.215	3.649	0.495
993.500	580.160	80.009	19.994	103.184	20.215	3.619	0.513
994.000	580.419	80.009	19.995	103.182	20.212	3.834	0.519
994.500	580.679	80.010	19.996	103.182	20.211	3.932	0.518
995.000	580.936	80.008	19.995	103.180	20.214	3.694	0.518
995.500	581.197	80.009	19.995	103.184	20.212	3.848	0.518
996.000	581.446	80.009	19.995	103.188	20.217	3.518	0.514
996.500	581.708	80.009	19.994	103.194	20.214	3.706	0.511
997.000	581.951	80.009	19.995	103.198	20.214	3.732	0.508
997.500	582.194	80.009	19.994	103.199	20.212	3.874	0.495
998.000	582.478	80.010	19.995	103.195	20.211	3.914	0.506
998.500	582.711	80.009	19.996	103.193	20.210	4.020	0.522
999.000	582.959	80.009	19.994	103.188	20.207	4.237	0.499
999.500	583.224	80.009	19.994	103.188	20.211	3.958	0.497
1000.000	583.497	80.008	19.995	103.188	20.209	4.070	0.525
1000.500	583.778	80.008	19.995	103.192	20.214	3.712	0.546
1001.000	584.027	80.009	19.996	103.195	20.209	4.073	0.542
1001.500	584.284	80.007	19.994	103.199	20.209	4.051	0.518
1002.000	584.557	80.008	19.995	103.203	20.211	3.938	0.518
1002.500	584.819	80.007	19.995	103.203	20.211	3.910	0.532
1003.000	585.066	80.007	19.994	103.196	20.209	4.095	0.522
1003.500	585.341	80.007	19.995	103.189	20.210	4.031	0.516
1004.000	585.598	80.008	19.995	103.184	20.210	4.022	0.527
1004.500	585.852	80.006	19.996	103.179	20.215	3.670	0.522
1005.000	586.114	80.006	19.995	103.184	20.211	3.970	0.513
1005.500	586.363	80.005	19.996	103.188	20.213	3.828	0.514
1006.000	586.623	80.006	19.995	103.189	20.211	3.914	0.510
1006.500	586.886	80.006	19.995	103.194	20.211	3.922	0.515
1007.000	587.160	80.006	19.995	103.199	20.211	3.942	0.530
1007.501	587.403	80.004	19.995	103.198	20.210	4.005	0.527
1008.001	587.684	80.006	19.995	103.198	20.208	4.175	0.521
1008.500	587.945	80.006	19.994	103.198	20.212	3.873	0.533
1009.000	588.191	80.006	19.996	103.194	20.213	3.778	0.525
1009.500	588.460	80.006	19.995	103.188	20.209	4.111	0.511
1010.000	588.728	80.006	19.995	103.187	20.212	3.897	0.526
1010.500	588.972	80.006	19.994	103.188	20.211	3.943	0.524
1011.000	589.264	80.007	19.995	103.187	20.211	3.965	0.524
1011.500	589.531	80.007	19.995	103.188	20.209	4.059	0.548
1012.000	589.766	80.006	19.995	103.193	20.211	3.974	0.531
1012.500	590.011	80.005	19.995	103.192	20.209	4.092	0.491
1013.000	590.278	80.005	19.996	103.189	20.209	4.106	0.496
1013.500	590.528	80.006	19.995	103.192	20.208	4.138	0.515
1014.000	590.794	80.005	19.996	103.195	20.204	4.473	0.516
1014.500	591.047	80.006	19.994	103.193	20.208	4.180	0.517
1015.000	591.343	80.006	19.995	103.190	20.208	4.160	0.534
1015.500	591.581	80.006	19.995	103.189	20.210	3.990	0.542
1016.000	591.847	80.007	19.995	103.187	20.209	4.118	0.519
1016.500	592.105	80.006	19.996	103.181	20.206	4.283	0.514
1017.000	592.378	80.007	19.996	103.185	20.210	4.020	0.527
1017.500	592.647	80.006	19.995	103.190	20.206	4.333	0.537
1018.000	592.929	80.006	19.996	103.196	20.208	4.168	0.547
1018.500	593.165	80.007	19.996	103.200	20.205	4.407	0.534
1019.000	593.421	80.008	19.995	103.204	20.206	4.332	0.505
1019.500	593.754	80.007	19.995	103.202	20.205	4.399	0.541
1020.000	593.996	80.006	19.996	103.201	20.208	4.188	0.582
1020.500	594.267	80.007	19.995	103.201	20.204	4.441	0.544
1021.000	594.509	80.007	19.995	103.203	20.207	4.230	0.513
1021.500	594.793	80.007	19.996	103.206	20.203	4.489	0.519
1022.000	595.045	80.009	19.995	103.202	20.202	4.599	0.531
1022.500	595.310	80.007	19.995	103.196	20.203	4.489	0.527
1023.000	595.578	80.007	19.995	103.190	20.202	4.623	0.526
1023.500	595.856	80.007	19.994	103.182	20.206	4.307	0.539
1024.000	596.106	80.008	19.995	103.178	20.204	4.479	0.537
1024.500	596.339	80.008	19.995	103.179	20.204	4.429	0.506
1025.000	596.629	80.008	19.994	103.180	20.206	4.303	0.503
1025.500	596.862	80.008	19.995	103.180	20.205	4.414	0.523
1026.000	597.119	80.007	19.993	103.180	20.206	4.322	0.506
1026.501	597.389	80.006	19.995	103.176	20.204	4.436	0.508
1027.001	597.671	80.010	19.994	103.176	20.203	4.552	0.540
1027.500	597.897	80.007	19.994	103.180	20.204	4.470	0.530
1028.000	598.151	80.007	19.994	103.180	20.200	4.714	0.494
1028.500	598.437	80.007	19.995	103.180	20.204	4.486	0.510
1029.000	598.669	80.008	19.995	103.181	20.206	4.337	0.529
1029.500	598.934	80.007	19.995	103.180	20.200	4.734	0.507
1030.000	599.203	80.007	19.996	103.176	20.205	4.399	0.516
1030.500	599.482	80.008	19.995	103.180	20.204	4.467	0.541
1031.000	599.709	80.008	19.996	103.181	20.200	4.730	0.527
1031.500	599.995	80.007	19.994	103.179	20.205	4.349	0.510
1032.001	600.246	80.008	19.996	103.178	20.203	4.509	0.525
1032.501	600.511	80.008	19.994	103.178	20.205	4.385	0.526
1033.000	600.750	80.007	19.996	103.174	20.202	4.595	0.510
1033.501	600.996	80.008	19.994	103.174	20.201	4.703	0.494
1034.001	601.258	80.008	19.994	103.176	20.205	4.404	0.496
1034.501	601.498	80.007	19.994	103.182	20.200	4.713	0.505
1035.001	601.753	80.006	19.994	103.189	20.203	4.547	0.499
1035.500	601.972	80.007	19.995	103.192	20.202	4.613	0.484
1036.000	602.224	80.007	19.996	103.199	20.201	4.641	0.472
1036.500	602.495	80.007	19.994	103.203	20.202	4.625	0.497
1037.000	602.749	80.006	19.996	103.200	20.202	4.581	0.524
1037.500	603.003	80.006	19.995	103.198	20.201	4.662	0.516
1038.000	603.282	80.006	19.995	103.200	20.204	4.471	0.520
1038.500	603.550	80.007	19.995	103.200	20.200	4.748	0.540
1039.001	603.795	80.006	19.995	103.200	20.203	4.558	0.530
1039.501	604.049	80.006	19.995	103.198	20.200	4.752	0.506
1040.001	604.283	80.006	19.996	103.196	20.199	4.842	0.494
1040.500	604.547	80.006	19.996	103.190	20.202	4.578	0.493
1041.001	604.797	80.005	19.994	103.183	20.199	4.823	0.506
1041.501	605.063	80.006	19.995	103.179	20.199	4.800	0.515
1042.000	605.291	80.006	19.997	103.184	20.201	4.652	0.505
1042.500	605.553	80.006	19.996	103.183	20.200	4.740	0.492
1043.001	605.818	80.006	19.996	103.182	20.198	4.874	0.509
1043.501	606.061	80.006	19.995	103.182	20.198	4.888	0.518
1044.000	606.336	80.006	19.997	103.180	20.200	4.759	0.513
1044.500	606.548	80.007	19.996	103.173	20.200	4.739	0.502
1045.001	606.889	80.006	19.996	103.172	20.199	4.821	0.520
1045.501	607.092	80.005	19.995	103.172	20.202	4.575	0.549
1046.000	607.326	80.006	19.996	103.172	20.201	4.699	0.491
1046.500	607.593	80.006	19.996	103.174	20.204	4.441	0.468
1047.000	607.837	80.006	19.996	103.177	20.202	4.599	0.505
1047.500	608.096	80.007	19.998	103.181	20.198	4.890	0.507
1048.000	608.357	80.006	19.996	103.186	20.203	4.557	0.512
1048.500	608.601	80.008	19.996	103.189	20.200	4.768	0.513
1049.000	608.884	80.006	19.996	103.187	20.202	4.583	0.516
1049.500	609.094	80.007	19.996	103.188	20.204	4.477	0.511
1050.000	609.385	80.007	19.995	103.189	20.202	4.612	0.497
1050.500	609.637	80.009	19.995	103.189	20.201	4.674	0.522
1051.000	609.913	80.007	19.996	103.190	20.200	4.758	0.535
1051.500	610.129	80.009	19.996	103.196	20.203	4.533	0.510
1052.001	610.393	80.008	19.995	103.199	20.200	4.768	0.486
1052.501	610.677	80.008	19.996	103.194	20.203	4.519	0.514
1053.000	610.904	80.009	19.995	103.189	20.200	4.761	0.530
1053.500	611.112	80.008	19.995	103.187	20.201	4.683	0.473
1054.000	611.391	80.009	19.995	103.181	20.203	4.489	0.461
1054.500	611.626	80.008	19.995	103.174	20.200	4.758	0.501
1055.001	611.895	80.010	19.994	103.174	20.204	4.467	0.509
1055.501	612.159	80.007	19.995	103.174	20.202	4.579	0.518
1056.000	612.417	80.009	19.996	103.172	20.203	4.512	0.528
1056.500	612.625	80.008	19.995	103.176	20.201	4.638	0.494
1057.000	612.909	80.008	19.994	103.179	20.202	4.618	0.479
1057.501	613.148	80.007	19.995	103.179	20.202	4.559	0.508
1058.001	613.426	80.008	19.994	103.179	20.201	4.645	0.520
1058.501	613.666	80.009	19.995	103.180	20.202	4.591	0.517
1059.001	613.943	80.008	19.995	103.182	20.201	4.703	0.517
1059.501	614.174	80.008	19.993	103.181	20.201	4.687	0.512
1060.001	614.423	80.008	19.994	103.181	20.199	4.787	0.494
1060.501	614.706	80.007	19.995	103.186	20.204	4.461	0.506
1061.001	614.918	80.007	19.995	103.186	20.201	4.660	0.514
1061.501	615.239	80.007	19.995	103.186	20.203	4.503	0.514
1062.001	615.472	80.008	19.996	103.187	20.202	4.592	0.543
1062.501	615.788	80.007	19.996	103.186	20.201	4.672	0.552
1063.000	616.003	80.006	19.996	103.182	20.199	4.840	0.540
1063.500	616.244	80.007	19.995	103.183	20.199	4.836	0.493
1064.001	616.553	80.006	19.994	103.177	20.201	4.651	0.503
1064.501	616.812	80.009	19.996	103.177	20.202	4.607	0.559
1065.001	617.043	80.008	19.995	103.179	20.200	4.761	0.529
1065.501	617.294	80.007	19.995	103.180	20.202	4.611	0.486
1066.001	617.532	80.008	19.995	103.183	20.202	4.591	0.486
1066.500	617.814	80.006	19.996	103.187	20.201	4.652	0.504
1067.000	618.057	80.007	19.995	103.191	20.201	4.676	0.522
1067.500	618.328	80.006	19.996	103.191	20.203	4.556	0.519
1068.000	618.542	80.007	19.995	103.190	20.201	4.644	0.499
1068.501	618.822	80.006	19.995	103.187	20.206	4.311	0.489
1069.001	619.122	80.008	19.995	103.182	20.205	4.390	0.537
1069.501	619.343	80.006	19.996	103.175	20.204	4.444	0.551
1070.001	619.594	80.007	19.995	103.173	20.204	4.443	0.496
1070.501	619.794	80.006	19.995	103.172	20.202	4.559	0.462
1071.000	620.100	80.008	19.995	103.172	20.203	4.549	0.479
1071.500	620.383	80.006	19.996	103.176	20.203	4.497	0.547
1072.000	620.582	80.006	19.995	103.184	20.204	4.477	0.535
1072.500	620.869	80.006	19.995	103.191	20.203	4.549	0.484
1073.000	621.086	80.008	19.996	103.194	20.203	4.535	0.496
1073.501	621.388	80.006	19.996	103.194	20.201	4.695	0.511
1074.001	621.605	80.007	19.995	103.190	20.202	4.585	0.518
1074.500	621.887	80.008	19.996	103.183	20.203	4.527	0.509
1075.001	622.153	80.007	19.996	103.178	20.202	4.607	0.524
1075.501	622.387	80.008	19.996	103.176	20.202	4.607	0.524
1076.000	622.635	80.007	19.996	103.178	20.203	4.551	0.491
1076.500	622.876	80.009	19.996	103.182	20.207	4.222	0.486
1077.000	623.160	80.008	19.996	103.186	20.206	4.302	0.507
1077.500	623.369	80.007	19.995	103.187	20.204	4.431	0.509
1078.000	623.627	80.008	19.996	103.191	20.207	4.234	0.480
1078.500	623.910	80.008	19.996	103.196	20.204	4.441	0.504
1079.000	624.160	80.008	19.995	103.200	20.204	4.449	0.537
1079.500	624.440	80.008	19.996	103.200	20.204	4.469	0.532
1080.000	624.639	80.007	19.995	103.200	20.204	4.475	0.505
1080.500	624.952	80.009	19.996	103.195	20.209	4.120	0.496
1081.001	625.173	80.008	19.997	103.190	20.206	4.272	0.523
1081.501	625.437	80.009	19.995	103.184	20.206	4.304	0.510
1082.000	625.674	80.008	19.995	103.179	20.206	4.300	0.493
1082.500	625.936	80.009	19.995	103.179	20.209	4.100	0.500
1083.000	626.217	80.009	19.996	103.178	20.206	4.293	0.521
1083.500	626.457	80.008	19.995	103.179	20.206	4.331	0.532
1084.000	626.700	80.007	19.995	103.179	20.207	4.267	0.502
1084.500	626.963	80.008	19.994	103.179	20.203	4.511	0.495
1085.000	627.196	80.009	19.994	103.179	20.205	4.379	0.501
1085.500	627.461	80.008	19.995	103.179	20.205	4.361	0.497
1086.000	627.689	80.009	19.995	103.177	20.203	4.509	0.495
1086.500	627.964	80.008	19.996	103.175	20.205	4.359	0.498
1087.000	628.216	80.008	19.996	103.175	20.206	4.279	0.515
1087.500	628.470	80.009	19.995	103.175	20.205	4.407	0.516
1088.000	628.727	80.008	19.994	103.174	20.206	4.295	0.508
1088.500	628.999	80.006	19.995	103.174	20.204	4.429	0.520
1089.000	629.218	80.008	19.995	103.174	20.205	4.372	0.510
1089.500	629.476	80.007	19.995	103.174	20.202	4.597	0.484
1090.000	629.789	80.006	19.993	103.174	20.204	4.461	0.524
1090.500	630.039	80.007	19.995	103.174	20.203	4.521	0.567
1091.000	630.265	80.006	19.996	103.173	20.202	4.575	0.519
1091.500	630.518	80.007	19.994	103.174	20.206	4.313	0.477
1092.001	630.739	80.007	19.995	103.172	20.205	4.381	0.477
1092.501	631.034	80.007	19.996	103.172	20.203	4.531	0.495
1093.001	631.321	80.007	19.994	103.172	20.202	4.569	0.549
1093.501	631.562	80.007	19.996	103.175	20.201	4.651	0.554
1094.000	631.810	80.007	19.995	103.179	20.203	4.525	0.509
1094.500	632.091	80.007	19.995	103.179	20.204	4.443	0.509
1095.001	632.321	80.008	19.996	103.179	20.201	4.667	0.520
1095.501	632.571	80.007	19.995	103.181	20.204	4.475	0.496
1096.001	632.846	80.006	19.994	103.181	20.204	4.457	0.502
1096.501	633.121	80.007	19.996	103.178	20.207	4.254	0.537
1097.000	633.351	80.007	19.995	103.183	20.207	4.198	0.528
1097.500	633.625	80.007	19.995	103.183	20.203	4.531	0.504
1098.000	633.886	80.007	19.995	103.181	20.208	4.142	0.519
1098.500	634.152	80.006	19.993	103.180	20.206	4.304	0.531
1099.001	634.411	80.005	19.996	103.178	20.205	4.346	0.526
1099.501	634.656	80.006	19.995	103.173	20.205	4.366	0.514
1100.000	634.916	80.006	19.995	103.172	20.206	4.272	0.505
1100.500	635.201	80.006	19.997	103.172	20.206	4.290	0.525
1101.001	635.464	80.006	19.995	103.173	20.207	4.234	0.546
1101.501	635.690	80.008	19.995	103.178	20.204	4.435	0.518
1102.001	635.945	80.006	19.996	103.181	20.208	4.156	0.485
1102.500	636.183	80.005	19.995	103.181	20.207	4.234	0.487
1103.000	636.470	80.005	19.995	103.183	20.207	4.260	0.509
1103.500	636.703	80.007	19.994	103.181	20.210	4.036	0.523
1104.000	636.948	80.008	19.995	103.181	20.207	4.248	0.499
1104.500	637.231	80.006	19.995	103.182	20.208	4.150	0.503
1105.000	637.504	80.005	19.995	103.182	20.209	4.066	0.542
1105.500	637.760	80.007	19.995	103.181	20.211	3.968	0.542
1106.001	638.012	80.008	19.995	103.181	20.212	3.896	0.519
1106.501	638.207	80.007	19.995	103.175	20.209	4.106	0.477
1107.000	638.502	80.008	19.995	103.172	20.210	4.012	0.468
1107.500	638.731	80.007	19.995	103.172	20.207	4.211	0.507
1108.000	639.044	80.007	19.994	103.172	20.211	3.966	0.533
1108.501	639.256	80.007	19.994	103.171	20.211	3.946	0.533
1109.001	639.531	80.006	19.994	103.171	20.214	3.702	0.506
1109.500	639.752	80.007	19.996	103.172	20.211	3.922	0.491
1110.000	640.061	80.007	19.995	103.173	20.209	4.074	0.513
1110.500	640.329	80.007	19.995	103.173	20.211	3.928	0.554
1111.000	640.565	80.006	19.995	103.173	20.212	3.831	0.540
1111.500	640.827	80.008	19.994	103.175	20.211	3.952	0.501
1112.000	641.060	80.007	19.995	103.174	20.212	3.898	0.497
1112.500	641.342	80.007	19.994	103.173	20.212	3.834	0.505
1113.000	641.583	80.007	19.995	103.173	20.213	3.801	0.519
1113.500	641.817	80.007	19.995	103.173	20.212	3.860	0.499
1114.000	642.076	80.007	19.995	103.172	20.211	3.962	0.484
1114.500	642.343	80.007	19.995	103.172	20.211	3.962	0.510
1115.000	642.593	80.008	19.994	103.172	20.212	3.896	0.521
1115.500	642.877	80.006	19.994	103.172	20.214	3.737	0.525
1116.000	643.113	80.008	19.995	103.172	20.210	3.990	0.527
1116.500	643.368	80.007	19.995	103.174	20.210	3.994	0.506
1117.000	643.617	80.007	19.995	103.176	20.210	3.984	0.498
1117.500	643.875	80.007	19.995	103.179	20.213	3.830	0.505
1118.001	644.127	80.007	19.996	103.182	20.210	3.984	0.508
1118.501	644.411	80.007	19.995	103.189	20.209	4.050	0.523
1119.000	644.665	80.009	19.994	103.191	20.212	3.902	0.537
1119.500	644.908	80.007	19.995	103.190	20.210	4.004	0.517
1120.000	645.193	80.008	19.994	103.186	20.210	3.988	0.513
1120.501	645.431	80.007	19.995	103.184	20.211	3.972	0.525
1121.001	645.714	80.007	19.995	103.177	20.211	3.972	0.522
1121.500	645.922	80.005	19.995	103.173	20.210	3.982	0.506
1122.001	646.226	80.007	19.994	103.174	20.212	3.888	0.502
1122.501	646.464	80.006	19.994	103.175	20.212	3.880	0.527
1123.000	646.712	80.006	19.994	103.176	20.211	3.946	0.514
1123.500	646.965	80.007	19.995	103.176	20.209	4.074	0.493
1124.000	647.215	80.007	19.994	103.176	20.210	3.982	0.502
1124.500	647.460	80.007	19.994	103.174	20.211	3.916	0.499
1125.000	647.702	80.005	19.995	103.173	20.211	3.906	0.491
1125.500	647.947	80.006	19.994	103.173	20.209	4.108	0.487
1126.000	648.209	80.005	19.994	103.173	20.211	3.970	0.497
1126.500	648.484	80.006	19.993	103.174	20.209	4.108	0.522
1127.000	648.765	80.006	19.995	103.177	20.212	3.889	0.546
1127.500	648.979	80.007	19.994	103.181	20.214	3.725	0.526
1128.000	649.221	80.007	19.995	103.182	20.211	3.926	0.476
1128.500	649.476	80.007	19.994	103.183	20.214	3.752	0.476
1129.001	649.722	80.006	19.995	103.182	20.211	3.948	0.499
1129.501	649.991	80.007	19.995	103.180	20.211	3.936	0.508
1130.001	650.212	80.006	19.994	103.177	20.208	4.156	0.503
1130.501	650.487	80.007	19.995	103.176	20.211	3.964	0.493
1131.000	650.698	80.007	19.995	103.175	20.209	4.114	0.491
1131.500	651.000	80.007	19.995	103.175	20.210	3.990	0.500
1132.000	651.236	80.007	19.995	103.175	20.211	3.946	0.526
1132.501	651.462	80.007	19.994	103.175	20.206	4.276	0.500
1133.001	651.729	80.007	19.995	103.174	20.211	3.962	0.477
1133.500	651.946	80.007	19.995	103.176	20.210	4.012	0.488
1134.000	652.247	80.006	19.995	103.176	20.211	3.954	0.501
1134.500	652.434	80.008	19.994	103.175	20.214	3.743	0.503
1135.000	652.734	80.007	19.995	103.176	20.212	3.883	0.487
1135.500	652.929	80.008	19.994	103.176	20.213	3.819	0.491
1136.000	653.201	80.007	19.995	103.174	20.211	3.918	0.481
1136.500	653.442	80.007	19.995	103.173	20.208	4.126	0.490
1137.000	653.699	80.008	19.995	103.173	20.212	3.894	0.506
1137.500	653.938	80.007	19.994	103.172	20.211	3.934	0.498
1138.000	654.122	80.008	19.995	103.172	20.210	4.042	0.459
1138.500	654.418	80.009	19.997	103.175	20.210	4.004	0.451
1139.001	654.691	80.008	19.996	103.179	20.210	4.010	0.524
1139.501	654.921	80.006	19.996	103.180	20.209	4.106	0.536
1140.000	655.156	80.008	19.996	103.179	20.211	3.956	0.484
1140.500	655.436	80.007	19.995	103.179	20.211	3.905	0.490
1141.000	655.682	80.006	19.995	103.176	20.215	3.663	0.520
1141.500	655.922	80.006	19.995	103.172	20.212	3.891	0.506
1142.000	656.149	80.007	19.996	103.172	20.213	3.805	0.477
1142.501	656.425	80.008	19.994	103.173	20.214	3.725	0.485
1143.001	656.650	80.007	19.996	103.173	20.213	3.811	0.502
1143.501	656.840	80.007	19.996	103.173	20.213	3.771	0.458
1144.000	657.116	80.008	19.995	103.173	20.213	3.777	0.441
1144.500	657.365	80.007	19.995	103.172	20.217	3.513	0.496
1145.001	657.609	80.007	19.996	103.171	20.217	3.477	0.509
1145.501	657.905	80.008	19.995	103.171	20.216	3.555	0.516
1146.001	658.030	80.008	19.995	103.171	20.218	3.397	0.481
1146.501	658.240	80.008	19.995	103.171	20.214	3.723	0.378
1147.001	658.578	80.008	19.995	103.172	20.214	3.693	0.441
1147.500	658.919	80.007	19.995	103.173	20.211	3.912	0.613
1148.001	659.109	80.006	19.995	103.173	20.216	3.585	0.605
1148.501	659.384	80.007	19.995	103.174	20.214	3.691	0.498
1149.001	659.619	80.008	19.996	103.174	20.213	3.759	0.488
1149.500	659.878	80.006	19.996	103.174	20.216	3.597	0.503
1150.000	660.122	80.006	19.995	103.174	20.217	3.501	0.499
1150.500	660.365	80.007	19.997	103.173	20.213	3.769	0.495
1151.000	660.617	80.007	19.996	103.170	20.213	3.829	0.491
1151.500	660.840	80.006	19.996	103.170	20.215	3.651	0.485
1152.000	661.138	80.007	19.995	103.171	20.215	3.647	0.498
1152.500	661.355	80.007	19.996	103.170	20.215	3.641	0.518
1153.000	661.617	80.008	19.994	103.170	20.212	3.861	0.497
1153.500	661.887	80.008	19.995	103.172	20.212	3.837	0.506
1154.000	662.166	80.007	19.996	103.171	20.213	3.801	0.540
1154.500	662.383	80.008	19.996	103.171	20.213	3.777	0.522
1155.000	662.632	80.008	19.995	103.170	20.213	3.811	0.481
1155.500	662.895	80.008	19.996	103.170	20.213	3.759	0.488
1156.000	663.135	80.009	19.996	103.170	20.212	3.845	0.507
1156.500	663.395	80.008	19.995	103.171	20.214	3.695	0.502
1157.000	663.632	80.008	19.995	103.173	20.213	3.777	0.499
1157.500	663.924	80.008	19.995	103.176	20.214	3.701	0.513
1158.000	664.157	80.008	19.995	103.179	20.214	3.757	0.527
1158.500	664.418	80.008	19.995	103.181	20.215	3.671	0.510
1159.000	664.704	80.009	19.995	103.181	20.213	3.779	0.521
1159.501	664.961	80.010	19.995	103.180	20.216	3.603	0.545
1160.001	665.177	80.010	19.995	103.178	20.210	3.984	0.508
1160.500	665.464	80.009	19.995	103.176	20.211	3.939	0.488
1161.000	665.704	80.008	19.996	103.174	20.214	3.707	0.515
1161.500	665.943	80.008	19.995	103.174	20.216	3.553	0.503
1162.000	666.245	80.010	19.996	103.173	20.213	3.759	0.510
1162.500	666.477	80.009	19.996	103.172	20.212	3.875	0.537
1163.000	666.766	80.007	19.997	103.171	20.214	3.745	0.527
1163.500	667.002	80.009	19.995	103.172	20.214	3.707	0.523
1164.000	667.267	80.007	19.997	103.174	20.213	3.827	0.513
1164.500	667.533	80.009	19.994	103.174	20.211	3.923	0.516
1165.000	667.802	80.010	19.996	103.173	20.212	3.843	0.533
1165.500	668.025	80.009	19.996	103.172	20.214	3.739	0.514
1166.000	668.269	80.009	19.996	103.170	20.212	3.893	0.480
1166.500	668.539	80.008	19.996	103.168	20.210	4.022	0.491
1167.000	668.802	80.009	19.996	103.168	20.210	3.980	0.524
1167.501	669.098	80.008	19.996	103.167	20.212	3.891	0.546
1168.002	669.310	80.007	19.996	103.167	20.213	3.821	0.533
1168.501	669.595	80.007	19.996	103.167	20.210	4.040	0.502
1169.000	669.846	80.006	19.996	103.167	20.212	3.885	0.516
1169.500	670.110	80.008	19.996	103.167	20.213	3.819	0.525
1170.000	670.332	80.007	19.996	103.167	20.215	3.665	0.500
1170.500	670.601	80.007	19.996	103.168	20.213	3.799	0.489
1171.001	670.869	80.007	19.996	103.168	20.216	3.603	0.514
1171.501	671.142	80.006	19.996	103.168	20.213	3.793	0.539
1172.000	671.402	80.007	19.996	103.167	20.216	3.599	0.537
1172.500	671.709	80.006	19.996	103.168	20.215	3.669	0.550
1173.000	671.990	80.005	19.997	103.168	20.216	3.599	0.578
1173.500	672.223	80.006	19.997	103.168	20.214	3.687	0.551
1174.000	672.476	80.005	19.996	103.168	20.216	3.611	0.500
1174.500	672.710	80.006	19.994	103.169	20.215	3.647	0.487
1175.000	673.028	80.006	19.995	103.168	20.216	3.553	0.519
1175.500	673.242	80.005	19.995	103.168	20.213	3.767	0.542
1176.000	673.523	80.006	19.996	103.168	20.217	3.527	0.514
1176.500	673.826	80.007	19.996	103.168	20.214	3.733	0.539
1177.001	674.053	80.007	19.997	103.169	20.215	3.669	0.557
1177.501	674.336	80.007	19.995	103.170	20.218	3.433	0.520
1178.000	674.572	80.006	19.995	103.169	20.212	3.837	0.515
1178.500	674.853	80.006	19.995	103.168	20.215	3.639	0.517
1179.000	675.154	80.005	19.996	103.168	20.215	3.635	0.549
1179.500	675.377	80.007	19.996	103.168	20.216	3.589	0.553
1180.000	675.668	80.006	19.996	103.169	20.214	3.691	0.519
1180.500	675.909	80.007	19.995	103.172	20.214	3.731	0.523
1181.001	676.171	80.006	19.995	103.174	20.217	3.506	0.518
1181.501	676.468	80.007	19.994	103.173	20.217	3.530	0.531
1182.000	676.694	80.006	19.995	103.173	20.219	3.338	0.541
1182.500	676.954	80.005	19.996	103.172	20.216	3.543	0.504
1183.001	677.230	80.007	19.995	103.169	20.216	3.579	0.511
1183.501	677.497	80.008	19.995	103.169	20.214	3.699	0.539
1184.000	677.784	80.007	19.996	103.169	20.219	3.391	0.548
1184.500	678.024	80.007	19.997	103.169	20.219	3.391	0.541
1185.000	678.321	80.006	19.997	103.169	20.216	3.611	0.532
1185.500	678.590	80.007	19.996	103.170	20.219	3.367	0.551
1186.000	678.874	80.006	19.996	103.169	20.219	3.361	0.560
1186.501	679.095	80.007	19.995	103.169	20.220	3.308	0.530
1187.001	679.349	80.006	19.995	103.170	20.218	3.431	0.490
1187.500	679.615	80.006	19.995	103.171	20.218	3.439	0.498
1188.000	679.884	80.008	19.995	103.171	20.217	3.531	0.527
1188.500	680.132	80.007	19.995	103.171	20.218	3.407	0.526
1189.000	680.437	80.006	19.994	103.171	20.214	3.711	0.535
1189.500	680.671	80.007	19.997	103.172	20.216	3.609	0.546
1190.000	680.971	80.006	19.995	103.172	20.216	3.549	0.537
1190.500	681.223	80.007	19.995	103.172	20.214	3.693	0.543
1191.001	681.477	80.007	19.995	103.171	20.219	3.322	0.529
1191.501	681.791	80.008	19.995	103.166	20.216	3.547	0.537
1192.000	681.852	80.007	19.996	103.163	20.216	3.609	0.471
1192.500	682.216	80.007	19.995	103.162	20.218	3.398	0.399
1193.001	682.511	80.008	19.995	103.163	20.217	3.539	0.542
1193.501	682.766	80.006	19.995	103.165	20.216	3.609	0.605
1194.000	683.033	80.006	19.994	103.170	20.220	3.304	0.536
1194.500	683.288	80.006	19.995	103.173	20.218	3.448	0.522
1195.000	683.541	80.007	19.996	103.174	20.218	3.425	0.515
1195.500	683.802	80.006	19.996	103.174	20.217	3.493	0.511
1196.000	684.053	80.006	19.995	103.173	20.218	3.417	0.513
1196.500	684.339	80.006	19.995	103.173	20.216	3.557	0.524
1197.000	684.562	80.006	19.994	103.174	20.215	3.673	0.523
1197.501	684.824	80.008	19.994	103.174	20.217	3.519	0.497
1198.001	685.121	80.023	19.998	103.173	20.221	3.224	0.522
1198.500	685.324	80.023	19.999	103.172	20.218	3.431	0.530
1199.000	685.645	80.017	19.997	103.172	20.217	3.467	0.512
1199.500	685.898	80.012	19.996	103.172	20.217	3.505	0.549
1200.000	686.142	80.007	19.996	103.172	20.217	3.527	0.535
1200.500	686.408	80.007	19.997	103.172	20.219	3.380	0.503
1201.000	686.632	80.006	19.996	103.171	20.217	3.499	0.500
1201.500	686.917	80.005	19.995	103.170	20.217	3.489	0.500
1202.000	687.206	80.006	19.995	103.170	20.216	3.593	0.542
1202.500	687.430	80.005	19.996	103.170	20.216	3.561	0.543
1203.000	687.677	80.005	19.997	103.169	20.215	3.627	0.492
1203.500	687.950	80.006	19.996	103.167	20.214	3.685	0.496
1204.000	688.202	80.006	19.995	103.165	20.215	3.613	0.523
1204.500	688.450	80.007	19.996	103.164	20.215	3.661	0.512
1205.000	688.725	80.005	19.995	103.164	20.214	3.727	0.511
1205.500	688.974	80.006	19.995	103.166	20.218	3.424	0.524
1206.000	689.244	80.005	19.995	103.170	20.220	3.296	0.522
1206.500	689.495	80.006	19.996	103.173	20.220	3.304	0.520
1207.000	689.757	80.006	19.996	103.174	20.217	3.537	0.517
1207.500	689.973	80.005	19.997	103.174	20.217	3.489	0.496
1208.001	690.260	80.006	19.994	103.175	20.221	3.214	0.491
1208.501	690.523	80.005	19.995	103.175	20.219	3.371	0.526
1209.000	690.765	80.005	19.995	103.174	20.216	3.603	0.527
1209.500	691.001	80.005	19.995	103.173	20.219	3.370	0.491
1210.000	691.245	80.005	19.995	103.171	20.221	3.192	0.479
1210.500	691.518	80.005	19.996	103.171	20.220	3.292	0.499
1211.000	691.721	80.006	19.995	103.170	20.220	3.304	0.496
1211.500	692.018	80.006	19.995	103.169	20.219	3.338	0.488
1212.000	692.279	80.005	19.995	103.169	20.218	3.404	0.529
1212.500	692.536	80.005	19.994	103.171	20.220	3.272	0.538
1213.001	692.772	80.006	19.996	103.171	20.216	3.555	0.506
1213.501	692.990	80.005	19.994	103.172	20.217	3.505	0.473
1214.000	693.294	80.007	19.995	103.175	20.220	3.256	0.488
1214.500	693.513	80.007	19.995	103.176	20.218	3.449	0.523
1215.000	693.785	80.006	19.995	103.175	20.217	3.489	0.507
1215.500	694.074	80.007	19.994	103.174	20.215	3.647	0.526
1216.000	694.308	80.006	19.995	103.171	20.217	3.487	0.542
1216.500	694.543	80.007	19.995	103.169	20.219	3.350	0.496
1217.000	694.821	80.008	19.994	103.168	20.222	3.166	0.491
1217.500	695.071	80.008	19.994	103.168	20.221	3.176	0.521
1218.000	695.319	80.007	19.994	103.169	20.221	3.218	0.513
1218.500	695.593	80.008	19.994	103.171	20.221	3.178	0.510
1219.000	695.803	80.008	19.995	103.172	20.220	3.282	0.503
1219.501	696.130	80.008	19.994	103.172	20.223	3.102	0.511
1220.001	696.337	80.009	19.995	103.172	20.220	3.284	0.536
1220.500	696.613	80.008	19.996	103.171	20.218	3.428	0.509
1221.000	696.871	80.008	19.995	103.171	20.217	3.536	0.509
1221.501	697.149	80.009	19.996	103.170	20.215	3.681	0.535
1222.001	697.382	80.008	19.994	103.165	20.221	3.176	0.523
1222.500	697.678	80.010	19.995	103.164	20.214	3.699	0.520
1223.000	697.881	80.009	19.994	103.164	20.218	3.414	0.515
1223.501	698.160	80.009	19.995	103.164	20.218	3.410	0.491
1224.001	698.409	80.009	19.995	103.165	20.218	3.416	0.505
1224.501	698.667	80.008	19.995	103.168	20.217	3.493	0.518
1225.000	698.879	80.008	19.996	103.169	20.214	3.719	0.489
1225.500	699.128	80.010	19.995	103.168	20.217	3.511	0.465
1226.001	699.430	80.008	19.995	103.167	20.215	3.659	0.505
1226.501	699.650	80.008	19.995	103.167	20.215	3.665	0.536
1227.000	699.908	80.009	19.995	103.169	20.216	3.575	0.500
1227.500	700.178	80.009	19.995	103.169	20.216	3.589	0.503
1228.000	700.392	80.007	19.995	103.169	20.215	3.635	0.506
1228.501	700.659	80.007	19.995	103.168	20.220	3.284	0.483
1229.001	700.885	80.009	19.995	103.167	20.218	3.448	0.487
1229.500	701.158	80.007	19.994	103.166	20.221	3.186	0.496
1230.000	701.436	80.008	19.994	103.166	20.217	3.505	0.525
1230.500	701.686	80.007	19.996	103.164	20.221	3.234	0.539
1231.000	701.940	80.007	19.995	103.163	20.215	3.629	0.516
1231.500	702.195	80.007	19.996	103.162	20.218	3.446	0.507
1232.000	702.448	80.007	19.994	103.163	20.222	3.122	0.508
1232.500	702.699	80.007	19.995	103.164	20.219	3.338	0.506
1233.000	702.925	80.009	19.996	103.166	20.218	3.394	0.491
1233.501	703.175	80.007	19.995	103.167	20.221	3.214	0.477
1234.001	703.403	80.007	19.996	103.167	20.219	3.336	0.478
1234.500	703.683	80.008	19.995	103.167	20.218	3.442	0.493
1235.000	703.928	80.008	19.996	103.167	20.216	3.569	0.516
1235.501	704.171	80.007	19.995	103.166	20.217	3.514	0.506
1236.001	704.435	80.008	19.996	103.165	20.220	3.280	0.498
1236.501	704.636	80.008	19.996	103.166	20.219	3.346	0.486
1237.000	704.879	80.007	19.996	103.166	20.217	3.481	0.454
1237.501	705.169	80.006	19.996	103.166	20.220	3.274	0.488
1238.001	705.397	80.007	19.997	103.167	20.220	3.280	0.526
1238.501	705.657	80.006	19.995	103.170	20.222	3.150	0.503
1239.001	705.893	80.008	19.997	103.169	20.219	3.360	0.492
1239.501	706.135	80.006	19.995	103.168	20.221	3.244	0.487
1240.001	706.369	80.009	19.996	103.168	20.224	3.028	0.477
1240.500	706.640	80.008	19.997	103.167	20.219	3.378	0.491
1241.000	706.881	80.008	19.997	103.167	20.220	3.294	0.509
1241.500	707.146	80.008	19.996	103.167	20.215	3.655	0.509
1242.000	707.376	80.009	19.996	103.167	20.219	3.332	0.500
1242.500	707.657	80.009	19.996	103.165	20.216	3.557	0.503
1243.000	707.874	80.009	19.995	103.164	20.219	3.330	0.504
1243.500	708.128	80.010	19.996	103.164	20.217	3.502	0.484
1244.000	708.379	80.008	19.995	103.164	20.219	3.332	0.488
1244.500	708.622	80.010	19.994	103.163	20.213	3.773	0.500
1245.000	708.895	80.009	19.995	103.164	20.215	3.641	0.505
1245.500	709.127	80.009	19.996	103.163	20.214	3.747	0.511
1246.000	709.403	80.009	19.996	103.164	20.218	3.452	0.507
1246.500	709.661	80.011	19.995	103.164	20.217	3.503	0.521
1247.000	709.921	80.009	19.995	103.166	20.216	3.553	0.526
1247.500	710.114	80.010	19.995	103.167	20.217	3.531	0.486
1248.000	710.390	80.008	19.995	103.168	20.218	3.433	0.461
1248.500	710.616	80.008	19.995	103.168	20.216	3.567	0.486
1249.000	710.892	80.009	19.995	103.168	20.217	3.469	0.502
1249.500	711.124	80.009	19.995	103.168	20.221	3.222	0.505
1250.000	711.381	80.009	19.996	103.168	20.217	3.505	0.499
1250.500	711.639	80.010	19.996	103.168	20.219	3.361	0.502
1251.000	711.880	80.009	19.997	103.168	20.221	3.190	0.507
1251.500	712.136	80.008	19.997	103.168	20.222	3.140	0.498
1252.000	712.376	80.009	19.996	103.168	20.216	3.605	0.496
1252.500	712.626	80.008	19.997	103.169	20.219	3.350	0.493
1253.000	712.895	80.008	19.995	103.168	20.222	3.132	0.505
1253.500	713.143	80.008	19.995	103.167	20.218	3.461	0.518
1254.001	713.390	80.008	19.995	103.166	20.218	3.394	0.506
1254.501	713.672	80.008	19.995	103.165	20.219	3.368	0.511
1255.001	713.870	80.008	19.995	103.160	20.217	3.491	0.504
1255.501	714.116	80.007	19.997	103.161	20.215	3.635	0.462
1256.000	714.391	80.006	19.996	103.163	20.217	3.515	0.483
1256.500	714.624	80.006	19.996	103.163	20.217	3.483	0.515
1257.001	714.873	80.007	19.997	103.165	20.218	3.408	0.495
1257.501	715.143	80.005	19.996	103.170	20.216	3.571	0.501
1258.000	715.370	80.005	19.998	103.171	20.219	3.350	0.508
1258.501	715.609	80.004	19.996	103.172	20.216	3.541	0.481
1259.001	715.882	80.006	19.997	103.172	20.214	3.731	0.489
1259.501	716.154	80.005	19.998	103.172	20.220	3.278	0.529
1260.001	716.391	80.005	19.998	103.172	20.220	3.272	0.527
1260.501	716.669	80.005	19.996	103.173	20.219	3.378	0.512
1261.001	716.931	80.005	19.996	103.174	20.219	3.346	0.527
1261.500	717.190	80.006	19.996	103.173	20.218	3.444	0.530
1262.000	717.430	80.005	19.997	103.173	20.217	3.477	0.510
1262.500	717.681	80.006	19.996	103.173	20.218	3.396	0.495
1263.000	717.939	80.005	19.997	103.173	20.217	3.505	0.500
1263.500	718.201	80.006	19.996	103.170	20.218	3.461	0.515
1264.001	718.496	80.006	19.996	103.171	20.220	3.314	0.539
1264.501	718.708	80.006	19.995	103.171	20.221	3.194	0.532
1265.000	718.981	80.006	19.996	103.171	20.220	3.308	0.496
1265.500	719.206	80.005	19.996	103.170	20.215	3.613	0.492
1266.000	719.500	80.005	19.996	103.169	20.221	3.224	0.508
1266.500	719.733	80.006	19.996	103.169	20.221	3.236	0.523
1267.000	719.975	80.005	19.996	103.169	20.218	3.464	0.501
1267.500	720.226	80.007	19.996	103.168	20.219	3.354	0.484
1268.001	720.484	80.006	19.996	103.167	20.217	3.520	0.502
1268.501	720.736	80.006	19.996	103.167	20.220	3.278	0.510
1269.001	720.968	80.004	19.997	103.165	20.218	3.409	0.496
1269.501	721.242	80.007	19.995	103.164	20.218	3.397	0.495
1270.000	721.498	80.005	19.996	103.166	20.218	3.401	0.518
1270.500	721.721	80.005	19.996	103.167	20.218	3.437	0.504
1271.000	721.981	80.006	19.995	103.166	20.217	3.477	0.481
1271.500	722.236	80.006	19.996	103.166	20.218	3.452	0.499
1272.001	722.501	80.006	19.996	103.167	20.214	3.689	0.518
1272.501	722.759	80.005	19.996	103.167	20.214	3.756	0.521
1273.000	723.026	80.006	19.996	103.168	20.215	3.636	0.524
1273.500	723.266	80.006	19.997	103.170	20.217	3.528	0.516
1274.000	723.514	80.006	19.996	103.171	20.215	3.682	0.497
1274.500	723.778	80.007	19.996	103.170	20.217	3.500	0.500
1275.000	724.036	80.006	19.995	103.170	20.217	3.504	0.517
1275.500	724.279	80.005	19.996	103.169	20.216	3.565	0.512
1276.000	724.531	80.006	19.995	103.169	20.217	3.526	0.498
1276.500	724.719	80.007	19.995	103.170	20.218	3.416	0.467
1277.000	725.031	80.006	19.995	103.167	20.214	3.737	0.469
1277.500	725.284	80.006	19.994	103.163	20.216	3.566	0.533
1278.000	725.561	80.006	19.995	103.162	20.215	3.629	0.548
1278.500	725.827	80.007	19.995	103.162	20.215	3.653	0.537
1279.000	726.046	80.008	19.994	103.162	20.214	3.707	0.514
1279.500	726.303	80.006	19.994	103.167	20.216	3.541	0.480
1280.000	726.580	80.006	19.995	103.172	20.216	3.601	0.505
1280.500	726.830	80.005	19.995	103.174	20.217	3.537	0.531
1281.001	727.073	80.006	19.995	103.173	20.215	3.641	0.510
1281.501	727.342	80.007	19.994	103.170	20.217	3.515	0.502
1282.000	727.598	80.006	19.995	103.168	20.216	3.583	0.518
1282.500	727.820	80.007	19.996	103.164	20.216	3.587	0.502
1283.000	728.069	80.007	19.995	103.156	20.217	3.527	0.475
1283.500	728.355	80.006	19.995	103.151	20.217	3.523	0.503
1284.001	728.573	80.006	19.995	103.151	20.216	3.563	0.519
1284.501	728.807	80.006	19.995	103.151	20.213	3.819	0.478
1285.000	729.095	80.007	19.995	103.153	20.217	3.482	0.487
1285.500	729.326	80.006	19.994	103.157	20.219	3.334	0.521
1286.000	729.593	80.006	19.996	103.163	20.217	3.490	0.509
1286.500	729.817	80.007	19.994	103.163	20.215	3.643	0.495
1287.000	730.093	80.006	19.994	103.161	20.215	3.647	0.495
1287.500	730.338	80.007	19.996	103.160	20.213	3.777	0.510
1288.001	730.585	80.006	19.995	103.163	20.215	3.630	0.507
1288.501	730.848	80.007	19.995	103.161	20.218	3.438	0.501
1289.001	731.091	80.006	19.995	103.161	20.217	3.488	0.509
1289.501	731.342	80.006	19.995	103.164	20.217	3.526	0.500
1290.000	731.624	80.005	19.994	103.166	20.218	3.438	0.514
1290.500	731.866	80.006	19.995	103.167	20.215	3.627	0.528
1291.000	732.150	80.004	19.995	103.170	20.218	3.440	0.525
1291.500	732.371	80.006	19.995	103.172	20.217	3.537	0.516
1292.000	732.598	80.005	19.995	103.172	20.217	3.515	0.476
1292.500	732.904	80.006	19.995	103.172	20.216	3.555	0.490
1293.000	733.126	80.006	19.994	103.171	20.215	3.659	0.530
1293.500	733.381	80.006	19.995	103.171	20.215	3.675	0.503
1294.000	733.642	80.006	19.996	103.171	20.217	3.472	0.497
1294.500	733.861	80.005	19.995	103.171	20.219	3.348	0.498
1295.000	734.165	80.007	19.995	103.169	20.213	3.783	0.502
1295.500	734.405	80.006	19.995	103.167	20.215	3.658	0.533
1296.000	734.629	80.008	19.995	103.166	20.216	3.600	0.504
1296.500	734.885	80.007	19.995	103.166	20.215	3.642	0.472
1297.000	735.150	80.007	19.995	103.165	20.216	3.562	0.500
1297.500	735.371	80.006	19.996	103.166	20.214	3.711	0.503
1298.000	735.623	80.007	19.997	103.164	20.217	3.518	0.480
1298.500	735.892	80.007	19.995	103.159	20.215	3.661	0.497
1299.001	736.119	80.007	19.996	103.152	20.215	3.683	0.509
1299.501	736.371	80.008	19.994	103.150	20.215	3.649	0.488
1300.000	736.632	80.008	19.996	103.149	20.214	3.703	0.496
1300.500	736.866	80.006	19.995	103.151	20.217	3.526	0.504
1301.000	737.095	80.009	19.995	103.156	20.215	3.619	0.479
1301.500	737.351	80.008	19.995	103.164	20.212	3.845	0.474
1302.000	737.591	80.008	19.996	103.166	20.214	3.727	0.490
1302.500	737.862	80.009	19.995	103.165	20.214	3.725	0.503
1303.001	738.138	80.009	19.995	103.169	20.214	3.727	0.529
1303.501	738.380	80.008	19.995	103.170	20.214	3.737	0.532
1304.000	738.618	80.010	19.995	103.169	20.216	3.552	0.499
1304.500	738.889	80.008	19.995	103.168	20.217	3.482	0.494
1305.000	739.130	80.010	19.995	103.163	20.216	3.588	0.510
1305.500	739.373	80.009	19.995	103.156	20.215	3.636	0.498
1306.000	739.631	80.009	19.996	103.155	20.217	3.516	0.493
1306.500	739.866	80.009	19.996	103.155	20.219	3.388	0.497
1307.000	740.128	80.008	19.995	103.151	20.215	3.679	0.495
1307.500	740.337	80.009	19.994	103.152	20.215	3.639	0.484
1308.001	740.631	80.009	19.996	103.158	20.218	3.402	0.487
1308.501	740.864	80.009	19.995	103.158	20.219	3.390	0.515
1309.000	741.129	80.009	19.996	103.158	20.217	3.487	0.512
1309.500	741.373	80.009	19.994	103.162	20.214	3.703	0.503
1310.001	741.645	80.008	19.994	103.163	20.215	3.683	0.512
1310.501	741.902	80.008	19.995	103.162	20.215	3.675	0.523
1311.000	742.155	80.008	19.994	103.161	20.213	3.819	0.519
1311.500	742.380	80.011	19.995	103.159	20.215	3.681	0.494
1312.000	742.631	80.009	19.995	103.160	20.213	3.805	0.477
1312.500	742.892	80.009	19.994	103.163	20.216	3.555	0.495
1313.000	743.161	80.008	19.994	103.164	20.216	3.577	0.521
1313.500	743.408	80.010	19.995	103.166	20.214	3.709	0.523
1314.000	743.638	80.007	19.994	103.164	20.214	3.685	0.496
