Sample ID:	C:\MCC\PMMA_MCC_30K_min_210920_R1.txt
Sample Weight (mg):	4.57
Heating Rate (C/s):	0.5
Combustor Temp (C):	900
N2 Flow Rate (cc/min):	80
O2 Flow Rate (cc/min):	20
Calibration File:	C:\MCC\MCC Cal\Coeff1 JN10440_30_210304.txt.txt
T Correction Coefficients:	0	1.024463	0
Time Shift (s):	14
*
Time (s)	Temperature (C)	N2 flow rate (cc/min)	O2 flow rate (cc/min)	Flow Rate (cc/min)	Oxygen (%)	HRR (W/g)	Heating rate (C/s)
0.001	105.721	79.997	19.994	99.804	20.386	0.130	0.012
0.501	105.683	79.996	19.995	99.804	20.388	0.002	0.011
1.000	105.694	79.996	19.994	99.804	20.385	0.169	-0.016
1.500	105.711	79.997	19.995	99.804	20.385	0.167	0.001
2.000	105.687	79.995	19.995	99.804	20.388	-0.035	0.011
2.500	105.681	79.995	19.994	99.804	20.386	0.130	-0.018
3.000	105.675	79.995	19.995	99.804	20.389	-0.104	-0.021
3.500	105.682	79.996	19.994	99.804	20.386	0.132	-0.006
4.000	105.666	79.996	19.995	99.809	20.386	0.156	-0.004
4.500	105.667	79.995	19.994	99.812	20.385	0.191	-0.012
5.000	105.668	79.995	19.994	99.814	20.385	0.173	-0.006
5.500	105.674	79.996	19.994	99.814	20.387	0.074	0.005
6.000	105.679	79.996	19.994	99.813	20.387	0.080	0.009
6.500	105.648	79.996	19.994	99.808	20.385	0.214	-0.008
7.000	105.655	79.994	19.995	99.807	20.384	0.270	-0.025
7.500	105.681	79.995	19.994	99.811	20.384	0.259	0.004
8.000	105.655	79.995	19.994	99.815	20.384	0.277	0.016
8.500	105.693	79.995	19.994	99.819	20.384	0.257	0.006
9.000	105.651	79.996	19.995	99.823	20.386	0.112	0.004
9.500	105.691	79.995	19.995	99.825	20.386	0.143	-0.003
10.000	105.672	79.997	19.994	99.821	20.386	0.136	0.010
10.500	105.663	79.996	19.994	99.823	20.386	0.140	-0.003
11.000	105.686	79.995	19.995	99.826	20.384	0.294	-0.007
11.500	105.649	79.996	19.995	99.829	20.384	0.249	-0.000
12.000	105.644	79.997	19.995	99.832	20.384	0.244	-0.028
12.501	105.647	79.996	19.994	99.836	20.384	0.274	-0.022
13.001	105.675	79.996	19.994	99.837	20.381	0.460	0.015
13.500	105.634	79.997	19.994	99.839	20.381	0.491	0.009
14.000	105.674	79.996	19.994	99.841	20.377	0.732	-0.007
14.500	105.702	79.997	19.995	99.845	20.379	0.605	0.034
15.000	105.680	79.996	19.995	99.853	20.376	0.808	0.037
15.500	105.669	79.996	19.995	99.861	20.375	0.855	-0.013
16.000	105.744	79.996	19.995	99.872	20.375	0.857	0.016
16.500	105.710	79.997	19.995	99.886	20.372	1.104	0.053
17.000	105.727	79.996	19.995	99.898	20.371	1.169	0.012
17.500	105.731	79.995	19.995	99.908	20.369	1.320	0.002
18.000	105.688	79.997	19.994	99.918	20.366	1.518	-0.009
18.500	105.747	79.995	19.995	99.924	20.365	1.579	-0.012
19.000	105.770	79.996	19.996	99.931	20.364	1.635	0.049
19.500	105.780	79.995	19.995	99.939	20.364	1.622	0.058
20.000	105.829	79.994	19.994	99.947	20.364	1.594	0.046
20.500	105.792	79.995	19.995	99.952	20.363	1.717	0.036
21.000	105.814	79.994	19.994	99.954	20.363	1.723	-0.001
21.500	105.847	79.996	19.994	99.954	20.358	2.062	0.020
22.000	105.882	79.994	19.996	99.955	20.359	1.941	0.062
22.500	105.925	79.993	19.995	99.961	20.361	1.861	0.073
23.000	105.935	79.994	19.996	99.969	20.359	1.997	0.065
23.500	105.976	79.993	19.996	99.982	20.357	2.127	0.052
24.002	106.036	79.994	19.995	99.992	20.355	2.257	0.076
24.501	106.041	79.993	19.995	100.001	20.354	2.287	0.083
25.000	106.086	79.994	19.995	100.007	20.353	2.358	0.058
25.500	106.127	79.994	19.995	100.012	20.352	2.418	0.068
26.000	106.212	79.993	19.995	100.019	20.352	2.464	0.105
26.500	106.247	79.994	19.996	100.022	20.351	2.546	0.123
27.000	106.328	79.993	19.995	100.023	20.349	2.648	0.118
27.500	106.338	79.993	19.995	100.022	20.348	2.702	0.104
28.000	106.367	79.995	19.994	100.025	20.348	2.699	0.065
28.500	106.416	79.995	19.995	100.023	20.349	2.682	0.059
29.000	106.475	79.994	19.994	100.020	20.347	2.807	0.093
29.500	106.545	79.993	19.994	100.022	20.345	2.948	0.118
30.000	106.607	79.993	19.994	100.025	20.346	2.831	0.131
30.500	106.677	79.993	19.995	100.026	20.344	2.973	0.132
31.000	106.711	79.994	19.994	100.028	20.347	2.766	0.118
31.500	106.760	79.994	19.994	100.034	20.347	2.772	0.093
32.000	106.836	79.994	19.994	100.036	20.345	2.932	0.104
32.500	106.907	79.994	19.994	100.040	20.345	2.906	0.136
33.000	106.991	79.993	19.994	100.042	20.347	2.820	0.151
33.500	107.066	79.993	19.994	100.044	20.345	2.915	0.158
34.000	107.128	79.994	19.994	100.045	20.346	2.889	0.148
34.500	107.224	79.994	19.994	100.046	20.346	2.889	0.147
35.000	107.273	79.996	19.994	100.048	20.344	3.017	0.152
35.500	107.363	79.995	19.994	100.046	20.344	2.967	0.142
36.000	107.427	79.993	19.995	100.044	20.343	3.043	0.146
36.501	107.559	79.994	19.995	100.044	20.343	3.032	0.175
37.001	107.630	79.996	19.994	100.043	20.342	3.109	0.199
37.501	107.708	79.994	19.994	100.040	20.342	3.144	0.176
38.001	107.802	79.995	19.994	100.040	20.342	3.098	0.161
38.500	107.877	79.994	19.993	100.040	20.343	3.075	0.171
39.000	107.976	79.994	19.994	100.040	20.345	2.947	0.171
39.500	108.092	79.995	19.993	100.041	20.340	3.251	0.194
40.000	108.178	79.995	19.995	100.044	20.339	3.332	0.209
40.501	108.224	79.995	19.994	100.048	20.341	3.206	0.167
41.001	108.403	79.995	19.994	100.050	20.340	3.278	0.178
41.500	108.472	79.993	19.995	100.050	20.340	3.254	0.236
42.000	108.579	79.995	19.995	100.050	20.341	3.207	0.212
42.501	108.663	79.994	19.995	100.047	20.341	3.206	0.183
43.001	108.803	79.994	19.995	100.044	20.343	3.088	0.208
43.500	108.914	79.994	19.993	100.043	20.342	3.164	0.238
44.000	108.971	79.995	19.993	100.045	20.340	3.293	0.209
44.501	109.133	79.995	19.995	100.044	20.338	3.381	0.193
45.001	109.247	79.994	19.995	100.044	20.344	2.974	0.248
45.500	109.359	79.996	19.994	100.044	20.341	3.192	0.252
46.000	109.491	79.995	19.994	100.045	20.342	3.148	0.235
46.500	109.634	79.996	19.995	100.044	20.340	3.243	0.259
47.000	109.661	79.995	19.995	100.046	20.344	3.021	0.222
47.500	109.808	79.995	19.994	100.046	20.340	3.236	0.172
48.001	109.919	79.996	19.995	100.045	20.341	3.183	0.216
48.502	110.063	79.995	19.995	100.049	20.339	3.347	0.256
49.001	110.178	79.994	19.994	100.056	20.338	3.429	0.257
49.500	110.329	79.994	19.994	100.056	20.335	3.584	0.263
50.000	110.393	79.993	19.994	100.056	20.339	3.325	0.240
50.500	110.488	79.994	19.994	100.057	20.338	3.385	0.187
51.000	110.653	79.995	19.995	100.056	20.336	3.565	0.209
51.501	110.781	79.995	19.995	100.051	20.339	3.342	0.276
52.001	110.911	79.994	19.995	100.053	20.337	3.478	0.275
52.500	111.019	79.993	19.995	100.053	20.337	3.487	0.249
53.000	111.176	79.994	19.994	100.051	20.336	3.529	0.252
53.500	111.320	79.993	19.994	100.048	20.338	3.378	0.283
54.000	111.432	79.994	19.995	100.046	20.337	3.493	0.278
54.500	111.537	79.994	19.995	100.041	20.337	3.456	0.236
55.000	111.673	79.994	19.995	100.044	20.337	3.456	0.229
55.501	111.801	79.994	19.994	100.045	20.338	3.419	0.253
56.001	111.964	79.993	19.995	100.045	20.337	3.484	0.277
56.501	112.118	79.993	19.994	100.046	20.339	3.309	0.304
57.001	112.251	79.993	19.995	100.049	20.338	3.393	0.302
57.501	112.407	79.993	19.995	100.049	20.338	3.429	0.288
58.001	112.555	79.994	19.994	100.050	20.339	3.311	0.297
58.500	112.680	79.994	19.995	100.054	20.338	3.377	0.289
59.000	112.824	79.993	19.994	100.057	20.339	3.352	0.271
59.501	112.934	79.994	19.995	100.058	20.338	3.399	0.261
60.001	113.115	79.994	19.994	100.060	20.336	3.540	0.272
60.501	113.266	79.994	19.995	100.061	20.338	3.421	0.311
61.001	113.413	79.994	19.993	100.058	20.340	3.254	0.315
61.501	113.575	79.995	19.994	100.055	20.339	3.341	0.304
62.001	113.709	79.994	19.994	100.054	20.339	3.334	0.302
62.500	113.835	79.994	19.994	100.056	20.336	3.517	0.278
63.001	113.965	79.995	19.994	100.061	20.336	3.537	0.258
63.501	114.149	79.994	19.994	100.067	20.337	3.476	0.285
64.001	114.294	79.994	19.993	100.074	20.331	3.899	0.321
64.501	114.464	79.995	19.993	100.077	20.334	3.709	0.322
65.001	114.682	79.995	19.994	100.076	20.333	3.768	0.351
65.501	114.778	79.996	19.994	100.077	20.332	3.849	0.351
66.001	114.938	79.996	19.994	100.078	20.333	3.755	0.286
66.500	115.090	79.995	19.993	100.079	20.333	3.716	0.284
67.000	115.265	79.995	19.994	100.082	20.333	3.759	0.319
67.500	115.421	79.996	19.994	100.087	20.332	3.811	0.328
68.000	115.611	79.995	19.994	100.093	20.334	3.655	0.338
68.500	115.756	79.997	19.993	100.094	20.327	4.137	0.341
69.000	115.912	79.997	19.994	100.093	20.330	3.981	0.318
69.500	116.095	79.996	19.995	100.092	20.328	4.120	0.320
70.000	116.273	79.995	19.993	100.087	20.330	3.927	0.350
70.500	116.420	79.996	19.994	100.083	20.327	4.139	0.343
71.000	116.652	79.997	19.994	100.085	20.330	3.925	0.352
71.501	116.770	79.997	19.994	100.092	20.330	3.919	0.364
72.001	116.970	79.996	19.994	100.096	20.330	3.934	0.334
72.501	117.192	79.997	19.995	100.100	20.327	4.128	0.370
73.001	117.316	79.996	19.995	100.104	20.329	4.027	0.384
73.501	117.465	79.995	19.995	100.104	20.326	4.243	0.310
74.000	117.666	79.996	19.996	100.101	20.325	4.320	0.311
74.501	117.867	79.995	19.995	100.099	20.329	4.001	0.376
75.001	118.080	79.996	19.994	100.103	20.325	4.280	0.408
75.500	118.261	79.995	19.993	100.103	20.325	4.316	0.404
76.000	118.431	79.994	19.997	100.104	20.325	4.284	0.373
76.500	118.584	79.995	19.995	100.107	20.326	4.237	0.337
77.000	118.787	79.995	19.995	100.109	20.327	4.126	0.339
77.500	118.949	79.994	19.995	100.108	20.326	4.240	0.360
78.000	119.159	79.996	19.995	100.108	20.326	4.219	0.368
78.500	119.325	79.995	19.994	100.107	20.323	4.452	0.374
79.000	119.527	79.994	19.996	100.105	20.324	4.383	0.372
79.500	119.714	79.996	19.996	100.103	20.323	4.448	0.379
80.000	119.900	79.996	19.995	100.101	20.327	4.183	0.381
80.500	120.113	79.995	19.996	100.102	20.324	4.328	0.386
81.000	120.257	79.996	19.995	100.101	20.325	4.282	0.378
81.500	120.432	79.995	19.995	100.101	20.325	4.282	0.338
82.000	120.621	79.995	19.995	100.102	20.323	4.426	0.341
82.500	120.840	79.995	19.995	100.098	20.326	4.202	0.386
83.000	121.031	79.995	19.994	100.093	20.325	4.314	0.409
83.500	121.218	79.994	19.995	100.093	20.326	4.241	0.394
84.000	121.416	79.995	19.995	100.091	20.324	4.344	0.381
84.500	121.661	79.995	19.995	100.088	20.324	4.364	0.414
85.000	121.831	79.994	19.995	100.095	20.328	4.101	0.429
85.500	122.052	79.995	19.994	100.095	20.324	4.336	0.403
86.000	122.244	79.996	19.995	100.093	20.321	4.584	0.402
86.501	122.438	79.995	19.995	100.094	20.324	4.388	0.399
87.001	122.683	79.995	19.995	100.095	20.322	4.498	0.412
87.500	122.874	79.996	19.995	100.094	20.323	4.426	0.438
88.001	123.024	79.995	19.994	100.096	20.322	4.504	0.389
88.501	123.244	79.996	19.995	100.100	20.321	4.539	0.355
89.001	123.448	79.996	19.994	100.105	20.322	4.493	0.397
89.501	123.658	79.996	19.995	100.105	20.320	4.644	0.419
90.001	123.891	79.997	19.995	100.100	20.320	4.648	0.429
90.501	124.081	79.997	19.994	100.097	20.321	4.566	0.433
91.002	124.281	79.996	19.995	100.094	20.321	4.562	0.406
91.501	124.479	79.997	19.994	100.086	20.322	4.499	0.394
92.000	124.739	79.997	19.995	100.087	20.320	4.655	0.428
92.500	124.923	79.997	19.994	100.087	20.318	4.786	0.451
93.000	125.109	79.996	19.995	100.091	20.321	4.578	0.407
93.500	125.352	79.997	19.994	100.096	20.322	4.470	0.400
94.000	125.571	79.996	19.995	100.097	20.318	4.781	0.445
94.500	125.787	79.997	19.994	100.096	20.320	4.627	0.448
95.001	125.958	79.996	19.994	100.096	20.318	4.757	0.411
95.501	126.206	79.997	19.994	100.096	20.316	4.902	0.403
96.001	126.414	79.996	19.994	100.093	20.323	4.435	0.438
96.501	126.628	79.997	19.994	100.097	20.319	4.724	0.439
97.000	126.842	79.998	19.994	100.096	20.318	4.798	0.424
97.500	127.067	79.997	19.994	100.095	20.315	5.002	0.434
98.000	127.308	79.996	19.994	100.093	20.317	4.849	0.453
98.500	127.518	79.996	19.994	100.095	20.318	4.748	0.458
99.000	127.753	79.997	19.994	100.092	20.318	4.753	0.448
99.500	127.929	79.996	19.994	100.096	20.319	4.733	0.428
100.001	128.162	79.996	19.994	100.099	20.317	4.854	0.410
100.502	128.348	79.995	19.995	100.100	20.318	4.793	0.414
101.001	128.597	79.995	19.995	100.101	20.318	4.771	0.427
101.501	128.837	79.995	19.994	100.105	20.315	4.961	0.462
102.000	129.039	79.994	19.994	100.104	20.316	4.892	0.466
102.501	129.263	79.994	19.994	100.101	20.316	4.887	0.434
103.001	129.492	79.994	19.996	100.101	20.315	5.006	0.439
103.501	129.714	79.993	19.994	100.098	20.317	4.862	0.452
104.000	129.943	79.994	19.994	100.093	20.314	5.039	0.451
104.500	130.181	79.994	19.995	100.090	20.317	4.873	0.459
105.000	130.408	79.995	19.996	100.092	20.316	4.940	0.466
105.500	130.642	79.994	19.995	100.090	20.316	4.885	0.463
106.000	130.864	79.993	19.995	100.088	20.318	4.755	0.458
106.500	131.061	79.993	19.994	100.089	20.313	5.085	0.438
107.001	131.301	79.995	19.996	100.093	20.315	4.978	0.428
107.501	131.523	79.994	19.996	100.096	20.316	4.924	0.449
108.001	131.768	79.994	19.995	100.095	20.312	5.155	0.465
108.501	131.980	79.994	19.995	100.098	20.317	4.831	0.462
109.001	132.214	79.995	19.996	100.096	20.313	5.093	0.452
109.501	132.449	79.994	19.995	100.093	20.312	5.193	0.458
110.001	132.645	79.992	19.996	100.088	20.311	5.281	0.450
110.501	132.890	79.994	19.995	100.093	20.312	5.169	0.436
111.000	133.117	79.994	19.996	100.094	20.311	5.240	0.457
111.500	133.347	79.994	19.996	100.100	20.310	5.288	0.464
112.000	133.549	79.992	19.996	100.105	20.310	5.303	0.445
112.500	133.819	79.993	19.996	100.107	20.310	5.329	0.452
113.000	134.031	79.993	19.996	100.107	20.310	5.307	0.477
113.500	134.286	79.993	19.994	100.107	20.309	5.372	0.474
114.001	134.505	79.994	19.995	100.101	20.307	5.540	0.470
114.501	134.803	79.994	19.997	100.098	20.305	5.637	0.496
115.000	134.994	79.995	19.995	100.095	20.303	5.784	0.503
115.500	135.217	79.995	19.995	100.089	20.304	5.712	0.452
116.000	135.489	79.995	19.995	100.084	20.306	5.566	0.455
116.500	135.694	79.995	19.995	100.084	20.304	5.701	0.486
117.000	135.895	79.995	19.995	100.080	20.301	5.966	0.442
117.500	136.166	79.995	19.995	100.080	20.305	5.647	0.439
118.001	136.402	79.997	19.995	100.080	20.305	5.675	0.489
118.501	136.600	79.994	19.994	100.081	20.305	5.691	0.471
119.001	136.893	79.994	19.994	100.080	20.302	5.863	0.463
119.501	137.126	79.996	19.995	100.085	20.302	5.857	0.509
120.001	137.364	79.994	19.994	100.088	20.301	5.920	0.498
120.500	137.610	79.995	19.995	100.089	20.302	5.868	0.477
121.000	137.824	79.996	19.993	100.093	20.302	5.853	0.472
121.500	138.066	79.996	19.994	100.093	20.306	5.617	0.458
122.000	138.300	79.995	19.993	100.091	20.300	5.984	0.466
122.500	138.506	79.996	19.994	100.094	20.302	5.893	0.458
123.000	138.769	79.995	19.995	100.096	20.299	6.097	0.455
123.500	139.029	79.996	19.994	100.093	20.299	6.041	0.497
124.000	139.232	79.996	19.994	100.092	20.297	6.237	0.493
124.500	139.488	79.997	19.995	100.095	20.302	5.887	0.461
125.001	139.750	79.996	19.994	100.093	20.297	6.211	0.488
125.501	139.952	79.995	19.995	100.091	20.295	6.360	0.491
126.000	140.195	79.996	19.995	100.093	20.293	6.459	0.455
126.501	140.471	79.995	19.994	100.099	20.296	6.250	0.482
127.001	140.701	79.996	19.994	100.099	20.294	6.425	0.512
127.500	140.939	79.995	19.993	100.100	20.294	6.420	0.487
128.000	141.164	79.996	19.995	100.106	20.292	6.530	0.466
128.500	141.423	79.995	19.994	100.110	20.292	6.579	0.474
129.000	141.653	79.994	19.995	100.106	20.290	6.674	0.487
129.500	141.905	79.995	19.994	100.103	20.290	6.664	0.485
130.001	142.129	79.995	19.994	100.100	20.289	6.766	0.479
130.501	142.355	79.994	19.994	100.095	20.291	6.645	0.463
131.000	142.633	79.994	19.995	100.093	20.291	6.606	0.477
131.500	142.896	79.996	19.995	100.093	20.287	6.870	0.522
132.000	143.190	79.995	19.994	100.097	20.287	6.898	0.549
132.500	143.407	79.995	19.994	100.099	20.288	6.816	0.534
133.000	143.661	79.994	19.994	100.102	20.286	6.963	0.491
133.500	143.890	79.995	19.994	100.099	20.285	7.053	0.477
134.000	144.127	79.994	19.995	100.097	20.282	7.246	0.475
134.500	144.381	79.994	19.994	100.096	20.283	7.194	0.479
135.001	144.646	79.994	19.994	100.097	20.283	7.178	0.505
135.501	144.884	79.994	19.994	100.095	20.281	7.320	0.511
136.000	145.133	79.993	19.995	100.097	20.280	7.391	0.494
136.500	145.389	79.994	19.994	100.098	20.277	7.553	0.496
137.000	145.625	79.993	19.995	100.094	20.276	7.641	0.499
137.501	145.902	79.993	19.995	100.092	20.276	7.650	0.502
138.001	146.131	79.993	19.995	100.092	20.278	7.540	0.510
138.501	146.387	79.994	19.994	100.096	20.276	7.616	0.496
139.001	146.641	79.993	19.995	100.101	20.277	7.571	0.498
139.501	146.862	79.994	19.995	100.103	20.274	7.761	0.492
140.000	147.120	79.995	19.994	100.104	20.271	7.954	0.477
140.500	147.346	79.994	19.994	100.102	20.272	7.946	0.481
141.000	147.588	79.992	19.995	100.096	20.271	8.006	0.476
141.500	147.851	79.993	19.995	100.093	20.270	8.043	0.486
142.000	148.098	79.994	19.994	100.090	20.269	8.092	0.508
142.500	148.379	79.994	19.995	100.088	20.271	8.011	0.520
143.000	148.611	79.994	19.995	100.087	20.271	8.005	0.520
143.500	148.893	79.994	19.994	100.086	20.266	8.342	0.513
144.000	149.101	79.994	19.995	100.085	20.266	8.354	0.502
144.500	149.388	79.995	19.994	100.086	20.267	8.260	0.493
145.000	149.638	79.994	19.994	100.087	20.264	8.431	0.516
145.500	149.893	79.995	19.994	100.090	20.262	8.566	0.521
146.000	150.150	79.996	19.994	100.095	20.260	8.743	0.509
146.500	150.415	79.997	19.995	100.100	20.258	8.879	0.517
147.000	150.636	79.996	19.994	100.103	20.257	8.950	0.504
147.500	150.879	79.997	19.994	100.101	20.257	8.933	0.475
148.000	151.107	79.995	19.994	100.102	20.257	8.966	0.468
148.500	151.399	79.996	19.994	100.098	20.256	9.009	0.495
149.000	151.642	79.997	19.994	100.095	20.255	9.048	0.527
149.500	151.888	79.997	19.994	100.092	20.255	9.063	0.512
150.000	152.125	79.996	19.993	100.094	20.252	9.279	0.486
150.500	152.417	79.996	19.993	100.095	20.254	9.172	0.506
151.000	152.648	79.995	19.994	100.099	20.251	9.348	0.526
151.500	152.911	79.996	19.994	100.103	20.249	9.488	0.509
152.000	153.118	79.997	19.994	100.102	20.251	9.333	0.482
152.500	153.413	79.996	19.994	100.103	20.247	9.592	0.486
153.000	153.655	79.995	19.993	100.100	20.248	9.557	0.520
153.500	153.878	79.995	19.994	100.099	20.247	9.620	0.501
154.000	154.132	79.996	19.994	100.092	20.246	9.696	0.471
154.500	154.406	79.995	19.994	100.092	20.245	9.773	0.503
155.000	154.650	79.997	19.994	100.092	20.242	9.931	0.523
155.500	154.900	79.995	19.994	100.089	20.241	10.011	0.506
156.000	155.136	79.996	19.993	100.086	20.240	10.082	0.490
156.500	155.386	79.995	19.993	100.087	20.238	10.248	0.486
157.000	155.651	79.995	19.994	100.087	20.241	10.002	0.500
157.500	155.881	79.997	19.993	100.087	20.235	10.448	0.505
158.000	156.152	79.995	19.994	100.089	20.239	10.168	0.498
158.500	156.402	79.996	19.993	100.089	20.235	10.470	0.511
159.000	156.620	79.996	19.993	100.087	20.234	10.502	0.494
159.500	156.868	79.996	19.994	100.086	20.233	10.584	0.467
160.000	157.119	79.997	19.994	100.082	20.232	10.624	0.483
160.500	157.402	79.995	19.994	100.080	20.232	10.624	0.517
161.000	157.630	79.996	19.994	100.080	20.228	10.941	0.522
161.500	157.869	79.994	19.995	100.080	20.229	10.870	0.489
162.000	158.166	79.995	19.993	100.083	20.227	11.010	0.502
162.500	158.396	79.995	19.993	100.084	20.228	10.948	0.531
163.000	158.661	79.994	19.994	100.084	20.228	10.946	0.511
163.500	158.907	79.994	19.994	100.084	20.226	11.088	0.503
164.000	159.186	79.995	19.994	100.085	20.223	11.240	0.518
164.500	159.400	79.995	19.994	100.082	20.222	11.354	0.509
165.000	159.647	79.994	19.994	100.081	20.221	11.419	0.477
165.500	159.911	79.996	19.993	100.082	20.222	11.324	0.486
166.000	160.170	79.995	19.994	100.083	20.220	11.462	0.517
166.500	160.437	79.994	19.995	100.083	20.221	11.413	0.525
167.000	160.680	79.995	19.995	100.085	20.219	11.562	0.518
167.500	160.934	79.996	19.994	100.085	20.218	11.618	0.504
168.000	161.179	79.995	19.995	100.087	20.219	11.549	0.498
168.500	161.431	79.996	19.993	100.087	20.218	11.573	0.498
169.000	161.667	79.995	19.994	100.088	20.214	11.870	0.493
169.500	161.892	79.996	19.994	100.088	20.215	11.836	0.474
170.000	162.207	79.996	19.994	100.088	20.211	12.104	0.500
170.500	162.442	79.995	19.994	100.087	20.213	11.967	0.545
171.000	162.697	79.996	19.995	100.084	20.213	11.952	0.520
171.500	162.962	79.996	19.995	100.084	20.210	12.138	0.505
172.000	163.169	79.996	19.994	100.083	20.209	12.224	0.496
172.500	163.468	79.996	19.995	100.083	20.211	12.116	0.489
173.000	163.720	79.996	19.994	100.082	20.207	12.345	0.528
173.500	163.959	79.997	19.995	100.082	20.206	12.406	0.521
174.001	164.208	79.997	19.995	100.081	20.206	12.453	0.490
174.501	164.457	79.998	19.996	100.079	20.206	12.446	0.493
175.000	164.730	79.997	19.994	100.078	20.204	12.563	0.510
175.500	164.984	79.998	19.995	100.078	20.205	12.477	0.524
176.000	165.244	79.997	19.995	100.077	20.203	12.658	0.521
176.500	165.483	79.997	19.994	100.076	20.202	12.669	0.506
177.000	165.755	79.998	19.994	100.075	20.203	12.652	0.505
177.500	166.011	79.998	19.996	100.075	20.199	12.898	0.520
178.000	166.286	79.997	19.994	100.074	20.199	12.887	0.530
178.500	166.508	79.997	19.995	100.074	20.197	13.011	0.514
179.000	166.748	79.996	19.994	100.074	20.197	13.058	0.480
179.500	166.995	79.997	19.994	100.074	20.199	12.882	0.475
180.000	167.261	79.996	19.994	100.074	20.197	13.030	0.500
180.500	167.499	79.997	19.995	100.074	20.198	12.991	0.509
181.000	167.771	79.997	19.995	100.074	20.194	13.272	0.507
181.500	168.017	79.995	19.994	100.075	20.195	13.179	0.514
182.000	168.268	79.996	19.993	100.075	20.196	13.084	0.507
182.500	168.539	79.996	19.995	100.075	20.189	13.567	0.509
183.000	168.798	79.995	19.995	100.075	20.192	13.392	0.526
183.501	169.050	79.994	19.995	100.076	20.192	13.391	0.521
184.001	169.282	79.995	19.995	100.076	20.196	13.106	0.498
184.500	169.558	79.995	19.994	100.076	20.196	13.126	0.496
185.000	169.796	79.995	19.994	100.076	20.193	13.340	0.511
185.500	170.049	79.994	19.995	100.076	20.194	13.271	0.502
186.000	170.308	79.996	19.995	100.075	20.195	13.185	0.501
186.501	170.582	79.995	19.995	100.076	20.193	13.338	0.522
187.001	170.773	79.995	19.995	100.075	20.196	13.122	0.499
187.500	171.049	79.995	19.994	100.075	20.192	13.356	0.466
188.000	171.287	79.996	19.995	100.087	20.191	13.425	0.491
188.500	171.557	79.995	19.995	100.076	20.190	13.549	0.511
189.000	171.756	79.995	19.994	100.045	20.188	13.638	0.488
189.500	172.001	79.995	19.994	100.025	20.187	13.700	0.456
190.000	172.251	79.995	19.995	100.015	20.186	13.817	0.469
190.500	172.556	79.995	19.994	99.996	20.188	13.657	0.525
191.000	172.802	79.995	19.995	99.999	20.189	13.551	0.553
191.500	173.030	79.994	19.995	100.033	20.189	13.609	0.513
192.000	173.295	79.994	19.995	100.085	20.190	13.519	0.483
192.500	173.564	79.993	19.995	100.113	20.188	13.650	0.513
193.000	173.756	79.993	19.996	100.125	20.189	13.614	0.497
193.500	174.061	79.995	19.995	100.132	20.191	13.465	0.479
194.000	174.315	79.994	19.994	100.130	20.190	13.487	0.528
194.500	174.533	79.995	19.995	100.098	20.191	13.478	0.515
195.000	174.798	79.993	19.996	100.080	20.191	13.475	0.478
195.500	175.036	79.994	19.994	100.076	20.188	13.622	0.493
196.000	175.286	79.994	19.995	100.076	20.190	13.533	0.495
196.500	175.510	79.993	19.996	100.075	20.191	13.472	0.481
197.000	175.785	79.994	19.995	100.076	20.188	13.673	0.487
197.501	176.037	79.994	19.996	100.075	20.190	13.521	0.513
198.001	176.278	79.994	19.996	100.075	20.189	13.590	0.510
198.500	176.591	79.995	19.995	100.074	20.186	13.765	0.524
199.000	176.818	79.994	19.995	100.073	20.187	13.688	0.547
199.500	177.043	79.994	19.995	100.068	20.190	13.507	0.495
200.000	177.285	79.993	19.997	100.065	20.188	13.642	0.459
200.500	177.569	79.994	19.995	100.066	20.188	13.625	0.497
201.000	177.800	79.995	19.995	100.065	20.187	13.695	0.520
201.500	178.088	79.994	19.994	100.065	20.189	13.563	0.517
202.000	178.319	79.995	19.996	100.069	20.190	13.546	0.519
202.501	178.534	79.993	19.996	100.068	20.190	13.531	0.483
203.001	178.810	79.995	19.995	100.067	20.194	13.228	0.468
203.501	179.019	79.994	19.996	100.066	20.192	13.361	0.488
204.001	179.292	79.994	19.995	100.065	20.191	13.460	0.484
204.501	179.563	79.994	19.996	100.063	20.193	13.309	0.513
205.001	179.815	79.994	19.994	100.065	20.192	13.372	0.533
205.501	180.049	79.995	19.995	100.066	20.193	13.331	0.505
206.000	180.251	79.994	19.996	100.069	20.192	13.356	0.461
206.500	180.539	79.995	19.995	100.071	20.193	13.280	0.462
207.000	180.748	79.994	19.995	100.073	20.193	13.321	0.493
207.500	181.038	79.994	19.995	100.074	20.194	13.224	0.498
208.000	181.280	79.994	19.994	100.073	20.199	12.935	0.516
208.500	181.549	79.994	19.995	100.069	20.199	12.883	0.521
209.000	181.810	79.995	19.994	100.065	20.196	13.126	0.520
209.500	182.010	79.994	19.994	100.063	20.194	13.219	0.496
210.000	182.311	79.994	19.994	100.059	20.193	13.338	0.481
210.500	182.526	79.993	19.994	100.060	20.195	13.153	0.509
211.000	182.789	79.994	19.994	100.063	20.196	13.075	0.497
211.500	183.015	79.995	19.993	100.064	20.196	13.101	0.483
212.000	183.264	79.993	19.994	100.067	20.199	12.892	0.482
212.500	183.510	79.994	19.994	100.071	20.197	13.065	0.485
213.000	183.762	79.993	19.995	100.072	20.199	12.908	0.496
213.500	183.980	79.993	19.994	100.072	20.200	12.837	0.484
214.000	184.283	79.993	19.994	100.074	20.201	12.775	0.495
214.501	184.497	79.993	19.994	100.069	20.199	12.872	0.519
215.001	184.758	79.993	19.995	100.070	20.200	12.823	0.496
215.501	184.985	79.993	19.994	100.067	20.200	12.858	0.481
216.001	185.269	79.994	19.995	100.065	20.199	12.884	0.500
216.500	185.501	79.995	19.993	100.065	20.200	12.852	0.514
217.000	185.799	79.994	19.993	100.069	20.200	12.796	0.523
217.500	186.060	79.993	19.994	100.070	20.203	12.625	0.545
218.000	186.283	79.992	19.995	100.071	20.202	12.674	0.521
218.500	186.517	79.993	19.995	100.074	20.203	12.632	0.471
219.000	186.787	79.993	19.994	100.074	20.199	12.870	0.481
219.501	187.082	79.993	19.994	100.075	20.205	12.509	0.534
220.001	187.325	79.993	19.995	100.075	20.199	12.898	0.552
220.500	187.585	79.994	19.994	100.078	20.200	12.838	0.520
221.001	187.823	79.993	19.994	100.077	20.204	12.534	0.500
221.502	188.032	79.992	19.994	100.075	20.202	12.705	0.473
222.001	188.294	79.994	19.995	100.075	20.205	12.458	0.459
222.500	188.533	79.993	19.994	100.073	20.204	12.566	0.486
223.000	188.785	79.993	19.994	100.069	20.208	12.287	0.496
223.500	189.024	79.994	19.993	100.067	20.208	12.267	0.492
224.000	189.227	79.994	19.993	100.067	20.207	12.345	0.466
224.500	189.481	79.993	19.993	100.061	20.205	12.499	0.449
225.000	189.762	79.994	19.994	100.057	20.205	12.459	0.496
225.500	189.997	79.995	19.993	100.057	20.208	12.305	0.526
226.000	190.246	79.994	19.993	100.055	20.211	12.089	0.500
226.500	190.524	79.994	19.995	100.050	20.209	12.222	0.506
227.001	190.770	79.996	19.994	100.050	20.209	12.194	0.525
227.501	190.994	79.995	19.993	100.049	20.212	11.991	0.497
228.000	191.226	79.995	19.994	100.051	20.213	11.972	0.463
228.500	191.510	79.994	19.993	100.054	20.213	11.940	0.486
229.000	191.752	79.995	19.994	100.057	20.209	12.222	0.521
229.500	191.971	79.995	19.994	100.059	20.213	11.954	0.493
230.000	192.200	79.995	19.993	100.061	20.211	12.109	0.455
230.500	192.459	79.995	19.993	100.062	20.211	12.076	0.468
231.000	192.729	79.995	19.994	100.057	20.212	12.011	0.508
231.500	192.950	79.995	19.993	100.056	20.212	11.997	0.510
232.000	193.199	79.996	19.994	100.053	20.213	11.977	0.481
232.500	193.453	79.995	19.994	100.054	20.213	11.960	0.486
233.000	193.684	79.996	19.994	100.053	20.209	12.225	0.494
233.500	193.938	79.995	19.993	100.057	20.209	12.199	0.486
234.000	194.193	79.995	19.994	100.062	20.213	11.924	0.497
234.500	194.424	79.995	19.994	100.064	20.211	12.096	0.497
235.000	194.694	79.995	19.993	100.061	20.211	12.084	0.493
235.500	194.906	79.994	19.993	100.056	20.213	11.925	0.492
236.000	195.174	79.995	19.994	100.051	20.211	12.087	0.482
236.500	195.407	79.995	19.994	100.050	20.213	11.969	0.491
237.000	195.658	79.996	19.993	100.054	20.211	12.048	0.493
237.500	195.928	79.996	19.994	100.059	20.209	12.196	0.502
238.000	196.133	79.995	19.994	100.061	20.211	12.059	0.497
238.500	196.381	79.996	19.994	100.063	20.213	11.932	0.464
239.000	196.620	79.995	19.994	100.057	20.210	12.177	0.470
239.500	196.882	79.994	19.993	100.052	20.213	11.959	0.494
240.000	197.123	79.996	19.993	100.045	20.212	12.039	0.502
240.500	197.362	79.995	19.994	100.044	20.211	12.106	0.492
241.000	197.569	79.996	19.994	100.048	20.213	11.928	0.463
241.500	197.889	79.995	19.994	100.054	20.210	12.117	0.486
242.000	198.149	79.995	19.994	100.057	20.210	12.180	0.554
242.501	198.338	79.995	19.994	100.064	20.210	12.118	0.515
243.001	198.636	79.996	19.994	100.067	20.214	11.891	0.468
243.500	198.877	79.995	19.995	100.067	20.209	12.206	0.513
244.000	199.117	79.995	19.994	100.068	20.213	11.955	0.510
244.500	199.319	79.996	19.994	100.068	20.211	12.075	0.462
245.000	199.599	79.995	19.994	100.064	20.216	11.744	0.462
245.500	199.816	79.996	19.994	100.066	20.213	11.975	0.490
246.000	200.055	79.997	19.995	100.062	20.214	11.844	0.476
246.501	200.306	79.996	19.994	100.055	20.214	11.890	0.473
247.001	200.604	79.996	19.994	100.050	20.212	11.977	0.520
247.500	200.803	79.996	19.995	100.048	20.214	11.899	0.523
248.000	201.045	79.996	19.995	100.042	20.215	11.806	0.469
248.500	201.292	79.996	19.993	100.045	20.214	11.871	0.465
249.000	201.563	79.997	19.994	100.049	20.213	11.929	0.504
249.501	201.793	79.995	19.993	100.050	20.213	11.936	0.509
250.001	202.031	79.995	19.994	100.055	20.216	11.713	0.485
250.501	202.335	79.995	19.995	100.060	20.216	11.735	0.505
251.001	202.511	79.994	19.994	100.060	20.213	11.916	0.511
251.501	202.776	79.996	19.994	100.057	20.212	11.983	0.460
252.000	203.015	79.998	19.994	100.061	20.213	11.967	0.472
252.500	203.265	79.998	19.994	100.059	20.209	12.186	0.497
253.000	203.506	79.997	19.994	100.053	20.214	11.898	0.490
253.500	203.740	79.997	19.994	100.050	20.213	11.956	0.483
254.000	203.976	79.996	19.994	100.051	20.211	12.064	0.472
254.501	204.210	79.995	19.994	100.052	20.213	11.960	0.470
255.001	204.495	79.997	19.994	100.055	20.212	12.016	0.494
255.500	204.712	79.995	19.994	100.060	20.215	11.829	0.511
256.000	204.979	79.996	19.994	100.065	20.210	12.157	0.493
256.500	205.199	79.997	19.995	100.066	20.212	12.007	0.486
257.001	205.477	79.997	19.994	100.064	20.209	12.216	0.492
257.501	205.715	79.997	19.995	100.060	20.210	12.147	0.507
258.000	205.944	79.997	19.995	100.056	20.212	12.024	0.492
258.500	206.216	79.996	19.995	100.054	20.210	12.157	0.484
259.000	206.427	79.997	19.995	100.056	20.208	12.304	0.492
259.500	206.683	79.997	19.994	100.053	20.209	12.238	0.475
260.000	206.964	79.997	19.994	100.053	20.207	12.348	0.502
260.500	207.176	79.997	19.995	100.056	20.207	12.333	0.515
261.000	207.461	79.996	19.995	100.057	20.208	12.316	0.495
261.500	207.700	79.996	19.995	100.055	20.207	12.380	0.511
262.000	207.971	79.995	19.995	100.056	20.207	12.337	0.517
262.500	208.209	79.995	19.994	100.056	20.206	12.423	0.509
263.000	208.427	79.995	19.994	100.051	20.207	12.368	0.482
263.501	208.697	79.995	19.994	100.044	20.207	12.382	0.472
264.001	208.920	79.994	19.995	100.047	20.207	12.383	0.490
264.501	209.180	79.995	19.995	100.045	20.205	12.491	0.488
265.001	209.401	79.995	19.995	100.045	20.206	12.456	0.482
265.500	209.671	79.993	19.994	100.047	20.206	12.430	0.486
266.000	209.898	79.993	19.995	100.048	20.204	12.539	0.494
266.500	210.151	79.994	19.995	100.044	20.205	12.496	0.488
267.000	210.392	79.994	19.995	100.047	20.206	12.391	0.487
267.500	210.649	79.994	19.995	100.052	20.205	12.496	0.496
268.000	210.854	79.995	19.995	100.054	20.205	12.507	0.480
268.500	211.139	79.994	19.995	100.056	20.208	12.314	0.476
269.000	211.367	79.994	19.995	100.057	20.204	12.561	0.502
269.500	211.643	79.995	19.996	100.058	20.203	12.609	0.508
270.000	211.872	79.995	19.995	100.057	20.202	12.696	0.504
270.500	212.089	79.994	19.996	100.057	20.206	12.426	0.475
271.000	212.336	79.995	19.995	100.054	20.205	12.463	0.455
271.500	212.553	79.995	19.995	100.054	20.203	12.640	0.464
272.000	212.816	79.994	19.995	100.050	20.201	12.746	0.472
272.500	213.047	79.993	19.995	100.047	20.201	12.750	0.487
273.000	213.282	79.994	19.995	100.045	20.198	12.961	0.480
273.501	213.523	79.993	19.994	100.047	20.200	12.844	0.471
274.001	213.775	79.993	19.995	100.051	20.200	12.812	0.484
274.501	214.021	79.994	19.995	100.058	20.202	12.700	0.495
275.001	214.291	79.993	19.994	100.065	20.199	12.925	0.507
275.501	214.497	79.993	19.995	100.069	20.199	12.915	0.496
276.000	214.794	79.993	19.994	100.072	20.199	12.893	0.489
276.500	215.003	79.993	19.995	100.067	20.201	12.786	0.505
277.000	215.248	79.994	19.995	100.059	20.202	12.723	0.480
277.500	215.485	79.994	19.996	100.058	20.200	12.805	0.468
278.000	215.764	79.994	19.995	100.058	20.201	12.761	0.499
278.500	215.964	79.994	19.994	100.061	20.201	12.785	0.498
279.000	216.220	79.995	19.995	100.064	20.200	12.849	0.467
279.500	216.501	79.995	19.995	100.068	20.199	12.896	0.497
280.000	216.700	79.993	19.995	100.063	20.198	12.935	0.509
280.501	216.951	79.993	19.995	100.059	20.197	13.060	0.465
281.001	217.243	79.993	19.994	100.053	20.197	13.053	0.497
281.500	217.461	79.994	19.995	100.051	20.197	13.043	0.526
282.000	217.723	79.995	19.996	100.050	20.196	13.086	0.495
282.500	217.955	79.995	19.995	100.051	20.196	13.092	0.487
283.000	218.210	79.994	19.994	100.051	20.196	13.118	0.490
283.500	218.444	79.994	19.995	100.054	20.193	13.332	0.488
284.000	218.675	79.993	19.995	100.058	20.193	13.322	0.477
284.500	218.933	79.993	19.995	100.056	20.193	13.275	0.477
285.000	219.189	79.993	19.996	100.054	20.193	13.326	0.501
285.500	219.419	79.995	19.995	100.056	20.192	13.403	0.500
286.000	219.617	79.994	19.995	100.055	20.192	13.381	0.457
286.500	219.899	79.993	19.995	100.049	20.193	13.312	0.454
287.000	220.119	79.993	19.995	100.052	20.191	13.466	0.491
287.500	220.386	79.995	19.996	100.058	20.192	13.404	0.495
288.000	220.594	79.994	19.995	100.058	20.192	13.392	0.481
288.500	220.859	79.993	19.995	100.059	20.193	13.293	0.474
289.000	221.088	79.992	19.995	100.063	20.188	13.621	0.484
289.500	221.321	79.993	19.995	100.061	20.189	13.599	0.478
290.000	221.585	79.994	19.995	100.054	20.191	13.473	0.479
290.500	221.861	79.994	19.995	100.055	20.189	13.572	0.519
291.000	222.074	79.992	19.996	100.059	20.191	13.479	0.515
291.500	222.342	79.992	19.995	100.062	20.187	13.728	0.485
292.000	222.551	79.991	19.995	100.064	20.187	13.734	0.479
292.500	222.843	79.994	19.995	100.067	20.186	13.758	0.489
293.000	223.055	79.993	19.995	100.069	20.188	13.657	0.503
293.500	223.284	79.993	19.996	100.064	20.186	13.787	0.472
294.000	223.568	79.992	19.996	100.062	20.186	13.785	0.476
294.500	223.796	79.993	19.995	100.060	20.186	13.809	0.513
295.000	224.023	79.994	19.996	100.057	20.186	13.786	0.484
295.500	224.292	79.993	19.995	100.053	20.185	13.868	0.475
296.000	224.545	79.993	19.996	100.057	20.184	13.922	0.508
296.501	224.770	79.992	19.995	100.057	20.184	13.944	0.500
297.000	224.999	79.994	19.995	100.059	20.182	14.040	0.467
297.500	225.238	79.993	19.995	100.066	20.183	14.001	0.461
298.000	225.480	79.992	19.996	100.069	20.185	13.869	0.475
298.500	225.731	79.993	19.995	100.067	20.180	14.220	0.487
299.000	225.970	79.993	19.996	100.065	20.183	13.972	0.492
299.500	226.242	79.995	19.994	100.063	20.184	13.939	0.500
300.000	226.484	79.994	19.995	100.063	20.183	13.968	0.512
300.500	226.728	79.994	19.994	100.064	20.181	14.100	0.500
301.000	226.910	79.994	19.996	100.066	20.182	14.050	0.456
301.500	227.203	79.994	19.993	100.069	20.182	14.076	0.451
302.000	227.419	79.995	19.996	100.072	20.181	14.151	0.493
302.500	227.723	79.995	19.995	100.069	20.183	14.020	0.514
303.000	227.924	79.994	19.995	100.067	20.181	14.147	0.512
303.500	228.135	79.995	19.995	100.067	20.179	14.233	0.459
304.000	228.429	79.994	19.995	100.065	20.178	14.305	0.459
304.500	228.670	79.994	19.994	100.062	20.178	14.358	0.520
305.000	228.947	79.994	19.995	100.063	20.178	14.309	0.526
305.500	229.178	79.993	19.994	100.059	20.179	14.257	0.513
306.000	229.475	79.995	19.995	100.053	20.182	14.043	0.518
306.500	229.677	79.995	19.995	100.055	20.179	14.238	0.513
307.000	229.946	79.996	19.994	100.058	20.179	14.291	0.485
307.500	230.151	79.996	19.996	100.055	20.182	14.039	0.473
308.000	230.426	79.995	19.995	100.058	20.179	14.250	0.477
308.500	230.636	79.995	19.994	100.064	20.178	14.365	0.483
309.000	230.852	79.996	19.994	100.060	20.181	14.155	0.456
309.500	231.119	79.995	19.995	100.054	20.181	14.159	0.454
310.000	231.389	79.997	19.995	100.054	20.180	14.180	0.510
310.500	231.673	79.996	19.994	100.055	20.179	14.292	0.546
311.000	231.865	79.997	19.995	100.052	20.182	14.029	0.515
311.500	232.131	79.997	19.994	100.049	20.182	14.063	0.467
312.000	232.339	79.996	19.994	100.048	20.179	14.241	0.466
312.500	232.585	79.996	19.994	100.047	20.178	14.328	0.465
313.000	232.865	79.997	19.994	100.043	20.180	14.190	0.490
313.501	233.073	79.997	19.994	100.039	20.178	14.346	0.507
314.001	233.341	79.995	19.994	100.039	20.179	14.285	0.482
314.500	233.579	79.997	19.994	100.039	20.176	14.449	0.491
315.000	233.819	79.996	19.994	100.039	20.176	14.440	0.492
315.500	234.103	79.996	19.994	100.040	20.180	14.227	0.501
316.000	234.330	79.996	19.995	100.040	20.178	14.310	0.517
316.500	234.554	79.996	19.995	100.039	20.178	14.332	0.481
317.000	234.782	79.996	19.994	100.039	20.182	14.036	0.452
317.500	235.054	79.996	19.994	100.039	20.181	14.155	0.476
318.000	235.286	79.996	19.994	100.041	20.181	14.160	0.502
318.500	235.539	79.996	19.995	100.041	20.182	14.075	0.494
319.000	235.777	79.997	19.995	100.041	20.183	13.974	0.488
319.501	236.030	79.996	19.994	100.041	20.183	13.997	0.491
320.001	236.274	79.995	19.995	100.041	20.182	14.026	0.494
320.500	236.507	79.996	19.995	100.042	20.184	13.955	0.487
321.001	236.727	79.995	19.994	100.048	20.184	13.903	0.465
321.501	236.977	79.995	19.995	100.050	20.185	13.883	0.461
322.001	237.221	79.995	19.995	100.050	20.187	13.732	0.482
322.501	237.530	79.994	19.995	100.050	20.186	13.818	0.524
323.001	237.716	79.996	19.995	100.048	20.183	13.971	0.524
323.501	237.974	79.994	19.995	100.041	20.184	13.930	0.469
324.000	238.215	79.997	19.995	100.040	20.189	13.564	0.472
324.500	238.473	79.996	19.995	100.040	20.190	13.503	0.499
325.000	238.726	79.996	19.994	100.039	20.193	13.320	0.505
325.500	238.969	79.997	19.995	100.040	20.194	13.235	0.503
326.000	239.180	79.996	19.995	100.044	20.192	13.346	0.475
326.500	239.426	79.997	19.994	100.051	20.197	13.028	0.455
327.000	239.653	79.996	19.996	100.056	20.197	13.067	0.465
327.500	239.895	79.996	19.994	100.058	20.197	13.043	0.472
328.000	240.138	79.997	19.994	100.058	20.199	12.914	0.477
328.500	240.360	79.998	19.994	100.056	20.201	12.749	0.474
329.001	240.625	79.996	19.994	100.051	20.202	12.719	0.476
329.501	240.877	79.996	19.995	100.046	20.202	12.663	0.502
330.000	241.113	79.997	19.994	100.044	20.201	12.787	0.503
330.500	241.352	79.997	19.995	100.043	20.206	12.447	0.482
331.001	241.626	79.997	19.995	100.042	20.207	12.376	0.494
331.500	241.885	79.997	19.994	100.040	20.208	12.305	0.523
332.000	242.140	79.998	19.994	100.042	20.210	12.177	0.523
332.500	242.363	79.998	19.993	100.044	20.208	12.273	0.496
333.000	242.636	79.997	19.995	100.045	20.210	12.177	0.487
333.500	242.856	79.996	19.995	100.045	20.211	12.054	0.494
334.000	243.106	79.997	19.995	100.044	20.208	12.272	0.482
334.500	243.385	79.998	19.994	100.043	20.213	11.948	0.500
335.000	243.556	79.997	19.995	100.041	20.216	11.749	0.490
335.500	243.836	79.996	19.994	100.041	20.217	11.668	0.451
336.000	244.056	79.998	19.993	100.041	20.219	11.558	0.475
336.500	244.318	79.998	19.993	100.042	20.218	11.633	0.491
337.000	244.542	79.998	19.994	100.041	20.221	11.426	0.484
337.500	244.785	79.999	19.994	100.042	20.225	11.149	0.477
338.000	245.081	79.998	19.993	100.043	20.226	11.087	0.503
338.500	245.334	79.998	19.994	100.043	20.227	11.019	0.544
339.000	245.566	79.997	19.993	100.042	20.226	11.047	0.517
339.500	245.837	79.998	19.994	100.041	20.228	10.896	0.494
340.000	246.056	79.998	19.993	100.040	20.229	10.848	0.496
340.500	246.328	79.997	19.992	100.040	20.232	10.669	0.490
341.000	246.613	79.997	19.994	100.039	20.230	10.801	0.524
341.500	246.823	79.996	19.993	100.039	20.234	10.518	0.526
342.000	247.070	79.996	19.993	100.039	20.235	10.422	0.476
342.500	247.318	79.997	19.994	100.040	20.233	10.596	0.476
343.000	247.554	79.997	19.994	100.039	20.233	10.560	0.489
343.500	247.766	79.995	19.994	100.040	20.234	10.476	0.466
344.000	248.022	79.994	19.994	100.041	20.234	10.527	0.458
344.500	248.290	79.994	19.994	100.041	20.234	10.532	0.496
345.000	248.501	79.993	19.994	100.041	20.235	10.464	0.501
345.500	248.751	79.995	19.994	100.043	20.236	10.365	0.469
346.000	249.018	79.994	19.995	100.042	20.236	10.352	0.489
346.500	249.306	79.995	19.994	100.041	20.236	10.375	0.536
347.001	249.528	79.994	19.994	100.041	20.236	10.351	0.532
347.501	249.806	79.993	19.995	100.042	20.237	10.336	0.505
348.000	250.025	79.993	19.994	100.041	20.235	10.424	0.499
348.500	250.329	79.992	19.994	100.043	20.234	10.511	0.510
349.000	250.582	79.995	19.994	100.043	20.239	10.155	0.540
349.500	250.831	79.994	19.995	100.045	20.236	10.383	0.529
350.000	251.093	79.994	19.996	100.049	20.233	10.551	0.506
350.500	251.366	79.993	19.995	100.051	20.236	10.346	0.523
351.000	251.569	79.995	19.995	100.049	20.236	10.340	0.506
351.500	251.822	79.994	19.995	100.050	20.237	10.271	0.466
352.000	252.090	79.993	19.996	100.048	20.234	10.506	0.489
352.500	252.385	79.995	19.994	100.043	20.234	10.520	0.542
353.000	252.584	79.993	19.995	100.041	20.238	10.254	0.528
353.500	252.829	79.994	19.995	100.041	20.235	10.470	0.469
354.000	253.134	79.994	19.995	100.040	20.235	10.442	0.497
354.500	253.350	79.994	19.995	100.041	20.233	10.545	0.536
355.000	253.607	79.994	19.994	100.041	20.232	10.639	0.498
355.500	253.811	79.995	19.996	100.043	20.232	10.615	0.467
356.000	254.097	79.994	19.995	100.044	20.233	10.595	0.475
356.500	254.348	79.996	19.994	100.046	20.230	10.764	0.513
357.000	254.607	79.995	19.994	100.050	20.229	10.882	0.523
357.500	254.838	79.993	19.994	100.052	20.230	10.785	0.500
358.000	255.111	79.994	19.994	100.052	20.231	10.748	0.497
358.500	255.335	79.994	19.995	100.051	20.227	10.988	0.501
359.000	255.602	79.994	19.995	100.052	20.226	11.027	0.494
359.500	255.865	79.994	19.994	100.050	20.228	10.928	0.510
360.001	256.070	79.994	19.994	100.049	20.227	11.005	0.499
360.501	256.355	79.994	19.995	100.053	20.225	11.113	0.479
361.001	256.581	79.994	19.996	100.058	20.225	11.128	0.501
361.500	256.851	79.994	19.995	100.056	20.226	11.050	0.503
362.000	257.077	79.994	19.994	100.055	20.222	11.339	0.496
362.500	257.344	79.993	19.995	100.058	20.221	11.410	0.494
363.000	257.578	79.994	19.995	100.055	20.217	11.655	0.497
363.501	257.815	79.994	19.995	100.049	20.217	11.679	0.486
364.000	258.113	79.995	19.995	100.050	20.219	11.520	0.503
364.500	258.386	79.995	19.995	100.051	20.217	11.696	0.553
365.000	258.607	79.996	19.995	100.054	20.215	11.834	0.532
365.500	258.855	79.996	19.995	100.055	20.212	11.986	0.482
366.000	259.158	79.994	19.995	100.060	20.211	12.099	0.511
366.500	259.368	79.995	19.994	100.066	20.209	12.204	0.532
367.000	259.648	79.994	19.995	100.068	20.208	12.274	0.501
367.500	259.886	79.994	19.995	100.067	20.206	12.404	0.504
368.000	260.135	79.994	19.995	100.068	20.201	12.791	0.502
368.500	260.396	79.995	19.995	100.069	20.200	12.850	0.498
369.000	260.617	79.994	19.994	100.069	20.198	12.946	0.496
369.500	260.881	79.994	19.995	100.072	20.195	13.175	0.483
370.000	261.132	79.995	19.995	100.069	20.195	13.178	0.500
370.500	261.378	79.994	19.995	100.065	20.190	13.486	0.506
371.000	261.630	79.994	19.994	100.059	20.187	13.732	0.498
371.500	261.866	79.994	19.995	100.056	20.184	13.933	0.494
372.000	262.147	79.993	19.996	100.053	20.181	14.157	0.503
372.500	262.429	79.994	19.995	100.054	20.180	14.199	0.540
373.000	262.632	79.993	19.995	100.059	20.179	14.255	0.524
373.500	262.901	79.994	19.996	100.064	20.176	14.476	0.478
374.000	263.159	79.994	19.994	100.067	20.168	15.005	0.500
374.500	263.387	79.994	19.996	100.066	20.168	15.034	0.507
375.000	263.686	79.995	19.995	100.067	20.164	15.311	0.507
375.500	263.885	79.993	19.995	100.068	20.163	15.365	0.513
376.000	264.152	79.994	19.996	100.068	20.161	15.497	0.482
376.501	264.405	79.993	19.996	100.069	20.160	15.598	0.493
377.001	264.678	79.993	19.995	100.073	20.153	16.052	0.523
377.500	264.913	79.992	19.995	100.068	20.152	16.080	0.517
378.000	265.202	79.994	19.996	100.063	20.150	16.271	0.516
378.500	265.462	79.994	19.996	100.059	20.146	16.546	0.537
379.000	265.705	79.993	19.997	100.054	20.143	16.719	0.526
379.500	265.937	79.994	19.996	100.051	20.139	17.031	0.489
380.000	266.215	79.993	19.996	100.054	20.139	17.016	0.493
380.500	266.481	79.991	19.996	100.057	20.130	17.603	0.527
381.000	266.714	79.993	19.995	100.062	20.128	17.759	0.521
381.500	266.959	79.993	19.995	100.066	20.124	18.042	0.488
382.000	267.236	79.994	19.996	100.070	20.123	18.102	0.500
382.500	267.468	79.993	19.996	100.071	20.121	18.208	0.515
383.000	267.731	79.995	19.996	100.073	20.117	18.516	0.502
383.500	268.011	79.995	19.995	100.075	20.114	18.717	0.519
384.000	268.217	79.992	19.996	100.075	20.109	19.034	0.515
384.500	268.468	79.993	19.996	100.075	20.105	19.349	0.471
385.000	268.719	79.993	19.996	100.076	20.100	19.695	0.479
385.500	268.926	79.994	19.996	100.077	20.100	19.675	0.480
386.000	269.235	79.995	19.996	100.076	20.096	19.947	0.487
386.500	269.493	79.995	19.996	100.074	20.092	20.197	0.541
387.000	269.742	79.994	19.997	100.074	20.088	20.502	0.537
387.500	270.009	79.995	19.996	100.074	20.085	20.664	0.512
388.000	270.234	79.995	19.995	100.074	20.079	21.085	0.504
388.501	270.485	79.995	19.995	100.075	20.078	21.171	0.484
389.001	270.747	79.995	19.995	100.076	20.077	21.233	0.494
389.500	271.002	79.996	19.995	100.075	20.075	21.387	0.515
390.000	271.286	79.996	19.995	100.075	20.070	21.710	0.528
390.500	271.537	79.994	19.994	100.075	20.067	21.906	0.537
391.001	271.773	79.997	19.994	100.075	20.064	22.122	0.511
391.502	272.049	79.997	19.995	100.075	20.061	22.352	0.500
392.001	272.312	79.996	19.994	100.076	20.057	22.588	0.525
392.500	272.538	79.996	19.995	100.076	20.052	22.933	0.514
393.001	272.800	79.997	19.994	100.076	20.051	23.030	0.489
393.502	273.017	79.997	19.994	100.076	20.045	23.414	0.483
394.002	273.289	79.996	19.994	100.076	20.042	23.604	0.484
394.501	273.564	79.996	19.996	100.077	20.038	23.879	0.518
395.001	273.797	79.995	19.995	100.077	20.033	24.271	0.528
395.500	274.034	79.996	19.995	100.078	20.030	24.430	0.489
396.000	274.297	79.995	19.995	100.078	20.027	24.661	0.485
396.500	274.536	79.996	19.995	100.078	20.022	24.970	0.501
397.000	274.797	79.995	19.996	100.078	20.021	25.054	0.501
397.500	275.016	79.996	19.995	100.078	20.014	25.545	0.490
398.001	275.276	79.994	19.994	100.078	20.010	25.791	0.479
398.501	275.534	79.996	19.995	100.078	20.006	26.102	0.498
399.000	275.757	79.995	19.995	100.077	20.004	26.249	0.500
399.500	276.055	79.994	19.995	100.079	20.001	26.400	0.501
400.000	276.279	79.996	19.995	100.079	19.994	26.937	0.522
400.500	276.543	79.994	19.995	100.080	19.992	27.019	0.505
401.000	276.760	79.995	19.994	100.080	19.991	27.132	0.485
401.500	277.047	79.995	19.995	100.081	19.988	27.294	0.493
402.000	277.265	79.995	19.994	100.080	19.983	27.693	0.504
402.500	277.514	79.995	19.995	100.079	19.982	27.707	0.486
403.000	277.782	79.995	19.995	100.076	19.979	27.952	0.492
403.500	278.038	79.995	19.995	100.075	19.974	28.280	0.521
404.000	278.271	79.994	19.995	100.075	19.968	28.657	0.507
404.500	278.561	79.996	19.995	100.076	19.964	28.978	0.506
405.000	278.797	79.995	19.994	100.077	19.965	28.890	0.524
405.501	279.088	79.995	19.996	100.080	19.959	29.325	0.526
406.001	279.316	79.995	19.995	100.086	19.958	29.407	0.523
406.501	279.559	79.995	19.995	100.087	19.954	29.648	0.495
407.001	279.824	79.996	19.996	100.087	19.950	29.940	0.490
407.501	280.042	79.996	19.994	100.087	19.947	30.119	0.496
408.000	280.328	79.996	19.995	100.088	19.943	30.413	0.494
408.500	280.601	79.997	19.996	100.083	19.938	30.755	0.532
409.000	280.806	79.996	19.994	100.081	19.940	30.634	0.518
409.500	281.074	79.995	19.995	100.081	19.935	30.968	0.475
410.000	281.332	79.996	19.995	100.081	19.932	31.160	0.500
410.500	281.559	79.996	19.995	100.081	19.929	31.343	0.506
411.000	281.799	79.996	19.995	100.082	19.925	31.631	0.476
411.500	282.040	79.997	19.994	100.082	19.919	32.024	0.474
412.000	282.271	79.996	19.995	100.081	19.916	32.248	0.477
412.500	282.549	79.996	19.994	100.081	19.912	32.494	0.491
413.000	282.799	79.997	19.994	100.080	19.906	32.947	0.518
413.500	283.067	79.995	19.995	100.079	19.902	33.180	0.523
414.000	283.300	79.997	19.994	100.081	19.898	33.450	0.509
414.500	283.578	79.996	19.996	100.081	19.889	34.068	0.506
415.000	283.822	79.997	19.994	100.085	19.885	34.374	0.517
415.500	284.066	79.998	19.994	100.091	19.881	34.646	0.505
416.000	284.322	79.997	19.995	100.099	19.871	35.335	0.494
416.500	284.589	79.998	19.995	100.105	19.868	35.498	0.512
417.000	284.836	79.998	19.994	100.113	19.866	35.676	0.518
417.500	285.078	79.997	19.994	100.115	19.860	36.061	0.501
418.000	285.320	79.996	19.994	100.112	19.855	36.396	0.487
418.500	285.577	79.996	19.995	100.106	19.857	36.250	0.492
419.000	285.828	79.997	19.995	100.097	19.856	36.318	0.504
419.500	286.091	79.997	19.994	100.090	19.852	36.636	0.511
420.000	286.329	79.997	19.994	100.083	19.851	36.663	0.507
420.501	286.608	79.996	19.994	100.080	19.848	36.866	0.509
421.001	286.844	79.996	19.994	100.079	19.843	37.261	0.516
421.500	287.054	79.997	19.994	100.074	19.844	37.182	0.481
422.000	287.357	79.995	19.995	100.068	19.840	37.408	0.479
422.500	287.631	79.996	19.994	100.068	19.837	37.658	0.544
423.000	287.839	79.995	19.994	100.068	19.834	37.827	0.529
423.500	288.111	79.995	19.994	100.069	19.829	38.188	0.481
424.000	288.357	79.995	19.994	100.074	19.827	38.344	0.499
424.500	288.586	79.995	19.994	100.082	19.821	38.723	0.497
425.000	288.889	79.996	19.994	100.087	19.820	38.800	0.504
425.500	289.141	79.995	19.995	100.094	19.818	38.905	0.543
426.000	289.348	79.994	19.995	100.101	19.815	39.172	0.507
426.501	289.602	79.995	19.994	100.108	19.812	39.371	0.460
427.001	289.815	79.995	19.994	100.111	19.808	39.600	0.464
427.500	290.081	79.995	19.994	100.114	19.802	40.049	0.473
428.000	290.379	79.996	19.995	100.114	19.801	40.081	0.522
428.500	290.630	79.995	19.994	100.114	19.795	40.522	0.557
429.000	290.871	79.994	19.994	100.112	19.793	40.612	0.520
429.501	291.116	79.995	19.994	100.111	19.792	40.744	0.489
430.001	291.388	79.995	19.995	100.107	19.787	41.041	0.501
430.501	291.634	79.995	19.994	100.102	19.789	40.917	0.517
431.001	291.915	79.994	19.994	100.094	19.786	41.153	0.522
431.501	292.141	79.994	19.995	100.088	19.782	41.423	0.517
432.001	292.384	79.995	19.994	100.084	19.782	41.382	0.489
432.500	292.651	79.996	19.994	100.081	19.779	41.626	0.490
433.000	292.901	79.995	19.995	100.078	19.779	41.578	0.513
433.500	293.116	79.995	19.995	100.077	19.779	41.571	0.491
434.000	293.397	79.996	19.994	100.076	19.775	41.884	0.481
434.500	293.611	79.994	19.995	100.075	19.775	41.844	0.495
435.000	293.845	79.994	19.995	100.075	19.777	41.719	0.471
435.500	294.158	79.994	19.994	100.076	19.773	42.015	0.497
436.000	294.366	79.995	19.995	100.082	19.776	41.832	0.534
436.500	294.635	79.995	19.995	100.084	19.772	42.083	0.499
437.000	294.897	79.995	19.995	100.085	19.772	42.098	0.504
437.500	295.114	79.996	19.995	100.085	19.772	42.045	0.505
438.000	295.397	79.995	19.995	100.085	19.773	42.033	0.490
438.500	295.653	79.994	19.995	100.080	19.768	42.344	0.520
439.000	295.911	79.995	19.995	100.080	19.763	42.662	0.526
439.500	296.143	79.995	19.997	100.080	19.767	42.442	0.501
440.000	296.400	79.995	19.997	100.081	19.760	42.873	0.489
440.500	296.675	79.994	19.996	100.085	19.759	42.970	0.511
441.000	296.912	79.996	19.996	100.090	19.762	42.782	0.522
441.500	297.159	79.996	19.995	100.096	19.758	43.003	0.497
442.000	297.417	79.995	19.995	100.099	19.759	42.920	0.494
442.500	297.693	79.996	19.996	100.104	19.754	43.287	0.520
443.000	297.915	79.995	19.995	100.105	19.757	43.102	0.516
443.500	298.177	79.996	19.996	100.103	19.756	43.169	0.491
444.000	298.390	79.996	19.996	100.096	19.758	42.993	0.480
444.500	298.732	79.996	19.996	100.093	19.761	42.800	0.515
445.000	298.956	79.996	19.995	100.087	19.757	43.059	0.560
445.500	299.175	79.997	19.996	100.080	19.762	42.729	0.504
446.000	299.420	79.996	19.994	100.076	19.764	42.622	0.454
446.500	299.696	79.997	19.994	100.075	19.763	42.687	0.492
447.000	299.944	79.995	19.995	100.070	19.765	42.547	0.522
447.500	300.182	79.996	19.996	100.066	19.767	42.397	0.505
448.000	300.421	79.996	19.996	100.065	19.768	42.337	0.482
448.500	300.675	79.996	19.994	100.066	19.768	42.377	0.485
449.000	301.004	79.995	19.995	100.065	19.772	42.058	0.538
449.500	301.178	79.995	19.995	100.061	19.773	42.004	0.543
450.000	301.420	79.996	19.996	100.065	19.775	41.859	0.460
450.501	301.674	79.995	19.996	100.067	19.776	41.770	0.456
451.001	301.883	79.994	19.995	100.066	19.780	41.519	0.479
451.500	302.197	79.995	19.996	100.064	19.786	41.131	0.493
452.000	302.424	79.995	19.995	100.065	19.793	40.637	0.532
452.500	302.668	79.995	19.996	100.060	19.796	40.407	0.506
453.000	302.961	79.996	19.995	100.054	19.801	40.101	0.504
453.500	303.166	79.996	19.994	100.048	19.807	39.695	0.518
454.000	303.439	79.995	19.994	100.044	19.811	39.423	0.488
454.500	303.689	79.995	19.995	100.043	19.815	39.157	0.500
455.000	303.927	79.995	19.995	100.040	19.815	39.120	0.505
455.500	304.223	79.993	19.995	100.039	19.820	38.771	0.511
456.000	304.436	79.996	19.995	100.038	19.820	38.788	0.522
456.500	304.684	79.995	19.994	100.041	19.821	38.746	0.485
457.000	304.916	79.994	19.996	100.049	19.821	38.728	0.471
457.500	305.165	79.995	19.994	100.056	19.820	38.793	0.481
458.000	305.411	79.996	19.996	100.066	19.825	38.439	0.488
458.501	305.695	79.996	19.995	100.076	19.829	38.166	0.513
459.001	305.964	79.994	19.995	100.080	19.833	37.896	0.542
459.500	306.215	79.995	19.996	100.080	19.836	37.723	0.537
460.000	306.467	79.996	19.995	100.077	19.840	37.390	0.511
460.500	306.728	79.994	19.996	100.067	19.845	37.074	0.508
461.001	306.961	79.994	19.995	100.059	19.849	36.769	0.504
461.501	307.209	79.994	19.995	100.052	19.852	36.582	0.487
462.001	307.452	79.994	19.995	100.045	19.859	36.136	0.486
462.501	307.729	79.994	19.995	100.041	19.860	36.045	0.506
463.000	308.001	79.995	19.995	100.041	19.867	35.604	0.534
463.500	308.242	79.993	19.995	100.038	19.867	35.593	0.531
464.000	308.488	79.993	19.996	100.038	19.873	35.146	0.500
464.500	308.739	79.995	19.995	100.037	19.872	35.200	0.492
465.000	309.004	79.995	19.996	100.038	19.877	34.884	0.506
465.500	309.222	79.994	19.995	100.042	19.881	34.591	0.499
466.000	309.492	79.997	19.995	100.048	19.888	34.157	0.486
466.500	309.735	79.994	19.996	100.051	19.887	34.237	0.501
467.000	310.029	79.994	19.995	100.057	19.888	34.167	0.525
467.500	310.295	79.995	19.995	100.062	19.891	33.915	0.548
468.000	310.540	79.995	19.995	100.065	19.896	33.581	0.536
468.500	310.783	79.996	19.995	100.066	19.899	33.390	0.500
469.000	311.039	79.997	19.995	100.069	19.904	33.085	0.494
469.500	311.252	79.996	19.995	100.067	19.906	32.921	0.484
470.000	311.564	79.996	19.996	100.063	19.910	32.643	0.497
470.500	311.781	79.996	19.996	100.058	19.913	32.443	0.527
471.000	312.052	79.995	19.996	100.053	19.919	32.020	0.508
471.500	312.305	79.997	19.996	100.046	19.921	31.889	0.506
472.000	312.576	79.996	19.995	100.042	19.927	31.500	0.524
472.500	312.822	79.996	19.995	100.041	19.929	31.328	0.521
473.000	313.077	79.995	19.995	100.039	19.931	31.203	0.509
473.500	313.345	79.996	19.994	100.039	19.936	30.857	0.511
474.000	313.567	79.996	19.995	100.038	19.938	30.699	0.507
474.500	313.852	79.996	19.995	100.038	19.938	30.704	0.499
475.000	314.079	79.996	19.995	100.039	19.939	30.646	0.509
475.500	314.350	79.996	19.996	100.040	19.941	30.499	0.505
476.000	314.604	79.996	19.995	100.041	19.943	30.376	0.511
476.500	314.866	79.997	19.995	100.046	19.945	30.229	0.520
477.000	315.112	79.996	19.994	100.051	19.944	30.340	0.512
477.500	315.360	79.997	19.995	100.055	19.945	30.262	0.501
478.000	315.582	79.997	19.995	100.062	19.943	30.359	0.482
478.500	315.852	79.996	19.995	100.068	19.942	30.422	0.481
479.000	316.122	79.996	19.994	100.071	19.941	30.547	0.516
479.500	316.366	79.995	19.995	100.074	19.936	30.843	0.527
480.000	316.594	79.996	19.994	100.076	19.937	30.800	0.493
480.500	316.868	79.995	19.994	100.075	19.934	30.986	0.487
481.000	317.106	79.995	19.995	100.073	19.933	31.084	0.507
481.501	317.411	79.995	19.995	100.071	19.935	30.958	0.528
482.001	317.629	79.996	19.994	100.072	19.931	31.226	0.533
482.500	317.838	79.996	19.994	100.076	19.931	31.221	0.475
483.000	318.135	79.995	19.994	100.079	19.931	31.187	0.467
483.500	318.398	79.995	19.993	100.080	19.930	31.265	0.533
484.000	318.651	79.995	19.995	100.076	19.927	31.475	0.538
484.500	318.886	79.995	19.995	100.070	19.930	31.304	0.502
485.000	319.159	79.996	19.995	100.060	19.927	31.489	0.498
485.500	319.406	79.996	19.994	100.051	19.928	31.418	0.514
486.000	319.668	79.995	19.995	100.052	19.929	31.365	0.515
486.500	319.918	79.996	19.994	100.056	19.925	31.621	0.511
487.000	320.165	79.998	19.994	100.056	19.929	31.376	0.504
487.500	320.403	79.995	19.995	100.056	19.928	31.418	0.491
488.000	320.684	79.996	19.994	100.056	19.929	31.367	0.502
488.500	320.895	79.996	19.993	100.050	19.928	31.393	0.505
489.000	321.161	79.996	19.995	100.045	19.928	31.434	0.484
489.500	321.400	79.996	19.994	100.043	19.931	31.224	0.491
490.000	321.641	79.996	19.993	100.043	19.926	31.564	0.493
490.500	321.909	79.996	19.994	100.043	19.929	31.365	0.495
491.000	322.159	79.996	19.994	100.043	19.929	31.322	0.514
491.500	322.413	79.995	19.994	100.042	19.930	31.289	0.511
492.000	322.638	79.997	19.994	100.046	19.927	31.501	0.491
492.500	322.917	79.997	19.994	100.049	19.924	31.659	0.492
493.000	323.167	79.998	19.994	100.052	19.922	31.786	0.516
493.500	323.418	79.996	19.994	100.055	19.917	32.127	0.515
494.000	323.698	79.996	19.994	100.058	19.914	32.341	0.516
494.500	323.896	79.997	19.994	100.059	19.904	33.028	0.505
495.000	324.164	79.998	19.995	100.062	19.898	33.429	0.472
495.500	324.409	79.998	19.994	100.070	19.890	33.992	0.490
496.000	324.652	79.997	19.994	100.085	19.883	34.498	0.501
496.500	324.929	79.998	19.995	100.100	19.874	35.120	0.504
497.000	325.206	79.998	19.995	100.110	19.871	35.292	0.537
497.500	325.454	79.999	19.995	100.118	19.866	35.672	0.540
498.000	325.658	79.999	19.994	100.122	19.860	36.052	0.489
498.500	325.923	79.998	19.994	100.118	19.858	36.244	0.461
499.000	326.195	79.997	19.994	100.111	19.854	36.465	0.503
499.500	326.450	79.999	19.995	100.104	19.849	36.862	0.532
500.000	326.658	79.999	19.995	100.097	19.848	36.926	0.495
500.500	326.942	79.998	19.994	100.089	19.844	37.190	0.477
501.000	327.166	79.999	19.995	100.080	19.841	37.364	0.500
501.500	327.403	79.998	19.994	100.069	19.837	37.623	0.485
502.000	327.693	79.998	19.995	100.061	19.837	37.667	0.494
502.500	327.918	79.997	19.995	100.052	19.836	37.691	0.521
503.000	328.166	79.997	19.994	100.044	19.836	37.745	0.494
503.500	328.442	79.997	19.995	100.039	19.835	37.770	0.499
504.000	328.652	79.998	19.995	100.038	19.832	37.981	0.505
504.500	328.906	79.998	19.995	100.040	19.827	38.324	0.475
505.000	329.197	79.998	19.995	100.043	19.827	38.335	0.505
505.501	329.403	79.996	19.994	100.049	19.829	38.180	0.521
506.001	329.658	79.996	19.994	100.057	19.821	38.767	0.479
506.500	329.933	79.996	19.994	100.065	19.820	38.814	0.496
507.000	330.139	79.994	19.994	100.072	19.811	39.387	0.506
507.501	330.411	79.997	19.995	100.083	19.808	39.650	0.479
508.001	330.674	79.996	19.994	100.088	19.803	39.979	0.506
508.500	330.898	79.995	19.994	100.090	19.795	40.492	0.511
509.000	331.154	79.997	19.995	100.099	19.789	40.934	0.484
509.500	331.431	79.997	19.994	100.105	19.784	41.280	0.507
510.000	331.610	79.997	19.995	100.107	19.775	41.872	0.495
510.500	331.892	79.995	19.994	100.112	19.769	42.290	0.458
511.000	332.183	79.997	19.994	100.119	19.766	42.531	0.517
511.500	332.435	79.996	19.995	100.118	19.752	43.466	0.558
512.000	332.623	79.995	19.995	100.118	19.750	43.624	0.491
512.501	332.927	79.995	19.994	100.118	19.743	44.068	0.466
513.001	333.192	79.996	19.995	100.117	19.739	44.373	0.531
513.500	333.426	79.997	19.994	100.113	19.732	44.814	0.534
514.000	333.686	79.996	19.995	100.110	19.728	45.147	0.496
514.500	333.953	79.996	19.994	100.108	19.718	45.796	0.511
515.000	334.162	79.997	19.994	100.108	19.708	46.488	0.502
515.500	334.446	79.998	19.995	100.108	19.712	46.271	0.485
516.000	334.689	79.996	19.994	100.104	19.714	46.111	0.510
516.500	334.948	79.996	19.996	100.098	19.710	46.378	0.515
517.000	335.253	79.995	19.995	100.093	19.704	46.778	0.533
517.500	335.459	79.995	19.994	100.085	19.692	47.552	0.537
518.000	335.711	79.994	19.993	100.079	19.696	47.304	0.485
518.500	335.947	79.997	19.995	100.080	19.686	48.007	0.473
519.000	336.163	79.995	19.994	100.081	19.682	48.205	0.470
519.500	336.470	79.996	19.994	100.084	19.676	48.621	0.488
520.000	336.647	79.997	19.995	100.084	19.675	48.708	0.504
520.500	336.979	79.996	19.994	100.091	19.662	49.573	0.496
521.000	337.187	79.997	19.995	100.098	19.652	50.240	0.525
521.500	337.422	79.996	19.995	100.104	19.644	50.773	0.492
522.000	337.740	79.995	19.994	100.112	19.629	51.827	0.498
522.500	337.971	79.996	19.994	100.122	19.609	53.215	0.550
523.000	338.179	79.996	19.994	100.126	19.596	54.095	0.494
523.500	338.438	79.996	19.995	100.130	19.577	55.394	0.453
524.000	338.750	79.996	19.995	100.138	19.560	56.601	0.519
524.500	338.926	79.994	19.993	100.160	19.541	57.911	0.529
525.000	339.286	79.995	19.994	100.188	19.526	58.998	0.513
525.500	339.418	79.997	19.995	100.212	19.514	59.787	0.514
526.000	339.835	79.995	19.994	100.227	19.504	60.518	0.520
526.500	339.945	79.995	19.995	100.234	19.495	61.117	0.538
527.000	340.118	79.995	19.994	100.219	19.483	61.904	0.405
527.501	340.518	79.995	19.994	100.197	19.479	62.146	0.428
528.002	340.791	79.996	19.995	100.177	19.473	62.581	0.623
528.501	340.715	79.996	19.994	100.158	19.469	62.851	0.435
529.000	341.277	79.997	19.994	100.139	19.467	62.985	0.342
529.501	341.674	79.995	19.994	100.123	19.464	63.154	0.722
530.001	341.830	79.995	19.995	100.104	19.464	63.165	0.756
530.500	342.092	79.994	19.995	100.085	19.461	63.348	0.485
531.000	342.365	79.995	19.995	100.070	19.456	63.709	0.477
531.501	342.344	79.995	19.994	100.059	19.451	64.075	0.394
532.001	342.724	79.995	19.995	100.048	19.442	64.664	0.306
532.501	342.937	79.994	19.994	100.042	19.430	65.569	0.476
533.000	343.053	79.994	19.994	100.052	19.418	66.376	0.461
533.500	343.398	79.995	19.995	100.074	19.401	67.533	0.395
534.000	343.684	79.994	19.995	100.092	19.384	68.666	0.546
534.500	343.894	79.996	19.995	100.113	19.372	69.527	0.564
535.000	344.073	79.994	19.995	100.151	19.360	70.277	0.443
535.500	344.440	79.995	19.995	100.192	19.348	71.083	0.467
536.000	344.594	79.995	19.996	100.216	19.338	71.774	0.533
536.500	344.865	79.995	19.995	100.235	19.329	72.357	0.473
537.000	345.130	79.994	19.994	100.250	19.323	72.814	0.481
537.501	345.332	79.994	19.995	100.243	19.312	73.562	0.502
538.001	345.645	79.996	19.994	100.218	19.305	73.976	0.491
538.500	345.857	79.994	19.995	100.203	19.289	75.054	0.520
539.000	346.082	79.995	19.994	100.197	19.277	75.855	0.481
539.500	346.391	79.996	19.995	100.193	19.262	76.950	0.486
540.000	346.583	79.994	19.995	100.180	19.242	78.319	0.517
540.500	346.860	79.995	19.994	100.165	19.222	79.700	0.484
541.000	347.080	79.995	19.995	100.155	19.199	81.307	0.483
541.500	347.328	79.995	19.994	100.159	19.182	82.520	0.483
542.000	347.627	79.994	19.994	100.151	19.164	83.738	0.508
542.500	347.839	79.995	19.994	100.149	19.152	84.605	0.529
543.001	348.039	79.995	19.995	100.179	19.139	85.658	0.462
543.501	348.325	79.994	19.995	100.219	19.134	86.075	0.449
544.000	348.587	79.995	19.995	100.220	19.131	86.372	0.517
544.500	348.823	79.995	19.995	100.223	19.126	86.709	0.523
545.000	349.070	79.996	19.994	100.230	19.124	86.757	0.491
545.500	349.332	79.996	19.994	100.209	19.121	86.865	0.496
546.000	349.547	79.995	19.994	100.172	19.123	86.603	0.493
546.500	349.823	79.995	19.994	100.154	19.128	86.180	0.484
547.000	350.101	79.996	19.995	100.148	19.130	86.005	0.523
547.500	350.298	79.995	19.994	100.140	19.137	85.512	0.514
548.000	350.548	79.995	19.994	100.128	19.131	85.880	0.461
548.500	350.833	79.996	19.995	100.110	19.128	86.012	0.491
549.000	351.069	79.995	19.995	100.090	19.129	85.957	0.529
549.501	351.298	79.996	19.994	100.072	19.120	86.510	0.493
550.001	351.553	79.996	19.995	100.062	19.105	87.502	0.474
550.500	351.769	79.996	19.994	100.083	19.083	88.949	0.477
551.000	352.078	79.996	19.994	100.113	19.049	91.301	0.498
551.500	352.312	79.994	19.995	100.151	18.997	94.905	0.534
552.000	352.580	79.997	19.995	100.191	18.946	98.463	0.523
552.500	352.829	79.995	19.994	100.230	18.885	102.669	0.509
553.000	353.060	79.996	19.995	100.246	18.839	105.886	0.499
553.500	353.285	79.995	19.993	100.309	18.801	108.591	0.468
554.000	353.575	79.996	19.994	100.475	18.766	111.048	0.485
554.500	353.829	79.996	19.994	100.587	18.750	112.164	0.529
555.000	354.071	79.996	19.994	100.623	18.737	113.077	0.520
555.500	354.356	79.995	19.993	100.629	18.725	113.879	0.512
556.000	354.620	79.996	19.995	100.576	18.711	114.802	0.538
556.500	354.841	79.997	19.995	100.409	18.702	115.413	0.517
557.000	355.121	79.995	19.994	100.283	18.694	115.929	0.493
557.500	355.302	79.996	19.995	100.212	18.692	116.057	0.481
558.000	355.586	79.997	19.996	100.161	18.689	116.255	0.463
558.500	355.845	79.995	19.995	100.123	18.688	116.326	0.503
559.000	356.090	79.996	19.996	100.083	18.692	116.028	0.524
559.500	356.320	79.996	19.996	100.030	18.697	115.781	0.490
560.000	356.586	79.995	19.996	99.986	18.702	115.435	0.485
560.500	356.860	79.994	19.995	99.943	18.707	115.071	0.518
561.000	357.089	79.996	19.996	99.898	18.709	114.927	0.522
561.500	357.347	79.995	19.996	99.879	18.707	115.086	0.495
562.000	357.610	79.994	19.996	99.900	18.708	115.017	0.504
562.500	357.872	79.994	19.996	99.938	18.698	115.645	0.523
563.000	358.126	79.995	19.996	99.998	18.698	115.661	0.520
563.500	358.356	79.995	19.996	100.078	18.684	116.576	0.500
564.001	358.641	79.994	19.995	100.161	18.680	116.877	0.499
564.501	358.857	79.996	19.995	100.230	18.674	117.281	0.508
565.000	359.118	79.996	19.996	100.279	18.668	117.704	0.489
565.501	359.402	79.994	19.995	100.312	18.664	117.976	0.511
566.001	359.625	79.996	19.996	100.327	18.661	118.162	0.526
566.501	359.892	79.994	19.996	100.314	18.657	118.415	0.499
567.001	360.174	79.997	19.995	100.286	18.651	118.812	0.520
567.500	360.386	79.995	19.996	100.263	18.643	119.344	0.521
568.000	360.612	79.996	19.995	100.247	18.628	120.370	0.466
568.500	360.881	79.997	19.995	100.235	18.608	121.739	0.467
569.000	361.133	79.997	19.996	100.229	18.594	122.739	0.508
569.501	361.381	79.997	19.995	100.225	18.574	124.117	0.510
570.000	361.686	79.996	19.996	100.246	18.559	125.149	0.526
570.500	361.880	79.997	19.995	100.282	18.541	126.424	0.526
571.000	362.152	79.996	19.996	100.288	18.526	127.439	0.483
571.500	362.391	79.996	19.995	100.290	18.515	128.213	0.489
572.000	362.643	79.996	19.994	100.300	18.503	129.014	0.501
572.500	362.909	79.997	19.995	100.295	18.493	129.668	0.505
573.000	363.194	79.997	19.995	100.264	18.482	130.454	0.535
573.500	363.417	79.998	19.994	100.250	18.472	131.117	0.529
574.000	363.702	79.998	19.994	100.248	18.456	132.194	0.508
574.500	363.943	79.998	19.994	100.245	18.446	132.883	0.517
575.000	364.174	79.997	19.994	100.241	18.434	133.706	0.499
575.500	364.461	79.998	19.993	100.246	18.426	134.290	0.495
576.000	364.696	79.999	19.994	100.245	18.415	135.058	0.520
576.500	364.903	80.000	19.995	100.237	18.402	135.895	0.482
577.000	365.207	79.997	19.995	100.223	18.394	136.499	0.476
577.500	365.414	79.998	19.995	100.211	18.381	137.365	0.511
578.001	365.709	79.999	19.994	100.193	18.374	137.853	0.507
578.501	365.958	79.998	19.995	100.191	18.361	138.740	0.524
579.000	366.217	79.997	19.994	100.198	18.352	139.363	0.526
579.500	366.456	79.998	19.995	100.212	18.343	139.980	0.502
580.000	366.700	79.998	19.995	100.221	18.332	140.735	0.490
580.500	367.003	79.998	19.995	100.235	18.328	140.958	0.515
581.000	367.241	79.997	19.995	100.246	18.314	141.929	0.544
581.500	367.504	79.998	19.995	100.255	18.305	142.574	0.521
582.000	367.719	79.999	19.994	100.260	18.294	143.268	0.490
582.500	367.969	79.998	19.995	100.262	18.284	143.962	0.472
583.000	368.245	79.998	19.994	100.256	18.271	144.856	0.496
583.500	368.491	79.997	19.995	100.248	18.261	145.560	0.524
584.000	368.726	79.998	19.994	100.246	18.248	146.434	0.501
584.500	368.997	79.996	19.994	100.248	18.239	147.092	0.494
585.000	369.199	79.996	19.995	100.246	18.231	147.635	0.490
585.500	369.457	79.996	19.995	100.246	18.220	148.344	0.466
586.000	369.736	79.995	19.994	100.252	18.210	149.025	0.498
586.500	369.984	79.996	19.994	100.253	18.201	149.642	0.532
587.000	370.231	79.996	19.994	100.254	18.186	150.720	0.512
587.500	370.461	79.995	19.995	100.256	18.177	151.269	0.486
588.000	370.743	79.995	19.995	100.261	18.168	151.899	0.494
588.500	370.984	79.995	19.995	100.264	18.163	152.259	0.517
589.000	371.207	79.996	19.995	100.265	18.150	153.179	0.493
589.500	371.482	79.995	19.995	100.265	18.139	153.895	0.481
590.000	371.701	79.995	19.995	100.268	18.134	154.281	0.496
590.500	371.948	79.995	19.995	100.270	18.125	154.921	0.480
591.000	372.198	79.996	19.996	100.262	18.113	155.721	0.481
591.500	372.483	79.996	19.995	100.255	18.108	156.056	0.516
592.000	372.737	79.995	19.995	100.248	18.100	156.583	0.537
592.500	372.950	79.996	19.995	100.243	18.088	157.375	0.503
593.000	373.224	79.996	19.994	100.240	18.085	157.624	0.477
593.500	373.455	79.995	19.995	100.242	18.077	158.109	0.496
594.000	373.717	79.995	19.994	100.243	18.068	158.759	0.499
594.500	373.950	79.995	19.994	100.246	18.060	159.311	0.494
595.000	374.248	79.994	19.995	100.249	18.056	159.583	0.513
595.500	374.479	79.995	19.995	100.250	18.050	159.992	0.530
596.000	374.718	79.993	19.995	100.252	18.043	160.454	0.499
596.500	374.989	79.996	19.996	100.255	18.038	160.829	0.490
597.000	375.214	79.996	19.994	100.252	18.027	161.553	0.503
597.501	375.439	79.995	19.995	100.249	18.022	161.893	0.473
598.001	375.696	79.995	19.994	100.245	18.016	162.289	0.466
598.500	375.991	79.996	19.995	100.242	18.012	162.563	0.517
599.000	376.187	79.996	19.994	100.239	18.006	163.017	0.521
599.500	376.489	79.997	19.994	100.242	18.000	163.365	0.494
600.000	376.710	79.996	19.996	100.249	17.997	163.604	0.511
600.500	376.990	79.995	19.994	100.251	17.989	164.128	0.512
601.000	377.225	79.995	19.994	100.256	17.985	164.377	0.508
601.500	377.458	79.996	19.994	100.260	17.979	164.815	0.491
602.000	377.724	79.996	19.995	100.263	17.977	164.959	0.484
602.500	377.930	79.996	19.994	100.258	17.974	165.134	0.486
603.001	378.218	79.996	19.994	100.256	17.969	165.525	0.483
603.501	378.466	79.995	19.994	100.251	17.964	165.849	0.515
604.001	378.699	79.995	19.994	100.246	17.965	165.809	0.509
604.500	378.973	79.995	19.994	100.240	17.960	166.129	0.494
605.000	379.173	79.995	19.994	100.240	17.961	166.059	0.490
605.500	379.439	79.995	19.993	100.240	17.959	166.202	0.470
606.000	379.709	79.994	19.994	100.240	17.958	166.272	0.501
606.500	379.974	79.994	19.994	100.240	17.955	166.454	0.535
607.000	380.225	79.994	19.994	100.240	17.955	166.437	0.526
607.500	380.458	79.996	19.994	100.238	17.956	166.340	0.501
608.000	380.716	79.995	19.994	100.238	17.954	166.509	0.488
608.500	380.957	79.996	19.994	100.238	17.959	166.168	0.495
609.000	381.179	79.995	19.994	100.237	17.955	166.414	0.481
609.500	381.472	79.996	19.994	100.234	17.957	166.274	0.489
610.000	381.715	79.995	19.994	100.233	17.959	166.131	0.526
610.500	381.980	79.995	19.993	100.231	17.958	166.199	0.521
611.000	382.214	79.994	19.994	100.229	17.961	166.030	0.503
611.500	382.441	79.994	19.994	100.225	17.962	165.908	0.480
612.000	382.725	79.994	19.994	100.223	17.964	165.820	0.486
612.500	382.937	79.995	19.994	100.223	17.963	165.844	0.504
613.001	383.211	79.996	19.994	100.225	17.969	165.462	0.491
613.501	383.470	79.996	19.994	100.225	17.973	165.193	0.509
614.000	383.708	79.995	19.994	100.230	17.977	164.881	0.515
614.500	383.957	79.995	19.994	100.234	17.980	164.688	0.492
615.001	384.229	79.995	19.994	100.229	17.986	164.275	0.504
615.501	384.424	79.994	19.993	100.225	17.990	163.986	0.494
616.000	384.725	79.994	19.994	100.221	17.994	163.702	0.481
616.500	384.947	79.996	19.996	100.216	18.002	163.194	0.509
617.000	385.192	79.994	19.994	100.213	18.006	162.903	0.495
617.501	385.437	79.994	19.995	100.212	18.012	162.491	0.479
618.001	385.714	79.994	19.995	100.208	18.021	161.873	0.506
618.500	385.949	79.994	19.995	100.208	18.027	161.452	0.517
619.000	386.192	79.994	19.994	100.206	18.032	161.076	0.495
619.500	386.468	79.994	19.995	100.203	18.044	160.257	0.498
620.000	386.735	79.994	19.995	100.202	18.050	159.864	0.531
620.500	387.004	79.993	19.995	100.202	18.059	159.218	0.540
621.001	387.232	79.993	19.995	100.199	18.066	158.725	0.516
621.500	387.526	79.994	19.996	100.196	18.074	158.197	0.509
622.000	387.757	79.995	19.996	100.193	18.082	157.675	0.523
622.500	388.001	79.995	19.996	100.191	18.092	156.949	0.500
623.000	388.244	79.996	19.994	100.190	18.099	156.446	0.481
623.500	388.508	79.995	19.995	100.190	18.111	155.622	0.497
624.000	388.748	79.994	19.995	100.190	18.122	154.909	0.506
624.500	389.000	79.994	19.995	100.184	18.133	154.104	0.498
625.000	389.256	79.996	19.996	100.181	18.142	153.530	0.500
625.500	389.520	79.995	19.995	100.178	18.153	152.775	0.514
626.000	389.747	79.995	19.996	100.173	18.163	152.067	0.505
626.500	389.966	79.995	19.995	100.173	18.175	151.233	0.469
627.000	390.232	79.995	19.995	100.176	18.187	150.398	0.466
627.500	390.498	79.996	19.994	100.173	18.198	149.645	0.509
628.000	390.750	79.995	19.995	100.168	18.214	148.602	0.525
628.500	390.970	79.996	19.995	100.164	18.227	147.681	0.495
629.000	391.268	79.996	19.995	100.158	18.240	146.797	0.494
629.500	391.521	79.995	19.995	100.154	18.253	145.906	0.534
630.000	391.765	79.997	19.994	100.153	18.262	145.255	0.524
630.500	392.033	79.996	19.995	100.153	18.276	144.317	0.505
631.000	392.268	79.996	19.993	100.154	18.293	143.184	0.508
631.500	392.542	79.997	19.994	100.153	18.305	142.303	0.506
632.000	392.805	79.997	19.995	100.150	18.322	141.170	0.523
632.500	393.045	79.998	19.994	100.147	18.339	139.989	0.520
633.000	393.310	79.997	19.995	100.141	18.350	139.268	0.504
633.500	393.555	79.997	19.995	100.135	18.364	138.285	0.508
634.000	393.858	79.997	19.995	100.130	18.376	137.475	0.529
634.500	394.118	79.997	19.993	100.129	18.392	136.372	0.556
635.000	394.395	79.997	19.994	100.124	18.409	135.206	0.550
635.500	394.633	79.996	19.994	100.123	18.425	134.126	0.526
636.000	394.888	79.997	19.994	100.121	18.444	132.826	0.505
636.500	395.117	79.996	19.996	100.118	18.457	131.892	0.488
637.000	395.367	79.996	19.994	100.114	18.477	130.544	0.481
637.500	395.662	79.997	19.995	100.115	18.497	129.209	0.512
638.000	395.895	79.996	19.995	100.114	18.511	128.200	0.537
638.500	396.160	79.996	19.994	100.114	18.528	127.046	0.513
639.000	396.421	79.995	19.995	100.115	18.550	125.516	0.512
639.500	396.683	79.997	19.994	100.111	18.567	124.385	0.524
640.000	396.957	79.996	19.995	100.107	18.585	123.125	0.529
640.501	397.174	79.997	19.995	100.104	18.601	122.063	0.514
641.001	397.435	79.996	19.995	100.101	18.619	120.847	0.485
641.500	397.644	79.995	19.996	100.097	18.635	119.731	0.474
642.000	397.961	79.995	19.996	100.094	18.658	118.157	0.498
642.500	398.203	79.996	19.996	100.096	18.676	116.891	0.543
643.000	398.483	79.995	19.996	100.093	18.694	115.679	0.540
643.501	398.697	79.995	19.994	100.088	18.713	114.372	0.508
644.001	398.980	79.995	19.994	100.084	18.730	113.270	0.495
644.501	399.197	79.994	19.995	100.083	18.750	111.861	0.498
645.001	399.493	79.997	19.995	100.077	18.767	110.685	0.507
645.501	399.720	79.997	19.995	100.076	18.786	109.436	0.519
646.001	400.005	79.996	19.996	100.076	18.806	108.021	0.517
646.501	400.278	79.997	19.995	100.075	18.826	106.684	0.534
647.001	400.533	79.996	19.995	100.074	18.844	105.447	0.543
647.501	400.774	79.996	19.995	100.073	18.861	104.246	0.512
648.001	400.994	79.996	19.996	100.072	18.880	102.993	0.479
648.501	401.231	79.997	19.995	100.068	18.898	101.775	0.459
649.001	401.518	79.995	19.996	100.066	18.920	100.244	0.491
649.500	401.799	79.997	19.995	100.063	18.938	99.018	0.546
650.001	402.035	79.996	19.996	100.061	18.960	97.491	0.542
650.500	402.281	79.995	19.995	100.061	18.980	96.135	0.499
651.000	402.591	79.996	19.995	100.060	19.000	94.760	0.519
651.500	402.857	79.997	19.997	100.056	19.018	93.555	0.566
652.000	403.084	79.996	19.996	100.052	19.034	92.473	0.535
652.500	403.344	79.997	19.995	100.051	19.057	90.905	0.490
653.000	403.575	79.996	19.995	100.049	19.078	89.480	0.489
653.500	403.837	79.998	19.996	100.049	19.094	88.357	0.492
654.000	404.093	79.997	19.995	100.047	19.114	87.013	0.505
654.500	404.368	79.997	19.996	100.049	19.135	85.524	0.524
655.000	404.594	79.997	19.996	100.048	19.151	84.459	0.516
655.500	404.858	79.996	19.995	100.044	19.174	82.872	0.496
656.000	405.127	79.997	19.995	100.042	19.189	81.842	0.512
656.500	405.421	79.997	19.996	100.041	19.209	80.491	0.548
657.000	405.635	79.996	19.995	100.039	19.231	78.963	0.535
657.500	405.888	79.998	19.994	100.038	19.251	77.609	0.488
658.000	406.140	79.998	19.995	100.038	19.269	76.421	0.486
658.500	406.422	79.996	19.994	100.038	19.287	75.198	0.519
659.000	406.637	79.998	19.995	100.038	19.304	74.001	0.515
659.500	406.876	79.997	19.994	100.038	19.322	72.792	0.476
660.000	407.205	79.999	19.995	100.038	19.341	71.468	0.511
660.500	407.404	79.998	19.995	100.038	19.360	70.211	0.548
661.000	407.674	79.999	19.994	100.038	19.374	69.194	0.499
661.500	407.900	79.999	19.995	100.037	19.393	67.924	0.482
662.000	408.158	79.997	19.995	100.037	19.410	66.761	0.490
662.500	408.422	79.998	19.994	100.037	19.430	65.387	0.504
663.000	408.697	79.995	19.994	100.035	19.445	64.392	0.531
663.500	408.934	79.998	19.994	100.035	19.462	63.237	0.525
664.000	409.177	79.997	19.994	100.033	19.479	62.033	0.496
664.501	409.431	79.996	19.994	100.028	19.491	61.238	0.489
665.001	409.682	79.995	19.994	100.025	19.510	59.967	0.501
665.500	409.974	79.995	19.996	100.019	19.526	58.877	0.524
666.000	410.215	79.996	19.995	100.015	19.546	57.456	0.538
666.501	410.483	79.995	19.994	100.017	19.560	56.546	0.521
667.001	410.732	79.996	19.994	100.021	19.580	55.167	0.513
667.501	410.961	79.995	19.994	100.021	19.592	54.316	0.497
668.001	411.242	79.994	19.995	100.023	19.611	53.068	0.494
668.501	411.493	79.995	19.993	100.022	19.624	52.139	0.521
669.001	411.772	79.994	19.995	100.020	19.641	50.970	0.531
669.501	412.002	79.995	19.995	100.015	19.660	49.710	0.520
670.001	412.272	79.995	19.994	100.013	19.671	48.961	0.504
670.500	412.529	79.993	19.994	100.012	19.688	47.804	0.514
671.000	412.811	79.994	19.994	100.017	19.702	46.837	0.533
671.500	413.054	79.994	19.994	100.017	19.715	45.907	0.532
672.000	413.328	79.995	19.995	100.017	19.723	45.375	0.521
672.500	413.573	79.995	19.995	100.016	19.742	44.099	0.518
673.000	413.795	79.995	19.994	100.015	19.752	43.417	0.493
673.500	414.070	79.995	19.993	100.012	19.767	42.389	0.482
674.000	414.301	79.996	19.994	100.011	19.777	41.665	0.502
674.500	414.539	79.995	19.994	100.016	19.793	40.595	0.488
675.000	414.823	79.996	19.994	100.017	19.804	39.900	0.496
675.500	415.047	79.994	19.994	100.017	19.818	38.933	0.515
676.000	415.317	79.996	19.994	100.015	19.830	38.142	0.501
676.500	415.560	79.995	19.994	100.011	19.841	37.336	0.504
677.000	415.816	79.995	19.996	100.007	19.854	36.489	0.506
677.500	416.018	79.996	19.994	100.008	19.863	35.873	0.478
678.000	416.305	79.995	19.994	100.008	19.876	34.973	0.474
678.500	416.565	79.995	19.993	100.009	19.887	34.229	0.518
679.000	416.792	79.996	19.995	100.012	19.898	33.431	0.516
679.500	417.068	79.994	19.994	100.012	19.914	32.338	0.495
680.000	417.330	79.996	19.995	100.011	19.925	31.623	0.521
680.500	417.612	79.994	19.994	100.009	19.934	30.964	0.541
681.000	417.882	79.995	19.995	100.008	19.944	30.302	0.548
681.500	418.140	79.994	19.993	100.007	19.949	29.935	0.540
682.000	418.389	79.995	19.995	100.004	19.957	29.407	0.517
682.500	418.621	79.996	19.995	99.982	19.968	28.658	0.494
683.000	418.856	79.996	19.995	99.963	19.979	27.931	0.474
683.500	419.148	79.995	19.994	99.952	19.989	27.227	0.497
684.000	419.386	79.995	19.995	99.946	19.997	26.690	0.529
684.500	419.650	79.996	19.995	99.947	20.005	26.146	0.516
685.000	419.905	79.995	19.994	99.970	20.017	25.296	0.511
685.501	420.171	79.997	19.994	99.997	20.025	24.769	0.520
686.001	420.413	79.996	19.994	100.043	20.033	24.256	0.514
686.500	420.673	79.995	19.995	100.070	20.038	23.895	0.505
687.000	420.901	79.996	19.994	100.078	20.049	23.158	0.495
687.500	421.167	79.996	19.995	100.079	20.054	22.793	0.491
688.000	421.399	79.997	19.994	100.076	20.062	22.218	0.496
688.500	421.689	79.995	19.995	100.041	20.071	21.628	0.510
689.000	421.949	79.995	19.995	100.020	20.078	21.160	0.536
689.500	422.200	79.997	19.995	100.015	20.084	20.754	0.530
690.000	422.438	79.996	19.994	100.013	20.089	20.393	0.500
690.500	422.676	79.995	19.994	100.008	20.099	19.726	0.482
691.000	422.947	79.996	19.993	100.005	20.103	19.456	0.492
691.500	423.205	79.996	19.994	100.006	20.110	18.991	0.519
692.000	423.455	79.996	19.994	100.009	20.117	18.497	0.518
692.500	423.710	79.995	19.994	100.009	20.123	18.117	0.507
693.000	423.995	79.995	19.993	100.011	20.125	17.915	0.522
693.500	424.270	79.996	19.994	100.016	20.135	17.280	0.550
694.000	424.515	79.996	19.995	100.021	20.141	16.858	0.540
694.500	424.773	79.997	19.995	100.019	20.145	16.562	0.512
695.000	424.993	79.996	19.994	100.017	20.155	15.920	0.491
695.500	425.300	79.995	19.994	100.015	20.152	16.076	0.503
696.000	425.510	79.995	19.993	100.011	20.159	15.627	0.522
696.500	425.773	79.995	19.993	100.004	20.161	15.510	0.495
697.001	426.012	79.996	19.994	100.001	20.164	15.259	0.487
697.500	426.267	79.996	19.996	100.001	20.171	14.810	0.498
698.000	426.575	79.996	19.994	100.002	20.176	14.428	0.528
698.500	426.808	79.995	19.994	100.003	20.180	14.194	0.552
699.000	427.043	79.997	19.995	100.004	20.181	14.132	0.504
699.500	427.281	79.996	19.995	100.004	20.189	13.591	0.470
700.000	427.564	79.995	19.994	100.008	20.195	13.194	0.497
700.500	427.801	79.996	19.995	100.009	20.198	12.933	0.520
701.000	428.027	79.997	19.995	100.010	20.201	12.764	0.492
701.500	428.343	79.996	19.995	100.014	20.203	12.592	0.503
702.000	428.562	79.997	19.994	100.018	20.204	12.550	0.538
702.500	428.839	79.997	19.994	100.018	20.210	12.157	0.516
703.000	429.115	79.995	19.995	100.016	20.211	12.082	0.525
703.500	429.356	79.995	19.994	100.013	20.216	11.736	0.535
704.000	429.596	79.997	19.994	100.011	20.217	11.675	0.499
704.500	429.840	79.995	19.994	100.007	20.224	11.207	0.483
705.000	430.117	79.995	19.995	100.004	20.225	11.096	0.502
705.500	430.354	79.996	19.994	100.003	20.232	10.606	0.517
706.000	430.605	79.996	19.995	100.003	20.230	10.781	0.501
706.500	430.890	79.998	19.994	100.001	20.239	10.156	0.512
707.000	431.160	79.996	19.996	100.001	20.240	10.100	0.545
707.500	431.401	79.996	19.995	100.000	20.242	9.948	0.533
708.000	431.699	79.997	19.995	100.001	20.247	9.626	0.526
708.500	431.894	79.996	19.994	100.002	20.248	9.575	0.516
709.000	432.181	79.997	19.995	100.002	20.250	9.412	0.487
709.500	432.413	79.997	19.996	100.001	20.253	9.232	0.500
710.000	432.686	79.996	19.994	100.001	20.255	9.061	0.512
710.500	432.917	79.996	19.995	100.001	20.258	8.854	0.505
711.000	433.184	79.997	19.995	99.999	20.263	8.509	0.501
711.500	433.425	79.997	19.994	99.999	20.261	8.633	0.503
712.000	433.725	79.996	19.996	99.999	20.266	8.307	0.525
712.500	433.952	79.998	19.995	99.999	20.266	8.301	0.534
713.000	434.204	79.996	19.994	99.999	20.270	8.069	0.503
713.500	434.507	79.997	19.995	99.999	20.271	7.983	0.517
714.000	434.727	79.997	19.995	99.999	20.274	7.788	0.540
714.500	434.991	79.997	19.995	99.998	20.273	7.832	0.504
715.000	435.260	79.997	19.995	99.998	20.275	7.678	0.508
715.500	435.494	79.999	19.995	99.998	20.275	7.717	0.518
716.000	435.723	79.997	19.995	99.998	20.277	7.538	0.483
716.500	435.986	79.997	19.995	99.998	20.283	7.144	0.477
717.000	436.259	79.997	19.996	99.998	20.281	7.265	0.514
717.500	436.456	79.996	19.995	100.000	20.282	7.235	0.503
718.000	436.739	79.997	19.994	100.004	20.288	6.805	0.474
718.500	437.020	79.997	19.995	100.006	20.290	6.699	0.522
719.000	437.246	79.995	19.995	100.006	20.290	6.678	0.536
719.500	437.522	79.994	19.996	100.007	20.287	6.862	0.505
720.001	437.799	79.994	19.995	100.014	20.295	6.326	0.528
720.501	438.072	79.996	19.995	100.017	20.292	6.540	0.552
721.001	438.304	79.996	19.995	100.017	20.295	6.313	0.528
721.501	438.538	79.996	19.996	100.017	20.299	6.092	0.486
722.000	438.826	79.997	19.995	100.017	20.298	6.149	0.494
722.500	439.059	79.996	19.995	100.009	20.295	6.315	0.521
723.001	439.321	79.994	19.994	100.002	20.297	6.207	0.508
723.501	439.566	79.997	19.995	100.001	20.300	5.963	0.501
724.001	439.789	79.996	19.995	100.002	20.302	5.848	0.488
724.501	440.059	79.996	19.995	100.002	20.300	6.006	0.481
725.001	440.314	79.995	19.995	100.002	20.304	5.747	0.509
725.501	440.585	79.996	19.995	100.004	20.305	5.632	0.525
726.002	440.805	79.996	19.995	100.004	20.305	5.679	0.508
726.501	441.093	79.997	19.996	100.004	20.311	5.245	0.500
727.000	441.346	79.996	19.994	100.005	20.311	5.230	0.525
727.500	441.579	79.995	19.994	100.009	20.308	5.418	0.514
728.000	441.817	79.995	19.995	100.009	20.310	5.304	0.478
728.500	442.084	79.997	19.995	100.009	20.312	5.164	0.488
729.000	442.311	79.996	19.995	100.009	20.313	5.140	0.500
729.500	442.589	79.995	19.995	100.008	20.313	5.105	0.500
730.000	442.839	79.996	19.995	100.004	20.314	5.015	0.516
730.500	443.124	79.996	19.995	100.002	20.314	5.051	0.532
731.000	443.368	79.996	19.994	100.002	20.315	4.989	0.532
731.500	443.607	79.996	19.996	100.002	20.318	4.777	0.506
732.000	443.870	79.996	19.994	100.003	20.315	4.945	0.493
732.500	444.142	79.996	19.995	100.003	20.321	4.552	0.519
733.000	444.390	79.996	19.994	100.004	20.317	4.805	0.527
733.500	444.638	79.996	19.995	100.003	20.320	4.598	0.508
734.000	444.896	79.997	19.994	100.003	20.321	4.533	0.501
734.500	445.138	79.997	19.995	100.002	20.320	4.651	0.503
735.000	445.372	79.997	19.994	100.004	20.322	4.494	0.488
735.500	445.631	79.998	19.996	100.004	20.321	4.586	0.485
736.000	445.892	79.997	19.994	100.004	20.325	4.310	0.507
736.500	446.169	79.998	19.996	100.010	20.325	4.314	0.529
737.000	446.396	79.997	19.996	100.013	20.322	4.496	0.520
737.500	446.688	79.997	19.996	100.010	20.324	4.355	0.512
738.000	446.912	79.998	19.996	100.009	20.324	4.327	0.518
738.500	447.125	79.997	19.994	100.009	20.326	4.254	0.476
739.000	447.394	79.998	19.995	100.003	20.326	4.237	0.459
739.500	447.677	79.996	19.995	99.999	20.325	4.284	0.517
740.000	447.953	79.997	19.995	99.999	20.329	3.986	0.556
740.500	448.189	79.997	19.996	99.999	20.330	3.958	0.536
741.000	448.466	79.997	19.995	99.999	20.330	3.978	0.512
741.500	448.700	79.998	19.996	99.999	20.330	3.956	0.512
742.000	448.957	79.997	19.996	99.999	20.329	4.006	0.501
742.500	449.189	79.996	19.996	100.001	20.328	4.075	0.490
743.000	449.459	79.997	19.994	100.001	20.334	3.668	0.496
743.500	449.733	79.996	19.994	100.001	20.331	3.854	0.523
744.000	449.948	79.996	19.996	100.001	20.332	3.785	0.517
744.500	450.212	79.997	19.995	100.002	20.329	3.996	0.484
745.000	450.477	79.997	19.995	100.001	20.331	3.856	0.503
745.500	450.739	79.996	19.996	100.001	20.334	3.696	0.528
746.000	450.987	79.997	19.995	100.002	20.332	3.817	0.519
746.500	451.198	79.994	19.995	100.004	20.332	3.833	0.484
747.000	451.487	79.995	19.995	100.005	20.334	3.688	0.479
747.500	451.715	79.994	19.996	100.003	20.332	3.839	0.509
748.000	452.013	79.996	19.995	100.005	20.332	3.831	0.522
748.500	452.244	79.995	19.996	100.003	20.335	3.601	0.528
749.000	452.472	79.995	19.995	100.001	20.334	3.708	0.494
749.500	452.754	79.996	19.995	100.003	20.334	3.699	0.485
750.000	453.040	79.996	19.996	100.004	20.334	3.645	0.539
750.500	453.288	79.995	19.996	100.002	20.335	3.627	0.551
751.000	453.525	79.995	19.994	100.002	20.334	3.675	0.510
751.500	453.777	79.995	19.994	100.001	20.337	3.485	0.487
752.000	454.065	79.995	19.996	99.997	20.333	3.770	0.514
752.500	454.301	79.995	19.996	99.997	20.336	3.537	0.532
753.000	454.511	79.995	19.996	99.998	20.336	3.556	0.485
753.500	454.801	79.994	19.995	99.999	20.335	3.599	0.473
754.000	455.085	79.994	19.993	100.003	20.336	3.552	0.537
754.500	455.342	79.995	19.994	100.010	20.331	3.896	0.558
755.000	455.612	79.995	19.996	100.013	20.334	3.645	0.534
755.500	455.852	79.995	19.994	100.013	20.333	3.716	0.518
756.000	456.120	79.995	19.995	100.012	20.335	3.629	0.509
756.500	456.359	79.996	19.995	100.009	20.335	3.623	0.507
757.000	456.641	79.995	19.995	100.003	20.335	3.595	0.514
757.500	456.874	79.994	19.994	100.002	20.336	3.563	0.518
758.000	457.171	79.995	19.994	100.001	20.334	3.654	0.523
758.500	457.400	79.994	19.995	100.001	20.339	3.351	0.528
759.000	457.627	79.994	19.994	100.001	20.337	3.466	0.491
759.500	457.898	79.995	19.995	100.001	20.337	3.438	0.477
760.000	458.153	79.995	19.995	100.000	20.333	3.710	0.512
760.500	458.440	79.994	19.994	100.002	20.336	3.530	0.534
761.000	458.673	79.996	19.995	100.004	20.337	3.491	0.531
761.500	458.931	79.996	19.994	100.007	20.334	3.664	0.505
762.000	459.186	79.994	19.994	100.006	20.333	3.714	0.502
762.500	459.477	79.996	19.994	100.006	20.333	3.751	0.529
763.000	459.735	79.995	19.994	100.003	20.336	3.558	0.548
763.500	459.943	79.994	19.994	100.001	20.335	3.615	0.508
764.000	460.220	79.996	19.994	99.998	20.336	3.543	0.476
764.501	460.450	79.996	19.994	99.998	20.334	3.677	0.496
765.001	460.732	79.995	19.994	99.999	20.338	3.392	0.509
765.501	460.993	79.997	19.994	99.999	20.338	3.385	0.527
766.001	461.256	79.995	19.995	100.002	20.336	3.547	0.533
766.500	461.477	79.995	19.995	100.007	20.338	3.401	0.504
767.000	461.744	79.997	19.994	100.006	20.338	3.431	0.486
767.500	462.013	79.997	19.995	100.006	20.338	3.381	0.512
768.001	462.263	79.996	19.994	100.005	20.334	3.673	0.527
768.500	462.532	79.995	19.995	100.002	20.336	3.519	0.519
769.000	462.780	79.994	19.994	99.998	20.337	3.476	0.518
769.500	463.049	79.996	19.995	99.997	20.337	3.454	0.517
770.000	463.297	79.996	19.995	99.998	20.336	3.532	0.517
770.500	463.567	79.996	19.995	99.998	20.338	3.396	0.518
771.000	463.807	79.995	19.995	100.000	20.336	3.558	0.514
771.500	464.087	79.996	19.995	100.000	20.337	3.465	0.515
772.001	464.297	79.995	19.996	100.000	20.337	3.493	0.505
772.501	464.591	79.996	19.995	100.001	20.338	3.409	0.497
773.001	464.849	79.995	19.994	100.002	20.336	3.551	0.528
773.501	465.082	79.995	19.994	100.000	20.335	3.625	0.522
774.001	465.293	79.995	19.994	100.000	20.337	3.472	0.468
774.500	465.568	79.994	19.995	100.002	20.335	3.617	0.465
775.000	465.835	79.994	19.995	100.003	20.336	3.573	0.513
775.500	466.081	79.995	19.994	100.003	20.337	3.487	0.527
776.000	466.337	79.996	19.994	100.003	20.337	3.448	0.508
776.500	466.582	79.995	19.994	100.003	20.338	3.377	0.502
777.000	466.857	79.996	19.994	100.004	20.336	3.560	0.511
777.500	467.097	79.995	19.994	100.002	20.337	3.494	0.517
778.000	467.347	79.996	19.995	100.002	20.337	3.480	0.502
778.500	467.620	79.994	19.994	100.002	20.338	3.394	0.506
779.000	467.869	79.995	19.994	100.002	20.339	3.345	0.523
779.500	468.103	79.995	19.995	100.001	20.341	3.225	0.503
780.000	468.390	79.993	19.994	100.004	20.340	3.262	0.502
780.500	468.659	79.995	19.994	100.004	20.341	3.169	0.538
781.000	468.853	79.995	19.995	100.004	20.336	3.533	0.509
781.500	469.155	79.995	19.993	100.004	20.344	2.996	0.480
782.000	469.423	79.995	19.993	100.004	20.343	3.045	0.533
782.500	469.650	79.995	19.994	100.007	20.339	3.316	0.532
783.000	469.912	79.994	19.995	100.010	20.341	3.200	0.492
783.501	470.165	79.996	19.994	100.010	20.338	3.372	0.502
784.000	470.401	79.996	19.995	100.011	20.340	3.301	0.502
784.500	470.706	79.995	19.995	100.010	20.336	3.543	0.515
785.000	470.912	79.994	19.995	100.004	20.339	3.329	0.526
785.500	471.169	79.994	19.995	100.001	20.339	3.333	0.487
786.000	471.449	79.995	19.994	100.000	20.337	3.467	0.500
786.500	471.727	79.996	19.994	100.000	20.338	3.430	0.548
787.000	471.934	79.995	19.994	100.000	20.336	3.543	0.522
787.500	472.199	79.997	19.994	100.001	20.337	3.456	0.478
788.000	472.454	79.995	19.994	100.001	20.338	3.375	0.496
788.500	472.722	79.995	19.993	100.002	20.341	3.171	0.522
789.000	472.967	79.998	19.994	100.002	20.336	3.511	0.518
789.500	473.248	79.996	19.993	100.002	20.339	3.327	0.519
790.000	473.512	79.995	19.993	99.992	20.337	3.472	0.535
790.500	473.765	79.996	19.994	99.964	20.337	3.474	0.531
791.000	474.031	79.996	19.994	99.951	20.334	3.645	0.518
791.500	474.292	79.996	19.994	99.945	20.338	3.435	0.523
792.000	474.512	79.997	19.994	99.945	20.338	3.388	0.504
792.500	474.816	79.996	19.992	99.965	20.338	3.394	0.503
793.000	475.079	79.996	19.994	100.029	20.339	3.316	0.546
793.500	475.356	79.996	19.994	100.053	20.340	3.266	0.553
794.000	475.601	79.997	19.995	100.064	20.337	3.442	0.531
794.500	475.831	79.996	19.995	100.064	20.336	3.506	0.498
795.000	476.119	79.996	19.993	100.054	20.339	3.323	0.497
795.500	476.373	79.996	19.994	100.018	20.337	3.480	0.530
796.000	476.646	79.997	19.995	100.008	20.340	3.251	0.535
796.500	476.873	79.997	19.993	100.005	20.339	3.325	0.514
797.000	477.152	79.997	19.994	100.009	20.339	3.359	0.503
797.500	477.412	79.995	19.994	100.009	20.337	3.437	0.522
798.001	477.663	79.997	19.994	100.008	20.342	3.137	0.525
798.501	477.924	79.995	19.994	100.007	20.339	3.301	0.512
799.000	478.157	79.996	19.995	100.005	20.343	3.050	0.503
799.500	478.446	79.996	19.994	100.001	20.343	3.068	0.508
800.000	478.684	79.996	19.994	100.000	20.340	3.256	0.525
800.500	478.955	79.995	19.994	100.000	20.340	3.258	0.518
801.000	479.188	79.995	19.993	100.001	20.341	3.215	0.506
801.500	479.444	79.996	19.994	100.001	20.342	3.159	0.497
802.000	479.701	79.995	19.995	100.001	20.342	3.129	0.501
802.501	479.980	79.995	19.994	100.001	20.338	3.371	0.524
803.001	480.226	79.995	19.994	100.002	20.341	3.219	0.530
803.501	480.467	79.994	19.995	100.003	20.343	3.046	0.506
804.000	480.740	79.996	19.994	100.002	20.341	3.187	0.501
804.500	481.001	79.996	19.994	100.003	20.342	3.159	0.524
805.000	481.228	79.996	19.993	100.005	20.344	3.018	0.511
805.500	481.507	79.996	19.994	100.004	20.341	3.170	0.498
806.000	481.793	79.995	19.994	100.004	20.345	2.941	0.536
806.500	482.015	79.995	19.994	100.004	20.341	3.230	0.536
807.000	482.288	79.994	19.995	100.002	20.343	3.077	0.501
807.500	482.545	79.995	19.995	100.000	20.343	3.088	0.512
808.000	482.766	79.994	19.994	100.000	20.341	3.200	0.504
808.500	483.050	79.997	19.995	100.000	20.344	3.010	0.491
809.000	483.304	79.996	19.994	100.000	20.339	3.321	0.521
809.500	483.566	79.995	19.995	100.001	20.342	3.157	0.527
810.000	483.813	79.997	19.996	100.004	20.340	3.262	0.513
810.500	484.082	79.996	19.995	100.004	20.341	3.202	0.512
811.000	484.340	79.995	19.994	100.005	20.341	3.178	0.521
811.500	484.599	79.996	19.995	100.004	20.340	3.295	0.522
812.001	484.880	79.996	19.996	100.001	20.336	3.545	0.528
812.501	485.131	79.996	19.994	99.997	20.342	3.152	0.536
813.000	485.371	79.997	19.995	99.995	20.340	3.282	0.512
813.500	485.655	79.997	19.994	99.994	20.337	3.468	0.507
814.000	485.915	79.998	19.994	99.994	20.338	3.433	0.534
814.500	486.150	79.996	19.993	99.996	20.340	3.267	0.520
815.000	486.417	79.996	19.995	99.998	20.338	3.373	0.499
815.500	486.668	79.997	19.995	99.998	20.337	3.498	0.510
816.000	486.909	79.998	19.995	99.997	20.338	3.396	0.505
816.500	487.192	79.996	19.994	99.998	20.336	3.563	0.508
817.000	487.432	79.997	19.994	99.997	20.338	3.414	0.523
817.500	487.700	79.998	19.995	99.996	20.338	3.407	0.515
818.000	487.906	79.998	19.995	99.996	20.336	3.532	0.491
818.500	488.177	79.998	19.995	99.996	20.336	3.556	0.476
819.000	488.437	79.998	19.994	99.996	20.334	3.649	0.504
819.500	488.705	79.998	19.995	99.996	20.336	3.558	0.530
820.000	488.928	79.998	19.995	99.997	20.337	3.463	0.510
820.500	489.212	79.997	19.994	99.997	20.338	3.373	0.499
821.000	489.465	79.997	19.994	99.998	20.338	3.410	0.522
821.500	489.716	79.998	19.995	99.997	20.337	3.494	0.520
822.000	489.997	79.998	19.996	99.997	20.334	3.688	0.518
822.500	490.242	79.999	19.995	99.998	20.338	3.435	0.529
823.000	490.501	79.998	19.994	99.997	20.336	3.513	0.515
823.500	490.743	79.998	19.994	99.997	20.338	3.375	0.502
824.000	490.968	79.996	19.994	99.997	20.335	3.589	0.484
824.500	491.256	79.996	19.994	99.997	20.336	3.541	0.490
825.000	491.466	79.997	19.995	99.997	20.335	3.597	0.506
825.500	491.734	79.996	19.994	99.997	20.335	3.584	0.488
826.000	491.975	79.997	19.995	99.996	20.337	3.440	0.493
826.500	492.251	79.997	19.996	99.996	20.340	3.265	0.513
827.001	492.506	79.996	19.995	99.995	20.337	3.492	0.524
827.501	492.739	79.996	19.995	99.995	20.340	3.284	0.510
828.000	493.022	79.996	19.996	99.995	20.341	3.202	0.502
828.500	493.269	79.995	19.996	99.995	20.339	3.347	0.523
829.000	493.499	79.995	19.995	99.997	20.338	3.409	0.503
829.500	493.742	79.995	19.996	99.997	20.339	3.345	0.475
830.000	494.018	79.994	19.995	99.997	20.337	3.470	0.496
830.500	494.251	79.995	19.997	99.996	20.338	3.396	0.513
831.000	494.491	79.995	19.996	99.996	20.339	3.349	0.491
831.500	494.755	79.993	19.996	99.995	20.339	3.345	0.489
832.001	495.021	79.995	19.995	99.995	20.336	3.550	0.517
832.500	495.269	79.995	19.996	99.995	20.336	3.563	0.522
833.000	495.545	79.996	19.996	99.995	20.341	3.202	0.519
833.500	495.784	79.994	19.995	99.995	20.336	3.561	0.519
834.000	496.035	79.995	19.995	99.995	20.337	3.461	0.503
834.500	496.300	79.993	19.995	99.995	20.340	3.263	0.503
835.000	496.546	79.995	19.995	99.995	20.335	3.578	0.513
835.500	496.798	79.995	19.995	99.996	20.337	3.459	0.505
836.000	497.060	79.994	19.996	99.997	20.334	3.645	0.506
836.500	497.317	79.996	19.996	99.997	20.341	3.182	0.517
837.000	497.559	79.994	19.996	99.997	20.340	3.291	0.509
837.500	497.815	79.995	19.996	99.997	20.340	3.280	0.499
838.000	498.068	79.994	19.995	99.997	20.335	3.612	0.503
838.500	498.315	79.995	19.995	99.996	20.340	3.297	0.505
839.000	498.562	79.994	19.995	99.996	20.338	3.422	0.497
839.500	498.816	79.995	19.995	99.997	20.339	3.360	0.497
840.000	499.083	79.996	19.995	99.997	20.340	3.286	0.511
840.500	499.305	79.995	19.995	99.998	20.339	3.319	0.505
841.000	499.580	79.996	19.993	99.998	20.339	3.318	0.493
841.501	499.862	79.995	19.995	99.998	20.337	3.446	0.527
842.000	500.102	79.996	19.996	99.997	20.337	3.481	0.539
842.500	500.365	79.995	19.994	99.998	20.334	3.699	0.512
843.000	500.593	79.994	19.994	99.998	20.339	3.360	0.497
843.500	500.853	79.995	19.995	99.998	20.337	3.489	0.490
844.000	501.116	79.995	19.994	99.998	20.336	3.554	0.505
844.500	501.402	79.995	19.995	99.998	20.338	3.411	0.536
845.000	501.616	79.995	19.994	99.998	20.338	3.422	0.524
845.500	501.912	79.996	19.994	99.998	20.337	3.444	0.505
846.000	502.139	79.996	19.992	99.999	20.337	3.437	0.517
846.500	502.393	79.996	19.993	99.999	20.343	3.092	0.502
847.000	502.635	79.995	19.994	99.999	20.337	3.446	0.488
847.500	502.898	79.994	19.994	99.999	20.337	3.495	0.501
848.001	503.153	79.995	19.995	100.000	20.336	3.530	0.512
848.501	503.419	79.995	19.996	100.001	20.338	3.398	0.519
849.000	503.641	79.994	19.994	100.002	20.338	3.388	0.504
849.500	503.926	79.994	19.995	100.002	20.337	3.504	0.498
850.000	504.171	79.994	19.993	100.002	20.341	3.200	0.518
850.500	504.392	79.994	19.994	100.002	20.340	3.251	0.497
851.000	504.655	79.995	19.994	100.001	20.340	3.267	0.475
851.500	504.934	79.996	19.995	100.001	20.341	3.217	0.513
852.000	505.206	79.995	19.995	100.002	20.340	3.277	0.546
852.500	505.462	79.996	19.994	100.002	20.338	3.414	0.540
853.000	505.691	79.995	19.994	100.001	20.339	3.338	0.507
853.500	505.942	79.995	19.994	100.001	20.336	3.552	0.483
854.000	506.219	79.996	19.994	100.000	20.339	3.366	0.504
854.500	506.486	79.996	19.994	100.000	20.340	3.234	0.536
855.000	506.734	79.993	19.995	100.000	20.339	3.347	0.529
855.500	507.006	79.994	19.994	100.000	20.338	3.416	0.518
856.000	507.229	79.995	19.994	100.000	20.340	3.258	0.508
856.500	507.480	79.994	19.994	99.999	20.341	3.219	0.484
857.000	507.716	79.994	19.994	99.999	20.338	3.375	0.481
857.500	508.005	79.994	19.995	100.000	20.338	3.411	0.507
858.000	508.270	79.994	19.993	100.001	20.340	3.249	0.540
858.500	508.538	79.995	19.994	100.005	20.337	3.452	0.543
859.000	508.771	79.995	19.995	100.006	20.341	3.226	0.517
859.500	509.028	79.994	19.993	100.007	20.340	3.262	0.496
860.000	509.291	79.994	19.995	100.005	20.341	3.230	0.505
860.500	509.566	79.995	19.994	100.004	20.340	3.286	0.529
861.000	509.819	79.994	19.994	100.001	20.337	3.481	0.533
861.500	510.040	79.993	19.994	100.001	20.340	3.299	0.501
862.000	510.340	79.993	19.996	100.000	20.336	3.547	0.498
862.500	510.566	79.995	19.995	100.000	20.337	3.457	0.524
863.000	510.823	79.995	19.995	100.000	20.337	3.489	0.504
863.500	511.104	79.994	19.994	100.001	20.337	3.440	0.510
864.000	511.322	79.994	19.994	100.001	20.334	3.660	0.518
864.500	511.611	79.993	19.995	100.002	20.338	3.398	0.503
865.000	511.865	79.993	19.994	100.003	20.338	3.431	0.524
865.500	512.093	79.994	19.996	100.003	20.334	3.658	0.512
866.000	512.324	79.995	19.994	100.003	20.335	3.606	0.471
866.500	512.610	79.994	19.995	100.004	20.339	3.338	0.489
867.000	512.855	79.994	19.995	100.006	20.338	3.371	0.524
867.500	513.153	79.993	19.994	100.006	20.338	3.396	0.536
868.000	513.391	79.994	19.994	100.006	20.337	3.504	0.539
868.500	513.645	79.995	19.995	100.006	20.333	3.710	0.515
869.000	513.892	79.995	19.994	100.005	20.339	3.362	0.497
869.500	514.141	79.995	19.996	100.003	20.340	3.254	0.499
870.000	514.431	79.996	19.994	100.002	20.340	3.232	0.517
870.500	514.689	79.995	19.995	100.002	20.340	3.264	0.544
871.000	514.963	79.995	19.994	100.003	20.340	3.271	0.540
871.500	515.226	79.995	19.994	100.002	20.340	3.290	0.535
872.000	515.448	79.996	19.994	100.001	20.335	3.612	0.511
872.500	515.701	79.996	19.994	100.002	20.335	3.582	0.479
873.000	515.984	79.996	19.994	100.002	20.334	3.660	0.505
873.500	516.234	79.997	19.995	100.001	20.338	3.373	0.534
874.000	516.529	79.996	19.995	100.001	20.343	3.059	0.539
874.500	516.757	79.997	19.995	100.001	20.338	3.386	0.534
875.000	517.008	79.997	19.994	100.001	20.336	3.507	0.502
875.500	517.253	79.998	19.995	100.001	20.338	3.384	0.487
876.000	517.504	79.997	19.996	100.000	20.337	3.487	0.495
876.500	517.799	79.998	19.993	100.000	20.340	3.286	0.521
877.000	518.042	79.999	19.995	99.999	20.342	3.100	0.542
877.500	518.308	79.998	19.994	99.997	20.337	3.491	0.524
878.000	518.573	79.996	19.994	99.997	20.341	3.198	0.520
878.500	518.817	79.996	19.995	99.997	20.338	3.427	0.520
879.000	519.095	79.998	19.993	99.997	20.339	3.362	0.516
879.500	519.338	79.996	19.994	99.997	20.344	3.025	0.522
880.000	519.611	79.996	19.993	99.998	20.337	3.457	0.518
880.501	519.890	79.997	19.994	99.998	20.342	3.146	0.534
881.001	520.121	79.997	19.994	99.998	20.336	3.556	0.531
881.501	520.391	79.996	19.994	99.998	20.337	3.498	0.505
882.001	520.670	79.996	19.993	99.998	20.337	3.446	0.525
882.500	520.906	79.996	19.994	99.998	20.337	3.485	0.532
883.000	521.181	79.996	19.994	99.998	20.335	3.619	0.513
883.500	521.480	79.997	19.995	99.997	20.338	3.427	0.542
884.000	521.715	79.995	19.994	99.997	20.340	3.249	0.554
884.500	521.959	79.996	19.995	99.996	20.336	3.569	0.506
885.000	522.207	79.997	19.995	99.996	20.339	3.325	0.486
885.500	522.431	79.995	19.994	99.996	20.338	3.392	0.482
886.000	522.699	79.996	19.995	99.997	20.340	3.239	0.482
886.500	522.969	79.996	19.994	99.996	20.340	3.280	0.515
887.000	523.229	79.996	19.994	99.998	20.339	3.319	0.534
887.500	523.455	79.996	19.994	99.998	20.336	3.533	0.508
888.000	523.727	79.997	19.995	99.999	20.340	3.247	0.492
888.500	524.002	79.996	19.995	99.999	20.340	3.278	0.523
889.000	524.232	79.995	19.994	99.999	20.340	3.259	0.526
889.500	524.519	79.997	19.995	99.999	20.339	3.358	0.511
890.000	524.778	79.996	19.995	99.999	20.338	3.405	0.532
890.500	525.038	79.996	19.995	100.000	20.339	3.315	0.532
891.000	525.272	79.998	19.995	100.000	20.337	3.444	0.506
891.500	525.537	79.997	19.995	100.000	20.344	2.977	0.497
892.000	525.816	79.996	19.995	100.000	20.340	3.280	0.522
892.500	526.069	79.997	19.994	100.000	20.341	3.198	0.538
893.000	526.314	79.998	19.995	99.999	20.341	3.183	0.515
893.500	526.559	79.997	19.996	99.998	20.342	3.131	0.494
894.001	526.853	79.997	19.995	99.998	20.339	3.349	0.515
894.501	527.062	79.997	19.995	99.998	20.338	3.433	0.521
895.001	527.319	79.997	19.995	99.997	20.335	3.615	0.484
895.500	527.597	79.997	19.995	99.995	20.336	3.569	0.500
896.001	527.830	79.997	19.995	99.995	20.341	3.165	0.523
896.501	528.116	79.997	19.995	99.994	20.338	3.422	0.515
897.000	528.351	79.997	19.995	99.993	20.337	3.496	0.520
897.500	528.629	79.998	19.994	99.994	20.337	3.442	0.517
898.001	528.864	79.997	19.996	99.996	20.336	3.537	0.513
898.501	529.148	79.998	19.994	99.996	20.337	3.446	0.516
899.000	529.375	79.998	19.995	99.996	20.339	3.312	0.515
899.500	529.654	79.998	19.995	99.994	20.339	3.306	0.508
900.000	529.920	79.998	19.995	99.988	20.337	3.476	0.525
900.500	530.176	79.998	19.994	99.986	20.342	3.150	0.533
901.000	530.422	79.998	19.993	99.986	20.339	3.342	0.512
901.500	530.688	79.995	19.995	99.987	20.337	3.437	0.507
902.000	530.948	79.997	19.996	99.990	20.335	3.604	0.519
902.500	531.202	79.998	19.996	99.997	20.338	3.411	0.520
903.000	531.462	79.999	19.995	99.999	20.341	3.206	0.514
903.500	531.723	79.998	19.994	99.999	20.341	3.223	0.518
904.000	531.946	79.997	19.995	99.998	20.340	3.265	0.502
904.500	532.224	79.996	19.994	99.997	20.341	3.213	0.492
905.000	532.492	79.997	19.995	99.997	20.336	3.550	0.523
905.500	532.759	79.997	19.997	99.998	20.339	3.329	0.540
906.000	532.995	79.997	19.996	99.999	20.340	3.258	0.519
906.500	533.234	79.996	19.995	100.000	20.340	3.265	0.489
907.000	533.516	79.997	19.996	100.001	20.341	3.217	0.499
907.500	533.773	79.995	19.995	100.000	20.340	3.299	0.530
908.000	534.038	79.995	19.996	99.999	20.338	3.424	0.530
908.500	534.264	79.997	19.995	99.997	20.340	3.256	0.506
909.000	534.512	79.996	19.995	99.998	20.338	3.424	0.482
909.500	534.769	79.995	19.994	99.999	20.338	3.407	0.490
910.000	535.042	79.996	19.996	100.000	20.335	3.600	0.518
910.500	535.296	79.996	19.996	100.001	20.340	3.280	0.529
911.000	535.568	79.994	19.994	100.001	20.336	3.524	0.527
911.500	535.817	79.996	19.994	100.000	20.336	3.563	0.524
912.000	536.087	79.995	19.994	100.000	20.339	3.301	0.520
912.500	536.328	79.995	19.997	100.000	20.341	3.176	0.515
913.000	536.575	79.996	19.995	99.998	20.341	3.217	0.500
913.500	536.849	79.995	19.995	99.998	20.341	3.223	0.505
914.001	537.118	79.995	19.995	99.999	20.340	3.232	0.532
914.501	537.351	79.995	19.996	100.000	20.344	2.971	0.522
915.000	537.611	79.996	19.995	100.000	20.339	3.304	0.498
915.500	537.816	79.994	19.995	100.002	20.340	3.241	0.479
916.000	538.095	79.994	19.994	100.001	20.341	3.170	0.474
916.500	538.375	79.994	19.994	100.000	20.339	3.301	0.521
917.000	538.637	79.996	19.997	100.000	20.343	3.088	0.550
917.500	538.912	79.993	19.995	99.999	20.343	3.074	0.539
918.000	539.131	79.995	19.996	100.000	20.338	3.396	0.516
918.500	539.393	79.995	19.995	100.001	20.342	3.107	0.488
919.000	539.633	79.994	19.996	100.002	20.341	3.176	0.492
919.500	539.904	79.995	19.996	100.000	20.342	3.100	0.507
920.000	540.179	79.994	19.996	99.998	20.338	3.375	0.528
920.500	540.416	79.995	19.996	99.992	20.342	3.111	0.529
921.000	540.674	79.993	19.996	99.990	20.342	3.130	0.504
921.500	540.914	79.996	19.997	99.989	20.341	3.208	0.496
922.001	541.152	79.995	19.995	99.990	20.339	3.349	0.488
922.501	541.437	79.994	19.997	99.991	20.337	3.450	0.501
923.000	541.664	79.993	19.995	99.995	20.337	3.480	0.518
923.500	541.899	79.994	19.996	99.996	20.339	3.321	0.487
924.000	542.102	79.994	19.996	99.998	20.339	3.360	0.450
924.500	542.422	79.994	19.995	99.997	20.338	3.388	0.481
925.000	542.674	79.993	19.996	99.997	20.337	3.487	0.547
925.500	542.925	79.994	19.995	99.999	20.337	3.470	0.537
926.000	543.216	79.995	19.996	99.997	20.338	3.431	0.522
926.500	543.413	79.995	19.994	99.997	20.336	3.539	0.515
927.000	543.697	79.995	19.996	99.998	20.335	3.578	0.485
927.500	543.950	79.995	19.994	99.998	20.338	3.422	0.509
928.000	544.190	79.994	19.994	99.997	20.336	3.565	0.515
928.500	544.447	79.994	19.996	99.998	20.341	3.225	0.495
929.000	544.731	79.995	19.995	99.998	20.337	3.474	0.519
929.500	544.956	79.995	19.995	99.998	20.338	3.380	0.525
930.000	545.183	79.994	19.995	99.998	20.338	3.404	0.481
930.501	545.466	79.992	19.994	99.999	20.336	3.506	0.481
931.001	545.715	79.995	19.995	100.000	20.338	3.413	0.521
931.500	545.984	79.994	19.995	100.003	20.337	3.450	0.525
932.001	546.235	79.994	19.994	100.003	20.343	3.049	0.519
932.501	546.472	79.996	19.994	100.004	20.341	3.197	0.504
933.001	546.731	79.995	19.996	100.004	20.336	3.552	0.492
933.501	546.957	79.995	19.995	100.003	20.336	3.521	0.491
934.000	547.249	79.995	19.994	100.001	20.344	2.999	0.502
934.500	547.492	79.996	19.995	100.001	20.339	3.327	0.526
935.001	547.742	79.993	19.994	100.001	20.343	3.081	0.514
935.501	548.010	79.994	19.994	100.002	20.339	3.331	0.506
936.000	548.267	79.993	19.995	100.002	20.339	3.304	0.522
936.500	548.513	79.994	19.993	100.002	20.342	3.142	0.514
937.000	548.751	79.994	19.993	100.002	20.339	3.344	0.494
937.500	549.054	79.995	19.994	100.002	20.342	3.128	0.512
938.000	549.292	79.996	19.994	100.004	20.342	3.109	0.541
938.500	549.544	79.995	19.995	100.003	20.339	3.319	0.516
939.000	549.822	79.994	19.994	100.003	20.337	3.496	0.510
939.500	550.046	79.995	19.995	100.008	20.342	3.152	0.516
940.000	550.304	79.995	19.995	100.013	20.343	3.074	0.491
940.500	550.568	79.995	19.995	100.016	20.339	3.321	0.502
941.000	550.822	79.995	19.995	100.015	20.347	2.800	0.520
941.500	551.093	79.995	19.994	100.014	20.340	3.269	0.521
942.000	551.348	79.994	19.994	100.009	20.340	3.236	0.526
942.500	551.606	79.995	19.996	100.005	20.344	2.979	0.519
943.000	551.880	79.996	19.995	99.999	20.337	3.437	0.522
943.500	552.083	79.994	19.995	100.001	20.340	3.280	0.505
944.000	552.351	79.997	19.995	100.001	20.336	3.556	0.474
944.501	552.651	79.996	19.995	100.002	20.339	3.314	0.520
945.001	552.927	79.996	19.995	100.001	20.339	3.312	0.572
945.501	553.175	79.995	19.994	100.000	20.341	3.228	0.550
946.001	553.447	79.995	19.993	99.999	20.339	3.351	0.522
946.500	553.705	79.996	19.995	99.999	20.342	3.126	0.525
947.000	553.973	79.996	19.994	99.998	20.339	3.327	0.528
947.500	554.256	79.996	19.993	99.998	20.341	3.217	0.539
948.000	554.501	79.996	19.996	100.000	20.345	2.938	0.540
948.501	554.769	79.997	19.994	100.001	20.339	3.329	0.520
949.001	554.980	79.996	19.995	100.001	20.342	3.107	0.496
949.500	555.287	79.997	19.994	100.001	20.341	3.208	0.498
950.000	555.539	79.996	19.994	100.001	20.340	3.278	0.539
950.500	555.791	79.996	19.995	100.000	20.340	3.267	0.532
951.000	556.054	79.995	19.995	99.998	20.343	3.048	0.509
951.500	556.316	79.997	19.995	99.999	20.337	3.437	0.520
952.000	556.597	79.997	19.995	100.001	20.342	3.150	0.534
952.500	556.823	79.997	19.996	100.002	20.342	3.115	0.525
953.001	557.121	79.998	19.993	100.002	20.342	3.146	0.516
953.501	557.365	79.997	19.994	100.002	20.340	3.269	0.533
954.000	557.643	79.997	19.995	100.004	20.341	3.202	0.532
954.500	557.902	79.996	19.994	100.003	20.339	3.345	0.530
955.000	558.145	79.999	19.996	100.003	20.343	3.049	0.519
955.500	558.440	79.997	19.995	100.003	20.341	3.219	0.519
956.000	558.660	79.996	19.994	100.002	20.342	3.144	0.527
956.500	558.906	79.998	19.994	100.000	20.344	2.995	0.491
957.000	559.168	79.997	19.994	99.998	20.339	3.325	0.487
957.500	559.427	79.997	19.995	99.998	20.339	3.361	0.514
958.000	559.697	79.996	19.994	99.998	20.335	3.593	0.525
958.500	559.970	79.997	19.995	99.997	20.338	3.379	0.536
959.000	560.208	79.996	19.994	99.997	20.340	3.255	0.527
959.500	560.472	79.997	19.995	99.996	20.338	3.385	0.507
960.000	560.715	79.997	19.994	99.998	20.340	3.279	0.505
960.500	560.975	79.998	19.994	99.998	20.340	3.279	0.505
961.000	561.264	79.997	19.995	99.997	20.337	3.498	0.526
961.500	561.539	79.995	19.995	99.998	20.336	3.561	0.556
962.000	561.791	79.997	19.995	99.998	20.338	3.431	0.545
962.500	562.041	79.996	19.994	99.997	20.340	3.265	0.515
963.000	562.331	79.997	19.994	99.996	20.336	3.565	0.521
963.500	562.578	79.997	19.995	99.997	20.339	3.325	0.538
964.000	562.837	79.996	19.994	99.998	20.336	3.519	0.521
964.500	563.062	79.998	19.995	99.998	20.338	3.405	0.495
965.000	563.339	79.996	19.995	99.999	20.341	3.208	0.493
965.500	563.575	79.996	19.995	99.999	20.339	3.325	0.507
966.000	563.881	79.997	19.994	99.999	20.340	3.288	0.527
966.500	564.113	79.997	19.994	99.999	20.337	3.455	0.540
967.000	564.387	79.998	19.994	99.999	20.339	3.360	0.522
967.501	564.617	79.995	19.994	99.998	20.335	3.617	0.505
968.000	564.896	79.996	19.995	100.003	20.338	3.418	0.507
968.501	565.158	79.996	19.993	100.008	20.333	3.712	0.525
969.001	565.411	79.996	19.993	100.007	20.328	4.077	0.528
969.500	565.653	79.997	19.993	100.007	20.336	3.548	0.505
970.000	565.956	79.995	19.993	100.011	20.338	3.381	0.520
970.500	566.186	79.997	19.994	100.008	20.338	3.379	0.539
971.000	566.423	79.996	19.994	100.004	20.337	3.476	0.500
971.500	566.680	79.996	19.993	100.004	20.334	3.641	0.480
972.000	566.918	79.996	19.994	100.004	20.337	3.504	0.494
972.500	567.195	79.996	19.994	100.001	20.339	3.346	0.505
973.000	567.474	79.997	19.994	100.001	20.336	3.535	0.536
973.500	567.730	79.996	19.994	100.002	20.339	3.312	0.546
974.000	567.998	79.997	19.994	100.001	20.339	3.353	0.530
974.500	568.252	79.996	19.994	100.002	20.334	3.688	0.523
975.000	568.510	79.996	19.993	100.002	20.338	3.385	0.517
975.500	568.731	79.996	19.993	100.000	20.337	3.492	0.495
976.000	569.055	79.997	19.994	100.000	20.335	3.576	0.512
976.500	569.277	79.998	19.994	99.999	20.338	3.420	0.546
977.000	569.510	79.998	19.994	100.000	20.336	3.563	0.501
977.500	569.796	79.998	19.995	100.000	20.333	3.776	0.487
978.000	570.054	79.998	19.993	100.000	20.340	3.254	0.531
978.500	570.335	79.998	19.994	99.999	20.334	3.669	0.541
979.000	570.534	79.999	19.994	100.000	20.336	3.539	0.510
979.501	570.800	79.997	19.994	99.999	20.336	3.546	0.473
980.000	571.060	79.998	19.994	100.000	20.335	3.589	0.495
980.500	571.320	79.998	19.993	99.999	20.334	3.671	0.523
981.000	571.584	80.000	19.994	99.999	20.334	3.649	0.522
981.500	571.817	79.997	19.995	99.998	20.336	3.506	0.511
982.000	572.092	79.998	19.995	99.999	20.337	3.474	0.503
982.500	572.357	79.996	19.995	99.999	20.333	3.716	0.524
983.000	572.603	79.996	19.994	100.001	20.335	3.589	0.525
983.500	572.873	79.996	19.995	100.004	20.337	3.437	0.513
984.000	573.146	79.999	19.995	100.004	20.336	3.547	0.529
984.501	573.453	79.997	19.995	100.003	20.335	3.576	0.562
985.001	573.685	79.997	19.995	100.003	20.332	3.843	0.560
985.500	573.942	79.997	19.994	100.001	20.335	3.601	0.514
986.000	574.197	79.997	19.995	99.998	20.336	3.569	0.500
986.501	574.472	79.997	19.996	99.998	20.334	3.669	0.521
987.000	574.747	79.996	19.995	100.000	20.333	3.729	0.540
987.500	574.990	79.996	19.994	99.999	20.335	3.578	0.534
988.000	575.245	79.996	19.995	99.999	20.336	3.511	0.508
988.500	575.529	79.994	19.994	100.000	20.336	3.567	0.518
989.000	575.791	79.996	19.996	99.999	20.336	3.532	0.542
989.500	575.994	79.995	19.996	99.997	20.335	3.614	0.506
990.000	576.292	79.996	19.993	99.997	20.339	3.310	0.483
990.500	576.555	79.995	19.995	99.998	20.337	3.448	0.531
991.000	576.779	79.995	19.995	99.998	20.337	3.487	0.524
991.500	577.069	79.995	19.993	99.999	20.335	3.625	0.500
992.000	577.328	79.995	19.994	100.000	20.338	3.420	0.532
992.500	577.571	79.994	19.997	100.000	20.335	3.605	0.526
993.000	577.840	79.994	19.994	99.999	20.335	3.640	0.506
993.500	578.086	79.995	19.996	99.999	20.334	3.645	0.513
994.000	578.335	79.995	19.995	99.999	20.340	3.292	0.505
994.500	578.571	79.995	19.995	99.999	20.337	3.441	0.490
995.000	578.814	79.994	19.994	99.999	20.338	3.387	0.482
995.500	579.099	79.995	19.995	99.999	20.338	3.401	0.504
996.000	579.397	79.995	19.994	100.000	20.338	3.429	0.555
996.500	579.612	79.995	19.995	100.001	20.335	3.638	0.547
997.000	579.868	79.996	19.994	100.001	20.333	3.768	0.492
997.500	580.112	79.994	19.995	100.001	20.338	3.422	0.486
998.000	580.363	79.995	19.994	100.002	20.339	3.332	0.498
998.500	580.597	79.996	19.995	100.002	20.338	3.381	0.490
999.000	580.907	79.996	19.995	100.001	20.338	3.403	0.514
999.500	581.151	79.997	19.996	100.001	20.338	3.435	0.549
1000.000	581.424	79.995	19.996	100.000	20.336	3.569	0.536
1000.500	581.657	79.995	19.994	100.000	20.339	3.347	0.512
1001.000	581.897	79.994	19.995	100.000	20.337	3.472	0.489
1001.500	582.156	79.995	19.994	100.004	20.335	3.612	0.486
1002.000	582.441	79.995	19.995	100.008	20.335	3.606	0.522
1002.500	582.678	79.997	19.995	100.009	20.336	3.539	0.533
1003.000	582.928	79.996	19.995	100.009	20.341	3.193	0.505
1003.500	583.174	79.995	19.995	100.010	20.337	3.502	0.492
1004.000	583.471	79.995	19.995	100.007	20.334	3.645	0.519
1004.500	583.695	79.995	19.996	100.003	20.333	3.742	0.531
1005.000	583.946	79.996	19.996	100.004	20.337	3.448	0.498
1005.500	584.234	79.995	19.995	100.003	20.338	3.396	0.508
1006.000	584.481	79.995	19.995	100.002	20.338	3.433	0.537
1006.500	584.723	79.996	19.995	100.000	20.338	3.398	0.512
1007.000	584.980	79.996	19.996	100.001	20.339	3.362	0.494
1007.500	585.267	79.995	19.996	99.998	20.344	2.960	0.521
1008.000	585.508	79.995	19.996	99.998	20.336	3.524	0.537
1008.500	585.748	79.995	19.994	99.998	20.338	3.384	0.505
1009.000	586.017	79.996	19.996	99.998	20.338	3.433	0.495
1009.500	586.292	79.995	19.995	99.998	20.335	3.576	0.527
1010.000	586.533	79.994	19.994	100.003	20.341	3.200	0.530
1010.500	586.769	79.995	19.995	100.003	20.341	3.169	0.496
1011.000	587.036	79.995	19.995	100.002	20.335	3.580	0.490
1011.500	587.308	79.996	19.996	100.002	20.338	3.377	0.521
1012.000	587.528	79.995	19.996	100.002	20.337	3.504	0.515
1012.500	587.815	79.995	19.994	99.998	20.338	3.416	0.499
1013.000	588.098	79.996	19.996	100.000	20.338	3.416	0.539
1013.500	588.294	79.995	19.995	100.003	20.341	3.176	0.525
1014.000	588.560	79.995	19.996	100.005	20.344	3.008	0.471
1014.500	588.825	79.995	19.997	100.006	20.342	3.159	0.497
1015.000	589.065	79.994	19.996	100.005	20.338	3.418	0.517
1015.500	589.339	79.993	19.995	100.006	20.339	3.331	0.509
1016.000	589.596	79.994	19.996	100.005	20.339	3.364	0.523
1016.500	589.874	79.995	19.995	100.004	20.339	3.347	0.534
1017.000	590.149	79.995	19.996	100.004	20.338	3.413	0.544
1017.500	590.354	79.995	19.996	100.005	20.337	3.452	0.516
1018.000	590.580	79.995	19.997	100.002	20.339	3.347	0.455
1018.500	590.873	79.994	19.996	100.000	20.336	3.545	0.475
1019.000	591.103	79.994	19.994	99.997	20.338	3.401	0.521
1019.500	591.379	79.995	19.996	99.996	20.339	3.308	0.514
1020.000	591.647	79.994	19.996	99.994	20.339	3.325	0.525
1020.500	591.903	79.995	19.996	99.994	20.341	3.189	0.534
1021.000	592.149	79.995	19.997	99.995	20.337	3.459	0.513
1021.500	592.421	79.995	19.997	99.997	20.340	3.275	0.510
1022.000	592.632	79.996	19.995	99.998	20.335	3.614	0.501
1022.500	592.930	79.995	19.995	99.998	20.336	3.509	0.496
1023.000	593.135	79.996	19.996	99.999	20.339	3.323	0.506
1023.500	593.418	79.995	19.995	99.998	20.338	3.392	0.496
1024.000	593.658	79.996	19.996	99.998	20.337	3.489	0.505
1024.500	593.904	79.995	19.995	99.999	20.335	3.619	0.505
1025.000	594.200	79.996	19.994	99.999	20.336	3.560	0.514
1025.500	594.426	79.994	19.994	99.999	20.336	3.517	0.532
1026.001	594.673	79.996	19.995	100.000	20.335	3.614	0.498
1026.501	594.984	79.995	19.994	100.000	20.339	3.340	0.515
1027.000	595.211	79.996	19.995	99.999	20.336	3.564	0.548
1027.500	595.477	79.996	19.994	100.003	20.340	3.251	0.515
1028.001	595.745	79.997	19.994	100.004	20.338	3.399	0.513
1028.501	595.987	79.995	19.995	100.004	20.338	3.416	0.522
1029.000	596.238	79.997	19.995	100.005	20.339	3.325	0.502
1029.500	596.488	79.995	19.994	100.004	20.338	3.392	0.497
1030.000	596.731	79.996	19.995	100.000	20.337	3.448	0.497
1030.500	596.956	79.996	19.995	99.999	20.338	3.435	0.480
1031.000	597.232	79.997	19.994	100.001	20.338	3.383	0.485
1031.501	597.499	79.998	19.995	100.001	20.337	3.448	0.522
1032.001	597.742	79.996	19.994	100.002	20.338	3.414	0.527
1032.500	597.981	79.997	19.995	100.002	20.340	3.299	0.496
1033.000	598.243	79.997	19.994	100.001	20.337	3.494	0.491
1033.500	598.502	79.996	19.994	100.000	20.336	3.547	0.512
1034.000	598.752	79.998	19.995	100.000	20.336	3.562	0.515
1034.500	599.003	79.998	19.996	99.999	20.337	3.454	0.505
1035.000	599.251	79.998	19.994	99.999	20.337	3.455	0.500
1035.500	599.507	79.996	19.995	99.999	20.336	3.526	0.502
1036.000	599.722	79.997	19.994	100.002	20.340	3.288	0.488
1036.501	599.965	79.997	19.996	100.007	20.335	3.584	0.465
1037.001	600.255	79.997	19.995	100.007	20.337	3.474	0.496
1037.501	600.517	79.996	19.993	100.007	20.334	3.664	0.542
1038.001	600.730	79.996	19.995	100.007	20.335	3.586	0.513
1038.501	601.001	79.998	19.995	100.004	20.340	3.241	0.480
1039.001	601.218	79.995	19.995	100.000	20.340	3.295	0.486
1039.500	601.489	79.997	19.993	100.000	20.335	3.614	0.488
1040.001	601.768	79.997	19.994	100.001	20.335	3.617	0.519
1040.501	602.035	79.997	19.994	100.001	20.337	3.442	0.548
1041.000	602.258	79.997	19.995	100.002	20.343	3.040	0.518
1041.501	602.495	79.998	19.995	100.002	20.334	3.647	0.475
1042.001	602.765	79.997	19.996	100.002	20.337	3.504	0.483
1042.500	603.010	79.996	19.995	100.001	20.336	3.520	0.511
1043.000	603.261	79.997	19.995	100.001	20.341	3.210	0.505
1043.500	603.530	79.995	19.995	100.000	20.338	3.401	0.508
1044.000	603.754	79.996	19.995	100.001	20.334	3.645	0.507
1044.500	604.009	79.997	19.994	100.001	20.336	3.513	0.486
1045.000	604.273	79.997	19.996	100.002	20.331	3.863	0.499
1045.500	604.502	79.995	19.995	100.002	20.337	3.472	0.506
1046.000	604.789	79.997	19.994	100.003	20.334	3.670	0.504
1046.500	605.033	79.995	19.995	100.001	20.334	3.707	0.523
1047.000	605.285	79.996	19.994	100.000	20.334	3.688	0.514
1047.500	605.555	79.997	19.993	99.999	20.336	3.560	0.509
1048.000	605.788	79.996	19.995	99.997	20.333	3.712	0.512
1048.500	606.018	79.997	19.993	99.997	20.328	4.083	0.483
1049.000	606.287	79.997	19.994	99.997	20.332	3.785	0.481
1049.500	606.538	79.995	19.993	99.998	20.334	3.698	0.509
1050.000	606.786	79.997	19.994	99.999	20.335	3.603	0.509
1050.500	607.029	79.996	19.995	100.000	20.333	3.712	0.495
1051.000	607.289	79.997	19.995	100.000	20.332	3.796	0.497
1051.500	607.509	79.996	19.994	100.000	20.332	3.828	0.492
1052.000	607.785	79.997	19.994	100.000	20.336	3.545	0.488
1052.501	608.054	79.997	19.995	100.000	20.336	3.528	0.521
1053.001	608.325	79.996	19.994	100.000	20.335	3.606	0.542
1053.500	608.546	79.997	19.994	100.000	20.336	3.535	0.516
1054.000	608.786	79.997	19.995	100.000	20.336	3.545	0.476
1054.501	609.066	79.997	19.994	100.000	20.332	3.800	0.491
1055.001	609.303	79.997	19.996	100.001	20.339	3.366	0.519
1055.501	609.579	79.996	19.994	100.001	20.336	3.523	0.515
1056.001	609.803	79.999	19.994	100.002	20.333	3.739	0.507
1056.501	610.065	79.999	19.994	100.002	20.335	3.596	0.493
1057.001	610.317	79.998	19.994	100.003	20.335	3.586	0.500
1057.501	610.577	79.998	19.993	100.003	20.335	3.614	0.513
1058.001	610.813	79.998	19.993	100.004	20.335	3.635	0.504
1058.501	611.053	79.998	19.994	100.003	20.333	3.724	0.486
1059.001	611.304	79.998	19.994	100.006	20.330	3.970	0.484
1059.501	611.528	79.999	19.994	100.004	20.334	3.651	0.484
1060.001	611.806	79.998	19.993	100.005	20.333	3.771	0.488
1060.501	612.072	79.998	19.993	100.005	20.333	3.761	0.523
1061.001	612.322	79.998	19.994	100.004	20.334	3.675	0.530
1061.501	612.540	79.999	19.994	100.002	20.338	3.426	0.492
1062.001	612.805	79.999	19.994	100.003	20.336	3.564	0.475
1062.501	613.025	80.000	19.993	100.001	20.331	3.880	0.484
1063.001	613.272	79.998	19.994	100.000	20.337	3.439	0.476
1063.501	613.561	79.999	19.995	100.000	20.330	3.930	0.502
1064.001	613.823	80.000	19.994	100.000	20.335	3.589	0.544
1064.500	614.085	79.998	19.994	100.000	20.332	3.835	0.538
1065.000	614.330	79.998	19.996	100.002	20.335	3.595	0.515
1065.501	614.596	79.997	19.993	100.007	20.334	3.656	0.509
1066.001	614.811	79.998	19.994	100.012	20.334	3.664	0.496
1066.501	615.107	79.998	19.994	100.019	20.330	3.941	0.496
1067.001	615.347	79.996	19.994	100.020	20.336	3.526	0.524
1067.501	615.590	79.996	19.995	100.021	20.334	3.670	0.510
1068.000	615.862	79.996	19.993	100.020	20.332	3.792	0.499
1068.501	616.107	79.997	19.994	100.016	20.337	3.476	0.516
1069.001	616.378	79.997	19.994	100.016	20.334	3.696	0.516
1069.501	616.626	79.997	19.995	100.017	20.332	3.779	0.518
1070.001	616.853	79.996	19.994	100.015	20.337	3.444	0.497
1070.501	617.146	79.995	19.994	100.015	20.330	3.947	0.497
1071.001	617.400	79.996	19.994	100.017	20.335	3.582	0.534
1071.501	617.639	79.996	19.995	100.015	20.333	3.761	0.520
1072.001	617.861	79.996	19.994	100.012	20.335	3.612	0.477
1072.500	618.108	79.996	19.995	100.013	20.333	3.739	0.465
1073.000	618.344	79.996	19.994	100.009	20.335	3.588	0.476
1073.501	618.658	79.996	19.995	100.004	20.337	3.502	0.516
1074.001	618.898	79.997	19.995	99.999	20.334	3.666	0.552
1074.501	619.127	79.994	19.994	100.002	20.332	3.787	0.512
1075.001	619.374	79.996	19.995	100.001	20.333	3.712	0.472
1075.501	619.643	79.995	19.995	100.002	20.335	3.601	0.496
1076.001	619.882	79.996	19.995	100.002	20.336	3.547	0.512
1076.501	620.138	79.995	19.996	100.003	20.334	3.696	0.501
1077.001	620.379	79.996	19.995	100.000	20.333	3.724	0.495
1077.500	620.679	79.996	19.994	100.002	20.336	3.573	0.519
1078.000	620.893	79.995	19.996	100.003	20.335	3.591	0.528
1078.500	621.140	79.996	19.994	100.003	20.331	3.850	0.488
1079.000	621.359	79.994	19.996	100.002	20.332	3.832	0.464
1079.501	621.640	79.995	19.996	100.003	20.330	3.979	0.483
1080.001	621.923	79.996	19.995	100.002	20.335	3.582	0.532
1080.500	622.152	79.995	19.995	100.001	20.334	3.686	0.538
1081.001	622.383	79.996	19.995	100.004	20.336	3.541	0.486
1081.501	622.661	79.994	19.996	100.005	20.334	3.642	0.485
1082.001	622.886	79.996	19.995	100.009	20.329	4.001	0.506
1082.502	623.139	79.996	19.996	100.009	20.333	3.731	0.491
1083.001	623.416	79.995	19.996	100.009	20.335	3.589	0.504
1083.501	623.675	79.996	19.996	100.006	20.329	4.034	0.533
1084.000	623.916	79.997	19.995	100.004	20.333	3.772	0.518
1084.500	624.158	79.996	19.995	100.001	20.331	3.869	0.492
1085.000	624.457	79.995	19.996	100.001	20.330	3.958	0.512
1085.500	624.700	79.996	19.995	100.000	20.331	3.882	0.541
1086.000	624.949	79.996	19.996	100.001	20.328	4.100	0.516
1086.500	625.164	79.996	19.995	100.003	20.333	3.712	0.478
1087.000	625.430	79.997	19.995	100.002	20.326	4.251	0.473
1087.500	625.719	79.996	19.994	100.002	20.332	3.810	0.518
1088.000	625.967	79.996	19.996	100.006	20.328	4.055	0.546
1088.500	626.191	79.996	19.995	100.006	20.329	3.998	0.505
1089.000	626.463	79.995	19.995	100.008	20.331	3.869	0.484
1089.500	626.718	79.997	19.995	100.009	20.333	3.718	0.511
1090.000	626.956	79.997	19.995	100.011	20.332	3.794	0.510
1090.500	627.232	79.996	19.995	100.008	20.332	3.798	0.504
1091.000	627.472	79.997	19.995	100.009	20.331	3.860	0.515
1091.500	627.709	79.997	19.996	100.005	20.327	4.122	0.497
1092.000	627.965	79.997	19.996	100.003	20.330	3.940	0.485
1092.500	628.201	79.995	19.996	100.001	20.333	3.747	0.493
1093.000	628.457	79.996	19.996	100.001	20.332	3.833	0.492
1093.500	628.708	79.994	19.996	100.003	20.329	3.998	0.500
1094.000	628.957	79.996	19.995	100.004	20.331	3.851	0.503
1094.500	629.228	79.995	19.997	100.005	20.333	3.743	0.510
1095.000	629.528	79.995	19.997	100.004	20.329	4.000	0.546
1095.500	629.752	79.996	19.996	100.004	20.326	4.198	0.548
1096.000	630.014	79.994	19.995	100.002	20.331	3.910	0.505
1096.500	630.245	79.995	19.996	100.002	20.328	4.059	0.489
1097.000	630.512	79.996	19.996	100.004	20.327	4.172	0.495
1097.500	630.761	79.994	19.996	100.007	20.331	3.848	0.507
1098.000	631.001	79.996	19.997	100.012	20.328	4.061	0.503
1098.500	631.297	79.994	19.995	100.015	20.332	3.811	0.513
1099.000	631.529	79.995	19.995	100.017	20.327	4.170	0.533
1099.500	631.763	79.994	19.996	100.014	20.329	4.001	0.497
1100.000	632.035	79.993	19.997	100.010	20.326	4.203	0.485
1100.500	632.252	79.994	19.996	100.004	20.329	4.006	0.497
1101.000	632.524	79.994	19.996	100.002	20.329	4.022	0.489
1101.500	632.781	79.995	19.996	100.001	20.330	3.945	0.509
1102.000	633.018	79.994	19.995	100.007	20.331	3.914	0.512
1102.500	633.257	79.994	19.995	100.014	20.330	3.931	0.485
1103.000	633.528	79.994	19.997	100.021	20.331	3.849	0.493
1103.500	633.790	79.994	19.996	100.028	20.332	3.844	0.522
1104.000	634.065	79.993	19.996	100.032	20.330	3.957	0.535
1104.501	634.299	79.994	19.996	100.031	20.329	4.033	0.523
1105.001	634.562	79.994	19.996	100.029	20.329	4.011	0.503
1105.501	634.772	79.994	19.997	100.027	20.333	3.772	0.485
1106.000	635.053	79.996	19.996	100.017	20.327	4.184	0.482
1106.500	635.327	79.995	19.997	99.993	20.334	3.683	0.523
1107.000	635.592	79.997	19.996	99.972	20.329	3.992	0.547
1107.500	635.807	79.993	19.996	99.959	20.332	3.787	0.510
1108.000	636.075	79.996	19.997	99.947	20.330	3.972	0.482
1108.500	636.327	79.995	19.996	99.946	20.331	3.908	0.502
1109.000	636.571	79.993	19.995	99.964	20.328	4.113	0.508
1109.500	636.826	79.994	19.995	99.993	20.328	4.066	0.497
1110.000	637.065	79.994	19.995	100.034	20.332	3.828	0.496
1110.500	637.339	79.994	19.995	100.055	20.333	3.765	0.504
1111.000	637.579	79.994	19.996	100.066	20.332	3.812	0.513
1111.500	637.828	79.997	19.995	100.073	20.328	4.053	0.501
1112.000	638.112	79.997	19.995	100.065	20.333	3.718	0.511
1112.500	638.311	79.996	19.996	100.040	20.330	3.983	0.508
1113.000	638.546	79.996	19.996	100.030	20.331	3.884	0.458
1113.500	638.835	79.998	19.995	100.029	20.334	3.704	0.479
1114.000	639.116	79.997	19.995	100.029	20.326	4.225	0.547
1114.500	639.342	79.997	19.995	100.030	20.331	3.894	0.538
1115.000	639.587	79.996	19.993	100.028	20.326	4.216	0.489
1115.500	639.882	79.998	19.994	100.024	20.327	4.134	0.506
1116.001	640.084	79.996	19.994	100.019	20.328	4.083	0.518
1116.501	640.390	79.995	19.995	100.015	20.327	4.139	0.502
1117.000	640.599	79.998	19.994	100.011	20.327	4.169	0.511
1117.500	640.865	79.998	19.994	100.007	20.328	4.076	0.495
1118.000	641.133	79.997	19.993	100.012	20.326	4.204	0.505
1118.500	641.384	79.998	19.994	100.009	20.328	4.093	0.527
1119.000	641.628	79.997	19.994	99.984	20.332	3.806	0.507
1119.500	641.854	79.997	19.995	99.968	20.331	3.856	0.482
1120.000	642.135	79.996	19.993	99.959	20.329	4.018	0.488
1120.500	642.409	79.996	19.995	99.949	20.333	3.748	0.531
1121.001	642.628	79.997	19.995	99.950	20.326	4.193	0.524
1121.500	642.923	79.996	19.994	99.979	20.329	4.050	0.503
1122.000	643.161	79.996	19.994	100.024	20.332	3.795	0.524
1122.500	643.448	79.996	19.994	100.050	20.333	3.746	0.530
1123.000	643.658	79.997	19.994	100.062	20.334	3.674	0.511
1123.500	643.905	79.995	19.993	100.064	20.330	3.935	0.477
1124.000	644.172	79.995	19.994	100.059	20.330	3.978	0.486
1124.500	644.415	79.996	19.994	100.032	20.328	4.067	0.512
1125.000	644.643	79.996	19.993	100.021	20.334	3.669	0.490
1125.500	644.916	79.994	19.994	100.018	20.329	4.019	0.486
1126.000	645.162	79.997	19.994	100.023	20.328	4.091	0.510
1126.500	645.416	79.995	19.994	100.022	20.327	4.123	0.510
1127.000	645.687	79.996	19.993	100.019	20.331	3.849	0.512
1127.500	645.919	79.997	19.994	100.018	20.330	3.965	0.513
1128.000	646.177	79.996	19.994	100.017	20.330	3.951	0.496
1128.500	646.404	79.995	19.993	100.013	20.333	3.743	0.488
1129.000	646.677	79.995	19.994	100.014	20.331	3.912	0.492
1129.500	646.948	79.997	19.995	100.014	20.335	3.616	0.522
1130.000	647.204	79.995	19.994	100.009	20.323	4.422	0.536
1130.500	647.460	79.995	19.994	100.006	20.331	3.904	0.520
1131.000	647.714	79.996	19.995	100.009	20.331	3.869	0.511
1131.500	647.935	79.996	19.995	100.011	20.330	3.934	0.492
1132.000	648.214	79.997	19.994	100.013	20.329	4.027	0.488
1132.500	648.450	79.996	19.993	100.017	20.333	3.716	0.507
1133.000	648.713	79.997	19.995	100.017	20.331	3.884	0.507
1133.500	648.951	79.997	19.995	100.019	20.332	3.808	0.500
1134.000	649.228	79.997	19.995	100.022	20.332	3.785	0.508
1134.500	649.485	79.997	19.994	100.025	20.332	3.843	0.524
1135.000	649.753	79.996	19.995	100.029	20.329	3.995	0.530
1135.500	650.009	79.997	19.995	100.032	20.325	4.277	0.524
1136.000	650.255	79.997	19.994	100.032	20.332	3.834	0.513
1136.500	650.516	79.999	19.995	100.031	20.331	3.914	0.505
1137.000	650.766	79.998	19.994	100.030	20.333	3.736	0.509
1137.500	651.025	79.997	19.994	100.026	20.328	4.110	0.510
1138.000	651.287	79.997	19.994	100.028	20.333	3.776	0.515
1138.500	651.539	79.996	19.993	100.024	20.323	4.434	0.518
1139.000	651.777	79.999	19.995	100.023	20.330	3.929	0.502
1139.500	652.029	79.999	19.994	100.020	20.331	3.903	0.490
1140.000	652.297	79.999	19.993	100.016	20.331	3.878	0.505
1140.500	652.566	79.998	19.994	100.011	20.329	3.997	0.528
1141.000	652.790	79.998	19.995	100.009	20.327	4.158	0.515
1141.500	653.061	79.998	19.994	100.005	20.331	3.903	0.494
1142.000	653.321	79.998	19.993	100.003	20.329	4.024	0.513
1142.500	653.570	79.997	19.994	100.007	20.321	4.537	0.520
1143.000	653.855	79.997	19.994	100.008	20.328	4.066	0.522
1143.500	654.071	80.000	19.994	100.010	20.321	4.569	0.518
1144.000	654.372	79.999	19.994	100.011	20.325	4.292	0.509
1144.500	654.597	79.997	19.994	100.009	20.326	4.247	0.521
1145.000	654.850	79.997	19.994	100.006	20.328	4.081	0.502
1145.500	655.120	79.998	19.995	100.004	20.324	4.325	0.501
1146.000	655.360	79.997	19.995	100.005	20.330	3.949	0.517
1146.500	655.619	79.996	19.994	100.011	20.324	4.377	0.505
1147.000	655.854	79.996	19.995	100.015	20.328	4.114	0.497
1147.500	656.125	79.996	19.994	100.022	20.331	3.880	0.500
1148.000	656.408	79.995	19.995	100.030	20.329	4.042	0.530
1148.501	656.608	79.996	19.995	100.029	20.324	4.362	0.519
1149.000	656.864	79.997	19.995	100.024	20.324	4.387	0.470
1149.500	657.105	79.997	19.996	100.020	20.323	4.431	0.476
1150.000	657.394	79.996	19.994	100.015	20.322	4.480	0.514
1150.500	657.657	79.996	19.994	100.011	20.331	3.912	0.541
1151.001	657.921	79.997	19.995	100.009	20.329	4.005	0.540
1151.501	658.153	79.996	19.995	100.009	20.321	4.554	0.511
1152.001	658.433	79.997	19.995	100.010	20.324	4.357	0.504
1152.500	658.652	79.995	19.995	100.013	20.324	4.355	0.506
1153.000	658.934	79.996	19.994	100.013	20.327	4.166	0.500
1153.500	659.164	79.995	19.994	100.012	20.326	4.216	0.506
1154.001	659.405	79.996	19.996	100.011	20.327	4.177	0.491
1154.500	659.690	79.995	19.994	100.011	20.331	3.905	0.499
1155.000	659.925	79.998	19.994	100.008	20.327	4.169	0.523
1155.500	660.178	79.996	19.994	100.006	20.325	4.303	0.504
1156.000	660.414	79.995	19.994	100.005	20.323	4.396	0.488
1156.500	660.673	79.996	19.995	100.004	20.326	4.249	0.492
1157.000	660.922	79.995	19.995	100.005	20.326	4.223	0.502
1157.500	661.168	79.994	19.993	100.004	20.326	4.189	0.502
1158.000	661.435	79.994	19.992	100.002	20.325	4.294	0.504
1158.500	661.715	79.996	19.995	100.003	20.325	4.271	0.530
1159.000	661.959	79.993	19.994	100.007	20.324	4.357	0.535
1159.500	662.192	79.995	19.994	100.007	20.327	4.156	0.500
1160.000	662.465	79.994	19.995	100.009	20.329	4.001	0.492
1160.500	662.709	79.996	19.995	100.012	20.319	4.688	0.512
1161.000	662.958	79.996	19.996	100.011	20.329	4.029	0.505
1161.500	663.176	79.993	19.994	100.007	20.326	4.204	0.480
1162.000	663.449	79.997	19.995	100.007	20.321	4.597	0.479
1162.500	663.724	79.996	19.994	100.010	20.327	4.180	0.519
1163.000	663.954	79.997	19.994	100.015	20.327	4.134	0.526
1163.500	664.220	79.998	19.994	100.015	20.323	4.411	0.500
1164.000	664.492	79.997	19.994	100.022	20.321	4.543	0.517
1164.500	664.706	79.996	19.996	100.025	20.326	4.195	0.512
1165.000	664.971	79.994	19.995	100.020	20.326	4.238	0.483
1165.500	665.233	79.996	19.994	100.014	20.326	4.240	0.503
1166.000	665.472	79.994	19.994	100.016	20.326	4.214	0.514
1166.500	665.719	79.996	19.995	100.011	20.329	4.039	0.493
1167.000	665.965	79.998	19.995	100.012	20.325	4.298	0.489
1167.500	666.220	79.994	19.994	100.017	20.323	4.411	0.497
1168.000	666.519	79.996	19.996	100.018	20.319	4.670	0.527
1168.500	666.765	79.996	19.995	100.015	20.321	4.537	0.549
1169.000	667.009	79.995	19.993	100.014	20.324	4.381	0.517
1169.500	667.255	79.998	19.995	100.010	20.324	4.325	0.490
1170.000	667.502	79.996	19.994	100.005	20.327	4.132	0.492
1170.500	667.770	79.996	19.995	100.005	20.324	4.345	0.504
1171.000	667.989	79.996	19.995	100.005	20.329	4.038	0.501
1171.500	668.239	79.995	19.996	100.010	20.322	4.477	0.478
1172.000	668.502	79.995	19.994	100.013	20.324	4.349	0.492
1172.500	668.766	79.995	19.996	100.015	20.329	4.008	0.520
1173.000	669.089	79.995	19.996	100.016	20.330	3.933	0.557
1173.500	669.268	79.997	19.996	100.019	20.331	3.896	0.544
1174.000	669.527	79.997	19.997	100.017	20.326	4.255	0.470
1174.500	669.735	79.996	19.994	100.016	20.330	3.947	0.453
1175.000	670.001	79.996	19.996	100.014	20.326	4.208	0.470
1175.500	670.260	79.996	19.996	100.016	20.323	4.407	0.499
1176.000	670.520	79.996	19.995	100.020	20.326	4.215	0.522
1176.501	670.754	79.995	19.995	100.025	20.332	3.827	0.507
1177.001	671.001	79.996	19.994	100.027	20.327	4.173	0.487
1177.500	671.271	79.995	19.993	100.030	20.327	4.143	0.498
1178.000	671.511	79.996	19.994	100.025	20.324	4.330	0.514
1178.500	671.785	79.996	19.995	100.017	20.322	4.529	0.512
1179.000	672.036	79.994	19.995	100.010	20.327	4.142	0.520
1179.500	672.284	79.995	19.995	100.007	20.323	4.416	0.512
1180.000	672.547	79.995	19.995	100.010	20.319	4.671	0.505
1180.500	672.757	79.995	19.997	100.017	20.326	4.224	0.492
1181.000	673.020	79.994	19.994	100.024	20.325	4.260	0.473
1181.500	673.307	79.997	19.996	100.032	20.321	4.590	0.512
1182.000	673.563	79.995	19.995	100.036	20.329	4.005	0.546
1182.500	673.855	79.994	19.996	100.037	20.331	3.863	0.545
1183.000	674.078	79.995	19.995	100.038	20.322	4.504	0.532
1183.501	674.328	79.992	19.996	100.037	20.332	3.806	0.494
1184.001	674.595	79.995	19.995	100.034	20.326	4.212	0.495
1184.501	674.864	79.993	19.993	100.029	20.329	3.994	0.527
1185.000	675.112	79.995	19.997	100.022	20.322	4.505	0.526
1185.500	675.378	79.997	19.996	100.017	20.336	3.540	0.515
1186.000	675.629	79.993	19.995	100.015	20.332	3.806	0.515
1186.500	675.869	79.993	19.996	100.014	20.330	3.948	0.504
1187.000	676.149	79.994	19.996	100.013	20.325	4.297	0.506
1187.500	676.385	79.995	19.997	100.019	20.327	4.165	0.518
1188.000	676.646	79.993	19.995	100.023	20.328	4.075	0.506
1188.500	676.923	79.995	19.995	100.025	20.331	3.886	0.517
1189.000	677.174	79.995	19.996	100.030	20.329	4.036	0.533
1189.500	677.392	79.995	19.995	100.035	20.323	4.435	0.498
1190.000	677.686	79.995	19.996	100.036	20.331	3.916	0.491
1190.500	677.948	79.996	19.995	100.037	20.320	4.613	0.534
1191.000	678.165	79.996	19.997	100.036	20.327	4.149	0.517
1191.500	678.446	79.996	19.996	100.028	20.327	4.127	0.489
1192.001	678.701	79.996	19.995	100.021	20.326	4.252	0.518
1192.501	678.927	79.996	19.996	100.015	20.328	4.058	0.508
1193.000	679.132	79.997	19.997	100.010	20.323	4.408	0.456
1193.500	679.453	79.997	19.996	100.008	20.325	4.322	0.478
1194.000	679.659	79.997	19.997	100.014	20.322	4.494	0.526
1194.500	679.917	79.998	19.997	100.019	20.322	4.477	0.496
1195.000	680.172	79.994	19.995	100.024	20.324	4.328	0.489
1195.500	680.429	79.999	19.995	100.025	20.328	4.073	0.513
1196.000	680.706	79.996	19.995	100.026	20.326	4.222	0.523
1196.500	680.927	79.996	19.997	100.020	20.316	4.890	0.516
1197.000	681.236	79.997	19.995	100.015	20.323	4.400	0.514
1197.500	681.452	79.996	19.996	99.989	20.321	4.586	0.528
1198.000	681.699	79.999	19.996	99.969	20.325	4.298	0.494
1198.500	681.988	79.997	19.996	99.956	20.329	3.992	0.499
1199.000	682.210	79.997	19.995	99.955	20.322	4.478	0.523
1199.500	682.460	79.997	19.997	99.958	20.326	4.251	0.491
1200.000	682.711	79.997	19.997	99.989	20.327	4.162	0.486
1200.500	682.954	79.996	19.995	100.046	20.326	4.236	0.498
1201.001	683.226	79.997	19.996	100.071	20.323	4.397	0.505
1201.501	683.507	79.998	19.995	100.077	20.324	4.372	0.535
1202.001	683.728	79.996	19.995	100.079	20.325	4.260	0.528
1202.500	683.985	79.999	19.997	100.072	20.325	4.268	0.490
1203.000	684.260	79.997	19.996	100.036	20.326	4.191	0.505
1203.500	684.516	79.997	19.995	100.026	20.322	4.480	0.531
1204.000	684.773	79.998	19.995	100.026	20.322	4.502	0.521
1204.500	684.965	79.999	19.995	100.029	20.322	4.493	0.481
1205.000	685.256	79.998	19.995	100.030	20.327	4.141	0.466
1205.500	685.547	79.996	19.995	100.031	20.319	4.705	0.533
1206.000	685.728	79.996	19.995	100.031	20.325	4.260	0.527
1206.500	686.054	79.997	19.995	100.030	20.325	4.266	0.489
1207.000	686.289	79.996	19.993	100.029	20.325	4.301	0.534
1207.500	686.555	79.999	19.995	100.029	20.327	4.165	0.531
1208.000	686.800	79.995	19.995	100.027	20.329	4.004	0.506
1208.501	687.057	79.998	19.995	100.025	20.319	4.670	0.507
1209.000	687.291	79.997	19.995	100.021	20.328	4.115	0.497
1209.500	687.554	79.996	19.995	100.016	20.324	4.325	0.495
1210.000	687.809	79.996	19.994	100.017	20.325	4.294	0.508
1210.500	688.043	79.996	19.995	100.020	20.324	4.340	0.503
1211.000	688.282	79.997	19.995	100.020	20.325	4.277	0.480
1211.500	688.555	79.996	19.993	100.025	20.325	4.316	0.493
1212.000	688.811	79.996	19.995	100.026	20.327	4.178	0.521
1212.500	689.075	79.996	19.995	100.024	20.323	4.458	0.524
1213.000	689.309	79.998	19.994	100.019	20.327	4.165	0.509
1213.500	689.547	79.998	19.995	100.017	20.323	4.445	0.485
1214.000	689.808	79.996	19.994	100.011	20.326	4.225	0.486
1214.500	690.076	79.999	19.995	100.009	20.329	4.026	0.514
1215.000	690.317	79.996	19.994	100.006	20.321	4.569	0.519
1215.501	690.572	79.998	19.994	100.011	20.330	3.964	0.503
1216.001	690.819	79.998	19.996	100.011	20.324	4.377	0.499
1216.500	691.068	79.998	19.995	100.012	20.326	4.247	0.499
1217.001	691.351	80.001	19.995	100.016	20.324	4.353	0.514
1217.501	691.617	79.999	19.994	100.022	20.327	4.186	0.541
1218.000	691.830	79.999	19.995	100.019	20.325	4.318	0.514
1218.500	692.083	79.999	19.995	100.021	20.328	4.057	0.473
1219.000	692.297	80.001	19.995	100.023	20.325	4.263	0.467
1219.500	692.599	79.999	19.994	100.020	20.328	4.099	0.491
1220.000	692.872	79.999	19.995	100.018	20.328	4.114	0.545
1220.500	693.110	80.001	19.995	100.015	20.323	4.410	0.543
1221.000	693.374	80.000	19.994	100.012	20.325	4.307	0.507
1221.500	693.608	79.998	19.995	100.012	20.325	4.296	0.500
1222.001	693.873	80.000	19.996	100.015	20.323	4.438	0.499
1222.501	694.124	79.997	19.994	100.011	20.321	4.534	0.508
1223.000	694.370	79.998	19.995	100.014	20.325	4.305	0.507
1223.500	694.616	79.997	19.995	100.019	20.327	4.136	0.494
1224.000	694.910	79.998	19.994	100.019	20.324	4.341	0.516
1224.500	695.158	79.998	19.994	100.018	20.325	4.281	0.541
1225.000	695.395	79.999	19.995	100.020	20.322	4.510	0.514
1225.500	695.623	79.999	19.994	100.020	20.325	4.324	0.475
1226.000	695.915	79.999	19.995	100.019	20.327	4.170	0.492
1226.500	696.143	79.997	19.994	100.015	20.326	4.230	0.520
1227.000	696.411	79.998	19.996	100.012	20.324	4.352	0.508
1227.500	696.650	79.997	19.994	100.010	20.325	4.257	0.502
1228.000	696.893	79.996	19.994	100.009	20.325	4.289	0.494
1228.500	697.172	79.996	19.997	100.010	20.327	4.188	0.502
1229.000	697.388	79.997	19.996	100.016	20.322	4.511	0.509
1229.500	697.689	79.996	19.995	100.020	20.326	4.199	0.506
1230.000	697.889	79.996	19.995	100.027	20.323	4.436	0.509
1230.500	698.173	79.996	19.994	100.030	20.324	4.382	0.492
1231.000	698.416	79.995	19.994	100.031	20.326	4.235	0.506
1231.500	698.656	79.994	19.997	100.026	20.324	4.350	0.505
1232.000	698.896	79.994	19.995	100.028	20.328	4.112	0.481
1232.500	699.176	79.996	19.995	100.026	20.324	4.332	0.500
1233.000	699.421	79.995	19.995	100.027	20.328	4.054	0.523
1233.500	699.654	79.996	19.995	100.027	20.320	4.663	0.502
1234.000	699.880	79.995	19.995	100.029	20.323	4.416	0.469
1234.500	700.126	79.995	19.994	100.024	20.324	4.375	0.466
1235.000	700.408	79.996	19.996	100.025	20.324	4.382	0.500
1235.500	700.667	79.998	19.996	100.027	20.325	4.259	0.534
1236.000	700.874	79.997	19.996	100.028	20.319	4.710	0.503
1236.500	701.170	79.996	19.995	100.032	20.322	4.505	0.485
1237.000	701.410	79.995	19.995	100.037	20.318	4.760	0.520
1237.500	701.666	79.995	19.995	100.038	20.321	4.545	0.516
1238.000	701.918	79.997	19.994	100.038	20.323	4.439	0.502
1238.500	702.134	79.996	19.995	100.037	20.323	4.420	0.488
1239.000	702.389	79.995	19.994	100.036	20.326	4.249	0.470
1239.500	702.641	79.995	19.994	100.034	20.319	4.696	0.489
1240.000	702.903	79.996	19.995	100.034	20.315	4.960	0.511
1240.500	703.114	79.996	19.994	100.031	20.325	4.285	0.493
1241.000	703.364	79.997	19.994	100.029	20.317	4.817	0.467
1241.500	703.651	79.995	19.995	100.029	20.324	4.357	0.499
1242.000	703.882	79.995	19.993	100.031	20.320	4.639	0.527
1242.500	704.145	79.999	19.995	100.027	20.319	4.668	0.506
1243.000	704.377	79.996	19.994	100.026	20.324	4.378	0.495
1243.500	704.637	79.996	19.994	100.028	20.318	4.801	0.494
1244.000	704.858	79.995	19.994	100.030	20.317	4.866	0.486
1244.500	705.137	79.995	19.995	100.030	20.320	4.655	0.491
1245.000	705.394	79.997	19.994	100.036	20.325	4.294	0.518
1245.500	705.626	79.996	19.994	100.038	20.321	4.597	0.513
1246.000	705.911	79.996	19.995	100.040	20.313	5.096	0.503
1246.500	706.133	79.996	19.995	100.038	20.317	4.830	0.512
1247.000	706.407	79.996	19.995	100.035	20.322	4.486	0.501
1247.500	706.641	79.996	19.995	100.034	20.321	4.596	0.502
1248.000	706.871	79.997	19.994	100.030	20.317	4.816	0.486
1248.500	707.073	79.998	19.995	100.023	20.319	4.723	0.449
1249.000	707.373	79.996	19.993	100.019	20.319	4.674	0.467
1249.500	707.649	79.993	19.995	100.016	20.321	4.544	0.538
1250.000	707.891	79.994	19.994	100.013	20.321	4.562	0.547
1250.500	708.101	79.995	19.994	100.012	20.320	4.636	0.485
1251.000	708.357	79.996	19.994	100.015	20.321	4.595	0.459
1251.500	708.670	79.996	19.994	100.018	20.322	4.512	0.518
1252.000	708.867	79.995	19.994	100.021	20.322	4.467	0.539
1252.500	709.180	79.996	19.994	100.022	20.321	4.542	0.509
1253.000	709.403	79.997	19.996	100.024	20.322	4.510	0.523
1253.500	709.651	79.996	19.994	100.023	20.325	4.277	0.504
1254.000	709.891	79.995	19.994	100.025	20.316	4.888	0.480
1254.500	710.126	79.995	19.996	100.024	20.320	4.634	0.482
1255.000	710.397	79.996	19.995	100.027	20.318	4.774	0.490
1255.500	710.651	79.994	19.996	100.024	20.323	4.422	0.516
1256.000	710.889	79.995	19.995	100.021	20.321	4.542	0.509
1256.500	711.113	79.995	19.995	100.016	20.321	4.581	0.477
1257.000	711.402	79.997	19.995	100.017	20.321	4.572	0.488
1257.500	711.610	79.995	19.996	100.014	20.319	4.710	0.505
1258.000	711.875	79.998	19.995	100.017	20.326	4.196	0.485
1258.500	712.162	79.994	19.995	100.024	20.320	4.637	0.512
1259.000	712.364	79.998	19.996	100.028	20.318	4.788	0.521
1259.500	712.621	79.996	19.996	100.026	20.325	4.311	0.474
1260.000	712.858	79.996	19.996	100.026	20.320	4.600	0.476
1260.500	713.101	79.994	19.995	100.022	20.321	4.572	0.487
1261.000	713.402	79.996	19.996	100.015	20.321	4.557	0.512
1261.500	713.693	79.994	19.996	100.014	20.321	4.564	0.568
1262.000	713.887	79.996	19.996	100.016	20.324	4.376	0.539
1262.500	714.195	79.995	19.996	100.019	20.322	4.492	0.494
1263.000	714.443	79.995	19.996	100.025	20.323	4.456	0.529
1263.500	714.691	79.994	19.996	100.029	20.318	4.788	0.526
1264.000	714.921	79.994	19.995	100.026	20.317	4.845	0.487
1264.500	715.177	79.995	19.996	100.020	20.319	4.689	0.482
1265.000	715.432	79.996	19.995	100.015	20.318	4.790	0.499
1265.501	715.725	79.992	19.996	100.013	20.317	4.868	0.529
1266.001	716.005	79.999	19.996	100.014	20.315	4.941	0.560
1266.500	716.215	79.995	19.993	100.020	20.317	4.859	0.531
1267.000	716.477	79.995	19.996	100.027	20.319	4.730	0.481
1267.500	716.712	79.995	19.995	100.033	20.318	4.766	0.485
1268.000	716.989	79.997	19.995	100.034	20.318	4.790	0.505
1268.500	717.241	79.996	19.996	100.034	20.321	4.581	0.520
1269.001	717.500	79.996	19.996	100.034	20.320	4.616	0.520
1269.501	717.744	79.997	19.994	100.034	20.320	4.607	0.507
1270.001	717.954	79.995	19.996	100.033	20.316	4.906	0.478
1270.501	718.237	79.996	19.995	100.030	20.320	4.659	0.474
1271.001	718.467	79.996	19.994	100.030	20.317	4.815	0.503
1271.501	718.738	79.994	19.996	100.028	20.319	4.730	0.506
1272.000	719.020	79.995	19.996	100.027	20.317	4.805	0.527
1272.500	719.223	79.998	19.995	100.027	20.317	4.846	0.520
1273.000	719.493	79.996	19.994	100.028	20.318	4.736	0.479
1273.500	719.754	79.999	19.996	100.028	20.320	4.665	0.501
1274.000	719.996	79.995	19.996	100.026	20.317	4.864	0.517
1274.500	720.258	79.996	19.993	100.026	20.318	4.797	0.504
1275.000	720.519	79.998	19.996	100.027	20.317	4.838	0.514
1275.500	720.786	79.999	19.995	100.029	20.317	4.814	0.526
1276.000	721.027	79.997	19.995	100.032	20.312	5.212	0.518
1276.500	721.300	79.998	19.996	100.036	20.314	5.055	0.511
1277.000	721.533	79.997	19.996	100.035	20.316	4.890	0.510
1277.500	721.766	79.996	19.996	100.035	20.312	5.163	0.486
1278.001	722.052	79.998	19.996	100.033	20.317	4.847	0.493
1278.501	722.261	79.997	19.996	100.030	20.314	5.035	0.507
1279.000	722.562	79.995	19.994	100.030	20.315	4.953	0.502
1279.500	722.800	79.997	19.995	100.025	20.313	5.102	0.525
1280.000	723.051	79.994	19.994	100.019	20.310	5.291	0.514
1280.500	723.304	79.996	19.995	100.016	20.313	5.095	0.497
1281.000	723.593	79.998	19.996	100.018	20.315	4.955	0.523
1281.500	723.813	79.996	19.996	100.017	20.316	4.933	0.525
1282.000	724.103	79.998	19.995	100.020	20.318	4.778	0.509
1282.500	724.300	79.996	19.996	100.026	20.313	5.100	0.498
1283.000	724.572	79.996	19.996	100.031	20.316	4.877	0.478
1283.500	724.817	79.997	19.995	100.030	20.310	5.311	0.493
1284.001	725.098	79.995	19.995	100.032	20.316	4.928	0.521
1284.500	725.359	79.996	19.995	100.030	20.315	4.945	0.534
1285.000	725.583	79.997	19.995	100.029	20.317	4.848	0.514
1285.500	725.849	79.995	19.996	100.028	20.312	5.162	0.488
1286.000	726.075	79.996	19.995	100.026	20.315	4.963	0.491
1286.500	726.338	79.998	19.996	100.023	20.315	4.983	0.491
1287.000	726.573	79.996	19.996	100.020	20.310	5.333	0.494
1287.500	726.869	79.995	19.996	100.020	20.311	5.259	0.515
1288.000	727.114	79.995	19.996	100.016	20.317	4.844	0.536
1288.500	727.352	79.998	19.996	100.012	20.314	5.043	0.512
1289.000	727.597	79.995	19.996	100.014	20.314	5.012	0.483
1289.501	727.848	79.996	19.997	100.019	20.319	4.695	0.489
1290.001	728.103	79.996	19.994	100.022	20.317	4.868	0.501
1290.500	728.382	79.996	19.995	100.026	20.318	4.790	0.521
1291.000	728.619	79.995	19.996	100.033	20.319	4.683	0.525
1291.500	728.886	79.995	19.996	100.029	20.323	4.453	0.510
1292.000	729.107	79.995	19.995	100.027	20.315	4.955	0.496
1292.500	729.390	79.998	19.996	100.027	20.316	4.875	0.496
1293.000	729.647	79.996	19.996	100.025	20.318	4.747	0.522
1293.500	729.872	79.997	19.995	100.025	20.322	4.498	0.511
1294.000	730.139	79.995	19.995	100.032	20.321	4.540	0.487
1294.500	730.369	79.997	19.996	100.033	20.313	5.084	0.494
1295.001	730.666	79.997	19.995	100.033	20.320	4.602	0.512
1295.501	730.879	79.996	19.995	100.035	20.315	4.976	0.519
1296.000	731.158	79.997	19.997	100.031	20.312	5.196	0.501
1296.500	731.420	79.997	19.996	100.030	20.318	4.753	0.516
1297.000	731.657	79.997	19.994	100.031	20.312	5.205	0.520
1297.500	731.907	79.999	19.995	100.030	20.317	4.840	0.493
1298.000	732.186	79.997	19.996	100.030	20.315	4.999	0.508
1298.500	732.449	79.995	19.995	100.034	20.316	4.889	0.536
1299.000	732.673	79.996	19.994	100.035	20.316	4.930	0.514
1299.500	732.942	79.997	19.994	100.035	20.319	4.706	0.490
1300.000	733.174	79.996	19.994	100.034	20.322	4.475	0.497
1300.500	733.458	79.999	19.995	100.033	20.322	4.512	0.508
1301.000	733.698	79.997	19.994	100.032	20.316	4.898	0.520
1301.500	733.936	79.998	19.994	100.031	20.319	4.699	0.501
1302.001	734.202	79.999	19.994	100.027	20.318	4.775	0.491
1302.500	734.498	79.998	19.993	100.029	20.318	4.757	0.533
1303.000	734.756	79.997	19.993	100.030	20.317	4.864	0.559
1303.500	735.015	79.998	19.994	100.029	20.315	4.980	0.536
1304.000	735.256	79.997	19.994	100.030	20.318	4.782	0.509
1304.500	735.494	79.998	19.994	100.035	20.315	4.989	0.490
1305.000	735.752	79.997	19.994	100.035	20.317	4.870	0.487
1305.500	735.991	79.999	19.995	100.036	20.320	4.637	0.496
1306.000	736.243	79.997	19.994	100.037	20.317	4.846	0.494
1306.500	736.511	79.998	19.994	100.036	20.317	4.807	0.506
1307.001	736.769	79.997	19.994	100.036	20.319	4.675	0.523
1307.501	737.031	79.997	19.994	100.036	20.318	4.764	0.523
1308.001	737.279	79.997	19.995	100.036	20.318	4.756	0.515
1308.501	737.510	79.998	19.993	100.036	20.319	4.699	0.495
1309.001	737.795	79.995	19.994	100.035	20.319	4.717	0.498
1309.500	738.048	79.997	19.994	100.034	20.321	4.591	0.526
1310.000	738.289	79.996	19.995	100.034	20.320	4.608	0.516
1310.500	738.553	79.995	19.994	100.034	20.319	4.678	0.500
1311.000	738.785	79.997	19.994	100.033	20.320	4.654	0.501
1311.500	739.025	79.995	19.994	100.035	20.320	4.630	0.484
1312.000	739.280	79.994	19.994	100.036	20.320	4.632	0.484
1312.500	739.569	79.995	19.994	100.036	20.323	4.423	0.519
1313.000	739.869	79.996	19.996	100.036	20.315	4.956	0.566
1313.500	740.100	79.993	19.993	100.038	20.318	4.760	0.560
1314.000	740.346	79.995	19.996	100.035	20.322	4.494	0.504
1314.500	740.588	79.997	19.995	100.034	20.319	4.691	0.483
1315.000	740.879	79.997	19.994	100.032	20.320	4.628	0.510
1315.500	741.123	79.994	19.994	100.029	20.316	4.896	0.534
1316.000	741.410	79.995	19.993	100.029	20.318	4.792	0.533
1316.501	741.641	79.992	19.995	100.032	20.319	4.669	0.524
1317.000	741.905	79.995	19.994	100.033	20.314	5.075	0.507
1317.500	742.148	79.997	19.995	100.036	20.317	4.850	0.501
1318.001	742.396	79.996	19.994	100.038	20.317	4.870	0.499
1318.500	742.679	79.995	19.993	100.034	20.315	4.947	0.511
1319.000	742.952	79.996	19.995	100.032	20.320	4.621	0.544
1319.501	743.215	79.995	19.995	100.033	20.317	4.837	0.546
1320.001	743.463	79.996	19.994	100.033	20.319	4.688	0.523
