Sample ID:	C:\MCC\PMMA_MCC_30K_min_210920_R3.txt
Sample Weight (mg):	4.62
Heating Rate (C/s):	0.5
Combustor Temp (C):	900
N2 Flow Rate (cc/min):	80
O2 Flow Rate (cc/min):	20
Calibration File:	C:\MCC\MCC Cal\Coeff1 JN10440_30_210304.txt.txt
T Correction Coefficients:	0	1.024463	0
Time Shift (s):	14
*
Time (s)	Temperature (C)	N2 flow rate (cc/min)	O2 flow rate (cc/min)	Flow Rate (cc/min)	Oxygen (%)	HRR (W/g)	Heating rate (C/s)
0.001	108.050	79.995	19.995	100.075	20.330	-0.289	-0.027
0.501	108.044	79.995	19.995	100.075	20.328	-0.173	-0.029
1.000	108.090	79.995	19.995	100.076	20.330	-0.284	0.012
1.500	108.094	79.995	19.994	100.079	20.331	-0.359	0.045
2.000	108.082	79.994	19.995	100.081	20.329	-0.205	0.021
2.500	108.099	79.996	19.997	100.087	20.329	-0.195	-0.001
3.000	108.047	79.995	19.995	100.092	20.331	-0.367	-0.015
3.500	108.042	79.995	19.996	100.095	20.332	-0.406	-0.046
4.000	108.070	79.996	19.995	100.094	20.327	-0.090	-0.018
4.500	108.058	79.997	19.996	100.091	20.330	-0.280	0.020
5.000	108.065	79.995	19.995	100.085	20.325	0.037	0.006
5.500	108.089	79.995	19.995	100.080	20.329	-0.210	0.013
6.000	108.059	79.995	19.995	100.077	20.326	-0.017	0.012
6.500	108.043	79.997	19.995	100.076	20.325	0.085	-0.026
7.001	108.071	79.995	19.995	100.076	20.325	0.053	-0.017
7.501	108.070	79.996	19.994	100.076	20.330	-0.269	0.019
8.001	108.044	79.996	19.995	100.081	20.332	-0.454	-0.000
8.501	108.073	79.995	19.994	100.085	20.330	-0.275	-0.012
9.001	108.074	79.996	19.995	100.089	20.332	-0.397	0.017
9.501	108.050	79.996	19.995	100.095	20.327	-0.065	0.004
10.001	108.075	79.996	19.995	100.097	20.327	-0.057	-0.011
10.501	108.040	79.996	19.994	100.096	20.329	-0.205	-0.005
11.001	108.058	79.996	19.995	100.097	20.328	-0.173	-0.013
11.501	108.064	79.995	19.995	100.099	20.327	-0.065	0.004
12.001	108.041	79.996	19.995	100.099	20.325	0.048	0.003
12.501	108.035	79.996	19.995	100.101	20.328	-0.138	-0.024
13.001	108.047	79.995	19.995	100.101	20.326	-0.041	-0.012
13.501	108.026	79.996	19.995	100.105	20.324	0.133	-0.001
14.001	108.060	79.996	19.994	100.106	20.324	0.142	0.003
14.501	108.037	79.996	19.995	100.108	20.320	0.378	0.012
15.000	108.032	79.995	19.994	100.115	20.322	0.244	-0.009
15.500	108.048	79.995	19.995	100.127	20.324	0.124	-0.009
16.000	108.034	79.996	19.995	100.135	20.322	0.262	0.007
16.500	108.054	79.994	19.994	100.143	20.322	0.238	0.004
17.000	108.045	79.995	19.996	100.152	20.320	0.358	0.009
17.500	108.075	79.995	19.994	100.161	20.319	0.459	0.015
18.000	108.082	79.993	19.994	100.169	20.322	0.286	0.028
18.500	108.096	79.994	19.995	100.177	20.317	0.613	0.029
19.000	108.072	79.994	19.997	100.185	20.317	0.600	0.006
19.500	108.095	79.995	19.995	100.192	20.314	0.819	-0.006
20.000	108.115	79.994	19.995	100.194	20.316	0.686	0.021
20.500	108.113	79.993	19.995	100.194	20.315	0.740	0.031
21.000	108.160	79.994	19.996	100.199	20.311	0.987	0.031
21.500	108.156	79.994	19.996	100.204	20.310	1.087	0.044
22.000	108.204	79.993	19.996	100.207	20.310	1.076	0.044
22.500	108.226	79.994	19.996	100.209	20.311	0.979	0.057
23.000	108.255	79.994	19.996	100.209	20.309	1.160	0.060
23.500	108.243	79.994	19.996	100.206	20.307	1.297	0.034
24.000	108.317	79.993	19.996	100.208	20.307	1.237	0.040
24.500	108.294	79.994	19.996	100.208	20.308	1.195	0.057
25.000	108.312	79.994	19.997	100.210	20.307	1.250	0.023
25.500	108.364	79.993	19.995	100.213	20.308	1.230	0.033
26.000	108.414	79.995	19.996	100.216	20.306	1.342	0.087
26.500	108.441	79.996	19.995	100.215	20.306	1.344	0.089
27.000	108.427	79.996	19.995	100.212	20.308	1.206	0.044
27.500	108.503	79.995	19.995	100.208	20.303	1.531	0.037
28.000	108.559	79.994	19.996	100.205	20.308	1.195	0.097
28.500	108.561	79.994	19.995	100.207	20.303	1.519	0.095
29.000	108.616	79.995	19.995	100.203	20.304	1.501	0.058
29.500	108.663	79.995	19.996	100.185	20.302	1.625	0.080
30.000	108.663	79.994	19.996	100.171	20.306	1.353	0.075
30.500	108.720	79.995	19.997	100.162	20.304	1.466	0.052
31.000	108.773	79.995	19.995	100.147	20.305	1.424	0.083
31.500	108.809	79.997	19.996	100.143	20.306	1.370	0.099
32.000	108.842	79.996	19.996	100.162	20.304	1.492	0.080
32.500	108.892	79.997	19.995	100.214	20.301	1.667	0.076
33.001	108.971	79.997	19.995	100.251	20.302	1.618	0.106
33.501	108.982	79.996	19.997	100.275	20.302	1.627	0.109
34.000	109.031	79.998	19.996	100.290	20.297	1.930	0.075
34.500	109.105	79.997	19.996	100.302	20.301	1.710	0.092
35.001	109.137	79.997	19.995	100.279	20.302	1.614	0.115
35.501	109.194	79.997	19.996	100.264	20.298	1.904	0.097
36.001	109.256	79.996	19.994	100.262	20.300	1.741	0.104
36.501	109.324	79.998	19.995	100.260	20.301	1.656	0.125
37.001	109.368	79.997	19.996	100.261	20.299	1.830	0.121
37.500	109.440	79.998	19.994	100.259	20.297	1.933	0.114
38.001	109.475	79.998	19.995	100.255	20.299	1.806	0.111
38.501	109.559	79.999	19.994	100.256	20.297	1.944	0.113
39.001	109.593	79.997	19.995	100.257	20.298	1.876	0.119
39.500	109.691	79.997	19.994	100.254	20.297	1.937	0.126
40.000	109.730	79.998	19.994	100.254	20.295	2.072	0.135
40.500	109.803	79.998	19.995	100.254	20.295	2.072	0.124
41.000	109.895	79.998	19.995	100.253	20.293	2.205	0.138
41.500	109.935	79.998	19.994	100.256	20.290	2.395	0.149
42.000	110.008	79.996	19.994	100.259	20.292	2.277	0.123
42.500	110.101	79.997	19.994	100.261	20.293	2.205	0.139
43.000	110.183	79.997	19.994	100.266	20.293	2.249	0.170
43.500	110.269	79.996	19.994	100.271	20.295	2.090	0.171
44.000	110.344	79.997	19.995	100.273	20.292	2.299	0.164
44.500	110.423	79.998	19.995	100.273	20.295	2.096	0.158
45.000	110.515	79.997	19.994	100.274	20.291	2.325	0.163
45.501	110.613	79.996	19.994	100.274	20.294	2.183	0.180
46.001	110.667	79.997	19.996	100.272	20.293	2.224	0.171
46.500	110.759	79.997	19.995	100.271	20.293	2.220	0.149
47.001	110.838	79.998	19.995	100.271	20.294	2.172	0.159
47.501	110.949	79.998	19.995	100.271	20.293	2.254	0.181
48.001	111.039	79.997	19.994	100.271	20.292	2.285	0.196
48.502	111.158	79.997	19.995	100.270	20.290	2.403	0.204
49.002	111.211	79.997	19.996	100.270	20.290	2.403	0.190
49.502	111.326	79.997	19.994	100.270	20.293	2.252	0.170
50.002	111.407	79.998	19.994	100.270	20.289	2.475	0.182
50.501	111.494	79.997	19.995	100.273	20.288	2.547	0.182
51.000	111.613	79.996	19.995	100.276	20.290	2.414	0.187
51.500	111.738	79.998	19.995	100.279	20.289	2.518	0.225
52.000	111.777	79.998	19.994	100.280	20.291	2.376	0.204
52.500	111.894	79.997	19.995	100.283	20.291	2.385	0.160
53.000	112.017	79.997	19.994	100.280	20.291	2.364	0.198
53.500	112.124	79.996	19.994	100.277	20.291	2.379	0.235
54.000	112.238	79.997	19.995	100.278	20.292	2.316	0.225
54.500	112.312	79.997	19.996	100.281	20.291	2.342	0.204
55.000	112.405	79.998	19.996	100.284	20.291	2.383	0.178
55.500	112.531	79.997	19.995	100.290	20.292	2.272	0.193
56.000	112.649	79.998	19.995	100.298	20.291	2.388	0.232
56.500	112.743	79.999	19.995	100.301	20.292	2.311	0.228
57.000	112.838	79.999	19.994	100.304	20.291	2.374	0.201
57.500	112.989	79.998	19.996	100.305	20.288	2.588	0.218
58.000	113.103	79.998	19.995	100.306	20.291	2.378	0.256
58.500	113.238	79.998	19.995	100.306	20.292	2.289	0.257
59.000	113.338	79.999	19.995	100.306	20.289	2.514	0.242
59.500	113.489	79.998	19.995	100.306	20.290	2.405	0.243
60.000	113.612	79.999	19.994	100.307	20.292	2.318	0.263
60.501	113.712	80.000	19.995	100.307	20.290	2.453	0.249
61.001	113.835	79.999	19.994	100.307	20.290	2.440	0.223
61.500	113.949	79.999	19.994	100.307	20.289	2.509	0.230
62.000	114.053	79.998	19.994	100.308	20.291	2.331	0.227
62.500	114.215	79.999	19.994	100.307	20.289	2.461	0.242
63.000	114.300	80.000	19.995	100.308	20.288	2.592	0.256
63.500	114.479	79.999	19.995	100.308	20.287	2.616	0.255
64.001	114.604	79.999	19.994	100.308	20.287	2.651	0.285
64.501	114.743	79.998	19.994	100.308	20.288	2.581	0.284
65.000	114.855	79.999	19.994	100.308	20.285	2.789	0.257
65.500	114.979	79.999	19.994	100.307	20.285	2.789	0.243
66.000	115.118	79.998	19.993	100.307	20.288	2.551	0.249
66.500	115.264	80.000	19.995	100.307	20.287	2.651	0.274
67.000	115.388	79.997	19.994	100.308	20.286	2.677	0.278
67.501	115.565	79.998	19.993	100.309	20.285	2.730	0.286
68.001	115.721	79.998	19.992	100.314	20.286	2.725	0.317
68.501	115.803	79.998	19.995	100.315	20.285	2.780	0.286
69.000	115.972	79.998	19.994	100.315	20.285	2.779	0.245
69.500	116.099	79.998	19.994	100.316	20.285	2.738	0.274
70.000	116.240	79.998	19.994	100.315	20.284	2.832	0.282
70.500	116.411	79.996	19.994	100.311	20.283	2.884	0.290
71.000	116.571	79.996	19.994	100.310	20.285	2.768	0.321
71.500	116.699	79.995	19.995	100.310	20.284	2.801	0.309
72.000	116.864	79.996	19.995	100.310	20.284	2.842	0.290
72.500	117.002	79.996	19.995	100.310	20.285	2.788	0.299
73.000	117.171	79.996	19.995	100.311	20.286	2.705	0.305
73.500	117.309	79.995	19.996	100.311	20.286	2.721	0.307
74.001	117.465	79.995	19.996	100.311	20.288	2.566	0.300
74.501	117.610	79.996	19.994	100.312	20.285	2.757	0.298
75.000	117.759	79.995	19.995	100.312	20.285	2.742	0.297
75.500	117.932	79.996	19.993	100.312	20.287	2.626	0.308
76.000	118.060	79.996	19.995	100.313	20.288	2.576	0.312
76.500	118.213	79.995	19.994	100.313	20.286	2.711	0.292
77.000	118.391	79.995	19.994	100.313	20.288	2.528	0.306
77.500	118.565	79.996	19.994	100.314	20.282	2.986	0.341
78.000	118.710	79.996	19.994	100.315	20.284	2.831	0.336
78.501	118.879	79.995	19.994	100.315	20.283	2.917	0.317
79.000	118.994	79.995	19.994	100.321	20.282	2.960	0.299
79.500	119.211	79.995	19.994	100.322	20.283	2.916	0.308
80.000	119.361	79.995	19.995	100.324	20.282	2.951	0.350
80.500	119.489	79.996	19.993	100.326	20.279	3.176	0.322
81.000	119.639	79.996	19.994	100.327	20.282	2.945	0.278
81.500	119.819	79.995	19.995	100.327	20.282	2.960	0.304
82.000	119.977	79.996	19.993	100.329	20.279	3.165	0.333
82.500	120.152	79.995	19.995	100.328	20.281	3.017	0.335
83.000	120.317	79.995	19.994	100.326	20.281	3.045	0.336
83.500	120.465	79.995	19.993	100.325	20.279	3.145	0.327
84.000	120.661	79.995	19.994	100.324	20.281	3.066	0.329
84.500	120.821	79.995	19.994	100.325	20.280	3.073	0.350
85.000	121.000	79.994	19.994	100.330	20.279	3.184	0.347
85.500	121.179	79.997	19.994	100.337	20.283	2.918	0.349
86.000	121.315	79.996	19.994	100.344	20.277	3.273	0.337
86.500	121.549	79.996	19.994	100.346	20.277	3.310	0.342
87.000	121.719	79.995	19.996	100.347	20.281	3.008	0.386
87.500	121.902	79.995	19.995	100.344	20.280	3.099	0.378
88.000	122.066	79.996	19.995	100.343	20.275	3.426	0.350
88.500	122.262	79.996	19.996	100.341	20.278	3.222	0.354
89.000	122.472	79.996	19.995	100.335	20.278	3.213	0.383
89.500	122.633	79.996	19.995	100.333	20.279	3.191	0.388
90.000	122.832	79.995	19.996	100.333	20.281	3.051	0.365
90.500	122.980	79.996	19.995	100.330	20.278	3.254	0.353
91.000	123.193	79.994	19.995	100.329	20.277	3.326	0.354
91.500	123.354	79.996	19.994	100.334	20.278	3.224	0.368
92.000	123.518	79.996	19.994	100.335	20.277	3.289	0.349
92.500	123.684	79.996	19.994	100.336	20.282	2.938	0.327
93.000	123.889	79.995	19.994	100.338	20.278	3.236	0.350
93.500	124.096	79.996	19.995	100.340	20.278	3.210	0.392
94.000	124.267	79.996	19.995	100.341	20.278	3.226	0.395
94.500	124.473	79.996	19.994	100.343	20.280	3.099	0.378
95.001	124.667	79.996	19.994	100.344	20.278	3.271	0.389
95.501	124.854	79.995	19.995	100.345	20.274	3.490	0.390
96.001	125.057	79.995	19.995	100.344	20.280	3.102	0.386
96.501	125.208	79.996	19.995	100.345	20.275	3.461	0.372
97.001	125.421	79.997	19.995	100.345	20.272	3.649	0.359
97.500	125.604	79.996	19.994	100.344	20.271	3.690	0.380
98.000	125.793	79.997	19.994	100.341	20.270	3.810	0.384
98.500	125.994	79.994	19.995	100.337	20.272	3.633	0.381
99.000	126.197	79.996	19.995	100.335	20.266	4.043	0.397
99.500	126.337	79.996	19.995	100.332	20.270	3.768	0.373
100.000	126.566	79.996	19.994	100.330	20.270	3.762	0.355
100.500	126.753	79.996	19.996	100.329	20.271	3.683	0.392
101.000	126.947	79.995	19.994	100.334	20.268	3.929	0.399
101.500	127.176	79.996	19.994	100.336	20.270	3.748	0.402
102.000	127.355	79.996	19.995	100.340	20.266	4.042	0.416
102.500	127.562	79.995	19.995	100.341	20.266	4.051	0.397
103.000	127.777	79.995	19.995	100.343	20.269	3.866	0.404
103.500	127.961	79.995	19.994	100.343	20.268	3.918	0.411
104.000	128.170	79.994	19.995	100.343	20.269	3.827	0.396
104.500	128.357	79.996	19.995	100.342	20.268	3.892	0.394
105.000	128.560	79.997	19.994	100.345	20.267	3.977	0.393
105.500	128.813	79.998	19.995	100.347	20.265	4.108	0.423
106.000	128.991	79.995	19.995	100.343	20.265	4.141	0.443
106.500	129.218	79.995	19.995	100.338	20.263	4.257	0.418
107.000	129.392	79.995	19.995	100.334	20.265	4.115	0.403
107.500	129.637	79.996	19.994	100.334	20.264	4.165	0.410
108.000	129.798	79.995	19.995	100.334	20.263	4.256	0.413
108.500	130.005	79.997	19.995	100.335	20.260	4.459	0.387
109.000	130.194	79.995	19.996	100.336	20.261	4.372	0.382
109.500	130.435	79.997	19.995	100.339	20.262	4.329	0.413
110.000	130.614	79.996	19.997	100.339	20.265	4.139	0.425
110.500	130.814	79.996	19.996	100.339	20.260	4.433	0.399
111.000	131.034	79.995	19.995	100.342	20.262	4.339	0.400
111.500	131.214	79.996	19.995	100.347	20.260	4.439	0.410
112.000	131.457	79.998	19.995	100.348	20.259	4.505	0.412
112.500	131.671	79.996	19.996	100.349	20.261	4.404	0.440
113.000	131.892	79.998	19.995	100.349	20.261	4.357	0.446
113.500	132.106	79.996	19.996	100.349	20.263	4.232	0.435
114.000	132.275	79.997	19.996	100.347	20.261	4.420	0.409
114.500	132.526	79.998	19.996	100.346	20.261	4.391	0.402
115.000	132.725	79.997	19.996	100.345	20.261	4.415	0.435
115.500	132.929	79.996	19.995	100.344	20.259	4.500	0.426
116.000	133.161	79.996	19.996	100.342	20.262	4.329	0.420
116.500	133.384	79.997	19.995	100.344	20.260	4.442	0.445
117.000	133.593	79.998	19.995	100.344	20.258	4.586	0.444
117.500	133.810	79.997	19.996	100.343	20.259	4.527	0.429
118.000	134.044	79.997	19.995	100.342	20.257	4.636	0.438
118.500	134.274	79.997	19.995	100.341	20.258	4.570	0.457
119.000	134.504	79.997	19.996	100.340	20.258	4.571	0.462
119.500	134.708	79.997	19.995	100.340	20.258	4.608	0.447
120.000	134.926	79.997	19.995	100.340	20.254	4.851	0.428
120.500	135.092	79.996	19.994	100.342	20.252	5.017	0.403
121.000	135.329	79.997	19.996	100.344	20.254	4.836	0.393
121.500	135.581	79.996	19.995	100.344	20.252	5.032	0.446
122.000	135.776	79.996	19.996	100.345	20.251	5.068	0.468
122.500	135.999	79.995	19.995	100.346	20.253	4.909	0.433
123.000	136.211	79.997	19.996	100.346	20.250	5.114	0.427
123.500	136.439	79.995	19.996	100.347	20.249	5.205	0.437
124.001	136.703	79.997	19.996	100.347	20.254	4.860	0.466
124.501	136.874	79.998	19.995	100.348	20.249	5.196	0.464
125.001	137.108	79.997	19.995	100.348	20.249	5.170	0.420
125.500	137.357	79.996	19.994	100.345	20.251	5.039	0.444
126.000	137.618	79.997	19.995	100.344	20.248	5.297	0.496
126.501	137.803	79.997	19.993	100.344	20.249	5.221	0.478
127.001	138.082	79.997	19.995	100.342	20.249	5.195	0.455
127.501	138.298	79.996	19.995	100.339	20.247	5.311	0.479
128.001	138.530	79.995	19.994	100.342	20.247	5.311	0.472
128.500	138.757	79.998	19.994	100.343	20.247	5.350	0.454
129.000	138.975	79.998	19.995	100.341	20.244	5.551	0.452
129.500	139.198	79.997	19.994	100.340	20.245	5.446	0.442
130.000	139.463	79.996	19.993	100.340	20.245	5.507	0.464
130.500	139.667	79.996	19.993	100.340	20.242	5.688	0.479
131.000	139.906	79.996	19.995	100.341	20.239	5.884	0.457
131.501	140.114	79.997	19.993	100.343	20.239	5.904	0.445
132.001	140.377	79.995	19.994	100.342	20.239	5.897	0.459
132.500	140.617	79.997	19.994	100.338	20.238	5.938	0.487
133.000	140.840	79.996	19.994	100.335	20.238	5.955	0.483
133.500	141.106	79.996	19.994	100.335	20.240	5.792	0.476
134.000	141.294	79.997	19.994	100.331	20.236	6.056	0.471
134.500	141.531	79.996	19.994	100.333	20.234	6.187	0.439
135.000	141.759	79.996	19.994	100.340	20.237	6.008	0.444
135.500	141.996	79.997	19.993	100.344	20.235	6.137	0.465
136.000	142.206	79.997	19.993	100.346	20.237	6.019	0.456
136.500	142.464	79.996	19.994	100.350	20.234	6.195	0.457
137.000	142.700	79.998	19.993	100.353	20.235	6.180	0.481
137.500	142.952	79.997	19.994	100.354	20.233	6.265	0.491
138.000	143.201	79.999	19.994	100.353	20.236	6.088	0.495
138.500	143.423	79.997	19.994	100.352	20.234	6.246	0.486
139.000	143.675	79.997	19.993	100.352	20.234	6.191	0.473
139.500	143.909	79.998	19.994	100.352	20.232	6.322	0.480
140.000	144.147	79.999	19.993	100.351	20.230	6.500	0.479
140.501	144.403	79.996	19.993	100.352	20.232	6.363	0.482
141.001	144.654	79.997	19.995	100.352	20.233	6.306	0.501
141.500	144.902	79.997	19.994	100.351	20.232	6.381	0.504
142.000	145.109	79.998	19.993	100.352	20.233	6.258	0.477
142.500	145.394	79.998	19.993	100.353	20.233	6.278	0.473
143.000	145.611	79.998	19.994	100.354	20.233	6.311	0.497
143.500	145.856	79.997	19.993	100.355	20.234	6.252	0.483
144.000	146.084	79.998	19.994	100.356	20.233	6.305	0.468
144.500	146.321	79.998	19.994	100.355	20.233	6.289	0.469
145.000	146.581	79.997	19.994	100.355	20.233	6.265	0.481
145.500	146.781	79.998	19.994	100.354	20.232	6.361	0.478
146.000	147.046	79.998	19.993	100.352	20.233	6.254	0.462
146.500	147.249	79.998	19.993	100.351	20.232	6.385	0.466
147.000	147.498	79.997	19.994	100.351	20.231	6.400	0.460
147.500	147.746	79.997	19.993	100.352	20.226	6.741	0.475
148.000	148.025	79.998	19.993	100.352	20.227	6.712	0.512
148.500	148.226	79.997	19.993	100.353	20.227	6.673	0.503
149.000	148.516	79.996	19.994	100.353	20.224	6.869	0.485
149.500	148.784	79.997	19.995	100.353	20.226	6.788	0.525
150.000	149.022	79.997	19.994	100.352	20.225	6.841	0.532
150.500	149.251	79.996	19.994	100.353	20.224	6.869	0.486
151.000	149.509	79.996	19.994	100.354	20.220	7.198	0.477
151.500	149.745	79.995	19.994	100.355	20.222	7.031	0.491
152.000	149.966	79.994	19.994	100.354	20.221	7.098	0.476
152.500	150.216	79.996	19.994	100.355	20.218	7.270	0.464
153.000	150.485	79.996	19.993	100.354	20.217	7.351	0.495
153.500	150.701	79.995	19.994	100.352	20.216	7.441	0.502
154.000	151.005	79.994	19.995	100.350	20.220	7.160	0.502
154.500	151.219	79.995	19.994	100.350	20.214	7.548	0.519
155.000	151.474	79.995	19.994	100.350	20.215	7.500	0.493
155.500	151.724	79.997	19.994	100.350	20.213	7.620	0.487
156.000	151.961	79.996	19.993	100.350	20.209	7.912	0.496
156.500	152.190	79.995	19.994	100.350	20.209	7.929	0.477
157.000	152.456	79.996	19.993	100.350	20.206	8.121	0.480
157.500	152.751	79.997	19.994	100.349	20.206	8.141	0.528
158.000	152.965	79.995	19.994	100.350	20.203	8.321	0.535
158.500	153.194	79.996	19.994	100.349	20.199	8.580	0.476
159.000	153.476	79.996	19.995	100.349	20.203	8.330	0.477
159.500	153.722	79.995	19.994	100.349	20.203	8.305	0.520
160.000	153.981	79.995	19.993	100.349	20.200	8.531	0.517
160.500	154.193	79.997	19.994	100.348	20.199	8.607	0.488
161.000	154.431	79.997	19.994	100.348	20.198	8.634	0.460
161.500	154.654	79.997	19.994	100.348	20.194	8.895	0.455
162.000	154.914	79.995	19.994	100.348	20.195	8.885	0.472
162.500	155.193	79.996	19.994	100.348	20.191	9.118	0.511
163.000	155.400	79.996	19.993	100.348	20.190	9.205	0.513
163.500	155.650	79.995	19.993	100.346	20.192	9.061	0.472
164.001	155.910	79.996	19.994	100.342	20.191	9.122	0.484
164.501	156.160	79.997	19.994	100.340	20.187	9.434	0.510
165.001	156.424	79.996	19.994	100.339	20.185	9.549	0.512
165.501	156.642	79.996	19.994	100.339	20.186	9.460	0.498
166.000	156.879	79.996	19.994	100.341	20.184	9.626	0.468
166.500	157.133	79.997	19.993	100.341	20.184	9.610	0.473
167.000	157.385	79.997	19.994	100.341	20.183	9.692	0.499
167.500	157.650	79.996	19.994	100.340	20.185	9.559	0.512
168.000	157.917	79.998	19.994	100.335	20.180	9.869	0.525
168.501	158.144	79.997	19.995	100.329	20.179	9.967	0.513
169.001	158.414	79.997	19.994	100.325	20.181	9.791	0.495
169.501	158.637	79.997	19.994	100.325	20.182	9.712	0.495
170.000	158.889	79.998	19.993	100.322	20.176	10.130	0.484
170.500	159.107	79.996	19.994	100.327	20.178	10.008	0.472
171.000	159.333	79.997	19.994	100.331	20.177	10.108	0.457
171.500	159.594	79.999	19.993	100.334	20.171	10.478	0.466
172.000	159.860	79.997	19.994	100.333	20.175	10.184	0.507
172.500	160.124	79.998	19.994	100.335	20.169	10.643	0.528
173.000	160.338	79.997	19.995	100.332	20.171	10.501	0.504
173.500	160.590	79.997	19.994	100.330	20.170	10.523	0.472
174.000	160.872	79.998	19.994	100.333	20.172	10.440	0.500
174.500	161.123	79.996	19.995	100.332	20.171	10.455	0.533
175.000	161.389	79.996	19.994	100.330	20.166	10.794	0.524
175.500	161.589	79.997	19.994	100.332	20.166	10.797	0.492
176.000	161.853	79.997	19.994	100.334	20.164	10.926	0.465
176.500	162.097	79.996	19.994	100.331	20.161	11.155	0.486
177.000	162.300	79.995	19.995	100.332	20.163	11.053	0.478
177.500	162.623	79.996	19.995	100.334	20.161	11.140	0.486
178.000	162.847	79.996	19.996	100.327	20.159	11.284	0.536
178.500	163.093	79.996	19.995	100.322	20.161	11.153	0.508
179.000	163.318	79.995	19.996	100.321	20.161	11.158	0.470
179.500	163.555	79.997	19.995	100.319	20.160	11.213	0.466
180.000	163.827	79.996	19.996	100.318	20.158	11.378	0.486
180.501	164.111	79.995	19.995	100.323	20.158	11.394	0.533
181.001	164.372	79.995	19.995	100.323	20.159	11.313	0.550
181.500	164.636	79.996	19.995	100.322	20.157	11.424	0.535
182.001	164.895	79.995	19.995	100.327	20.157	11.439	0.524
182.502	165.159	79.995	19.995	100.330	20.156	11.482	0.523
183.001	165.374	79.996	19.995	100.328	20.158	11.359	0.501
183.500	165.630	79.995	19.996	100.335	20.153	11.690	0.475
184.000	165.873	79.995	19.995	100.339	20.152	11.782	0.485
184.500	166.166	79.995	19.995	100.338	20.150	11.897	0.517
185.000	166.432	79.994	19.997	100.337	20.154	11.622	0.547
185.500	166.648	79.995	19.995	100.338	20.151	11.840	0.520
186.000	166.902	79.994	19.996	100.332	20.155	11.600	0.476
186.500	167.156	79.995	19.994	100.326	20.150	11.917	0.489
187.000	167.417	79.995	19.995	100.322	20.151	11.838	0.512
187.500	167.654	79.997	19.995	100.322	20.152	11.785	0.507
188.000	167.916	79.996	19.996	100.321	20.151	11.848	0.498
188.500	168.161	79.995	19.994	100.322	20.152	11.802	0.503
189.001	168.390	79.996	19.995	100.322	20.151	11.850	0.491
189.501	168.653	79.995	19.995	100.320	20.152	11.763	0.483
190.000	168.903	79.997	19.994	100.317	20.149	11.970	0.503
190.500	169.144	79.996	19.995	100.313	20.153	11.689	0.502
191.000	169.398	79.994	19.996	100.312	20.153	11.736	0.493
191.500	169.657	79.995	19.995	100.315	20.150	11.933	0.504
192.000	169.875	79.997	19.995	100.317	20.152	11.773	0.495
192.500	170.144	79.996	19.994	100.318	20.149	11.987	0.482
193.000	170.390	79.996	19.993	100.319	20.148	12.063	0.501
193.500	170.659	79.997	19.994	100.318	20.151	11.869	0.515
194.000	170.884	79.998	19.995	100.315	20.148	12.013	0.504
194.500	171.175	79.997	19.995	100.313	20.148	12.014	0.505
195.000	171.443	79.998	19.995	100.315	20.147	12.129	0.537
195.500	171.630	79.998	19.995	100.316	20.149	11.952	0.507
196.000	171.916	79.996	19.994	100.319	20.146	12.199	0.464
196.500	172.161	79.997	19.994	100.320	20.147	12.109	0.502
197.000	172.404	79.997	19.995	100.319	20.148	12.066	0.509
197.500	172.691	79.997	19.995	100.317	20.146	12.190	0.508
198.000	172.893	79.997	19.995	100.314	20.144	12.347	0.509
198.500	173.161	79.998	19.995	100.309	20.147	12.099	0.480
199.000	173.414	79.997	19.994	100.308	20.145	12.217	0.496
199.500	173.683	79.995	19.995	100.308	20.148	12.068	0.522
200.001	173.913	79.999	19.995	100.308	20.148	12.009	0.511
200.501	174.170	79.999	19.994	100.308	20.146	12.157	0.493
201.000	174.441	79.996	19.994	100.309	20.147	12.124	0.508
201.500	174.690	79.997	19.995	100.309	20.148	12.057	0.524
202.000	174.906	79.997	19.993	100.309	20.148	12.011	0.492
202.500	175.150	79.997	19.994	100.310	20.148	12.037	0.463
203.000	175.413	79.997	19.994	100.311	20.147	12.118	0.483
203.500	175.665	79.997	19.995	100.312	20.149	11.944	0.511
204.000	175.917	79.997	19.994	100.310	20.150	11.900	0.510
204.500	176.150	79.997	19.995	100.311	20.150	11.881	0.495
205.000	176.398	79.997	19.996	100.310	20.146	12.157	0.483
205.500	176.686	79.996	19.995	100.309	20.149	11.950	0.509
206.000	176.910	79.996	19.996	100.309	20.152	11.741	0.524
206.500	177.170	79.996	19.995	100.310	20.151	11.844	0.498
207.000	177.404	79.996	19.996	100.309	20.149	12.006	0.489
207.500	177.681	79.996	19.995	100.308	20.152	11.772	0.502
208.000	177.916	79.996	19.994	100.307	20.152	11.753	0.511
208.500	178.169	79.996	19.995	100.306	20.153	11.677	0.500
209.000	178.438	79.994	19.995	100.305	20.153	11.725	0.505
209.500	178.649	79.995	19.995	100.305	20.154	11.647	0.501
210.001	178.894	79.995	19.995	100.306	20.154	11.640	0.468
210.501	179.184	79.995	19.995	100.309	20.153	11.713	0.496
211.001	179.371	79.996	19.996	100.310	20.155	11.567	0.506
211.501	179.633	79.995	19.995	100.310	20.156	11.507	0.463
212.000	179.902	79.996	19.995	100.310	20.157	11.428	0.490
212.500	180.145	79.997	19.995	100.311	20.154	11.631	0.521
213.000	180.411	79.995	19.995	100.310	20.156	11.503	0.510
213.500	180.646	79.996	19.995	100.309	20.156	11.505	0.505
214.000	180.901	79.997	19.996	100.308	20.156	11.472	0.496
214.500	181.140	79.997	19.994	100.308	20.158	11.368	0.492
215.001	181.391	79.997	19.995	100.308	20.157	11.426	0.492
215.501	181.661	79.997	19.994	100.308	20.157	11.437	0.505
216.000	181.901	79.997	19.994	100.309	20.157	11.403	0.516
216.500	182.175	79.997	19.995	100.309	20.158	11.347	0.512
217.000	182.388	79.998	19.995	100.306	20.163	11.046	0.500
217.500	182.647	79.998	19.995	100.303	20.162	11.118	0.480
218.000	182.875	79.998	19.994	100.302	20.162	11.088	0.480
218.500	183.136	79.998	19.994	100.302	20.159	11.277	0.488
219.000	183.347	79.998	19.994	100.300	20.160	11.222	0.481
219.500	183.610	79.998	19.994	100.297	20.162	11.078	0.473
220.000	183.866	79.998	19.994	100.296	20.165	10.888	0.497
220.500	184.110	79.998	19.995	100.293	20.165	10.887	0.509
221.000	184.385	79.998	19.994	100.286	20.164	10.942	0.509
221.500	184.626	79.998	19.994	100.287	20.160	11.200	0.517
222.000	184.865	79.998	19.993	100.291	20.163	11.003	0.498
222.500	185.126	80.000	19.995	100.294	20.163	11.030	0.490
223.000	185.399	79.998	19.994	100.297	20.164	10.929	0.517
223.500	185.634	79.999	19.994	100.298	20.166	10.837	0.521
224.001	185.914	79.998	19.994	100.297	20.164	10.968	0.511
224.501	186.144	80.000	19.995	100.297	20.166	10.835	0.512
225.001	186.439	79.999	19.994	100.295	20.166	10.842	0.517
225.500	186.655	80.000	19.994	100.295	20.166	10.833	0.518
226.000	186.961	79.999	19.994	100.299	20.169	10.609	0.517
226.500	187.145	79.999	19.993	100.298	20.169	10.620	0.506
227.000	187.419	79.999	19.993	100.291	20.168	10.677	0.474
227.500	187.676	79.997	19.994	100.287	20.170	10.570	0.494
228.000	187.890	79.998	19.993	100.286	20.167	10.764	0.500
228.500	188.154	79.999	19.994	100.284	20.171	10.463	0.475
229.000	188.412	79.997	19.994	100.284	20.169	10.622	0.500
229.500	188.665	79.997	19.993	100.290	20.170	10.576	0.516
230.000	188.885	79.998	19.993	100.296	20.169	10.628	0.492
230.501	189.176	79.996	19.994	100.295	20.171	10.499	0.492
231.001	189.434	79.997	19.994	100.297	20.173	10.358	0.530
231.500	189.663	79.997	19.995	100.299	20.170	10.521	0.518
232.001	189.899	79.996	19.994	100.297	20.170	10.547	0.476
232.501	190.147	79.996	19.995	100.296	20.173	10.336	0.475
233.000	190.381	79.996	19.994	100.296	20.172	10.447	0.483
233.501	190.625	79.996	19.995	100.297	20.175	10.218	0.480
234.001	190.929	79.996	19.994	100.298	20.175	10.186	0.513
234.501	191.118	79.996	19.995	100.301	20.173	10.377	0.521
235.001	191.379	79.996	19.995	100.300	20.172	10.444	0.472
235.501	191.622	79.997	19.993	100.302	20.170	10.554	0.477
236.001	191.892	79.996	19.994	100.301	20.174	10.292	0.508
236.501	192.107	79.997	19.995	100.301	20.172	10.381	0.499
237.001	192.395	79.996	19.996	100.298	20.175	10.228	0.494
237.501	192.619	79.996	19.994	100.295	20.176	10.149	0.508
238.001	192.856	79.996	19.993	100.294	20.177	10.057	0.486
238.501	193.100	79.995	19.994	100.294	20.177	10.076	0.471
239.000	193.345	79.996	19.994	100.290	20.174	10.249	0.485
239.500	193.624	79.996	19.995	100.292	20.175	10.185	0.506
240.000	193.870	79.996	19.995	100.298	20.177	10.071	0.525
240.500	194.106	79.996	19.995	100.299	20.175	10.205	0.504
241.000	194.394	79.996	19.995	100.300	20.175	10.242	0.503
241.500	194.601	79.994	19.994	100.299	20.177	10.109	0.510
242.000	194.839	79.997	19.994	100.299	20.179	9.943	0.470
242.501	195.098	79.997	19.995	100.299	20.175	10.231	0.471
243.001	195.307	79.996	19.995	100.300	20.174	10.292	0.483
243.500	195.590	79.996	19.995	100.299	20.175	10.225	0.481
244.000	195.815	79.996	19.994	100.299	20.175	10.186	0.500
244.500	196.085	79.995	19.993	100.297	20.173	10.360	0.501
245.000	196.329	79.997	19.995	100.295	20.178	10.040	0.504
245.500	196.571	79.997	19.994	100.288	20.174	10.282	0.500
246.000	196.844	79.997	19.994	100.286	20.175	10.198	0.501
246.500	197.080	79.998	19.994	100.285	20.174	10.279	0.512
247.000	197.304	79.995	19.993	100.285	20.177	10.100	0.485
247.500	197.518	79.996	19.994	100.287	20.176	10.137	0.449
248.000	197.799	79.997	19.994	100.290	20.177	10.085	0.466
248.500	198.041	79.998	19.995	100.296	20.176	10.163	0.509
249.000	198.243	79.997	19.995	100.302	20.176	10.131	0.484
249.500	198.467	79.997	19.994	100.301	20.174	10.248	0.435
250.000	198.776	79.997	19.994	100.300	20.174	10.294	0.479
250.501	198.983	79.997	19.995	100.303	20.177	10.105	0.525
251.001	199.262	79.997	19.995	100.303	20.175	10.212	0.501
251.501	199.498	79.997	19.994	100.302	20.177	10.089	0.500
252.001	199.734	79.998	19.994	100.304	20.174	10.295	0.494
252.501	199.969	79.996	19.995	100.303	20.175	10.214	0.471
253.001	200.202	79.996	19.993	100.299	20.175	10.187	0.469
253.501	200.468	79.996	19.995	100.298	20.174	10.300	0.483
254.001	200.711	79.998	19.994	100.296	20.174	10.250	0.504
254.501	200.947	79.997	19.996	100.297	20.177	10.055	0.494
255.001	201.214	79.998	19.995	100.296	20.174	10.272	0.491
255.500	201.438	79.997	19.995	100.297	20.173	10.376	0.497
256.000	201.693	79.996	19.994	100.295	20.171	10.494	0.485
256.500	201.958	79.998	19.993	100.292	20.173	10.312	0.499
257.000	202.180	79.997	19.994	100.289	20.171	10.455	0.503
257.500	202.416	79.996	19.994	100.286	20.170	10.516	0.472
258.001	202.693	79.995	19.994	100.284	20.171	10.477	0.485
258.501	202.905	79.996	19.993	100.283	20.170	10.522	0.501
259.001	203.144	79.997	19.994	100.286	20.172	10.441	0.470
259.501	203.365	79.996	19.994	100.285	20.174	10.265	0.456
260.001	203.611	79.997	19.993	100.285	20.173	10.325	0.464
260.501	203.849	79.997	19.994	100.287	20.171	10.467	0.475
261.001	204.107	79.997	19.995	100.284	20.170	10.539	0.490
261.501	204.349	79.996	19.994	100.282	20.173	10.313	0.498
262.001	204.605	79.995	19.995	100.282	20.171	10.464	0.499
262.501	204.835	79.996	19.994	100.281	20.172	10.420	0.492
263.000	205.085	79.995	19.993	100.280	20.170	10.560	0.484
263.500	205.372	79.995	19.995	100.283	20.173	10.372	0.509
264.001	205.586	79.996	19.995	100.288	20.171	10.503	0.519
264.502	205.857	79.996	19.994	100.289	20.170	10.565	0.493
265.001	206.082	79.995	19.994	100.290	20.170	10.582	0.490
265.500	206.333	79.994	19.995	100.291	20.171	10.471	0.486
266.001	206.558	79.996	19.995	100.289	20.170	10.523	0.476
266.501	206.820	79.995	19.994	100.288	20.167	10.774	0.482
267.000	207.059	79.996	19.994	100.286	20.166	10.809	0.494
267.500	207.302	79.995	19.996	100.284	20.169	10.601	0.491
268.000	207.539	79.994	19.995	100.284	20.168	10.712	0.481
268.500	207.796	79.995	19.995	100.285	20.168	10.692	0.487
269.000	208.015	79.996	19.995	100.287	20.168	10.682	0.485
269.500	208.301	79.995	19.994	100.292	20.169	10.613	0.490
270.000	208.526	79.995	19.995	100.299	20.166	10.839	0.508
270.500	208.789	79.995	19.995	100.303	20.166	10.844	0.499
271.000	209.032	79.997	19.995	100.300	20.168	10.652	0.497
271.500	209.264	79.996	19.996	100.296	20.166	10.802	0.491
272.000	209.475	79.995	19.994	100.294	20.169	10.632	0.459
272.500	209.724	79.996	19.996	100.291	20.167	10.738	0.451
273.000	209.970	79.996	19.995	100.288	20.167	10.744	0.477
273.500	210.226	79.997	19.996	100.288	20.169	10.635	0.499
274.000	210.502	79.996	19.995	100.288	20.167	10.746	0.517
274.500	210.739	79.996	19.995	100.290	20.170	10.556	0.522
275.000	210.964	79.996	19.995	100.289	20.170	10.566	0.487
275.500	211.195	79.997	19.996	100.294	20.167	10.763	0.459
276.000	211.466	79.996	19.996	100.299	20.167	10.785	0.479
276.500	211.701	79.996	19.995	100.297	20.168	10.685	0.504
277.000	211.947	79.998	19.994	100.298	20.168	10.674	0.493
277.500	212.185	79.998	19.995	100.301	20.166	10.835	0.482
278.000	212.418	79.998	19.994	100.298	20.166	10.818	0.478
278.500	212.682	79.997	19.993	100.292	20.167	10.766	0.484
279.000	212.955	79.998	19.995	100.290	20.168	10.695	0.517
279.500	213.175	79.998	19.994	100.289	20.169	10.640	0.515
280.000	213.410	79.997	19.994	100.288	20.170	10.546	0.474
280.500	213.626	79.996	19.994	100.284	20.167	10.722	0.453
281.000	213.864	79.998	19.995	100.283	20.169	10.649	0.452
281.500	214.156	79.996	19.994	100.284	20.168	10.719	0.492
282.000	214.382	79.998	19.994	100.283	20.166	10.798	0.524
282.500	214.617	79.998	19.994	100.281	20.169	10.640	0.490
283.000	214.905	79.998	19.994	100.286	20.163	11.040	0.492
283.500	215.132	79.997	19.994	100.289	20.168	10.685	0.519
284.000	215.325	79.997	19.995	100.295	20.164	10.985	0.468
284.500	215.623	79.998	19.994	100.298	20.165	10.878	0.455
285.000	215.800	79.997	19.995	100.299	20.166	10.816	0.483
285.500	216.101	79.996	19.995	100.301	20.165	10.889	0.476
286.000	216.284	79.996	19.994	100.305	20.165	10.870	0.481
286.500	216.591	79.997	19.994	100.303	20.164	10.959	0.488
287.000	216.828	79.998	19.993	100.302	20.164	10.928	0.517
287.500	217.088	79.997	19.994	100.297	20.164	10.954	0.520
288.000	217.332	79.998	19.994	100.294	20.160	11.210	0.500
288.500	217.601	79.996	19.993	100.287	20.167	10.774	0.508
289.000	217.849	79.996	19.993	100.283	20.165	10.912	0.515
289.500	218.074	79.996	19.994	100.281	20.163	11.055	0.495
290.000	218.334	79.998	19.996	100.284	20.163	11.011	0.479
290.500	218.567	79.996	19.994	100.288	20.163	10.996	0.489
291.000	218.816	79.998	19.994	100.294	20.163	11.032	0.488
291.500	219.043	79.996	19.994	100.300	20.161	11.185	0.479
292.000	219.272	79.996	19.995	100.303	20.160	11.209	0.466
292.500	219.544	79.996	19.995	100.303	20.163	10.989	0.478
293.000	219.782	79.997	19.995	100.296	20.162	11.092	0.505
293.500	220.067	79.997	19.995	100.289	20.162	11.109	0.516
294.001	220.271	79.996	19.996	100.281	20.157	11.405	0.506
294.501	220.553	79.996	19.995	100.276	20.154	11.617	0.488
295.000	220.804	79.998	19.995	100.271	20.157	11.399	0.510
295.500	220.999	79.997	19.994	100.275	20.155	11.530	0.489
296.000	221.293	79.997	19.994	100.279	20.156	11.476	0.467
296.500	221.502	79.997	19.995	100.283	20.151	11.840	0.496
297.000	221.739	79.996	19.995	100.287	20.157	11.456	0.475
297.500	222.030	79.996	19.996	100.288	20.155	11.553	0.487
298.000	222.250	79.997	19.996	100.288	20.154	11.651	0.519
298.500	222.529	79.996	19.996	100.287	20.156	11.472	0.505
299.000	222.788	79.997	19.995	100.287	20.155	11.550	0.518
299.500	223.014	79.998	19.996	100.282	20.153	11.710	0.512
300.000	223.263	79.999	19.995	100.283	20.150	11.876	0.480
300.500	223.527	79.998	19.995	100.283	20.151	11.853	0.494
301.000	223.726	79.998	19.996	100.284	20.150	11.892	0.488
301.500	223.987	79.999	19.996	100.282	20.150	11.897	0.461
302.000	224.272	79.998	19.995	100.281	20.151	11.834	0.502
302.501	224.488	79.998	19.996	100.278	20.152	11.799	0.523
303.001	224.756	79.999	19.997	100.274	20.150	11.880	0.493
303.500	224.989	79.997	19.996	100.270	20.154	11.646	0.493
304.000	225.261	79.998	19.994	100.269	20.153	11.701	0.503
304.500	225.479	79.998	19.996	100.271	20.148	12.028	0.497
305.000	225.736	79.999	19.994	100.274	20.152	11.757	0.482
305.500	226.018	79.998	19.995	100.276	20.151	11.840	0.507
306.000	226.273	79.998	19.996	100.274	20.152	11.775	0.538
306.500	226.466	79.999	19.995	100.273	20.150	11.884	0.492
307.000	226.706	79.999	19.995	100.271	20.152	11.781	0.440
307.500	226.963	79.999	19.994	100.269	20.153	11.729	0.465
308.000	227.212	79.997	19.995	100.271	20.151	11.849	0.502
308.500	227.450	79.999	19.994	100.276	20.150	11.934	0.497
309.000	227.699	79.998	19.994	100.282	20.151	11.842	0.487
309.500	227.962	79.998	19.996	100.283	20.147	12.095	0.500
310.000	228.218	79.998	19.994	100.286	20.149	11.993	0.515
310.500	228.462	79.999	19.994	100.284	20.153	11.716	0.510
311.000	228.691	79.997	19.995	100.280	20.151	11.851	0.487
311.500	228.979	79.998	19.993	100.275	20.151	11.842	0.495
312.000	229.222	79.997	19.993	100.275	20.151	11.842	0.524
312.500	229.462	79.997	19.994	100.271	20.155	11.572	0.507
313.000	229.733	79.996	19.993	100.269	20.154	11.654	0.497
313.500	229.958	79.997	19.994	100.267	20.154	11.642	0.503
314.000	230.194	79.996	19.994	100.267	20.156	11.482	0.479
314.500	230.452	79.997	19.995	100.268	20.156	11.473	0.477
315.000	230.715	79.997	19.993	100.268	20.154	11.628	0.507
315.500	230.958	79.994	19.994	100.269	20.152	11.781	0.514
316.000	231.209	79.995	19.993	100.270	20.156	11.512	0.500
316.500	231.447	79.997	19.994	100.270	20.157	11.421	0.491
317.000	231.680	79.997	19.994	100.269	20.158	11.393	0.480
317.500	231.928	79.997	19.995	100.270	20.158	11.336	0.476
318.000	232.192	79.996	19.994	100.270	20.160	11.225	0.497
318.500	232.438	79.995	19.994	100.272	20.160	11.209	0.511
319.001	232.680	79.995	19.994	100.273	20.156	11.489	0.498
319.501	232.941	79.997	19.994	100.273	20.157	11.430	0.495
320.000	233.194	79.995	19.993	100.273	20.159	11.302	0.509
320.500	233.417	79.996	19.995	100.273	20.161	11.127	0.495
321.000	233.714	79.996	19.995	100.272	20.161	11.162	0.498
321.500	233.924	79.995	19.994	100.271	20.163	10.996	0.514
322.000	234.187	79.997	19.994	100.271	20.167	10.724	0.490
322.500	234.414	79.996	19.994	100.273	20.162	11.068	0.482
323.000	234.665	79.996	19.994	100.272	20.165	10.859	0.484
323.500	234.936	79.993	19.994	100.272	20.166	10.785	0.500
324.000	235.186	79.996	19.994	100.272	20.168	10.688	0.521
324.500	235.419	79.995	19.995	100.271	20.168	10.654	0.502
325.000	235.678	79.996	19.993	100.270	20.171	10.503	0.488
325.500	235.897	79.995	19.993	100.271	20.170	10.536	0.485
326.000	236.201	79.995	19.994	100.271	20.172	10.436	0.500
326.500	236.429	79.995	19.993	100.273	20.176	10.123	0.527
327.000	236.703	79.995	19.996	100.274	20.179	9.966	0.517
327.500	236.962	79.996	19.994	100.274	20.179	9.933	0.518
328.000	237.173	79.995	19.994	100.274	20.182	9.754	0.502
328.500	237.459	79.996	19.995	100.273	20.183	9.697	0.484
329.000	237.703	79.997	19.995	100.273	20.183	9.679	0.513
329.501	237.959	79.996	19.995	100.271	20.183	9.698	0.515
330.000	238.183	79.996	19.994	100.271	20.186	9.469	0.490
330.500	238.425	79.997	19.994	100.272	20.184	9.613	0.474
331.000	238.675	79.996	19.993	100.269	20.188	9.298	0.479
331.500	238.911	79.997	19.994	100.266	20.189	9.238	0.488
332.000	239.169	79.996	19.996	100.266	20.190	9.190	0.490
332.500	239.413	79.996	19.995	100.267	20.191	9.143	0.498
333.000	239.681	79.996	19.995	100.265	20.190	9.214	0.507
333.500	239.918	79.996	19.993	100.267	20.190	9.178	0.508
334.000	240.135	79.996	19.993	100.270	20.194	8.937	0.480
334.500	240.390	79.997	19.994	100.270	20.195	8.873	0.463
335.000	240.629	79.997	19.993	100.269	20.195	8.851	0.483
335.500	240.889	79.996	19.994	100.270	20.197	8.729	0.497
336.000	241.144	79.996	19.996	100.270	20.201	8.426	0.507
336.500	241.398	79.995	19.993	100.270	20.198	8.671	0.512
337.000	241.655	79.997	19.994	100.266	20.201	8.453	0.510
337.500	241.871	79.995	19.994	100.260	20.202	8.383	0.492
338.000	242.150	79.995	19.994	100.259	20.203	8.330	0.484
338.500	242.387	79.994	19.993	100.260	20.205	8.178	0.506
339.000	242.629	79.995	19.995	100.260	20.209	7.875	0.497
339.500	242.885	79.996	19.994	100.264	20.207	8.067	0.488
340.000	243.130	79.995	19.995	100.270	20.209	7.936	0.500
340.500	243.403	79.996	19.994	100.272	20.213	7.665	0.510
341.000	243.663	79.995	19.995	100.273	20.214	7.549	0.525
341.500	243.902	79.996	19.993	100.273	20.210	7.840	0.516
342.000	244.145	79.997	19.995	100.274	20.214	7.556	0.490
342.500	244.400	79.996	19.994	100.272	20.211	7.789	0.491
343.000	244.680	79.995	19.995	100.267	20.214	7.547	0.517
343.500	244.880	79.995	19.993	100.264	20.217	7.342	0.507
344.001	245.138	79.995	19.994	100.263	20.213	7.626	0.469
344.501	245.401	79.995	19.994	100.264	20.218	7.270	0.490
345.001	245.611	79.995	19.993	100.266	20.217	7.342	0.497
345.501	245.877	79.995	19.994	100.271	20.218	7.290	0.475
346.001	246.128	79.995	19.993	100.273	20.217	7.368	0.496
346.501	246.383	79.995	19.995	100.272	20.221	7.105	0.511
347.001	246.636	79.996	19.994	100.271	20.218	7.283	0.507
347.501	246.864	79.996	19.994	100.270	20.222	7.006	0.494
348.000	247.133	79.995	19.995	100.268	20.222	7.026	0.489
348.500	247.353	79.994	19.995	100.268	20.221	7.078	0.493
349.000	247.621	79.996	19.995	100.269	20.219	7.235	0.488
349.500	247.885	79.996	19.994	100.269	20.221	7.105	0.510
350.000	248.114	79.995	19.996	100.269	20.223	6.980	0.512
350.500	248.347	79.995	19.994	100.270	20.220	7.170	0.477
351.000	248.635	79.996	19.994	100.270	20.220	7.131	0.492
351.500	248.860	79.996	19.995	100.270	20.219	7.201	0.517
352.000	249.108	79.996	19.994	100.270	20.219	7.225	0.493
352.500	249.410	79.995	19.995	100.270	20.220	7.168	0.511
353.000	249.634	79.999	19.995	100.270	20.221	7.122	0.538
353.500	249.876	79.997	19.996	100.271	20.221	7.098	0.496
354.000	250.144	79.996	19.995	100.272	20.218	7.288	0.488
354.500	250.389	79.996	19.994	100.272	20.220	7.153	0.511
355.000	250.649	79.998	19.996	100.272	20.218	7.292	0.509
355.500	250.896	79.997	19.995	100.271	20.218	7.273	0.506
356.000	251.150	79.998	19.995	100.271	20.216	7.406	0.504
356.500	251.401	79.995	19.995	100.270	20.215	7.480	0.503
357.000	251.683	79.997	19.994	100.270	20.214	7.536	0.519
357.500	251.907	79.998	19.996	100.270	20.214	7.569	0.519
358.000	252.144	79.998	19.995	100.270	20.217	7.379	0.483
358.500	252.390	79.998	19.995	100.269	20.214	7.598	0.472
359.000	252.647	79.998	19.995	100.269	20.212	7.700	0.493
359.501	252.899	79.997	19.996	100.269	20.212	7.722	0.506
360.001	253.180	79.997	19.994	100.268	20.210	7.866	0.521
360.500	253.372	79.997	19.995	100.268	20.207	8.025	0.503
361.000	253.657	79.998	19.995	100.268	20.212	7.722	0.475
361.500	253.909	79.998	19.995	100.267	20.210	7.818	0.508
362.000	254.122	79.997	19.994	100.268	20.207	8.054	0.501
362.500	254.394	79.997	19.995	100.267	20.208	7.968	0.474
363.000	254.633	79.997	19.995	100.267	20.205	8.197	0.498
363.500	254.898	79.997	19.995	100.267	20.204	8.271	0.508
364.000	255.129	79.996	19.995	100.268	20.200	8.538	0.500
364.500	255.394	79.997	19.996	100.268	20.198	8.647	0.496
365.000	255.630	79.997	19.996	100.268	20.198	8.658	0.498
365.500	255.869	79.998	19.995	100.268	20.197	8.730	0.488
366.000	256.122	79.998	19.995	100.269	20.196	8.819	0.483
366.500	256.381	79.998	19.994	100.269	20.195	8.865	0.501
367.000	256.628	79.998	19.995	100.269	20.195	8.848	0.509
367.500	256.880	79.997	19.996	100.269	20.194	8.922	0.503
368.000	257.142	79.998	19.995	100.269	20.187	9.419	0.507
368.500	257.357	79.997	19.994	100.268	20.187	9.366	0.496
369.000	257.611	79.996	19.996	100.268	20.183	9.664	0.473
369.500	257.850	79.997	19.995	100.268	20.184	9.586	0.481
370.000	258.102	79.996	19.996	100.268	20.179	9.926	0.492
370.500	258.372	79.996	19.994	100.268	20.180	9.858	0.506
371.000	258.616	79.997	19.995	100.268	20.179	9.911	0.518
371.500	258.897	79.996	19.995	100.269	20.181	9.821	0.519
372.000	259.095	79.997	19.996	100.269	20.175	10.206	0.502
372.500	259.359	79.997	19.994	100.269	20.173	10.350	0.471
373.000	259.597	79.997	19.995	100.269	20.171	10.448	0.482
373.500	259.832	79.996	19.994	100.269	20.168	10.664	0.487
374.000	260.104	79.997	19.995	100.271	20.165	10.919	0.490
374.500	260.357	79.998	19.995	100.272	20.166	10.841	0.516
375.001	260.615	79.999	19.996	100.271	20.163	10.991	0.518
375.501	260.856	79.998	19.995	100.271	20.157	11.447	0.504
376.001	261.075	79.997	19.995	100.271	20.155	11.589	0.479
376.500	261.324	79.998	19.996	100.269	20.158	11.368	0.464
377.000	261.570	79.997	19.995	100.269	20.156	11.467	0.482
377.500	261.825	79.998	19.995	100.269	20.151	11.813	0.498
378.000	262.111	79.998	19.994	100.270	20.150	11.915	0.521
378.500	262.351	79.998	19.994	100.270	20.144	12.281	0.534
379.000	262.595	79.998	19.995	100.273	20.146	12.207	0.506
379.500	262.878	79.998	19.993	100.277	20.137	12.776	0.505
380.000	263.045	79.999	19.995	100.278	20.132	13.132	0.488
380.500	263.275	79.998	19.995	100.280	20.130	13.248	0.423
381.000	263.596	79.999	19.993	100.280	20.128	13.368	0.474
381.500	263.822	79.999	19.994	100.279	20.127	13.434	0.549
382.000	264.057	79.997	19.995	100.276	20.123	13.748	0.504
382.500	264.307	79.999	19.995	100.279	20.118	14.103	0.473
383.000	264.581	79.998	19.996	100.277	20.116	14.192	0.504
383.500	264.836	79.997	19.994	100.277	20.112	14.496	0.526
384.000	265.052	79.999	19.996	100.277	20.111	14.544	0.500
384.500	265.300	79.998	19.995	100.277	20.106	14.918	0.468
385.000	265.597	79.999	19.996	100.275	20.101	15.199	0.505
385.500	265.827	79.998	19.996	100.275	20.103	15.121	0.535
386.000	266.084	79.998	19.995	100.275	20.094	15.683	0.507
386.500	266.323	79.998	19.996	100.273	20.093	15.777	0.492
387.000	266.602	79.997	19.994	100.274	20.090	15.966	0.507
387.500	266.851	79.998	19.995	100.274	20.081	16.601	0.523
388.000	267.111	79.997	19.994	100.273	20.083	16.460	0.518
388.500	267.321	79.997	19.995	100.276	20.081	16.602	0.490
389.000	267.628	79.998	19.995	100.281	20.079	16.697	0.493
389.501	267.838	79.997	19.994	100.283	20.074	17.063	0.517
390.002	268.070	79.998	19.994	100.284	20.070	17.294	0.480
390.501	268.323	79.998	19.997	100.284	20.068	17.441	0.464
391.001	268.572	79.997	19.996	100.281	20.066	17.608	0.493
391.501	268.843	79.997	19.997	100.278	20.059	18.057	0.511
392.001	269.092	79.997	19.996	100.275	20.058	18.124	0.520
392.501	269.346	79.997	19.996	100.274	20.057	18.191	0.512
393.001	269.588	79.996	19.996	100.275	20.051	18.603	0.500
393.501	269.813	79.995	19.996	100.275	20.049	18.774	0.481
394.000	270.062	79.997	19.995	100.282	20.047	18.900	0.470
394.500	270.335	79.996	19.994	100.286	20.043	19.172	0.498
395.000	270.560	79.995	19.996	100.288	20.042	19.194	0.510
395.500	270.820	79.997	19.996	100.293	20.035	19.669	0.491
396.000	271.067	79.995	19.995	100.296	20.033	19.802	0.496
396.500	271.342	79.996	19.995	100.293	20.027	20.258	0.514
397.000	271.629	79.996	19.995	100.294	20.030	20.062	0.542
397.500	271.858	79.996	19.995	100.292	20.023	20.505	0.539
398.000	272.094	79.997	19.995	100.287	20.021	20.662	0.491
398.500	272.358	79.997	19.995	100.286	20.014	21.118	0.482
399.000	272.633	79.996	19.994	100.284	20.011	21.328	0.519
399.500	272.884	79.997	19.995	100.280	20.011	21.352	0.533
400.000	273.104	79.997	19.993	100.283	20.002	21.920	0.499
400.500	273.373	79.996	19.994	100.286	20.003	21.883	0.480
401.000	273.619	79.995	19.993	100.289	20.004	21.828	0.502
401.500	273.834	79.995	19.992	100.293	20.001	22.013	0.488
402.000	274.127	79.996	19.994	100.296	19.993	22.514	0.484
402.500	274.343	79.996	19.994	100.298	19.985	23.063	0.509
403.001	274.581	79.996	19.994	100.303	19.983	23.241	0.482
403.501	274.838	79.997	19.994	100.306	19.980	23.400	0.475
404.000	275.074	79.996	19.995	100.304	19.976	23.696	0.494
404.500	275.352	79.996	19.994	100.304	19.973	23.918	0.503
405.000	275.610	79.996	19.994	100.306	19.968	24.210	0.525
405.500	275.872	79.996	19.994	100.305	19.964	24.526	0.528
406.000	276.106	79.996	19.994	100.306	19.957	24.970	0.508
406.500	276.355	79.997	19.995	100.309	19.956	25.042	0.489
407.000	276.651	79.996	19.993	100.308	19.953	25.229	0.514
407.500	276.855	79.994	19.994	100.305	19.950	25.458	0.523
408.000	277.093	79.996	19.994	100.302	19.949	25.539	0.471
408.500	277.344	79.996	19.994	100.296	19.942	26.007	0.465
409.001	277.577	79.997	19.995	100.292	19.938	26.285	0.486
409.501	277.821	79.996	19.994	100.291	19.936	26.425	0.481
410.000	278.086	79.997	19.994	100.290	19.931	26.734	0.493
410.500	278.353	79.996	19.994	100.292	19.925	27.116	0.520
411.000	278.625	79.997	19.994	100.294	19.925	27.119	0.535
411.500	278.855	79.998	19.993	100.295	19.921	27.404	0.521
412.000	279.101	79.997	19.994	100.296	19.923	27.277	0.489
412.500	279.324	79.998	19.996	100.297	19.915	27.791	0.472
413.000	279.611	79.997	19.994	100.298	19.910	28.142	0.490
413.500	279.845	79.997	19.995	100.302	19.911	28.107	0.516
414.001	280.117	79.997	19.993	100.305	19.906	28.414	0.514
414.500	280.332	79.995	19.996	100.306	19.903	28.629	0.496
415.000	280.621	79.997	19.996	100.309	19.896	29.122	0.495
415.500	280.866	79.997	19.995	100.309	19.895	29.205	0.519
416.000	281.083	79.997	19.993	100.309	19.889	29.578	0.498
416.500	281.315	79.996	19.995	100.311	19.884	29.927	0.455
417.000	281.600	79.998	19.994	100.313	19.882	30.083	0.483
417.501	281.867	79.997	19.994	100.313	19.876	30.489	0.535
418.000	282.146	79.997	19.996	100.313	19.867	31.085	0.549
418.500	282.337	79.996	19.994	100.313	19.864	31.270	0.508
419.000	282.617	79.996	19.995	100.312	19.860	31.540	0.471
419.500	282.830	79.996	19.995	100.310	19.852	32.116	0.482
420.000	283.091	79.996	19.995	100.310	19.853	32.044	0.483
420.500	283.327	79.996	19.994	100.310	19.851	32.164	0.486
421.000	283.587	79.997	19.994	100.311	19.847	32.408	0.497
421.500	283.831	79.995	19.995	100.310	19.842	32.752	0.500
422.000	284.059	79.997	19.994	100.309	19.840	32.872	0.488
422.500	284.349	79.997	19.995	100.309	19.837	33.140	0.495
423.001	284.626	79.996	19.994	100.305	19.831	33.502	0.542
423.501	284.863	79.996	19.995	100.300	19.826	33.821	0.540
424.000	285.117	79.997	19.993	100.301	19.822	34.107	0.503
424.500	285.315	79.996	19.994	100.301	19.817	34.445	0.472
425.000	285.579	79.997	19.994	100.301	19.815	34.628	0.457
425.500	285.828	79.996	19.994	100.305	19.812	34.775	0.488
426.000	286.084	79.996	19.995	100.308	19.805	35.280	0.510
426.500	286.326	79.997	19.995	100.309	19.804	35.342	0.502
427.000	286.565	79.997	19.994	100.308	19.806	35.243	0.489
427.500	286.871	79.997	19.993	100.308	19.795	35.944	0.513
428.001	287.081	79.996	19.994	100.304	19.796	35.861	0.531
428.501	287.371	79.996	19.994	100.303	19.791	36.257	0.508
429.000	287.580	79.996	19.994	100.303	19.788	36.439	0.499
429.500	287.835	79.997	19.995	100.303	19.787	36.498	0.481
430.000	288.102	79.998	19.994	100.304	19.783	36.729	0.493
430.500	288.311	79.997	19.994	100.308	19.784	36.696	0.499
431.000	288.569	79.997	19.995	100.309	19.772	37.488	0.471
431.500	288.761	79.998	19.994	100.309	19.775	37.328	0.459
432.000	289.065	79.997	19.994	100.305	19.771	37.580	0.473
432.500	289.320	79.998	19.994	100.304	19.762	38.180	0.528
433.000	289.558	79.999	19.995	100.304	19.760	38.296	0.526
433.500	289.777	79.997	19.993	100.304	19.752	38.883	0.475
434.000	290.058	79.997	19.993	100.304	19.753	38.774	0.478
434.500	290.278	79.998	19.995	100.308	19.747	39.179	0.500
435.000	290.554	79.998	19.994	100.309	19.739	39.719	0.498
435.500	290.799	79.999	19.993	100.309	19.740	39.710	0.509
436.000	291.028	79.998	19.995	100.309	19.741	39.644	0.497
436.500	291.326	79.997	19.994	100.310	19.739	39.769	0.500
437.000	291.591	79.998	19.994	100.312	19.729	40.435	0.545
437.500	291.806	79.997	19.993	100.312	19.724	40.745	0.522
438.000	292.081	79.999	19.994	100.312	19.727	40.540	0.485
438.500	292.338	79.998	19.994	100.311	19.727	40.553	0.511
439.000	292.508	79.999	19.994	100.310	19.730	40.324	0.480
439.500	292.834	79.999	19.994	100.306	19.726	40.627	0.461
440.000	293.087	79.998	19.993	100.300	19.727	40.534	0.537
440.500	293.359	79.998	19.994	100.294	19.726	40.631	0.552
441.000	293.579	79.999	19.994	100.290	19.727	40.555	0.509
441.500	293.570	79.998	19.994	100.286	19.730	40.312	0.351
442.000	294.240	79.997	19.994	100.285	19.726	40.611	0.436
442.500	294.216	79.999	19.993	100.286	19.726	40.613	0.654
443.000	294.600	79.998	19.994	100.288	19.724	40.775	0.504
443.500	294.839	79.998	19.994	100.288	19.723	40.810	0.492
444.000	295.060	80.000	19.995	100.288	19.720	40.999	0.541
444.500	295.273	79.998	19.994	100.290	19.718	41.187	0.447
445.000	295.525	79.998	19.994	100.295	19.718	41.161	0.450
445.500	296.018	79.996	19.995	100.302	19.716	41.320	0.605
446.000	296.267	79.996	19.994	100.309	19.714	41.403	0.743
446.500	296.201	79.997	19.994	100.318	19.715	41.359	0.463
447.000	296.644	79.997	19.995	100.318	19.712	41.591	0.280
447.500	296.776	79.996	19.993	100.319	19.715	41.347	0.476
448.000	297.098	79.997	19.995	100.316	19.716	41.309	0.515
448.501	297.319	79.996	19.994	100.314	19.714	41.405	0.498
449.001	297.525	79.996	19.995	100.310	19.717	41.251	0.484
449.501	297.864	79.997	19.995	100.309	19.719	41.116	0.486
450.000	298.136	79.996	19.996	100.305	19.716	41.268	0.578
450.500	298.560	79.998	19.994	100.298	19.721	40.965	0.653
451.001	298.409	79.997	19.995	100.290	19.725	40.656	0.485
451.500	298.840	79.996	19.993	100.283	19.725	40.688	0.277
452.000	299.110	79.995	19.995	100.279	19.726	40.644	0.490
452.500	299.294	79.996	19.995	100.276	19.728	40.461	0.578
453.000	299.575	79.996	19.995	100.276	19.725	40.662	0.459
453.500	299.840	79.995	19.995	100.276	19.727	40.568	0.505
454.000	300.074	79.996	19.994	100.275	19.725	40.664	0.523
454.500	300.342	79.995	19.994	100.274	19.725	40.657	0.501
455.000	300.581	79.996	19.995	100.277	19.729	40.401	0.505
455.501	300.858	79.998	19.996	100.284	19.731	40.299	0.511
456.000	301.124	79.997	19.994	100.289	19.732	40.209	0.529
456.500	301.308	79.997	19.994	100.290	19.738	39.778	0.496
457.000	301.554	79.997	19.994	100.290	19.738	39.806	0.440
457.500	301.809	79.997	19.995	100.286	19.744	39.387	0.466
458.000	302.032	79.998	19.994	100.278	19.744	39.360	0.490
458.500	302.305	79.998	19.995	100.273	19.749	39.053	0.487
459.000	302.570	79.997	19.993	100.271	19.747	39.173	0.517
459.500	302.811	79.996	19.995	100.270	19.757	38.483	0.522
460.000	303.035	79.998	19.994	100.270	19.758	38.466	0.485
460.500	303.325	79.998	19.993	100.270	19.761	38.208	0.490
461.000	303.599	79.997	19.994	100.271	19.761	38.243	0.539
461.500	303.765	80.000	19.995	100.273	19.764	38.032	0.502
462.000	304.066	79.998	19.995	100.274	19.764	38.019	0.454
462.500	304.320	79.997	19.994	100.274	19.772	37.526	0.512
463.001	304.547	79.999	19.994	100.276	19.773	37.462	0.518
463.501	304.790	79.999	19.993	100.275	19.778	37.059	0.475
464.000	305.056	79.998	19.993	100.274	19.780	36.977	0.489
464.500	305.311	79.999	19.994	100.273	19.784	36.678	0.515
465.000	305.559	79.999	19.994	100.273	19.788	36.401	0.512
465.500	305.811	79.997	19.994	100.272	19.791	36.218	0.501
466.000	306.056	79.997	19.993	100.272	19.800	35.592	0.499
466.500	306.308	79.997	19.993	100.272	19.800	35.582	0.497
467.001	306.552	79.999	19.994	100.272	19.810	34.936	0.496
467.501	306.810	79.998	19.993	100.265	19.812	34.772	0.499
468.000	307.023	79.997	19.994	100.262	19.817	34.454	0.487
468.501	307.310	79.998	19.994	100.261	19.823	34.050	0.486
469.001	307.499	79.999	19.993	100.256	19.826	33.859	0.488
469.500	307.788	79.998	19.993	100.254	19.832	33.438	0.476
470.000	308.048	79.997	19.994	100.258	19.833	33.374	0.514
470.500	308.312	79.997	19.995	100.259	19.840	32.911	0.537
471.000	308.568	79.997	19.993	100.259	19.846	32.472	0.522
471.500	308.802	79.998	19.994	100.264	19.849	32.255	0.505
472.000	309.061	79.997	19.993	100.265	19.848	32.327	0.491
472.500	309.279	79.998	19.995	100.267	19.857	31.722	0.485
473.000	309.522	79.995	19.994	100.268	19.862	31.394	0.469
473.500	309.802	79.997	19.996	100.268	19.862	31.402	0.492
474.000	310.025	79.995	19.995	100.269	19.871	30.787	0.513
474.500	310.297	79.997	19.995	100.269	19.871	30.765	0.499
475.000	310.542	79.995	19.996	100.265	19.875	30.494	0.506
475.500	310.764	79.994	19.996	100.262	19.881	30.146	0.492
476.000	311.033	79.995	19.996	100.261	19.887	29.717	0.479
476.500	311.318	79.995	19.995	100.260	19.888	29.641	0.522
477.000	311.559	79.995	19.996	100.261	19.890	29.523	0.540
477.500	311.794	79.997	19.996	100.263	19.888	29.623	0.501
478.000	312.067	79.995	19.995	100.265	19.900	28.807	0.492
478.500	312.319	79.995	19.996	100.265	19.902	28.727	0.517
479.000	312.563	79.994	19.996	100.264	19.904	28.532	0.510
479.500	312.847	79.994	19.996	100.264	19.901	28.768	0.512
480.000	313.030	79.995	19.996	100.263	19.905	28.510	0.498
480.500	313.320	79.996	19.996	100.264	19.906	28.445	0.470
481.000	313.598	79.995	19.996	100.265	19.907	28.369	0.521
481.500	313.890	79.995	19.996	100.266	19.906	28.432	0.569
482.000	314.063	79.996	19.995	100.268	19.904	28.593	0.517
482.500	314.369	79.995	19.996	100.270	19.906	28.429	0.472
483.000	314.568	79.996	19.995	100.274	19.907	28.350	0.492
483.500	314.818	79.996	19.996	100.279	19.908	28.322	0.477
484.000	315.050	79.995	19.995	100.281	19.904	28.573	0.465
484.500	315.319	79.995	19.996	100.281	19.907	28.370	0.491
485.000	315.540	79.996	19.997	100.281	19.906	28.432	0.495
485.500	315.830	79.996	19.995	100.276	19.905	28.504	0.501
486.000	316.067	79.996	19.995	100.272	19.903	28.633	0.519
486.500	316.317	79.995	19.995	100.269	19.909	28.253	0.507
487.000	316.528	79.997	19.996	100.267	19.909	28.208	0.474
487.500	316.783	79.995	19.995	100.271	19.909	28.239	0.464
488.000	317.031	79.996	19.996	100.272	19.908	28.297	0.484
488.500	317.293	79.995	19.995	100.273	19.905	28.506	0.506
489.000	317.526	79.996	19.994	100.273	19.912	27.996	0.502
489.500	317.841	79.996	19.994	100.273	19.907	28.371	0.521
490.000	318.052	79.997	19.995	100.269	19.906	28.401	0.537
490.500	318.274	79.997	19.994	100.268	19.908	28.290	0.480
491.000	318.461	79.998	19.995	100.268	19.903	28.627	0.421
491.500	318.766	79.996	19.994	100.268	19.906	28.432	0.451
492.000	319.031	79.997	19.994	100.268	19.905	28.463	0.531
492.500	319.288	79.997	19.994	100.268	19.905	28.497	0.546
493.000	319.552	79.997	19.994	100.270	19.903	28.660	0.521
493.500	319.772	79.997	19.994	100.270	19.900	28.830	0.502
494.000	320.039	79.996	19.995	100.271	19.898	28.939	0.485
494.500	320.311	79.997	19.994	100.276	19.895	29.151	0.513
495.000	320.546	79.998	19.995	100.284	19.895	29.150	0.523
495.500	320.737	79.997	19.996	100.290	19.893	29.286	0.467
496.000	321.033	79.997	19.994	100.295	19.889	29.562	0.457
496.500	321.282	79.996	19.994	100.300	19.886	29.762	0.516
497.000	321.534	79.995	19.995	100.300	19.883	29.968	0.523
497.500	321.793	79.998	19.995	100.299	19.878	30.320	0.506
498.000	322.024	79.997	19.994	100.299	19.882	30.074	0.501
498.501	322.276	79.998	19.994	100.296	19.875	30.533	0.487
499.000	322.524	79.997	19.994	100.291	19.873	30.666	0.492
499.500	322.787	79.996	19.994	100.294	19.872	30.751	0.506
500.000	323.062	79.997	19.994	100.293	19.874	30.595	0.524
500.500	323.316	79.997	19.995	100.293	19.872	30.728	0.533
501.000	323.536	79.996	19.994	100.294	19.874	30.600	0.502
501.500	323.795	79.997	19.996	100.294	19.874	30.591	0.476
502.000	324.018	79.996	19.994	100.286	19.865	31.231	0.480
502.500	324.273	79.996	19.993	100.280	19.868	31.019	0.480
503.001	324.516	79.997	19.995	100.273	19.868	30.991	0.488
503.500	324.784	79.996	19.994	100.270	19.863	31.369	0.505
504.000	325.026	79.995	19.994	100.270	19.863	31.336	0.511
504.500	325.283	79.996	19.994	100.270	19.859	31.627	0.504
505.000	325.529	79.995	19.995	100.269	19.857	31.735	0.501
505.500	325.755	79.995	19.995	100.275	19.849	32.303	0.488
506.000	326.029	79.996	19.995	100.280	19.847	32.435	0.486
506.500	326.268	79.995	19.994	100.289	19.837	33.079	0.506
507.000	326.543	79.994	19.996	100.297	19.828	33.704	0.514
507.501	326.739	79.996	19.996	100.307	19.823	34.042	0.493
508.001	326.985	79.995	19.994	100.311	19.818	34.409	0.456
508.500	327.267	79.995	19.994	100.320	19.809	34.975	0.485
509.000	327.505	79.996	19.995	100.326	19.802	35.471	0.524
509.500	327.758	79.996	19.994	100.333	19.793	36.111	0.506
510.000	328.027	79.995	19.995	100.339	19.791	36.251	0.506
510.500	328.274	79.995	19.996	100.346	19.787	36.503	0.519
511.000	328.516	79.995	19.994	100.348	19.779	37.063	0.503
511.500	328.762	79.994	19.994	100.347	19.776	37.236	0.488
512.000	329.015	79.996	19.996	100.342	19.771	37.617	0.493
512.500	329.290	79.995	19.994	100.334	19.765	37.998	0.513
513.000	329.550	79.996	19.994	100.325	19.760	38.347	0.532
513.500	329.827	79.996	19.995	100.314	19.760	38.323	0.536
514.000	330.031	79.996	19.994	100.303	19.760	38.334	0.509
514.500	330.307	79.995	19.995	100.295	19.754	38.778	0.481
515.000	330.545	79.996	19.995	100.288	19.753	38.799	0.497
515.500	330.788	79.996	19.995	100.281	19.754	38.744	0.498
516.000	331.044	79.998	19.993	100.276	19.751	38.919	0.490
516.501	331.279	79.998	19.994	100.274	19.743	39.461	0.495
517.001	331.544	79.997	19.994	100.273	19.738	39.834	0.496
517.501	331.795	79.997	19.994	100.277	19.734	40.107	0.508
518.001	332.022	79.997	19.995	100.283	19.730	40.344	0.497
518.501	332.254	79.997	19.993	100.291	19.725	40.690	0.469
519.000	332.551	79.998	19.994	100.299	19.712	41.580	0.494
519.500	332.765	79.997	19.994	100.311	19.703	42.161	0.520
520.000	333.025	79.997	19.995	100.319	19.693	42.898	0.492
520.500	333.265	79.998	19.994	100.329	19.684	43.515	0.486
521.000	333.528	79.997	19.992	100.336	19.673	44.209	0.501
521.500	333.777	79.998	19.994	100.350	19.663	44.931	0.508
522.000	334.033	79.997	19.994	100.360	19.654	45.556	0.509
522.500	334.282	79.999	19.994	100.363	19.647	46.021	0.505
523.000	334.537	79.997	19.993	100.363	19.638	46.640	0.505
523.500	334.796	79.997	19.993	100.365	19.629	47.267	0.508
524.000	335.024	79.997	19.994	100.364	19.622	47.682	0.500
524.500	335.306	79.998	19.994	100.357	19.617	48.056	0.499
525.000	335.534	79.998	19.994	100.352	19.611	48.455	0.510
525.500	335.776	79.997	19.994	100.344	19.602	49.072	0.490
526.000	336.050	79.997	19.994	100.331	19.600	49.214	0.493
526.501	336.313	79.998	19.993	100.317	19.595	49.520	0.527
527.001	336.560	79.997	19.994	100.309	19.588	49.987	0.524
527.500	336.784	79.997	19.994	100.305	19.584	50.284	0.490
528.000	337.036	79.997	19.994	100.305	19.581	50.477	0.473
528.500	337.248	79.996	19.993	100.308	19.572	51.074	0.471
529.000	337.536	79.996	19.993	100.310	19.562	51.731	0.482
529.500	337.804	79.997	19.994	100.311	19.556	52.144	0.528
530.000	338.034	79.996	19.994	100.311	19.547	52.783	0.526
530.500	338.285	79.996	19.994	100.313	19.541	53.156	0.489
531.001	338.533	79.996	19.993	100.320	19.527	54.133	0.491
531.501	338.809	79.995	19.994	100.328	19.513	55.064	0.512
532.000	339.058	79.997	19.996	100.340	19.498	56.124	0.524
532.500	339.319	79.996	19.994	100.360	19.485	57.000	0.517
533.000	339.566	79.996	19.994	100.380	19.473	57.869	0.509
533.500	339.777	79.998	19.994	100.391	19.461	58.681	0.483
534.000	340.026	79.997	19.993	100.399	19.453	59.184	0.459
534.500	340.272	79.997	19.993	100.398	19.441	60.029	0.477
535.000	340.555	79.997	19.995	100.397	19.431	60.676	0.512
535.500	340.752	79.998	19.993	100.390	19.422	61.293	0.504
536.000	341.009	79.996	19.994	100.388	19.415	61.727	0.467
536.500	341.270	79.998	19.995	100.385	19.406	62.383	0.486
537.000	341.535	79.997	19.995	100.381	19.398	62.911	0.522
537.501	341.758	79.997	19.995	100.370	19.392	63.308	0.507
538.001	342.022	79.996	19.994	100.362	19.389	63.532	0.488
538.500	342.259	79.997	19.995	100.354	19.378	64.269	0.494
539.001	342.494	79.998	19.995	100.345	19.370	64.791	0.486
539.501	342.743	79.997	19.994	100.336	19.363	65.313	0.478
540.000	343.013	79.998	19.994	100.328	19.347	66.358	0.501
540.500	343.284	79.998	19.994	100.320	19.335	67.213	0.530
541.000	343.521	79.998	19.995	100.312	19.320	68.235	0.524
541.500	343.729	79.998	19.995	100.308	19.300	69.596	0.477
542.000	344.000	79.997	19.993	100.312	19.283	70.722	0.463
542.500	344.253	79.998	19.996	100.335	19.271	71.529	0.502
543.000	344.480	79.999	19.995	100.378	19.255	72.632	0.502
543.500	344.734	79.998	19.995	100.416	19.248	73.064	0.480
544.000	345.003	79.997	19.996	100.435	19.243	73.425	0.502
544.500	345.229	79.999	19.996	100.445	19.231	74.174	0.509
545.000	345.508	79.998	19.996	100.438	19.225	74.585	0.500
545.500	345.752	79.998	19.995	100.410	19.216	75.191	0.514
546.000	346.022	79.999	19.994	100.388	19.199	76.302	0.518
546.500	346.220	79.999	19.995	100.384	19.185	77.290	0.491
547.000	346.508	79.998	19.995	100.381	19.167	78.534	0.477
547.500	346.733	79.998	19.994	100.383	19.146	79.977	0.499
548.000	346.995	79.999	19.995	100.381	19.127	81.308	0.500
548.500	347.233	79.998	19.994	100.370	19.108	82.681	0.494
549.000	347.503	79.997	19.994	100.376	19.086	84.179	0.504
549.500	347.700	79.998	19.994	100.410	19.068	85.453	0.488
550.000	347.986	79.998	19.995	100.417	19.050	86.628	0.475
550.500	348.231	79.997	19.995	100.412	19.041	87.209	0.507
551.000	348.519	79.997	19.994	100.433	19.028	88.072	0.532
551.500	348.698	79.998	19.996	100.455	19.019	88.684	0.500
552.000	348.975	79.997	19.995	100.442	19.009	89.275	0.462
552.500	349.227	79.997	19.994	100.439	19.005	89.492	0.493
553.000	349.472	79.997	19.994	100.452	19.004	89.517	0.513
553.500	349.724	79.997	19.994	100.449	19.006	89.400	0.497
554.000	349.966	79.995	19.994	100.428	19.000	89.849	0.495
554.500	350.214	79.997	19.995	100.402	18.998	89.984	0.492
555.000	350.469	79.997	19.995	100.379	18.984	90.892	0.497
555.500	350.694	79.995	19.996	100.349	18.965	92.167	0.492
556.000	350.945	79.997	19.995	100.318	18.948	93.350	0.478
556.500	351.212	79.997	19.995	100.295	18.924	95.032	0.497
557.000	351.441	79.996	19.995	100.296	18.894	97.076	0.507
557.500	351.690	79.996	19.996	100.320	18.867	98.980	0.488
558.000	351.943	79.995	19.994	100.366	18.840	100.882	0.490
558.500	352.229	79.996	19.995	100.423	18.817	102.423	0.520
559.000	352.478	79.997	19.995	100.473	18.799	103.641	0.537
559.500	352.717	79.995	19.996	100.516	18.789	104.322	0.511
560.000	353.005	79.995	19.994	100.548	18.777	105.122	0.508
560.500	353.249	79.997	19.995	100.578	18.775	105.197	0.530
561.000	353.527	79.996	19.995	100.570	18.776	105.127	0.527
561.501	353.740	79.996	19.996	100.549	18.774	105.170	0.506
562.001	354.000	79.996	19.995	100.519	18.772	105.308	0.482
562.500	354.274	79.995	19.996	100.476	18.766	105.620	0.503
563.000	354.535	79.996	19.995	100.407	18.757	106.231	0.534
563.500	354.790	79.996	19.995	100.354	18.748	106.909	0.526
564.000	355.020	79.994	19.994	100.311	18.739	107.570	0.501
564.500	355.271	79.997	19.997	100.300	18.722	108.776	0.483
565.000	355.504	79.996	19.996	100.316	18.706	109.866	0.483
565.500	355.781	79.994	19.995	100.318	18.691	110.931	0.497
566.000	356.022	79.994	19.995	100.318	18.673	112.149	0.514
566.500	356.248	79.995	19.995	100.332	18.659	113.043	0.492
567.000	356.517	79.995	19.996	100.347	18.648	113.812	0.481
567.500	356.790	79.996	19.996	100.370	18.628	115.173	0.519
568.000	357.021	79.995	19.996	100.420	18.621	115.672	0.523
568.500	357.267	79.995	19.997	100.466	18.611	116.370	0.491
569.000	357.525	79.996	19.996	100.514	18.604	116.783	0.490
569.500	357.748	79.995	19.995	100.532	18.602	116.945	0.492
570.000	358.003	79.995	19.996	100.524	18.599	117.099	0.480
570.500	358.255	79.995	19.996	100.518	18.598	117.187	0.493
571.000	358.528	79.994	19.996	100.508	18.602	116.955	0.516
571.500	358.811	79.995	19.995	100.466	18.595	117.433	0.541
572.000	359.040	79.995	19.997	100.419	18.591	117.694	0.534
572.500	359.300	79.996	19.996	100.378	18.576	118.680	0.500
573.000	359.556	79.995	19.996	100.332	18.562	119.671	0.502
573.500	359.807	79.996	19.996	100.296	18.547	120.641	0.511
574.001	360.043	79.995	19.994	100.293	18.533	121.630	0.497
574.501	360.311	79.995	19.995	100.344	18.520	122.468	0.495
575.000	360.570	79.994	19.995	100.391	18.508	123.277	0.515
575.500	360.823	79.994	19.995	100.418	18.499	123.882	0.519
576.000	361.078	79.996	19.994	100.461	18.492	124.415	0.510
576.500	361.350	79.994	19.995	100.489	18.489	124.575	0.518
577.000	361.590	79.995	19.995	100.466	18.479	125.303	0.520
577.500	361.869	79.995	19.995	100.446	18.473	125.678	0.516
578.000	362.127	79.995	19.996	100.463	18.467	126.088	0.528
578.500	362.382	79.994	19.995	100.473	18.456	126.769	0.525
579.000	362.619	79.996	19.996	100.472	18.443	127.666	0.503
579.500	362.857	79.996	19.996	100.468	18.428	128.722	0.484
580.000	363.123	79.996	19.996	100.454	18.413	129.759	0.490
580.500	363.381	79.996	19.994	100.453	18.402	130.569	0.514
581.001	363.649	79.996	19.995	100.444	18.384	131.741	0.525
581.501	363.905	79.995	19.995	100.444	18.376	132.312	0.525
582.000	364.173	79.995	19.995	100.454	18.369	132.761	0.524
582.500	364.425	79.997	19.994	100.464	18.362	133.296	0.522
583.000	364.636	79.996	19.995	100.454	18.359	133.444	0.491
583.500	364.909	79.995	19.995	100.452	18.348	134.188	0.473
584.000	365.172	79.994	19.994	100.458	18.344	134.466	0.510
584.500	365.410	79.995	19.994	100.456	18.331	135.332	0.519
585.000	365.688	79.995	19.995	100.450	18.322	135.913	0.508
585.500	365.930	79.994	19.994	100.438	18.314	136.474	0.518
586.000	366.210	79.995	19.995	100.440	18.305	137.080	0.522
586.500	366.445	79.995	19.995	100.444	18.290	138.095	0.519
587.000	366.693	79.994	19.995	100.452	18.288	138.279	0.499
587.500	366.947	79.995	19.994	100.456	18.276	139.105	0.492
588.000	367.242	79.994	19.994	100.453	18.266	139.746	0.525
588.500	367.471	79.994	19.995	100.438	18.255	140.480	0.536
589.000	367.727	79.995	19.993	100.423	18.245	141.203	0.504
589.500	367.994	79.994	19.994	100.411	18.238	141.629	0.504
590.000	368.258	79.995	19.994	100.423	18.224	142.598	0.527
590.500	368.522	79.995	19.995	100.447	18.217	143.093	0.530
591.000	368.770	79.996	19.994	100.466	18.206	143.844	0.520
591.500	369.009	79.994	19.994	100.483	18.194	144.649	0.500
592.000	369.263	79.995	19.995	100.491	18.187	145.138	0.490
592.500	369.541	79.995	19.994	100.491	18.175	145.906	0.512
593.000	369.809	79.994	19.995	100.488	18.166	146.543	0.539
593.500	370.037	79.994	19.993	100.486	18.161	146.864	0.521
594.000	370.339	79.995	19.993	100.481	18.150	147.634	0.513
594.500	370.527	79.995	19.993	100.481	18.144	148.022	0.510
595.000	370.837	79.996	19.994	100.471	18.131	148.908	0.494
595.500	371.080	79.997	19.994	100.460	18.122	149.493	0.526
596.000	371.329	79.996	19.995	100.456	18.113	150.113	0.522
596.500	371.629	79.997	19.994	100.458	18.108	150.479	0.520
597.001	371.820	79.997	19.996	100.458	18.100	151.035	0.520
597.501	372.107	79.997	19.993	100.464	18.093	151.479	0.485
598.000	372.356	79.998	19.995	100.472	18.082	152.217	0.507
598.500	372.619	79.996	19.993	100.474	18.076	152.631	0.524
599.000	372.862	79.997	19.995	100.470	18.071	152.974	0.509
599.500	373.118	79.996	19.994	100.470	18.065	153.392	0.503
600.001	373.391	79.998	19.994	100.468	18.056	153.963	0.514
600.501	373.623	79.997	19.994	100.467	18.049	154.441	0.517
601.001	373.860	79.998	19.995	100.467	18.046	154.665	0.488
601.500	374.132	79.998	19.995	100.466	18.040	155.052	0.489
602.000	374.402	79.998	19.994	100.466	18.032	155.571	0.525
602.500	374.621	79.998	19.995	100.466	18.026	156.025	0.515
603.000	374.900	79.998	19.994	100.465	18.017	156.639	0.494
603.500	375.146	79.999	19.994	100.465	18.009	157.151	0.512
604.000	375.431	79.997	19.994	100.465	18.004	157.463	0.528
604.500	375.691	79.997	19.995	100.464	18.001	157.653	0.538
605.000	375.904	79.997	19.994	100.464	17.996	158.030	0.509
605.500	376.177	79.997	19.995	100.464	17.987	158.600	0.480
606.000	376.467	79.996	19.994	100.464	17.987	158.620	0.524
606.500	376.689	79.997	19.994	100.465	17.981	159.040	0.537
607.000	376.977	79.998	19.993	100.465	17.973	159.544	0.511
607.500	377.217	79.998	19.995	100.465	17.969	159.827	0.519
608.000	377.474	79.998	19.995	100.467	17.965	160.116	0.513
608.500	377.729	79.997	19.994	100.467	17.962	160.336	0.504
609.000	377.951	79.996	19.994	100.466	17.956	160.704	0.494
609.500	378.222	79.996	19.993	100.464	17.951	161.015	0.485
610.000	378.481	79.997	19.995	100.463	17.949	161.193	0.511
610.500	378.722	79.998	19.994	100.461	17.946	161.349	0.515
611.000	378.958	79.996	19.994	100.458	17.942	161.635	0.489
611.500	379.237	79.997	19.995	100.451	17.944	161.515	0.496
612.000	379.467	79.997	19.994	100.449	17.938	161.948	0.512
612.500	379.726	79.996	19.995	100.449	17.938	161.883	0.499
613.000	379.953	79.998	19.994	100.450	17.935	162.140	0.488
613.500	380.247	79.997	19.994	100.449	17.935	162.107	0.503
614.000	380.486	79.998	19.995	100.450	17.935	162.106	0.527
614.500	380.742	79.998	19.994	100.446	17.935	162.126	0.514
615.000	381.010	79.998	19.993	100.440	17.934	162.127	0.509
615.500	381.225	79.998	19.996	100.433	17.934	162.166	0.503
616.000	381.497	79.998	19.994	100.429	17.932	162.269	0.485
616.500	381.734	79.998	19.994	100.428	17.934	162.160	0.498
617.000	381.992	79.998	19.995	100.428	17.938	161.907	0.502
617.500	382.266	79.998	19.993	100.428	17.938	161.892	0.514
618.000	382.497	79.997	19.993	100.429	17.938	161.853	0.518
618.500	382.748	79.999	19.994	100.428	17.940	161.766	0.493
619.000	383.026	79.997	19.994	100.426	17.945	161.373	0.506
619.500	383.247	79.998	19.994	100.426	17.947	161.269	0.514
620.000	383.514	79.998	19.994	100.425	17.951	160.952	0.493
620.500	383.731	80.000	19.995	100.420	17.952	160.894	0.486
621.000	384.018	79.999	19.995	100.416	17.959	160.405	0.494
621.500	384.279	79.999	19.994	100.409	17.963	160.144	0.526
622.000	384.512	80.000	19.994	100.407	17.970	159.702	0.521
622.500	384.739	79.999	19.994	100.409	17.973	159.460	0.477
623.000	384.975	79.999	19.994	100.412	17.978	159.144	0.462
623.500	385.248	79.999	19.994	100.412	17.986	158.559	0.486
624.000	385.522	79.999	19.995	100.416	17.992	158.183	0.528
624.500	385.767	79.997	19.995	100.412	18.000	157.634	0.533
625.000	385.985	79.998	19.993	100.404	18.007	157.164	0.491
625.500	386.234	79.999	19.995	100.397	18.013	156.764	0.465
626.000	386.492	79.999	19.995	100.392	18.020	156.242	0.487
626.500	386.749	79.999	19.995	100.387	18.026	155.823	0.511
627.000	387.022	79.999	19.994	100.386	18.035	155.223	0.522
627.500	387.269	80.000	19.995	100.386	18.039	154.938	0.526
628.000	387.512	79.999	19.996	100.387	18.054	153.941	0.505
628.500	387.827	79.998	19.994	100.390	18.059	153.632	0.523
629.000	388.002	79.999	19.994	100.390	18.071	152.790	0.524
629.500	388.274	79.997	19.995	100.390	18.080	152.197	0.469
630.000	388.498	79.998	19.995	100.389	18.082	152.052	0.471
630.500	388.777	79.998	19.994	100.386	18.095	151.153	0.500
631.000	389.048	79.996	19.995	100.381	18.102	150.634	0.527
631.500	389.294	79.997	19.996	100.380	18.117	149.617	0.534
632.000	389.490	79.997	19.995	100.378	18.130	148.771	0.479
632.500	389.761	79.997	19.994	100.375	18.139	148.164	0.455
633.000	390.023	79.996	19.995	100.371	18.155	147.084	0.500
633.500	390.267	79.996	19.994	100.364	18.164	146.441	0.519
634.000	390.508	79.995	19.995	100.362	18.174	145.789	0.495
634.500	390.733	79.996	19.995	100.362	18.185	144.997	0.476
635.000	391.032	79.996	19.995	100.360	18.202	143.837	0.495
635.501	391.267	79.994	19.995	100.360	18.218	142.810	0.529
636.001	391.535	79.996	19.995	100.359	18.229	142.029	0.518
636.500	391.815	79.996	19.995	100.355	18.243	141.048	0.525
637.000	392.041	79.995	19.995	100.349	18.256	140.160	0.527
637.500	392.307	79.994	19.996	100.346	18.267	139.402	0.499
638.000	392.530	79.995	19.994	100.345	18.278	138.695	0.491
638.501	392.835	79.996	19.995	100.344	18.304	136.897	0.508
639.001	393.037	79.995	19.995	100.345	18.314	136.215	0.517
639.500	393.313	79.996	19.994	100.340	18.327	135.325	0.493
640.000	393.631	79.994	19.995	100.338	18.346	134.090	0.536
640.500	393.813	79.995	19.994	100.337	18.359	133.221	0.547
641.000	394.090	79.997	19.995	100.334	18.374	132.173	0.479
641.500	394.344	79.995	19.994	100.327	18.396	130.704	0.495
642.000	394.624	79.994	19.995	100.325	18.408	129.867	0.533
642.500	394.849	79.996	19.995	100.322	18.422	128.928	0.520
643.000	395.069	79.996	19.995	100.317	18.438	127.812	0.475
643.500	395.356	79.995	19.995	100.314	18.455	126.676	0.476
644.000	395.563	79.996	19.994	100.314	18.474	125.356	0.500
644.501	395.832	79.996	19.994	100.312	18.495	123.916	0.485
645.001	396.074	79.994	19.994	100.311	18.510	122.936	0.493
645.501	396.327	79.996	19.995	100.310	18.525	121.933	0.503
646.000	396.572	79.997	19.995	100.309	18.538	121.019	0.496
646.500	396.833	79.996	19.995	100.306	18.565	119.242	0.502
647.000	397.096	79.997	19.994	100.300	18.586	117.806	0.515
647.500	397.361	79.996	19.994	100.295	18.602	116.710	0.526
648.000	397.593	79.996	19.995	100.292	18.622	115.341	0.512
648.500	397.823	79.995	19.995	100.288	18.639	114.183	0.479
649.000	398.095	79.995	19.994	100.283	18.658	112.902	0.482
649.501	398.380	79.996	19.995	100.282	18.678	111.527	0.530
650.001	398.588	79.996	19.994	100.282	18.700	110.056	0.525
650.500	398.858	79.995	19.994	100.278	18.716	108.958	0.486
651.000	399.130	79.996	19.995	100.277	18.732	107.910	0.510
651.500	399.347	79.995	19.994	100.278	18.755	106.350	0.516
652.000	399.626	79.995	19.994	100.277	18.771	105.264	0.492
652.501	399.873	79.996	19.996	100.275	18.794	103.712	0.511
653.000	400.129	79.995	19.994	100.275	18.808	102.728	0.514
653.500	400.399	79.994	19.995	100.273	18.828	101.401	0.514
654.000	400.635	79.996	19.996	100.267	18.849	99.986	0.516
654.500	400.887	79.996	19.995	100.265	18.863	98.994	0.497
655.000	401.127	79.994	19.995	100.257	18.883	97.637	0.490
655.500	401.411	79.996	19.995	100.253	18.904	96.256	0.508
656.000	401.606	79.993	19.995	100.253	18.923	94.929	0.502
656.500	401.881	79.993	19.996	100.256	18.945	93.492	0.474
657.000	402.141	79.995	19.994	100.255	18.964	92.146	0.502
657.500	402.395	79.996	19.996	100.255	18.984	90.835	0.525
658.000	402.661	79.995	19.995	100.258	19.004	89.434	0.517
658.500	402.965	79.994	19.995	100.256	19.024	88.118	0.545
659.000	403.160	79.994	19.996	100.252	19.042	86.914	0.535
659.500	403.391	79.993	19.996	100.250	19.063	85.446	0.462
660.000	403.640	79.995	19.995	100.249	19.083	84.127	0.453
660.500	403.905	79.994	19.996	100.243	19.102	82.861	0.497
661.000	404.185	79.996	19.996	100.236	19.115	81.978	0.530
661.500	404.447	79.997	19.996	100.234	19.138	80.371	0.543
662.000	404.681	79.995	19.996	100.233	19.159	78.959	0.519
662.500	404.940	79.996	19.996	100.233	19.175	77.903	0.495
663.000	405.188	79.996	19.996	100.233	19.193	76.667	0.500
663.500	405.442	79.995	19.996	100.233	19.212	75.407	0.504
664.000	405.703	79.995	19.996	100.232	19.230	74.154	0.509
664.500	405.920	79.995	19.995	100.232	19.254	72.569	0.497
665.000	406.207	79.995	19.994	100.232	19.270	71.426	0.491
665.500	406.454	79.995	19.997	100.231	19.291	70.005	0.519
666.000	406.682	79.996	19.996	100.231	19.307	68.936	0.505
666.500	406.974	79.995	19.996	100.230	19.327	67.559	0.497
667.000	407.232	79.995	19.995	100.229	19.340	66.721	0.535
667.500	407.451	79.993	19.994	100.229	19.359	65.433	0.514
668.000	407.706	79.995	19.996	100.229	19.377	64.206	0.476
668.500	408.005	79.996	19.995	100.229	19.398	62.802	0.514
669.000	408.235	79.995	19.995	100.229	19.415	61.629	0.541
669.500	408.482	79.995	19.996	100.228	19.436	60.224	0.503
670.000	408.753	79.995	19.994	100.227	19.452	59.137	0.498
670.500	409.033	79.996	19.994	100.227	19.466	58.197	0.535
671.000	409.231	79.995	19.994	100.227	19.483	57.014	0.515
671.500	409.479	79.996	19.996	100.227	19.496	56.172	0.462
672.000	409.742	79.995	19.994	100.227	19.513	54.961	0.479
672.501	409.997	79.996	19.994	100.228	19.533	53.641	0.514
673.000	410.270	79.996	19.995	100.227	19.547	52.693	0.522
673.500	410.547	79.996	19.994	100.226	19.559	51.906	0.539
674.000	410.763	79.997	19.995	100.223	19.580	50.485	0.522
674.500	411.002	79.995	19.995	100.222	19.588	49.906	0.474
675.000	411.260	79.995	19.993	100.222	19.607	48.652	0.476
675.500	411.520	79.997	19.995	100.222	19.622	47.640	0.507
676.000	411.791	79.998	19.995	100.219	19.635	46.744	0.524
676.500	412.040	79.996	19.995	100.214	19.653	45.559	0.526
677.000	412.294	79.997	19.994	100.211	19.665	44.715	0.512
677.500	412.540	79.997	19.995	100.205	19.681	43.637	0.501
678.000	412.817	79.997	19.993	100.205	19.695	42.679	0.511
678.500	413.064	79.997	19.994	100.208	19.709	41.763	0.523
679.000	413.304	79.997	19.994	100.211	19.720	41.003	0.506
679.500	413.581	79.996	19.995	100.214	19.737	39.862	0.502
680.000	413.810	79.998	19.995	100.213	19.748	39.089	0.511
680.500	414.048	79.996	19.995	100.208	19.764	38.031	0.487
681.000	414.301	79.996	19.994	100.202	19.777	37.160	0.479
681.500	414.569	79.997	19.993	100.197	19.789	36.339	0.506
682.000	414.786	79.998	19.994	100.194	19.799	35.624	0.503
682.500	415.074	79.996	19.994	100.192	19.809	34.989	0.495
683.000	415.298	79.998	19.993	100.194	19.824	33.972	0.508
683.501	415.540	79.999	19.995	100.200	19.835	33.223	0.489
684.001	415.841	79.998	19.994	100.204	19.844	32.594	0.505
684.501	416.021	79.998	19.994	100.205	19.857	31.731	0.512
685.000	416.255	79.997	19.994	100.213	19.867	31.010	0.448
685.500	416.552	79.998	19.995	100.214	19.878	30.331	0.473
686.000	416.773	79.996	19.994	100.212	19.885	29.827	0.524
686.500	417.067	79.997	19.993	100.210	19.899	28.854	0.517
687.000	417.325	79.997	19.994	100.209	19.909	28.207	0.534
687.500	417.588	79.996	19.993	100.204	19.917	27.633	0.536
688.000	417.850	79.998	19.995	100.202	19.926	27.083	0.523
688.500	418.066	79.997	19.994	100.201	19.936	26.388	0.501
689.000	418.347	79.995	19.994	100.201	19.945	25.750	0.488
689.500	418.609	79.997	19.994	100.199	19.955	25.120	0.520
690.000	418.820	79.996	19.993	100.196	19.959	24.820	0.508
690.500	419.083	79.997	19.994	100.194	19.970	24.060	0.473
691.000	419.305	79.996	19.995	100.191	19.986	22.969	0.480
691.500	419.549	79.997	19.995	100.191	19.990	22.748	0.476
692.000	419.823	79.997	19.995	100.191	20.001	21.974	0.491
692.500	420.071	79.997	19.994	100.192	20.008	21.499	0.520
693.000	420.325	79.998	19.995	100.194	20.018	20.841	0.513
693.500	420.597	79.997	19.994	100.195	20.022	20.568	0.514
694.000	420.834	79.997	19.995	100.193	20.028	20.151	0.517
694.500	421.106	79.998	19.995	100.194	20.037	19.571	0.509
695.000	421.345	79.997	19.994	100.195	20.040	19.368	0.511
695.500	421.598	79.997	19.994	100.196	20.053	18.462	0.502
696.000	421.870	79.996	19.992	100.196	20.062	17.844	0.509
696.500	422.113	79.997	19.993	100.197	20.067	17.516	0.520
697.000	422.401	79.998	19.995	100.201	20.069	17.405	0.523
697.500	422.618	79.998	19.994	100.206	20.080	16.624	0.518
698.000	422.903	79.998	19.994	100.210	20.085	16.325	0.504
698.500	423.145	79.997	19.994	100.215	20.090	15.985	0.515
699.000	423.357	79.998	19.995	100.216	20.094	15.676	0.491
699.500	423.619	79.997	19.994	100.211	20.104	15.029	0.464
700.000	423.849	79.998	19.995	100.208	20.100	15.256	0.483
700.500	424.092	79.997	19.995	100.204	20.109	14.636	0.482
701.000	424.377	79.998	19.994	100.206	20.118	14.034	0.500
701.500	424.647	79.998	19.994	100.210	20.124	13.663	0.541
702.000	424.910	79.998	19.993	100.214	20.125	13.576	0.544
702.500	425.116	79.998	19.993	100.217	20.130	13.215	0.501
703.000	425.357	79.996	19.993	100.219	20.137	12.789	0.458
703.500	425.632	79.999	19.993	100.217	20.143	12.373	0.482
704.000	425.892	79.998	19.994	100.215	20.147	12.077	0.526
704.500	426.153	79.997	19.994	100.212	20.148	12.042	0.528
705.000	426.412	79.999	19.994	100.208	20.155	11.533	0.520
705.500	426.635	79.998	19.993	100.205	20.157	11.450	0.501
706.000	426.901	79.998	19.994	100.202	20.158	11.334	0.486
706.500	427.154	79.999	19.994	100.202	20.165	10.899	0.504
707.000	427.416	79.999	19.994	100.202	20.167	10.766	0.517
707.500	427.646	79.998	19.994	100.206	20.170	10.537	0.503
708.000	427.926	80.000	19.993	100.207	20.172	10.384	0.501
708.500	428.153	79.999	19.994	100.211	20.178	9.998	0.508
709.000	428.427	79.997	19.993	100.210	20.187	9.370	0.504
709.500	428.671	79.999	19.994	100.209	20.183	9.649	0.509
710.000	428.921	79.999	19.993	100.206	20.188	9.346	0.506
710.501	429.189	79.998	19.993	100.207	20.194	8.891	0.506
711.000	429.412	79.999	19.992	100.208	20.198	8.656	0.505
711.500	429.673	79.998	19.994	100.209	20.197	8.693	0.488
712.000	429.908	79.999	19.994	100.208	20.198	8.636	0.490
712.500	430.179	79.998	19.993	100.207	20.203	8.276	0.501
713.000	430.427	79.997	19.993	100.206	20.208	7.937	0.512
713.500	430.671	79.998	19.993	100.200	20.206	8.104	0.506
714.000	430.907	79.996	19.993	100.200	20.212	7.700	0.486
714.500	431.174	79.996	19.993	100.202	20.218	7.277	0.492
715.000	431.437	79.996	19.994	100.203	20.217	7.335	0.517
715.500	431.699	79.997	19.994	100.201	20.220	7.130	0.528
716.000	431.961	79.998	19.994	100.202	20.222	7.051	0.524
716.501	432.208	79.996	19.993	100.200	20.225	6.844	0.517
717.001	432.454	79.997	19.996	100.203	20.232	6.342	0.501
717.501	432.702	79.995	19.994	100.207	20.229	6.532	0.493
718.001	432.946	79.997	19.995	100.207	20.229	6.531	0.493
718.500	433.220	79.996	19.994	100.208	20.236	6.093	0.505
719.000	433.464	79.996	19.994	100.208	20.241	5.711	0.518
719.500	433.720	79.996	19.994	100.205	20.240	5.779	0.509
720.000	433.995	79.995	19.994	100.203	20.243	5.571	0.516
720.500	434.274	79.994	19.994	100.203	20.250	5.111	0.542
721.000	434.495	79.995	19.994	100.201	20.247	5.338	0.527
721.500	434.779	79.996	19.995	100.203	20.248	5.238	0.503
722.001	435.036	79.996	19.994	100.205	20.253	4.938	0.523
722.501	435.271	79.995	19.995	100.205	20.251	5.028	0.517
723.000	435.508	79.996	19.995	100.207	20.251	5.073	0.482
723.500	435.803	79.995	19.994	100.207	20.255	4.787	0.502
724.000	436.034	79.996	19.995	100.205	20.251	5.045	0.529
724.500	436.271	79.995	19.995	100.202	20.256	4.693	0.497
725.000	436.569	79.997	19.995	100.199	20.253	4.916	0.501
725.500	436.788	79.997	19.995	100.198	20.259	4.532	0.526
726.000	437.071	79.994	19.995	100.198	20.260	4.436	0.510
726.500	437.292	79.995	19.994	100.198	20.260	4.452	0.503
727.000	437.532	79.996	19.994	100.202	20.260	4.417	0.482
727.500	437.823	79.996	19.995	100.202	20.264	4.161	0.496
728.000	438.085	79.996	19.994	100.202	20.266	4.059	0.542
728.500	438.335	79.997	19.995	100.206	20.265	4.100	0.532
729.000	438.564	79.997	19.995	100.204	20.268	3.930	0.495
729.500	438.817	79.997	19.996	100.200	20.272	3.611	0.480
730.000	439.066	79.998	19.994	100.201	20.270	3.796	0.492
730.500	439.339	79.997	19.995	100.202	20.274	3.493	0.512
731.000	439.575	79.998	19.997	100.198	20.273	3.596	0.516
731.500	439.821	79.997	19.995	100.200	20.275	3.447	0.496
732.000	440.083	79.997	19.995	100.199	20.283	2.893	0.495
732.500	440.316	79.998	19.995	100.196	20.280	3.098	0.502
733.000	440.631	79.996	19.994	100.196	20.281	3.052	0.522
733.500	440.865	79.999	19.995	100.202	20.276	3.354	0.548
734.000	441.091	79.996	19.995	100.205	20.280	3.098	0.504
734.500	441.362	79.999	19.997	100.206	20.284	2.834	0.478
735.000	441.608	79.997	19.995	100.207	20.284	2.832	0.507
735.500	441.860	79.998	19.994	100.204	20.287	2.631	0.508
736.000	442.114	79.996	19.995	100.197	20.292	2.308	0.502
736.500	442.371	79.997	19.995	100.195	20.290	2.417	0.508
737.000	442.616	79.998	19.995	100.197	20.293	2.246	0.506
737.500	442.862	79.995	19.994	100.196	20.290	2.445	0.497
738.000	443.132	79.996	19.996	100.196	20.295	2.055	0.504
738.500	443.381	79.997	19.994	100.197	20.296	2.024	0.518
739.000	443.619	79.996	19.994	100.195	20.291	2.321	0.503
739.500	443.883	79.996	19.994	100.194	20.295	2.054	0.494
740.000	444.143	79.995	19.994	100.193	20.301	1.673	0.513
740.500	444.379	79.996	19.995	100.194	20.300	1.714	0.510
741.000	444.601	79.995	19.994	100.199	20.303	1.533	0.477
741.500	444.854	79.995	19.996	100.199	20.298	1.880	0.466
742.000	445.136	79.996	19.995	100.197	20.302	1.613	0.505
742.500	445.383	79.995	19.995	100.198	20.306	1.310	0.532
743.000	445.649	79.997	19.995	100.197	20.309	1.168	0.521
743.500	445.868	79.997	19.995	100.193	20.306	1.317	0.499
744.000	446.141	79.994	19.994	100.192	20.304	1.441	0.488
744.500	446.399	79.996	19.995	100.191	20.306	1.310	0.512
745.000	446.617	79.996	19.996	100.193	20.303	1.554	0.504
745.500	446.881	79.995	19.997	100.195	20.306	1.343	0.479
746.000	447.143	79.996	19.997	100.195	20.304	1.441	0.504
746.500	447.391	79.997	19.996	100.196	20.306	1.306	0.518
747.000	447.609	79.995	19.996	100.197	20.306	1.338	0.488
747.500	447.904	79.995	19.995	100.195	20.311	1.024	0.490
748.000	448.131	79.994	19.995	100.194	20.309	1.118	0.518
748.500	448.435	79.995	19.997	100.194	20.308	1.175	0.526
749.000	448.658	79.996	19.995	100.193	20.310	1.063	0.529
749.500	448.905	79.994	19.996	100.192	20.306	1.328	0.499
750.000	449.156	79.995	19.994	100.192	20.308	1.234	0.484
750.500	449.450	79.994	19.996	100.191	20.312	0.928	0.522
751.000	449.709	79.995	19.996	100.192	20.309	1.135	0.549
751.500	449.937	79.994	19.995	100.192	20.314	0.816	0.520
752.000	450.185	79.994	19.996	100.191	20.312	0.941	0.481
752.500	450.426	79.995	19.997	100.192	20.316	0.679	0.483
753.000	450.679	79.996	19.994	100.195	20.311	0.985	0.492
753.500	450.951	79.996	19.996	100.197	20.314	0.805	0.509
754.000	451.208	79.996	19.996	100.198	20.318	0.530	0.527
754.500	451.437	79.997	19.996	100.198	20.315	0.760	0.507
755.000	451.704	79.997	19.995	100.200	20.313	0.840	0.491
755.500	451.942	79.996	19.995	100.199	20.310	1.078	0.501
756.000	452.199	79.996	19.996	100.195	20.317	0.592	0.500
756.500	452.456	79.998	19.996	100.196	20.317	0.566	0.505
757.000	452.649	79.995	19.997	100.196	20.313	0.832	0.482
757.500	452.962	79.996	19.997	100.196	20.320	0.412	0.478
758.000	453.218	79.997	19.996	100.196	20.317	0.620	0.537
758.500	453.434	79.997	19.994	100.197	20.315	0.749	0.521
759.000	453.694	79.996	19.995	100.196	20.322	0.264	0.474
759.500	453.939	79.996	19.994	100.195	20.318	0.555	0.490
760.000	454.251	79.998	19.996	100.192	20.320	0.373	0.531
760.500	454.468	79.997	19.994	100.190	20.319	0.489	0.543
761.000	454.725	79.996	19.992	100.189	20.318	0.528	0.502
761.500	454.994	79.998	19.996	100.190	20.318	0.533	0.500
762.000	455.249	79.998	19.993	100.191	20.319	0.491	0.525
762.500	455.494	79.997	19.994	100.194	20.319	0.472	0.513
763.000	455.728	79.997	19.995	100.198	20.321	0.327	0.490
763.500	456.026	79.997	19.993	100.198	20.316	0.631	0.506
764.000	456.250	79.997	19.994	100.198	20.318	0.535	0.527
764.500	456.519	79.997	19.994	100.198	20.317	0.603	0.507
765.000	456.759	79.998	19.993	100.200	20.317	0.578	0.501
765.500	457.019	79.996	19.994	100.196	20.322	0.251	0.505
766.000	457.264	79.997	19.994	100.196	20.321	0.301	0.503
766.501	457.497	79.997	19.994	100.197	20.318	0.539	0.491
767.001	457.775	79.997	19.994	100.200	20.322	0.240	0.495
767.500	458.013	79.995	19.993	100.197	20.317	0.607	0.514
768.000	458.266	79.996	19.994	100.200	20.319	0.478	0.503
768.501	458.564	79.994	19.994	100.204	20.326	-0.030	0.521
769.001	458.764	79.995	19.994	100.205	20.319	0.467	0.524
769.500	459.040	79.998	19.994	100.203	20.319	0.435	0.487
770.001	459.308	79.998	19.996	100.204	20.323	0.203	0.510
770.501	459.557	79.997	19.995	100.204	20.323	0.188	0.531
771.001	459.842	79.996	19.994	100.200	20.324	0.096	0.526
771.501	460.043	79.997	19.995	100.197	20.322	0.244	0.510
772.000	460.341	79.996	19.993	100.196	20.321	0.321	0.492
772.500	460.583	79.997	19.994	100.195	20.324	0.146	0.520
773.000	460.837	79.997	19.995	100.196	20.318	0.550	0.518
773.501	461.127	79.997	19.995	100.197	20.322	0.251	0.520
774.000	461.352	79.997	19.994	100.198	20.321	0.334	0.529
774.500	461.593	79.996	19.995	100.201	20.317	0.603	0.490
775.000	461.878	79.998	19.994	100.203	20.315	0.699	0.496
775.500	462.111	79.997	19.994	100.203	20.322	0.223	0.522
776.000	462.378	79.998	19.995	100.203	20.319	0.480	0.509
776.500	462.640	79.998	19.995	100.202	20.322	0.273	0.514
777.000	462.874	79.996	19.994	100.199	20.324	0.124	0.513
777.500	463.144	79.995	19.993	100.198	20.321	0.316	0.500
778.000	463.381	79.997	19.994	100.197	20.324	0.101	0.506
778.500	463.625	79.996	19.994	100.199	20.319	0.474	0.494
779.000	463.883	79.996	19.994	100.199	20.325	0.055	0.491
779.500	464.139	79.997	19.995	100.200	20.325	0.046	0.508
780.000	464.358	79.996	19.994	100.204	20.321	0.334	0.495
780.500	464.608	79.996	19.995	100.203	20.319	0.478	0.472
781.000	464.880	79.999	19.995	100.202	20.325	0.048	0.495
781.500	465.155	79.998	19.994	100.205	20.326	-0.024	0.534
782.000	465.406	79.996	19.994	100.204	20.325	0.028	0.537
782.500	465.676	79.997	19.995	100.197	20.320	0.365	0.524
783.000	465.884	79.997	19.995	100.198	20.320	0.413	0.499
783.500	466.160	79.997	19.994	100.198	20.326	0.007	0.481
784.000	466.446	80.000	19.995	100.195	20.324	0.137	0.523
784.500	466.658	79.999	19.995	100.196	20.323	0.194	0.530
785.000	466.910	79.999	19.996	100.198	20.325	0.072	0.481
785.501	467.149	79.998	19.994	100.197	20.326	0.011	0.477
786.001	467.422	79.998	19.994	100.197	20.328	-0.125	0.502
786.501	467.680	79.997	19.994	100.197	20.322	0.282	0.522
787.001	467.968	79.998	19.995	100.197	20.320	0.382	0.539
787.500	468.237	80.000	19.995	100.198	20.321	0.293	0.551
788.001	468.455	79.999	19.994	100.197	20.324	0.124	0.522
788.501	468.710	79.999	19.994	100.197	20.321	0.343	0.480
789.000	468.955	79.997	19.994	100.197	20.320	0.417	0.486
789.500	469.222	79.999	19.994	100.196	20.322	0.282	0.506
790.000	469.482	79.999	19.994	100.193	20.322	0.221	0.519
790.500	469.718	79.998	19.994	100.192	20.326	-0.015	0.512
791.000	470.021	79.997	19.994	100.191	20.325	0.044	0.518
791.500	470.244	79.999	19.994	100.192	20.323	0.196	0.532
792.000	470.536	79.998	19.995	100.195	20.319	0.461	0.521
792.500	470.777	79.998	19.994	100.199	20.322	0.251	0.525
793.001	471.045	79.998	19.993	100.200	20.322	0.236	0.521
793.501	471.285	79.996	19.994	100.201	20.322	0.251	0.508
794.000	471.543	79.996	19.992	100.202	20.320	0.382	0.503
794.500	471.781	79.998	19.994	100.199	20.319	0.485	0.497
795.000	472.035	79.998	19.993	100.200	20.324	0.146	0.494
795.500	472.331	79.997	19.995	100.201	20.325	0.028	0.521
796.000	472.582	79.996	19.994	100.202	20.324	0.122	0.548
796.500	472.796	79.997	19.994	100.202	20.324	0.087	0.506
797.000	473.090	79.996	19.994	100.200	20.324	0.140	0.486
797.500	473.340	79.996	19.994	100.196	20.318	0.526	0.526
798.000	473.603	79.996	19.994	100.195	20.324	0.109	0.529
798.500	473.871	79.997	19.994	100.193	20.319	0.454	0.522
799.000	474.102	79.996	19.995	100.197	20.321	0.295	0.515
799.500	474.372	79.997	19.995	100.199	20.322	0.245	0.500
800.000	474.649	79.996	19.994	100.200	20.320	0.363	0.524
800.500	474.894	79.997	19.995	100.202	20.320	0.397	0.534
801.000	475.122	79.995	19.994	100.202	20.325	0.041	0.497
801.500	475.419	79.996	19.994	100.197	20.322	0.227	0.499
802.000	475.656	79.996	19.994	100.195	20.318	0.507	0.530
802.500	475.928	79.996	19.993	100.193	20.327	-0.063	0.521
803.000	476.188	79.996	19.995	100.192	20.324	0.151	0.520
803.500	476.413	79.995	19.995	100.192	20.322	0.247	0.508
804.000	476.714	79.996	19.994	100.196	20.325	0.074	0.505
804.500	476.904	79.997	19.996	100.197	20.324	0.101	0.509
805.000	477.192	79.994	19.993	100.200	20.327	-0.101	0.485
805.500	477.443	79.996	19.994	100.203	20.320	0.380	0.508
806.000	477.718	79.994	19.994	100.202	20.321	0.310	0.532
806.500	477.942	79.996	19.995	100.198	20.324	0.090	0.513
807.000	478.196	79.998	19.995	100.197	20.323	0.212	0.489
807.500	478.478	79.996	19.995	100.193	20.324	0.144	0.507
808.000	478.715	79.996	19.994	100.191	20.319	0.435	0.528
808.500	478.985	79.996	19.994	100.191	20.318	0.542	0.513
809.000	479.221	79.995	19.994	100.191	20.327	-0.074	0.507
809.500	479.468	79.996	19.996	100.191	20.327	-0.094	0.494
810.000	479.751	79.995	19.994	100.191	20.322	0.229	0.506
810.500	479.955	79.997	19.994	100.190	20.325	0.057	0.509
811.000	480.260	79.996	19.996	100.190	20.324	0.116	0.498
811.500	480.502	79.996	19.995	100.191	20.328	-0.157	0.528
812.000	480.773	79.996	19.995	100.191	20.323	0.177	0.530
812.500	480.997	79.996	19.994	100.191	20.319	0.424	0.504
813.000	481.293	79.996	19.995	100.194	20.321	0.297	0.507
813.501	481.523	79.995	19.996	100.194	20.321	0.343	0.523
814.001	481.779	79.995	19.994	100.197	20.327	-0.059	0.506
814.500	482.048	79.997	19.995	100.199	20.321	0.304	0.506
815.000	482.299	79.997	19.996	100.198	20.324	0.137	0.523
815.500	482.562	79.997	19.995	100.196	20.327	-0.101	0.517
816.000	482.830	79.996	19.994	100.200	20.324	0.122	0.522
816.500	483.094	79.998	19.995	100.199	20.323	0.179	0.532
817.000	483.360	79.996	19.995	100.199	20.322	0.221	0.531
817.500	483.583	79.997	19.994	100.201	20.324	0.096	0.509
818.000	483.851	79.996	19.995	100.201	20.325	0.072	0.490
818.500	484.089	79.996	19.995	100.197	20.319	0.447	0.499
819.000	484.361	79.997	19.996	100.195	20.324	0.118	0.508
819.500	484.613	79.995	19.994	100.194	20.322	0.240	0.517
820.000	484.883	79.996	19.995	100.192	20.324	0.131	0.523
820.500	485.144	79.995	19.995	100.191	20.325	0.050	0.527
821.000	485.386	79.997	19.996	100.191	20.323	0.199	0.517
821.500	485.631	79.995	19.995	100.191	20.327	-0.070	0.495
822.000	485.916	79.996	19.993	100.192	20.322	0.249	0.508
822.500	486.166	79.996	19.995	100.192	20.327	-0.107	0.532
823.000	486.391	79.996	19.996	100.192	20.324	0.148	0.505
823.500	486.654	79.995	19.995	100.192	20.327	-0.054	0.482
824.000	486.929	79.995	19.994	100.193	20.319	0.463	0.513
824.501	487.145	79.996	19.994	100.192	20.320	0.387	0.515
825.001	487.408	79.995	19.995	100.193	20.326	0.013	0.485
825.501	487.647	79.996	19.996	100.194	20.320	0.365	0.491
826.001	487.898	79.996	19.994	100.196	20.320	0.391	0.496
826.500	488.141	79.995	19.995	100.202	20.328	-0.170	0.492
827.000	488.433	79.995	19.994	100.207	20.326	0.002	0.515
827.500	488.681	79.994	19.994	100.208	20.326	0.013	0.538
828.000	488.926	79.995	19.996	100.210	20.320	0.376	0.516
828.500	489.182	79.994	19.994	100.212	20.326	-0.044	0.497
829.000	489.474	79.994	19.994	100.206	20.323	0.199	0.525
829.500	489.727	79.994	19.994	100.201	20.323	0.181	0.546
830.000	489.957	79.995	19.995	100.200	20.324	0.113	0.513
830.500	490.241	79.995	19.995	100.198	20.320	0.365	0.498
831.001	490.512	79.994	19.994	100.196	20.324	0.133	0.535
831.501	490.715	79.996	19.995	100.198	20.325	0.054	0.515
832.000	490.997	79.996	19.996	100.200	20.321	0.336	0.479
832.500	491.244	79.995	19.995	100.200	20.323	0.190	0.507
833.000	491.497	79.995	19.996	100.201	20.322	0.234	0.515
833.500	491.797	79.994	19.995	100.199	20.324	0.146	0.527
834.000	492.019	79.995	19.995	100.197	20.320	0.360	0.538
834.500	492.300	79.995	19.995	100.196	20.320	0.395	0.512
835.000	492.570	79.995	19.995	100.197	20.323	0.196	0.527
835.500	492.830	79.996	19.995	100.199	20.319	0.489	0.541
836.000	493.085	79.995	19.994	100.201	20.325	0.072	0.522
836.500	493.337	79.996	19.997	100.202	20.320	0.415	0.511
837.000	493.600	79.996	19.996	100.204	20.318	0.498	0.511
837.500	493.852	79.997	19.997	100.203	20.323	0.214	0.515
838.000	494.126	79.996	19.996	100.201	20.322	0.249	0.521
838.500	494.387	79.996	19.995	100.198	20.325	0.052	0.531
839.000	494.615	79.996	19.995	100.197	20.320	0.388	0.512
839.500	494.882	79.995	19.995	100.194	20.322	0.258	0.491
840.000	495.191	79.996	19.995	100.193	20.325	0.074	0.536
840.500	495.437	79.996	19.995	100.194	20.323	0.196	0.566
841.000	495.672	79.996	19.995	100.200	20.323	0.175	0.518
841.500	495.965	79.996	19.996	100.201	20.326	0.015	0.504
842.000	496.157	79.995	19.994	100.204	20.320	0.376	0.506
842.500	496.465	79.995	19.995	100.205	20.322	0.232	0.493
843.000	496.705	79.996	19.996	100.207	20.323	0.173	0.525
843.500	496.944	79.996	19.996	100.206	20.325	0.068	0.514
844.000	497.235	79.994	19.995	100.208	20.323	0.190	0.504
844.500	497.514	79.997	19.996	100.208	20.319	0.472	0.549
845.000	497.754	79.996	19.996	100.208	20.322	0.255	0.544
845.500	498.026	79.997	19.996	100.207	20.325	0.061	0.516
846.000	498.281	79.996	19.997	100.205	20.324	0.142	0.519
846.500	498.523	79.996	19.996	100.203	20.323	0.157	0.512
847.000	498.793	79.996	19.995	100.201	20.320	0.402	0.505
847.500	499.069	79.996	19.997	100.203	20.325	0.081	0.529
848.000	499.293	79.995	19.997	100.209	20.323	0.177	0.523
848.500	499.569	79.997	19.997	100.213	20.321	0.295	0.500
849.000	499.804	79.997	19.996	100.218	20.324	0.129	0.505
849.500	500.046	79.996	19.996	100.219	20.323	0.194	0.494
850.000	500.335	79.997	19.996	100.216	20.317	0.624	0.504
850.500	500.594	79.996	19.995	100.210	20.321	0.347	0.540
851.000	500.871	79.994	19.995	100.202	20.321	0.316	0.542
851.500	501.133	79.995	19.995	100.195	20.322	0.238	0.537
852.000	501.407	79.996	19.995	100.194	20.320	0.363	0.537
852.500	501.626	79.997	19.994	100.194	20.318	0.530	0.514
853.000	501.914	79.996	19.993	100.193	20.322	0.238	0.500
853.500	502.156	79.996	19.994	100.193	20.317	0.581	0.519
854.000	502.390	79.996	19.994	100.194	20.324	0.089	0.503
854.500	502.661	79.998	19.995	100.195	20.323	0.161	0.490
855.000	502.894	79.997	19.996	100.196	20.324	0.127	0.504
855.500	503.216	79.997	19.995	100.196	20.321	0.319	0.530
856.000	503.459	79.996	19.994	100.198	20.318	0.554	0.560
856.500	503.725	79.995	19.994	100.197	20.323	0.162	0.537
857.000	503.976	79.997	19.995	100.196	20.317	0.620	0.513
857.500	504.233	79.997	19.995	100.195	20.324	0.124	0.512
858.000	504.466	79.996	19.993	100.197	20.324	0.142	0.499
858.500	504.738	79.995	19.995	100.194	20.321	0.295	0.497
859.000	504.984	79.997	19.994	100.194	20.322	0.273	0.511
859.500	505.274	79.997	19.995	100.194	20.318	0.528	0.527
860.000	505.575	79.996	19.994	100.194	20.321	0.332	0.564
860.501	505.779	79.996	19.994	100.191	20.324	0.118	0.548
861.001	506.031	79.998	19.994	100.190	20.316	0.668	0.481
861.500	506.310	79.998	19.995	100.191	20.323	0.210	0.494
862.000	506.554	79.998	19.995	100.194	20.316	0.673	0.527
862.500	506.822	79.998	19.995	100.195	20.317	0.594	0.517
863.000	507.060	79.997	19.994	100.196	20.319	0.463	0.509
863.500	507.304	79.997	19.995	100.197	20.312	0.924	0.494
864.000	507.565	79.997	19.993	100.196	20.317	0.624	0.493
864.500	507.810	79.998	19.995	100.197	20.316	0.648	0.506
865.000	508.096	79.999	19.994	100.199	20.312	0.952	0.519
865.500	508.352	79.999	19.994	100.198	20.317	0.563	0.537
866.000	508.620	79.999	19.995	100.199	20.314	0.797	0.533
866.500	508.853	79.998	19.995	100.200	20.317	0.605	0.512
867.000	509.120	79.997	19.993	100.199	20.317	0.576	0.500
867.500	509.402	79.997	19.995	100.201	20.321	0.334	0.525
868.000	509.643	79.999	19.995	100.204	20.320	0.386	0.536
868.500	509.871	79.998	19.996	100.206	20.320	0.371	0.496
869.000	510.146	79.999	19.995	100.209	20.322	0.266	0.486
869.500	510.410	79.998	19.994	100.209	20.321	0.293	0.521
870.000	510.635	79.998	19.994	100.205	20.321	0.308	0.514
870.500	510.907	79.998	19.994	100.206	20.322	0.273	0.493
871.000	511.193	79.996	19.993	100.206	20.316	0.659	0.527
871.500	511.371	79.998	19.995	100.202	20.320	0.421	0.511
872.000	511.655	79.999	19.997	100.199	20.321	0.338	0.463
872.500	511.922	79.997	19.995	100.198	20.320	0.371	0.507
873.000	512.198	79.997	19.994	100.194	20.325	0.028	0.547
873.500	512.416	79.996	19.993	100.190	20.314	0.764	0.518
874.000	512.699	79.997	19.993	100.191	20.318	0.504	0.498
874.500	512.931	79.998	19.996	100.191	20.315	0.716	0.508
875.000	513.221	79.994	19.994	100.193	20.318	0.513	0.519
875.500	513.474	79.996	19.995	100.193	20.318	0.495	0.533
876.000	513.734	79.995	19.993	100.193	20.317	0.566	0.528
876.500	513.969	79.996	19.994	100.193	20.316	0.659	0.504
877.000	514.232	79.996	19.994	100.193	20.325	0.085	0.496
877.500	514.486	79.995	19.993	100.192	20.327	-0.052	0.507
878.000	514.757	79.996	19.995	100.191	20.315	0.723	0.521
878.500	514.998	79.997	19.995	100.194	20.317	0.596	0.519
879.001	515.274	79.997	19.993	100.197	20.322	0.273	0.515
879.501	515.546	79.996	19.994	100.197	20.319	0.430	0.533
880.000	515.783	79.996	19.996	100.196	20.316	0.675	0.528
880.500	516.009	79.996	19.995	100.199	20.320	0.386	0.485
881.001	516.271	79.996	19.993	100.197	20.323	0.212	0.475
881.501	516.541	79.997	19.995	100.194	20.320	0.393	0.510
882.000	516.793	79.995	19.995	100.195	20.316	0.661	0.527
882.500	517.081	79.995	19.994	100.195	20.324	0.109	0.532
883.000	517.324	79.998	19.995	100.193	20.317	0.578	0.536
883.500	517.620	79.996	19.996	100.191	20.327	-0.109	0.535
884.000	517.834	79.997	19.995	100.193	20.322	0.251	0.524
884.500	518.090	79.997	19.995	100.192	20.315	0.757	0.490
885.000	518.376	79.996	19.995	100.192	20.315	0.710	0.506
885.500	518.623	79.996	19.995	100.193	20.320	0.404	0.538
886.000	518.852	79.996	19.995	100.195	20.327	-0.054	0.505
886.500	519.133	79.995	19.993	100.196	20.316	0.694	0.493
887.000	519.431	79.997	19.995	100.195	20.324	0.146	0.544
887.500	519.666	79.997	19.994	100.196	20.313	0.854	0.556
888.000	519.912	79.996	19.994	100.195	20.317	0.605	0.507
888.500	520.169	79.996	19.994	100.194	20.321	0.314	0.492
889.000	520.414	79.997	19.995	100.192	20.322	0.280	0.502
889.500	520.701	79.997	19.994	100.193	20.322	0.236	0.517
890.000	520.937	79.997	19.995	100.195	20.322	0.280	0.528
890.500	521.192	79.996	19.992	100.198	20.316	0.633	0.507
891.000	521.423	79.997	19.994	100.204	20.322	0.271	0.488
891.500	521.689	79.997	19.994	100.207	20.321	0.356	0.491
892.000	521.950	79.997	19.994	100.213	20.324	0.092	0.512
892.501	522.211	79.996	19.993	100.214	20.325	0.074	0.525
893.000	522.473	79.998	19.993	100.209	20.326	0.000	0.522
893.500	522.750	79.996	19.994	100.204	20.321	0.347	0.531
894.000	522.979	79.996	19.994	100.201	20.321	0.299	0.523
894.500	523.231	79.997	19.995	100.195	20.320	0.387	0.493
895.000	523.490	79.996	19.995	100.192	20.316	0.683	0.496
895.500	523.726	79.997	19.995	100.196	20.318	0.559	0.503
896.001	523.984	79.997	19.993	100.200	20.320	0.382	0.494
896.501	524.266	79.997	19.995	100.203	20.318	0.504	0.517
897.000	524.504	79.996	19.995	100.207	20.317	0.596	0.530
897.500	524.788	79.997	19.994	100.210	20.325	0.083	0.521
898.000	525.044	79.997	19.995	100.209	20.319	0.436	0.531
898.500	525.291	79.997	19.994	100.207	20.317	0.565	0.522
899.000	525.546	79.996	19.994	100.205	20.321	0.351	0.502
899.500	525.805	79.997	19.994	100.203	20.319	0.491	0.508
900.001	526.058	79.997	19.995	100.203	20.327	-0.085	0.513
900.501	526.274	79.995	19.994	100.205	20.315	0.709	0.490
901.000	526.532	79.996	19.995	100.206	20.317	0.609	0.471
901.500	526.797	79.995	19.994	100.206	20.316	0.640	0.498
902.000	527.050	79.995	19.993	100.207	20.321	0.341	0.521
902.500	527.302	79.997	19.996	100.210	20.317	0.596	0.512
903.000	527.590	79.995	19.996	100.210	20.324	0.098	0.523
903.500	527.809	79.995	19.996	100.213	20.318	0.526	0.524
904.000	528.085	79.995	19.996	100.212	20.320	0.386	0.502
904.500	528.332	79.995	19.994	100.209	20.320	0.360	0.509
905.000	528.603	79.995	19.995	100.203	20.317	0.561	0.520
905.500	528.843	79.996	19.995	100.198	20.318	0.506	0.514
906.000	529.071	79.995	19.996	100.196	20.318	0.517	0.490
906.500	529.339	79.995	19.994	100.202	20.321	0.293	0.482
907.000	529.595	79.995	19.996	100.209	20.322	0.288	0.510
907.500	529.867	79.997	19.997	100.210	20.320	0.376	0.526
908.000	530.109	79.995	19.995	100.213	20.318	0.522	0.521
908.500	530.361	79.997	19.996	100.216	20.318	0.533	0.504
909.000	530.628	79.996	19.995	100.213	20.319	0.443	0.506
909.500	530.874	79.994	19.995	100.212	20.321	0.340	0.516
910.000	531.096	79.995	19.995	100.217	20.319	0.432	0.491
910.500	531.367	79.995	19.994	100.217	20.315	0.703	0.480
911.000	531.601	79.995	19.995	100.213	20.319	0.428	0.499
911.500	531.896	79.995	19.996	100.213	20.318	0.509	0.517
912.000	532.090	79.995	19.993	100.210	20.317	0.568	0.509
912.500	532.381	79.996	19.994	100.208	20.320	0.404	0.487
913.001	532.646	79.994	19.995	100.206	20.319	0.435	0.520
913.500	532.860	79.996	19.993	100.206	20.319	0.483	0.518
914.000	533.141	79.996	19.996	100.209	20.319	0.482	0.488
914.500	533.404	79.997	19.994	100.212	20.315	0.697	0.519
915.000	533.630	79.997	19.994	100.210	20.316	0.666	0.516
915.500	533.913	79.995	19.994	100.210	20.319	0.434	0.499
916.000	534.167	79.997	19.994	100.210	20.320	0.423	0.523
916.500	534.404	79.995	19.994	100.206	20.311	1.024	0.514
917.000	534.665	79.997	19.995	100.204	20.321	0.317	0.495
917.500	534.904	79.997	19.995	100.208	20.319	0.483	0.499
918.000	535.174	79.997	19.995	100.211	20.315	0.733	0.505
918.500	535.434	79.998	19.995	100.216	20.313	0.876	0.519
919.000	535.703	79.997	19.994	100.219	20.317	0.572	0.529
919.500	535.928	79.998	19.994	100.217	20.315	0.729	0.511
920.000	536.181	79.998	19.996	100.211	20.319	0.478	0.486
920.500	536.485	79.999	19.996	100.208	20.322	0.242	0.518
921.000	536.685	79.999	19.995	100.205	20.319	0.491	0.531
921.500	536.950	79.998	19.995	100.202	20.321	0.321	0.485
922.000	537.208	80.000	19.995	100.201	20.322	0.229	0.494
922.500	537.470	79.999	19.995	100.201	20.315	0.734	0.522
923.000	537.716	79.998	19.994	100.201	20.314	0.769	0.514
923.500	537.961	79.999	19.995	100.201	20.322	0.244	0.499
924.000	538.215	79.998	19.995	100.197	20.322	0.225	0.495
924.500	538.487	79.999	19.994	100.196	20.316	0.657	0.513
925.000	538.734	79.998	19.995	100.195	20.323	0.207	0.523
925.500	538.973	79.999	19.995	100.197	20.314	0.828	0.503
926.000	539.205	79.999	19.995	100.199	20.317	0.605	0.478
926.500	539.450	79.998	19.996	100.201	20.318	0.498	0.474
927.000	539.717	79.997	19.995	100.201	20.318	0.557	0.495
927.501	539.981	79.998	19.996	100.202	20.322	0.271	0.521
928.001	540.219	79.997	19.995	100.199	20.320	0.423	0.517
928.500	540.466	79.997	19.995	100.198	20.322	0.271	0.494
929.000	540.718	79.997	19.995	100.197	20.319	0.478	0.492
929.500	540.988	79.998	19.995	100.198	20.316	0.690	0.510
930.000	541.216	79.997	19.996	100.197	20.319	0.450	0.510
930.500	541.498	79.996	19.995	100.198	20.318	0.513	0.504
931.000	541.704	79.997	19.996	100.194	20.319	0.452	0.499
931.500	541.963	79.997	19.996	100.193	20.323	0.175	0.477
932.000	542.254	79.997	19.995	100.193	20.323	0.209	0.507
932.500	542.487	79.996	19.995	100.196	20.315	0.701	0.537
933.000	542.727	79.998	19.997	100.196	20.318	0.493	0.498
933.500	542.998	79.997	19.995	100.200	20.321	0.330	0.492
934.000	543.215	79.997	19.996	100.201	20.319	0.428	0.499
934.500	543.476	79.997	19.995	100.201	20.316	0.675	0.483
935.000	543.752	79.997	19.996	100.200	20.319	0.441	0.508
935.500	544.023	79.997	19.996	100.198	20.319	0.447	0.542
936.000	544.258	79.998	19.997	100.196	20.317	0.611	0.527
936.500	544.498	79.997	19.996	100.194	20.316	0.633	0.490
937.000	544.740	79.997	19.993	100.196	20.320	0.371	0.478
937.500	545.022	79.999	19.996	100.198	20.318	0.537	0.503
938.000	545.275	79.998	19.996	100.203	20.320	0.360	0.530
938.500	545.503	79.997	19.996	100.204	20.315	0.699	0.508
939.000	545.742	79.997	19.994	100.205	20.313	0.854	0.474
939.500	546.007	79.996	19.993	100.203	20.313	0.836	0.485
940.000	546.293	79.997	19.994	100.199	20.320	0.423	0.527
940.500	546.555	79.998	19.994	100.193	20.327	-0.087	0.550
941.000	546.804	79.999	19.995	100.190	20.319	0.452	0.530
941.500	547.037	79.999	19.995	100.190	20.318	0.509	0.496
942.000	547.300	80.000	19.994	100.194	20.319	0.428	0.489
942.500	547.553	79.999	19.994	100.201	20.324	0.129	0.506
943.000	547.812	80.000	19.995	100.206	20.322	0.249	0.514
943.500	548.057	79.999	19.995	100.211	20.321	0.297	0.508
944.000	548.334	80.000	19.994	100.214	20.322	0.240	0.513
944.500	548.594	79.999	19.995	100.216	20.318	0.552	0.529
945.000	548.868	79.999	19.994	100.212	20.323	0.220	0.536
945.500	549.073	80.001	19.995	100.212	20.320	0.384	0.506
946.000	549.364	80.000	19.995	100.211	20.322	0.264	0.487
946.500	549.588	79.999	19.995	100.214	20.324	0.113	0.506
947.000	549.860	79.999	19.994	100.214	20.319	0.491	0.505
947.500	550.105	79.999	19.994	100.216	20.323	0.205	0.506
948.000	550.369	79.999	19.995	100.218	20.325	0.050	0.513
948.500	550.575	80.000	19.994	100.218	20.323	0.157	0.490
949.000	550.887	79.999	19.994	100.216	20.321	0.295	0.494
949.500	551.127	80.000	19.993	100.216	20.326	0.000	0.535
950.000	551.347	79.997	19.994	100.217	20.319	0.480	0.506
950.500	551.599	80.000	19.994	100.216	20.322	0.288	0.466
951.000	551.870	79.998	19.994	100.219	20.322	0.273	0.498
951.500	552.101	79.998	19.994	100.222	20.319	0.474	0.513
952.000	552.363	79.998	19.994	100.224	20.322	0.255	0.497
952.500	552.602	79.999	19.994	100.226	20.323	0.205	0.497
953.000	552.873	79.998	19.994	100.228	20.327	-0.070	0.506
953.500	553.088	79.997	19.994	100.225	20.321	0.353	0.498
954.000	553.372	79.998	19.995	100.224	20.316	0.631	0.492
954.500	553.635	79.997	19.994	100.223	20.324	0.114	0.523
955.000	553.913	79.996	19.995	100.223	20.320	0.395	0.544
955.500	554.176	79.997	19.994	100.221	20.324	0.098	0.541
956.000	554.424	79.996	19.996	100.226	20.321	0.316	0.526
956.500	554.691	79.995	19.994	100.228	20.321	0.347	0.513
957.000	554.963	79.997	19.994	100.228	20.320	0.397	0.527
957.500	555.179	79.995	19.994	100.226	20.320	0.380	0.513
958.000	555.445	79.995	19.995	100.228	20.323	0.209	0.485
958.500	555.702	79.996	19.994	100.229	20.317	0.574	0.503
959.001	555.942	79.996	19.994	100.229	20.316	0.646	0.510
959.500	556.232	79.996	19.993	100.224	20.317	0.613	0.513
960.000	556.460	79.995	19.994	100.202	20.319	0.469	0.524
960.500	556.705	79.995	19.994	100.185	20.321	0.305	0.496
961.000	556.985	79.996	19.994	100.175	20.319	0.441	0.499
961.500	557.228	79.995	19.994	100.173	20.317	0.570	0.524
962.000	557.458	79.995	19.994	100.179	20.319	0.474	0.498
962.500	557.733	79.995	19.994	100.218	20.324	0.092	0.489
963.001	557.988	79.995	19.993	100.260	20.323	0.201	0.518
963.501	558.255	79.997	19.995	100.270	20.321	0.295	0.526
964.001	558.537	79.995	19.995	100.268	20.323	0.157	0.536
964.501	558.790	79.995	19.994	100.266	20.327	-0.055	0.543
965.000	559.003	79.995	19.994	100.249	20.321	0.329	0.501
965.500	559.271	79.995	19.993	100.224	20.325	0.022	0.473
966.000	559.542	79.997	19.994	100.223	20.321	0.312	0.510
966.501	559.764	79.994	19.995	100.228	20.322	0.255	0.516
967.000	560.033	79.995	19.994	100.230	20.321	0.332	0.492
967.501	560.310	79.996	19.995	100.231	20.321	0.316	0.518
968.001	560.539	79.995	19.993	100.232	20.318	0.556	0.526
968.500	560.848	79.995	19.995	100.230	20.320	0.415	0.522
969.000	561.087	79.995	19.995	100.230	20.322	0.266	0.543
969.501	561.360	79.996	19.994	100.229	20.323	0.197	0.530
970.001	561.602	79.995	19.995	100.226	20.321	0.345	0.513
970.501	561.864	79.997	19.994	100.227	20.318	0.532	0.509
971.001	562.112	79.994	19.994	100.229	20.316	0.681	0.507
971.501	562.367	79.995	19.993	100.229	20.319	0.491	0.507
972.001	562.618	79.996	19.996	100.230	20.324	0.126	0.505
972.500	562.896	79.997	19.995	100.234	20.325	0.044	0.518
973.000	563.078	79.995	19.994	100.233	20.318	0.559	0.495
973.500	563.433	79.995	19.993	100.228	20.320	0.371	0.499
974.000	563.651	79.997	19.994	100.225	20.321	0.338	0.555
974.500	563.907	79.997	19.994	100.222	20.321	0.305	0.523
975.000	564.167	79.997	19.993	100.222	20.322	0.271	0.495
975.500	564.417	79.996	19.993	100.222	20.318	0.517	0.513
976.000	564.656	79.995	19.994	100.228	20.324	0.131	0.500
976.500	564.917	79.998	19.995	100.231	20.318	0.508	0.494
977.000	565.163	79.996	19.994	100.234	20.321	0.306	0.503
977.500	565.426	79.997	19.993	100.234	20.319	0.489	0.508
978.000	565.704	79.998	19.994	100.233	20.322	0.247	0.525
978.500	565.960	79.997	19.995	100.229	20.321	0.338	0.537
979.000	566.191	79.996	19.993	100.223	20.323	0.197	0.511
979.500	566.463	79.996	19.992	100.219	20.326	0.011	0.496
980.001	566.743	79.996	19.993	100.218	20.323	0.172	0.528
980.501	566.974	79.996	19.994	100.217	20.318	0.528	0.531
981.000	567.269	79.995	19.993	100.220	20.322	0.249	0.518
981.500	567.472	79.997	19.995	100.225	20.321	0.336	0.512
982.000	567.755	79.998	19.994	100.230	20.318	0.505	0.492
982.500	568.013	79.995	19.994	100.231	20.313	0.840	0.513
983.000	568.268	79.997	19.996	100.232	20.320	0.413	0.527
983.500	568.507	79.998	19.994	100.233	20.320	0.388	0.504
984.000	568.753	79.997	19.994	100.232	20.320	0.410	0.490
984.500	569.034	79.996	19.994	100.229	20.319	0.478	0.506
985.000	569.266	79.996	19.993	100.226	20.319	0.434	0.520
985.500	569.563	79.996	19.994	100.226	20.319	0.469	0.521
986.000	569.824	79.996	19.994	100.224	20.322	0.227	0.544
986.500	570.041	79.996	19.994	100.222	20.322	0.253	0.518
987.000	570.321	79.995	19.994	100.223	20.319	0.478	0.487
987.500	570.590	79.996	19.994	100.223	20.321	0.341	0.523
988.000	570.849	79.997	19.994	100.222	20.321	0.293	0.539
988.500	571.087	79.996	19.993	100.223	20.323	0.173	0.512
989.000	571.355	79.997	19.995	100.224	20.319	0.487	0.501
989.500	571.609	79.996	19.995	100.225	20.319	0.452	0.514
990.000	571.824	79.997	19.996	100.224	20.320	0.421	0.496
990.500	572.117	79.996	19.995	100.205	20.315	0.738	0.489
991.000	572.365	79.996	19.995	100.182	20.315	0.729	0.524
991.500	572.632	79.997	19.993	100.168	20.313	0.897	0.528
992.001	572.860	79.997	19.995	100.159	20.319	0.456	0.505
992.501	573.130	79.995	19.995	100.154	20.318	0.535	0.497
993.000	573.424	79.996	19.995	100.167	20.320	0.382	0.530
993.500	573.684	79.995	19.994	100.193	20.316	0.628	0.559
994.000	573.982	79.997	19.997	100.239	20.321	0.345	0.556
994.500	574.205	79.998	19.996	100.261	20.319	0.471	0.539
995.000	574.471	79.997	19.995	100.271	20.314	0.784	0.505
995.500	574.739	79.996	19.995	100.279	20.318	0.546	0.512
996.000	574.997	79.997	19.994	100.277	20.318	0.511	0.530
996.500	575.248	79.998	19.994	100.244	20.326	-0.013	0.517
997.000	575.505	79.997	19.993	100.225	20.320	0.378	0.509
997.500	575.744	79.997	19.995	100.218	20.318	0.550	0.502
998.000	575.988	79.997	19.995	100.217	20.317	0.615	0.489
998.500	576.269	79.997	19.995	100.217	20.318	0.548	0.504
999.000	576.507	79.996	19.996	100.219	20.316	0.676	0.522
999.500	576.786	79.997	19.994	100.222	20.322	0.242	0.518
1000.000	577.009	79.996	19.994	100.226	20.318	0.500	0.509
1000.500	577.263	79.998	19.995	100.225	20.322	0.269	0.489
1001.000	577.507	79.999	19.995	100.225	20.319	0.454	0.488
1001.500	577.792	79.998	19.995	100.227	20.316	0.676	0.514
1002.000	578.044	79.997	19.995	100.230	20.316	0.633	0.533
1002.500	578.296	79.998	19.997	100.231	20.319	0.485	0.520
1003.001	578.548	79.997	19.994	100.232	20.319	0.471	0.504
1003.500	578.796	79.999	19.995	100.231	20.318	0.557	0.502
1004.000	579.098	79.999	19.995	100.229	20.318	0.524	0.525
1004.500	579.296	79.997	19.994	100.228	20.321	0.310	0.525
1005.000	579.568	79.999	19.995	100.227	20.320	0.380	0.485
1005.500	579.809	79.998	19.995	100.226	20.317	0.587	0.491
1006.000	580.042	79.997	19.995	100.225	20.318	0.502	0.493
1006.500	580.290	79.998	19.994	100.222	20.318	0.546	0.478
1007.000	580.561	79.997	19.994	100.220	20.318	0.544	0.500
1007.500	580.808	79.997	19.993	100.221	20.318	0.548	0.519
1008.000	581.063	79.997	19.994	100.222	20.315	0.724	0.510
1008.500	581.306	79.998	19.996	100.222	20.318	0.544	0.500
1009.000	581.586	79.997	19.995	100.224	20.318	0.524	0.510
1009.500	581.856	79.997	19.995	100.224	20.314	0.775	0.537
1010.000	582.078	79.997	19.994	100.223	20.318	0.502	0.521
1010.501	582.375	79.997	19.995	100.224	20.318	0.495	0.505
1011.001	582.609	79.997	19.995	100.224	20.319	0.449	0.525
1011.500	582.836	79.999	19.995	100.226	20.315	0.731	0.496
1012.000	583.058	79.998	19.995	100.228	20.318	0.530	0.455
1012.500	583.326	79.998	19.996	100.225	20.318	0.495	0.469
1013.000	583.596	79.996	19.995	100.221	20.313	0.840	0.514
1013.500	583.822	79.995	19.995	100.222	20.318	0.496	0.517
1014.000	584.059	79.996	19.995	100.221	20.315	0.753	0.480
1014.500	584.305	79.997	19.996	100.221	20.317	0.607	0.473
1015.000	584.532	79.996	19.995	100.223	20.316	0.650	0.478
1015.501	584.789	79.998	19.995	100.224	20.322	0.288	0.479
1016.000	585.031	79.996	19.994	100.225	20.317	0.618	0.492
1016.500	585.303	79.996	19.996	100.226	20.324	0.142	0.506
1017.001	585.569	79.997	19.995	100.226	20.321	0.334	0.526
1017.501	585.787	79.996	19.995	100.226	20.321	0.327	0.511
1018.001	586.054	79.997	19.995	100.228	20.317	0.581	0.485
1018.501	586.349	79.996	19.995	100.227	20.317	0.570	0.524
1019.001	586.562	79.996	19.995	100.227	20.322	0.268	0.535
1019.500	586.824	79.994	19.995	100.227	20.318	0.544	0.491
1020.000	587.055	79.996	19.994	100.228	20.318	0.524	0.484
1020.500	587.303	79.996	19.995	100.229	20.316	0.633	0.487
1021.000	587.580	79.997	19.995	100.230	20.316	0.666	0.502
1021.500	587.829	79.997	19.995	100.230	20.314	0.764	0.525
1022.000	588.079	79.998	19.994	100.227	20.316	0.688	0.512
1022.500	588.322	79.996	19.995	100.222	20.315	0.700	0.496
1023.000	588.584	79.997	19.995	100.222	20.313	0.834	0.499
1023.500	588.847	79.998	19.996	100.222	20.315	0.712	0.515
1024.000	589.089	79.997	19.995	100.222	20.317	0.607	0.515
1024.500	589.351	79.997	19.995	100.225	20.315	0.755	0.504
1025.000	589.588	79.999	19.995	100.228	20.314	0.784	0.502
1025.501	589.863	79.998	19.995	100.228	20.320	0.364	0.506
1026.001	590.088	79.999	19.996	100.228	20.314	0.827	0.506
1026.500	590.375	79.999	19.995	100.228	20.319	0.441	0.506
1027.000	590.623	79.999	19.995	100.228	20.311	1.004	0.523
1027.500	590.848	79.998	19.996	100.227	20.313	0.831	0.504
1028.001	591.133	79.998	19.995	100.228	20.317	0.615	0.492
1028.501	591.398	79.998	19.994	100.228	20.314	0.816	0.530
1029.001	591.626	79.998	19.995	100.228	20.316	0.676	0.522
1029.501	591.879	79.998	19.994	100.228	20.314	0.827	0.487
1030.000	592.110	79.999	19.995	100.228	20.314	0.812	0.482
1030.500	592.342	79.998	19.994	100.228	20.316	0.676	0.473
1031.000	592.649	79.998	19.995	100.228	20.316	0.668	0.501
1031.500	592.894	79.998	19.994	100.229	20.320	0.421	0.545
1032.000	593.162	79.999	19.993	100.229	20.315	0.724	0.533
1032.501	593.410	79.997	19.994	100.230	20.319	0.426	0.515
1033.001	593.636	79.997	19.994	100.231	20.317	0.591	0.495
1033.500	593.885	79.998	19.995	100.230	20.319	0.441	0.474
1034.000	594.158	79.998	19.994	100.231	20.316	0.674	0.499
1034.500	594.442	79.998	19.993	100.230	20.316	0.687	0.540
1035.000	594.684	79.996	19.993	100.230	20.312	0.925	0.542
1035.500	594.945	79.996	19.994	100.230	20.317	0.594	0.515
1036.000	595.203	79.995	19.993	100.229	20.311	0.975	0.511
1036.500	595.472	79.995	19.994	100.228	20.321	0.345	0.523
1037.000	595.720	79.995	19.992	100.228	20.322	0.222	0.522
1037.500	595.965	79.996	19.995	100.228	20.314	0.781	0.505
1038.000	596.233	79.995	19.993	100.228	20.314	0.781	0.503
1038.500	596.461	79.995	19.994	100.231	20.316	0.663	0.505
1039.000	596.709	79.995	19.993	100.234	20.318	0.506	0.487
1039.501	597.002	79.995	19.993	100.236	20.314	0.829	0.509
1040.001	597.239	79.995	19.994	100.236	20.320	0.417	0.535
1040.500	597.506	79.996	19.994	100.237	20.311	0.967	0.517
1041.000	597.745	79.994	19.993	100.236	20.315	0.705	0.505
1041.500	597.990	79.997	19.993	100.232	20.317	0.620	0.495
1042.000	598.244	79.996	19.996	100.229	20.318	0.526	0.491
1042.501	598.521	79.997	19.994	100.229	20.324	0.109	0.515
1043.001	598.762	79.997	19.994	100.229	20.315	0.731	0.525
1043.500	599.019	79.996	19.994	100.229	20.319	0.461	0.508
1044.000	599.285	79.996	19.994	100.230	20.320	0.378	0.510
1044.500	599.524	79.996	19.994	100.233	20.321	0.327	0.514
1045.001	599.814	79.996	19.995	100.233	20.321	0.310	0.517
1045.501	600.046	79.996	19.995	100.234	20.317	0.618	0.526
1046.001	600.288	79.997	19.994	100.234	20.319	0.430	0.498
1046.501	600.573	79.998	19.995	100.234	20.314	0.818	0.500
1047.001	600.785	79.997	19.995	100.234	20.321	0.330	0.512
1047.500	601.054	79.997	19.994	100.234	20.318	0.543	0.490
1048.000	601.313	79.995	19.994	100.234	20.321	0.323	0.504
1048.500	601.560	79.997	19.994	100.235	20.319	0.491	0.517
1049.000	601.838	79.997	19.996	100.237	20.321	0.310	0.515
1049.500	602.071	79.997	19.995	100.236	20.317	0.624	0.518
1050.000	602.344	79.996	19.994	100.235	20.319	0.469	0.508
1050.500	602.567	79.996	19.995	100.233	20.323	0.157	0.501
1051.000	602.823	79.997	19.994	100.232	20.322	0.277	0.488
1051.500	603.097	79.997	19.994	100.231	20.322	0.273	0.504
1052.000	603.348	79.996	19.994	100.232	20.321	0.321	0.527
1052.500	603.585	79.998	19.994	100.236	20.316	0.648	0.507
1053.000	603.838	79.997	19.994	100.237	20.318	0.495	0.489
1053.501	604.087	79.996	19.995	100.237	20.321	0.330	0.496
1054.001	604.341	79.996	19.994	100.235	20.320	0.401	0.502
1054.501	604.605	79.997	19.994	100.237	20.321	0.329	0.510
1055.001	604.855	79.996	19.994	100.235	20.321	0.301	0.516
1055.500	605.115	79.998	19.994	100.234	20.325	0.074	0.512
1056.000	605.416	79.996	19.994	100.234	20.320	0.390	0.536
1056.500	605.623	79.996	19.995	100.233	20.320	0.367	0.534
1057.000	605.913	79.997	19.993	100.231	20.321	0.314	0.502
1057.500	606.173	79.996	19.994	100.230	20.322	0.264	0.524
1058.001	606.435	79.997	19.995	100.230	20.326	0.004	0.536
1058.502	606.672	79.997	19.994	100.231	20.320	0.382	0.510
1059.001	606.897	79.996	19.995	100.232	20.321	0.308	0.481
1059.500	607.186	79.997	19.995	100.232	20.325	0.031	0.488
1060.000	607.412	79.995	19.994	100.232	20.322	0.234	0.514
1060.500	607.662	79.998	19.995	100.232	20.320	0.423	0.496
1061.001	607.937	79.996	19.994	100.231	20.322	0.234	0.501
1061.501	608.166	79.996	19.994	100.231	20.319	0.447	0.515
1062.001	608.416	79.996	19.994	100.234	20.320	0.362	0.491
1062.501	608.678	79.996	19.994	100.237	20.321	0.330	0.495
1063.000	608.970	79.996	19.994	100.240	20.320	0.378	0.533
1063.500	609.192	79.995	19.994	100.240	20.317	0.620	0.535
1064.001	609.457	79.996	19.994	100.240	20.319	0.473	0.501
1064.501	609.711	79.996	19.994	100.236	20.320	0.380	0.502
1065.000	609.970	79.995	19.994	100.235	20.321	0.330	0.515
1065.500	610.218	79.996	19.994	100.238	20.320	0.401	0.510
1066.000	610.471	79.996	19.994	100.242	20.318	0.506	0.505
1066.500	610.737	79.995	19.994	100.246	20.319	0.480	0.510
1067.000	610.942	79.995	19.994	100.250	20.320	0.408	0.495
1067.501	611.216	79.997	19.994	100.250	20.322	0.253	0.475
1068.001	611.461	79.995	19.994	100.246	20.322	0.264	0.499
1068.501	611.754	79.997	19.994	100.241	20.320	0.414	0.529
1069.001	611.986	79.996	19.994	100.237	20.321	0.310	0.531
1069.501	612.274	79.997	19.995	100.236	20.321	0.290	0.522
1070.001	612.477	79.996	19.994	100.237	20.319	0.473	0.505
1070.501	612.770	79.997	19.994	100.236	20.321	0.332	0.494
1071.001	613.006	79.998	19.995	100.237	20.319	0.430	0.512
1071.501	613.285	79.997	19.994	100.244	20.319	0.449	0.522
1072.001	613.550	79.997	19.994	100.246	20.320	0.421	0.530
1072.501	613.780	79.996	19.995	100.245	20.317	0.615	0.520
1073.001	614.053	79.998	19.995	100.248	20.317	0.593	0.499
1073.501	614.297	79.998	19.995	100.248	20.314	0.822	0.510
1074.001	614.554	79.997	19.995	100.242	20.318	0.548	0.509
1074.501	614.793	79.998	19.995	100.237	20.317	0.583	0.499
1075.001	615.076	79.996	19.995	100.238	20.316	0.648	0.509
1075.502	615.319	79.997	19.995	100.237	20.315	0.724	0.524
1076.001	615.583	79.997	19.995	100.237	20.319	0.473	0.517
1076.500	615.817	79.997	19.994	100.242	20.320	0.373	0.503
1077.000	616.060	79.997	19.994	100.249	20.317	0.613	0.487
1077.500	616.296	79.997	19.994	100.251	20.318	0.506	0.478
1078.001	616.593	79.997	19.994	100.251	20.316	0.637	0.506
1078.501	616.851	79.996	19.995	100.254	20.317	0.609	0.544
1079.001	617.099	79.998	19.995	100.249	20.316	0.644	0.530
1079.501	617.357	79.996	19.994	100.242	20.318	0.530	0.505
1080.001	617.603	79.997	19.994	100.239	20.319	0.469	0.505
1080.500	617.842	79.998	19.995	100.242	20.309	1.152	0.495
1081.000	618.122	79.996	19.995	100.244	20.315	0.720	0.502
1081.500	618.375	79.995	19.994	100.248	20.313	0.842	0.526
1082.000	618.629	79.997	19.995	100.249	20.318	0.497	0.520
1082.500	618.886	79.996	19.995	100.248	20.313	0.892	0.509
1083.000	619.167	79.996	19.995	100.246	20.318	0.558	0.525
1083.500	619.357	79.996	19.995	100.248	20.315	0.751	0.505
1084.000	619.608	79.997	19.995	100.246	20.319	0.486	0.456
1084.500	619.871	79.996	19.994	100.246	20.320	0.402	0.477
1085.000	620.149	79.997	19.994	100.249	20.315	0.705	0.527
1085.500	620.381	79.996	19.996	100.250	20.315	0.746	0.525
1086.000	620.623	79.997	19.995	100.244	20.315	0.726	0.492
1086.500	620.868	79.996	19.995	100.242	20.315	0.713	0.481
1087.000	621.129	79.997	19.995	100.244	20.314	0.794	0.497
1087.500	621.401	79.996	19.996	100.246	20.315	0.711	0.519
1088.000	621.630	79.996	19.995	100.249	20.315	0.748	0.517
1088.501	621.861	79.998	19.996	100.253	20.312	0.965	0.481
1089.001	622.135	79.996	19.995	100.259	20.313	0.877	0.483
1089.501	622.393	79.997	19.994	100.257	20.315	0.713	0.518
1090.001	622.646	79.996	19.995	100.251	20.319	0.474	0.522
1090.501	622.927	79.997	19.995	100.247	20.316	0.672	0.523
1091.001	623.158	79.997	19.995	100.247	20.315	0.702	0.523
1091.501	623.363	79.995	19.995	100.241	20.316	0.689	0.474
1092.001	623.641	79.996	19.995	100.239	20.314	0.796	0.459
1092.501	623.885	79.997	19.995	100.242	20.312	0.910	0.503
1093.001	624.163	79.995	19.995	100.243	20.316	0.665	0.522
1093.500	624.411	79.997	19.995	100.243	20.315	0.737	0.524
1094.000	624.650	79.997	19.995	100.244	20.318	0.556	0.507
1094.500	624.891	79.996	19.995	100.248	20.319	0.489	0.484
1095.000	625.170	79.996	19.995	100.246	20.317	0.574	0.500
1095.500	625.408	79.996	19.995	100.248	20.321	0.329	0.518
1096.000	625.657	79.996	19.995	100.250	20.317	0.591	0.502
1096.500	625.892	79.996	19.995	100.251	20.315	0.751	0.485
1097.000	626.182	79.997	19.995	100.251	20.316	0.642	0.505
1097.500	626.387	79.998	19.995	100.251	20.316	0.630	0.510
1098.000	626.665	79.996	19.994	100.246	20.317	0.606	0.489
1098.500	626.931	79.997	19.996	100.241	20.317	0.587	0.514
1099.000	627.182	79.997	19.995	100.240	20.311	0.986	0.530
1099.500	627.456	79.997	19.996	100.237	20.315	0.707	0.521
1100.001	627.686	79.996	19.994	100.238	20.313	0.845	0.515
1100.501	627.944	79.994	19.994	100.238	20.316	0.637	0.496
1101.001	628.203	79.996	19.994	100.240	20.320	0.417	0.503
1101.500	628.424	79.995	19.994	100.244	20.316	0.666	0.498
1102.000	628.725	79.997	19.996	100.248	20.318	0.539	0.501
1102.500	628.977	79.997	19.995	100.252	20.314	0.799	0.538
1103.000	629.224	79.998	19.995	100.254	20.318	0.532	0.526
1103.501	629.476	79.996	19.993	100.251	20.314	0.777	0.499
1104.001	629.720	79.996	19.995	100.247	20.315	0.735	0.497
1104.502	629.996	79.999	19.995	100.246	20.318	0.498	0.508
1105.001	630.232	79.998	19.994	100.242	20.312	0.921	0.516
1105.500	630.506	79.997	19.994	100.241	20.316	0.639	0.511
1106.000	630.736	79.997	19.994	100.242	20.315	0.703	0.507
1106.500	631.009	79.998	19.995	100.243	20.319	0.450	0.503
1107.000	631.237	79.998	19.994	100.239	20.314	0.764	0.502
1107.500	631.516	79.998	19.994	100.242	20.314	0.792	0.504
1108.000	631.781	79.998	19.995	100.245	20.317	0.580	0.526
1108.500	632.012	79.997	19.995	100.247	20.315	0.753	0.520
1109.000	632.271	79.997	19.996	100.245	20.316	0.633	0.493
1109.500	632.537	79.997	19.997	100.245	20.318	0.552	0.508
1110.000	632.823	79.997	19.995	100.241	20.319	0.449	0.539
1110.500	633.051	80.000	19.995	100.239	20.316	0.653	0.533
1111.000	633.307	79.998	19.995	100.240	20.315	0.755	0.499
1111.500	633.584	79.997	19.995	100.241	20.314	0.768	0.509
1112.000	633.832	79.997	19.996	100.242	20.315	0.722	0.529
1112.500	634.088	79.997	19.996	100.249	20.318	0.552	0.514
1113.000	634.368	79.997	19.995	100.247	20.312	0.943	0.519
1113.500	634.624	79.998	19.996	100.247	20.316	0.659	0.536
1114.000	634.913	79.996	19.996	100.250	20.304	1.453	0.541
1114.500	635.164	79.997	19.995	100.254	20.313	0.879	0.543
1115.000	635.428	79.995	19.994	100.250	20.315	0.714	0.528
1115.500	635.657	79.996	19.996	100.248	20.312	0.953	0.504
1116.000	635.929	79.996	19.996	100.246	20.313	0.851	0.497
1116.501	636.193	79.995	19.996	100.246	20.315	0.711	0.519
1117.001	636.488	79.996	19.995	100.244	20.311	0.969	0.547
1117.500	636.766	79.995	19.997	100.246	20.316	0.672	0.566
1118.000	636.980	79.996	19.996	100.253	20.314	0.783	0.533
1118.500	637.229	79.996	19.996	100.257	20.311	0.984	0.478
1119.000	637.515	79.997	19.995	100.256	20.310	1.085	0.499
1119.500	637.784	79.997	19.995	100.258	20.315	0.740	0.545
1120.000	638.030	79.996	19.995	100.254	20.310	1.087	0.535
1120.500	638.314	79.997	19.995	100.247	20.314	0.801	0.522
1121.000	638.547	79.996	19.996	100.242	20.308	1.171	0.523
1121.500	638.801	79.995	19.995	100.237	20.311	0.995	0.502
1122.000	639.052	79.995	19.995	100.231	20.310	1.045	0.496
1122.500	639.336	79.996	19.994	100.234	20.313	0.873	0.520
1123.000	639.569	79.995	19.995	100.239	20.312	0.945	0.526
1123.500	639.841	79.995	19.995	100.242	20.312	0.938	0.511
1124.000	640.133	79.997	19.994	100.243	20.315	0.727	0.534
1124.500	640.336	79.996	19.994	100.245	20.314	0.803	0.529
1125.000	640.627	79.997	19.995	100.245	20.312	0.899	0.495
1125.500	640.898	79.996	19.994	100.243	20.312	0.938	0.528
1126.000	641.108	79.996	19.995	100.241	20.312	0.905	0.521
1126.501	641.362	79.997	19.994	100.244	20.308	1.178	0.473
1127.001	641.638	79.997	19.995	100.241	20.311	0.991	0.497
1127.500	641.923	79.996	19.994	100.242	20.311	0.999	0.546
1128.001	642.170	79.996	19.995	100.241	20.312	0.938	0.546
1128.501	642.444	79.996	19.994	100.239	20.314	0.774	0.526
1129.001	642.684	79.996	19.994	100.240	20.315	0.726	0.517
1129.501	642.934	79.996	19.995	100.242	20.315	0.716	0.502
1130.001	643.216	79.996	19.994	100.242	20.313	0.842	0.511
1130.501	643.474	79.995	19.994	100.248	20.315	0.696	0.536
1131.001	643.710	79.998	19.994	100.253	20.315	0.711	0.517
1131.501	643.946	79.996	19.994	100.253	20.313	0.831	0.483
1132.001	644.209	79.997	19.994	100.258	20.312	0.921	0.485
1132.502	644.483	79.997	19.995	100.260	20.310	1.089	0.518
1133.002	644.734	79.997	19.994	100.261	20.310	1.049	0.531
1133.501	644.956	79.996	19.994	100.259	20.309	1.147	0.499
1134.001	645.230	79.996	19.994	100.254	20.311	1.032	0.485
1134.501	645.490	79.998	19.994	100.248	20.310	1.075	0.515
1135.000	645.746	79.997	19.994	100.244	20.307	1.237	0.525
1135.500	646.051	79.997	19.994	100.244	20.312	0.956	0.539
1136.000	646.267	79.996	19.994	100.248	20.310	1.087	0.541
1136.500	646.523	79.996	19.995	100.252	20.308	1.215	0.497
1137.000	646.795	79.996	19.994	100.258	20.312	0.934	0.500
1137.501	647.037	79.995	19.995	100.262	20.310	1.063	0.521
1138.001	647.278	79.996	19.995	100.260	20.308	1.195	0.499
1138.500	647.538	79.996	19.995	100.259	20.312	0.910	0.492
1139.000	647.787	79.998	19.995	100.258	20.310	1.051	0.505
1139.500	648.072	79.994	19.994	100.255	20.312	0.905	0.521
1140.000	648.319	79.993	19.994	100.253	20.312	0.910	0.533
1140.500	648.580	79.996	19.994	100.253	20.314	0.801	0.520
1141.001	648.846	79.996	19.995	100.252	20.310	1.095	0.518
1141.501	649.083	79.997	19.995	100.255	20.311	1.014	0.515
1142.001	649.367	79.996	19.994	100.256	20.311	0.971	0.512
1142.501	649.605	79.995	19.995	100.256	20.309	1.128	0.522
1143.001	649.888	79.996	19.996	100.258	20.314	0.809	0.521
1143.501	650.140	79.995	19.995	100.260	20.307	1.252	0.528
1144.001	650.371	79.997	19.995	100.261	20.312	0.953	0.509
1144.501	650.653	79.994	19.995	100.265	20.308	1.195	0.498
1145.001	650.918	79.996	19.996	100.267	20.308	1.228	0.530
1145.501	651.172	79.997	19.994	100.261	20.310	1.093	0.533
1146.002	651.433	79.994	19.995	100.255	20.308	1.195	0.517
1146.501	651.649	79.995	19.994	100.254	20.308	1.226	0.496
1147.000	651.914	79.994	19.995	100.254	20.309	1.134	0.479
1147.500	652.175	79.996	19.995	100.253	20.314	0.809	0.504
1148.000	652.453	79.996	19.995	100.257	20.312	0.916	0.533
1148.501	652.676	79.996	19.995	100.259	20.308	1.232	0.520
1149.001	652.934	79.995	19.995	100.259	20.307	1.250	0.491
1149.500	653.186	79.997	19.995	100.257	20.308	1.176	0.495
1150.000	653.413	79.997	19.995	100.255	20.314	0.825	0.495
1150.500	653.686	79.996	19.995	100.257	20.315	0.720	0.490
1151.000	653.944	79.998	19.995	100.263	20.315	0.726	0.515
1151.501	654.207	79.995	19.994	100.264	20.314	0.818	0.526
1152.001	654.470	79.996	19.996	100.266	20.313	0.888	0.523
1152.500	654.726	79.996	19.994	100.269	20.312	0.920	0.522
1153.000	655.044	79.996	19.994	100.267	20.314	0.796	0.547
1153.500	655.266	79.998	19.995	100.266	20.312	0.949	0.557
1154.001	655.528	79.997	19.995	100.263	20.312	0.945	0.512
1154.501	655.770	79.998	19.995	100.257	20.312	0.920	0.494
1155.001	656.002	79.996	19.995	100.252	20.315	0.737	0.488
1155.501	656.291	79.998	19.993	100.255	20.313	0.836	0.497
1156.001	656.503	79.999	19.994	100.254	20.313	0.849	0.511
1156.501	656.809	79.997	19.994	100.257	20.310	1.056	0.509
1157.001	657.035	79.996	19.995	100.265	20.309	1.108	0.525
1157.502	657.253	79.998	19.994	100.270	20.311	0.980	0.489
1158.001	657.522	79.998	19.995	100.271	20.313	0.866	0.466
1158.501	657.797	79.998	19.994	100.271	20.313	0.890	0.515
1159.001	658.064	79.997	19.995	100.271	20.313	0.835	0.543
1159.500	658.282	79.998	19.994	100.268	20.314	0.805	0.514
1160.000	658.542	79.999	19.994	100.266	20.313	0.842	0.482
1160.500	658.808	79.998	19.995	100.266	20.313	0.873	0.502
1161.000	659.034	79.999	19.993	100.266	20.314	0.820	0.509
1161.500	659.309	79.998	19.995	100.265	20.308	1.213	0.496
1162.000	659.577	80.001	19.996	100.268	20.313	0.883	0.522
1162.500	659.830	79.999	19.994	100.268	20.310	1.043	0.532
1163.000	660.093	79.999	19.994	100.267	20.309	1.123	0.519
1163.500	660.350	79.996	19.994	100.269	20.312	0.908	0.518
1164.000	660.596	79.997	19.994	100.270	20.312	0.907	0.511
1164.500	660.838	79.997	19.994	100.270	20.317	0.624	0.496
1165.000	661.109	79.997	19.994	100.271	20.314	0.796	0.501
1165.501	661.367	79.997	19.994	100.272	20.310	1.093	0.521
1166.001	661.581	79.998	19.993	100.273	20.312	0.949	0.501
1166.501	661.856	79.996	19.994	100.272	20.313	0.833	0.481
1167.002	662.139	79.995	19.994	100.269	20.312	0.921	0.523
1167.501	662.368	79.997	19.995	100.269	20.309	1.104	0.535
1168.000	662.625	79.997	19.994	100.268	20.308	1.173	0.499
1168.500	662.860	79.997	19.995	100.266	20.310	1.088	0.489
1169.000	663.130	79.998	19.995	100.261	20.312	0.923	0.499
1169.501	663.352	79.995	19.994	100.263	20.314	0.803	0.498
1170.001	663.604	79.996	19.994	100.264	20.308	1.209	0.483
1170.501	663.892	79.997	19.995	100.263	20.310	1.077	0.507
1171.001	664.136	79.997	19.994	100.262	20.310	1.054	0.536
1171.501	664.362	79.997	19.996	100.265	20.309	1.132	0.501
1172.001	664.644	79.995	19.995	100.267	20.309	1.152	0.489
1172.501	664.898	79.995	19.994	100.267	20.313	0.840	0.522
1173.001	665.138	79.996	19.996	100.268	20.313	0.840	0.515
1173.501	665.299	79.994	19.995	100.271	20.311	0.980	0.447
1174.001	665.542	79.997	19.995	100.272	20.307	1.263	0.402
1174.501	665.887	79.999	19.995	100.270	20.309	1.134	0.496
1175.001	666.125	79.997	19.995	100.267	20.311	1.010	0.585
1175.501	666.334	79.997	19.995	100.264	20.310	1.040	0.515
1176.001	666.598	79.997	19.996	100.258	20.312	0.936	0.460
1176.501	666.896	79.997	19.995	100.256	20.312	0.938	0.517
1177.001	667.125	79.997	19.995	100.256	20.311	0.986	0.545
1177.500	667.389	79.996	19.995	100.257	20.314	0.827	0.510
1178.000	667.617	79.997	19.996	100.260	20.311	0.993	0.492
1178.500	667.895	79.995	19.995	100.265	20.312	0.927	0.498
1179.000	668.152	79.996	19.995	100.267	20.312	0.923	0.521
1179.500	668.376	79.999	19.996	100.269	20.316	0.655	0.509
1180.000	668.637	79.999	19.997	100.269	20.315	0.713	0.483
1180.500	668.905	79.996	19.996	100.269	20.311	0.982	0.507
1181.000	669.138	79.999	19.995	100.269	20.312	0.918	0.515
1181.500	669.362	79.999	19.996	100.269	20.314	0.781	0.479
1182.000	669.612	79.999	19.995	100.268	20.312	0.945	0.466
1182.500	669.877	79.997	19.995	100.268	20.311	1.016	0.495
1183.000	670.180	79.995	19.995	100.268	20.309	1.149	0.542
1183.500	670.406	79.995	19.995	100.268	20.311	0.980	0.548
1184.000	670.612	79.996	19.994	100.267	20.307	1.250	0.480
1184.500	670.890	79.999	19.994	100.267	20.314	0.785	0.458
1185.000	671.171	79.997	19.995	100.264	20.310	1.093	0.522
1185.500	671.406	80.000	19.996	100.264	20.308	1.217	0.537
1186.000	671.624	79.998	19.993	100.264	20.309	1.162	0.484
1186.500	671.909	79.997	19.995	100.265	20.309	1.136	0.478
1187.000	672.171	80.000	19.995	100.264	20.310	1.080	0.526
1187.500	672.416	80.000	19.995	100.266	20.312	0.907	0.528
1188.000	672.607	79.998	19.994	100.266	20.308	1.202	0.471
1188.500	672.864	79.999	19.994	100.266	20.311	1.025	0.441
1189.001	673.154	79.999	19.995	100.265	20.310	1.069	0.498
1189.501	673.409	79.997	19.994	100.266	20.310	1.049	0.547
1190.000	673.653	80.000	19.996	100.265	20.311	1.008	0.522
1190.500	673.911	79.998	19.996	100.265	20.310	1.075	0.500
1191.000	674.140	79.996	19.996	100.266	20.316	0.683	0.494
1191.500	674.413	79.998	19.996	100.267	20.310	1.047	0.495
1192.000	674.663	79.998	19.995	100.267	20.317	0.595	0.513
1192.500	674.922	79.997	19.995	100.268	20.314	0.796	0.516
1193.000	675.220	79.997	19.994	100.268	20.307	1.261	0.533
1193.500	675.459	79.997	19.995	100.268	20.311	0.988	0.547
1194.000	675.735	79.996	19.995	100.268	20.312	0.938	0.526
1194.500	675.995	79.998	19.995	100.267	20.320	0.412	0.525
1195.000	676.179	79.996	19.995	100.268	20.317	0.619	0.490
1195.501	676.464	79.997	19.996	100.271	20.313	0.866	0.457
1196.002	676.770	79.995	19.995	100.272	20.316	0.637	0.530
1196.501	677.010	79.994	19.994	100.274	20.312	0.956	0.568
1197.000	677.196	79.996	19.995	100.275	20.312	0.918	0.486
1197.500	677.442	79.996	19.996	100.275	20.307	1.239	0.429
1198.000	677.722	79.997	19.996	100.273	20.317	0.580	0.479
1198.500	677.996	79.996	19.995	100.272	20.312	0.908	0.540
1199.000	678.239	79.997	19.997	100.270	20.311	0.982	0.536
1199.500	678.469	79.994	19.996	100.269	20.309	1.123	0.496
1200.000	678.706	79.994	19.995	100.269	20.315	0.696	0.470
1200.501	678.941	79.994	19.996	100.269	20.310	1.062	0.469
1201.001	679.206	79.995	19.995	100.268	20.312	0.947	0.486
1201.500	679.485	79.995	19.996	100.269	20.313	0.888	0.522
1202.001	679.704	79.992	19.994	100.269	20.313	0.836	0.522
1202.501	679.992	79.995	19.996	100.269	20.311	0.984	0.503
1203.000	680.243	79.997	19.997	100.269	20.312	0.953	0.522
1203.500	680.513	79.993	19.996	100.269	20.309	1.125	0.530
1204.001	680.736	79.996	19.997	100.269	20.311	1.025	0.507
1204.501	681.007	79.997	19.997	100.269	20.310	1.064	0.494
1205.000	681.266	79.995	19.995	100.269	20.313	0.833	0.512
1205.500	681.509	79.994	19.995	100.269	20.316	0.687	0.516
1206.000	681.737	79.995	19.997	100.268	20.313	0.870	0.486
1206.500	682.009	79.996	19.996	100.268	20.309	1.161	0.485
1207.000	682.259	79.997	19.996	100.268	20.309	1.113	0.511
1207.500	682.528	79.997	19.996	100.267	20.313	0.883	0.520
1208.000	682.789	79.995	19.995	100.268	20.306	1.331	0.525
1208.500	683.028	79.996	19.996	100.268	20.311	1.014	0.515
1209.000	683.294	79.997	19.997	100.268	20.313	0.886	0.502
1209.500	683.570	79.994	19.996	100.269	20.311	0.993	0.523
1210.000	683.771	79.994	19.995	100.269	20.310	1.067	0.510
1210.500	684.035	79.995	19.994	100.270	20.309	1.113	0.471
1211.000	684.309	79.997	19.995	100.271	20.308	1.200	0.501
1211.500	684.522	79.997	19.996	100.271	20.309	1.113	0.512
1212.000	684.809	79.994	19.994	100.271	20.315	0.709	0.493
1212.500	685.056	79.996	19.995	100.272	20.308	1.174	0.517
1213.001	685.301	79.997	19.995	100.272	20.311	1.008	0.513
1213.502	685.543	79.996	19.994	100.272	20.308	1.219	0.490
1214.001	685.791	79.998	19.995	100.273	20.307	1.272	0.489
1214.500	686.055	79.997	19.995	100.272	20.310	1.060	0.501
1215.000	686.284	79.997	19.994	100.273	20.309	1.158	0.502
1215.500	686.554	79.996	19.994	100.273	20.308	1.187	0.496
1216.000	686.784	79.996	19.994	100.273	20.311	1.023	0.500
1216.500	687.082	79.997	19.994	100.273	20.307	1.272	0.514
1217.000	687.325	79.997	19.996	100.274	20.309	1.169	0.534
1217.500	687.557	79.995	19.995	100.273	20.309	1.143	0.508
1218.001	687.784	79.996	19.995	100.273	20.309	1.165	0.467
1218.501	688.053	79.994	19.994	100.272	20.310	1.082	0.477
1219.000	688.339	79.994	19.993	100.272	20.308	1.186	0.526
1219.500	688.627	79.996	19.994	100.272	20.306	1.326	0.565
1220.000	688.826	79.999	19.994	100.272	20.307	1.285	0.530
1220.500	689.097	79.996	19.995	100.272	20.309	1.167	0.479
1221.000	689.333	79.996	19.994	100.272	20.310	1.038	0.488
1221.500	689.570	79.996	19.994	100.273	20.310	1.051	0.490
1222.000	689.839	79.999	19.995	100.273	20.304	1.463	0.490
1222.500	690.086	79.995	19.994	100.273	20.308	1.186	0.511
1223.000	690.354	79.994	19.994	100.273	20.310	1.097	0.515
1223.500	690.600	79.997	19.995	100.274	20.307	1.250	0.514
1224.000	690.821	79.998	19.996	100.273	20.307	1.293	0.491
1224.500	691.109	79.994	19.994	100.273	20.312	0.962	0.488
1225.001	691.344	79.996	19.996	100.273	20.309	1.139	0.516
1225.501	691.587	79.995	19.993	100.274	20.313	0.883	0.500
1226.000	691.818	79.997	19.992	100.275	20.309	1.123	0.476
1226.500	692.099	79.994	19.994	100.275	20.312	0.912	0.493
1227.000	692.344	79.994	19.994	100.277	20.312	0.949	0.519
1227.500	692.581	79.994	19.996	100.278	20.309	1.134	0.504
1228.000	692.881	79.995	19.995	100.276	20.309	1.104	0.509
1228.500	693.119	79.993	19.993	100.275	20.307	1.294	0.537
1229.000	693.361	79.995	19.994	100.275	20.308	1.191	0.509
1229.500	693.622	79.995	19.994	100.274	20.310	1.054	0.492
1230.000	693.882	79.996	19.996	100.274	20.312	0.899	0.512
1230.500	694.135	79.994	19.994	100.274	20.308	1.200	0.517
1231.000	694.391	79.992	19.993	100.274	20.307	1.267	0.511
1231.500	694.642	79.995	19.995	100.275	20.307	1.272	0.508
1232.000	694.877	79.992	19.994	100.275	20.303	1.509	0.497
1232.500	695.163	79.995	19.995	100.275	20.306	1.361	0.503
1233.000	695.415	79.995	19.994	100.275	20.306	1.359	0.529
1233.501	695.673	79.995	19.995	100.275	20.300	1.754	0.524
1234.001	695.926	79.996	19.995	100.275	20.307	1.239	0.510
1234.500	696.195	79.996	19.994	100.275	20.303	1.516	0.517
1235.000	696.458	79.995	19.994	100.274	20.307	1.276	0.528
1235.501	696.701	79.995	19.994	100.274	20.300	1.767	0.519
1236.001	696.975	79.997	19.995	100.274	20.304	1.475	0.511
1236.500	697.198	79.995	19.994	100.273	20.309	1.152	0.507
1237.000	697.485	79.995	19.994	100.273	20.306	1.326	0.504
1237.500	697.721	79.996	19.994	100.273	20.303	1.514	0.516
1238.000	697.998	79.995	19.994	100.272	20.306	1.346	0.518
1238.501	698.242	79.996	19.996	100.272	20.304	1.498	0.517
1239.001	698.460	79.997	19.995	100.272	20.302	1.601	0.492
1239.501	698.732	79.997	19.994	100.272	20.303	1.557	0.476
1240.000	699.007	79.996	19.994	100.271	20.300	1.736	0.518
1240.500	699.238	79.997	19.994	100.271	20.305	1.409	0.526
1241.000	699.546	79.998	19.995	100.270	20.308	1.174	0.522
1241.500	699.731	79.997	19.993	100.270	20.299	1.813	0.516
1242.000	700.004	79.998	19.995	100.269	20.308	1.173	0.476
1242.500	700.268	79.997	19.994	100.270	20.309	1.141	0.498
1243.000	700.526	79.999	19.994	100.269	20.303	1.525	0.530
1243.500	700.772	79.998	19.994	100.270	20.307	1.298	0.513
1244.000	701.031	79.998	19.995	100.271	20.303	1.536	0.505
1244.500	701.273	79.997	19.994	100.272	20.304	1.444	0.503
1245.000	701.550	79.999	19.993	100.272	20.307	1.241	0.510
1245.500	701.822	79.997	19.994	100.272	20.307	1.258	0.534
1246.001	702.012	79.999	19.993	100.272	20.298	1.900	0.505
1246.501	702.306	80.000	19.994	100.270	20.306	1.366	0.473
1247.000	702.547	80.000	19.993	100.269	20.303	1.514	0.510
1247.500	702.753	79.997	19.994	100.269	20.308	1.217	0.491
1248.000	703.054	79.999	19.994	100.269	20.306	1.330	0.477
1248.500	703.312	79.998	19.994	100.269	20.307	1.243	0.533
1249.000	703.534	79.995	19.993	100.270	20.306	1.309	0.520
1249.500	703.796	79.997	19.994	100.270	20.308	1.191	0.482
1250.000	704.065	79.997	19.994	100.269	20.306	1.365	0.507
1250.500	704.324	79.996	19.994	100.269	20.303	1.520	0.530
1251.000	704.586	79.997	19.995	100.269	20.306	1.365	0.525
1251.501	704.817	79.995	19.994	100.270	20.309	1.165	0.507
1252.001	705.073	79.995	19.994	100.270	20.305	1.438	0.490
1252.500	705.336	79.996	19.994	100.270	20.305	1.422	0.503
1253.000	705.602	79.998	19.994	100.272	20.305	1.381	0.524
1253.500	705.867	79.996	19.995	100.274	20.307	1.302	0.530
1254.000	706.101	79.995	19.995	100.273	20.308	1.224	0.515
1254.500	706.347	79.997	19.996	100.274	20.305	1.402	0.489
1255.000	706.637	79.997	19.995	100.274	20.305	1.438	0.508
1255.500	706.877	79.998	19.993	100.273	20.306	1.357	0.533
1256.000	707.121	79.998	19.996	100.272	20.307	1.237	0.507
1256.500	707.377	79.997	19.994	100.272	20.301	1.691	0.492
1257.000	707.632	79.996	19.994	100.272	20.305	1.435	0.506
1257.500	707.910	79.997	19.995	100.271	20.308	1.182	0.522
1258.000	708.122	79.997	19.996	100.271	20.303	1.542	0.512
1258.500	708.394	79.997	19.995	100.271	20.307	1.304	0.487
1259.000	708.657	79.997	19.995	100.270	20.306	1.333	0.509
1259.500	708.915	79.996	19.995	100.269	20.304	1.505	0.529
1260.000	709.151	79.997	19.995	100.270	20.305	1.424	0.508
1260.501	709.442	79.997	19.995	100.269	20.310	1.069	0.510
1261.001	709.662	79.997	19.994	100.270	20.304	1.499	0.519
1261.501	709.927	79.997	19.995	100.270	20.308	1.226	0.498
1262.002	710.194	79.997	19.994	100.271	20.307	1.272	0.509
1262.501	710.464	79.997	19.995	100.272	20.302	1.590	0.535
1263.000	710.745	79.996	19.996	100.272	20.305	1.420	0.544
1263.500	710.995	79.998	19.995	100.272	20.307	1.287	0.541
1264.000	711.226	79.999	19.995	100.272	20.311	0.981	0.505
1264.500	711.481	79.999	19.995	100.270	20.303	1.560	0.484
1265.000	711.737	79.999	19.995	100.270	20.309	1.154	0.499
1265.500	711.982	79.998	19.997	100.270	20.302	1.614	0.506
1266.000	712.262	79.998	19.994	100.270	20.308	1.209	0.513
1266.501	712.502	79.999	19.995	100.268	20.305	1.387	0.522
1267.001	712.748	79.998	19.994	100.268	20.307	1.269	0.503
1267.500	713.043	79.998	19.995	100.267	20.305	1.390	0.514
1268.000	713.276	79.998	19.996	100.267	20.307	1.276	0.535
1268.500	713.528	79.997	19.995	100.267	20.303	1.555	0.506
1269.000	713.811	79.999	19.994	100.267	20.303	1.533	0.510
1269.501	714.047	79.997	19.994	100.267	20.304	1.442	0.527
1270.001	714.296	79.996	19.995	100.267	20.303	1.527	0.502
1270.501	714.562	79.999	19.995	100.268	20.301	1.680	0.500
1271.001	714.800	79.998	19.996	100.268	20.304	1.462	0.510
1271.501	715.065	79.995	19.993	100.268	20.303	1.568	0.504
1272.001	715.337	79.998	19.994	100.270	20.306	1.352	0.520
1272.501	715.607	79.996	19.994	100.271	20.304	1.459	0.539
1273.002	715.840	79.996	19.994	100.276	20.303	1.547	0.522
1273.502	716.081	79.997	19.995	100.278	20.305	1.422	0.488
1274.001	716.346	79.996	19.996	100.279	20.307	1.282	0.490
1274.501	716.620	79.994	19.993	100.279	20.302	1.614	0.523
1275.000	716.885	79.996	19.993	100.278	20.303	1.531	0.540
1275.500	717.113	79.995	19.995	100.273	20.300	1.758	0.516
1276.000	717.379	79.997	19.994	100.271	20.301	1.679	0.493
1276.500	717.638	79.997	19.995	100.272	20.301	1.653	0.509
1277.000	717.850	79.996	19.995	100.270	20.306	1.356	0.498
1277.500	718.106	79.997	19.996	100.271	20.302	1.620	0.469
1278.000	718.385	79.994	19.995	100.271	20.300	1.764	0.502
1278.500	718.592	79.995	19.995	100.272	20.303	1.511	0.511
1279.000	718.886	79.995	19.995	100.277	20.305	1.381	0.493
1279.500	719.132	79.994	19.995	100.280	20.305	1.426	0.520
1280.000	719.357	79.995	19.994	100.280	20.302	1.614	0.506
1280.500	719.605	79.997	19.995	100.280	20.306	1.326	0.472
1281.000	719.897	79.997	19.994	100.280	20.300	1.756	0.507
1281.500	720.136	79.997	19.993	100.275	20.303	1.512	0.535
1282.001	720.386	79.996	19.994	100.272	20.303	1.570	0.510
1282.501	720.616	79.994	19.994	100.272	20.304	1.468	0.484
1283.001	720.886	79.995	19.995	100.273	20.306	1.355	0.490
1283.501	721.112	79.996	19.995	100.274	20.308	1.174	0.498
1284.000	721.369	79.996	19.994	100.274	20.304	1.461	0.490
1284.500	721.619	79.995	19.994	100.276	20.309	1.162	0.495
1285.001	721.857	79.995	19.995	100.276	20.305	1.403	0.498
1285.502	722.136	79.995	19.996	100.276	20.302	1.614	0.502
1286.001	722.382	79.996	19.995	100.276	20.305	1.426	0.521
1286.500	722.602	79.995	19.995	100.278	20.304	1.450	0.495
1287.000	722.863	79.995	19.994	100.278	20.303	1.524	0.473
1287.501	723.093	79.996	19.995	100.279	20.304	1.450	0.486
1288.001	723.360	79.995	19.994	100.282	20.303	1.575	0.494
1288.501	723.612	79.995	19.995	100.287	20.306	1.317	0.508
1289.001	723.835	79.995	19.995	100.288	20.306	1.370	0.497
1289.501	724.091	79.993	19.995	100.287	20.302	1.590	0.477
1290.001	724.353	79.995	19.995	100.286	20.304	1.503	0.498
1290.501	724.620	79.995	19.995	100.286	20.306	1.343	0.523
1291.002	724.866	79.992	19.995	100.281	20.306	1.356	0.521
1291.502	725.125	79.993	19.995	100.277	20.304	1.498	0.509
1292.001	725.364	79.992	19.994	100.276	20.305	1.438	0.501
1292.500	725.605	79.993	19.996	100.276	20.304	1.499	0.489
1293.000	725.893	79.996	19.995	100.275	20.305	1.416	0.504
1293.500	726.123	79.995	19.995	100.276	20.303	1.542	0.524
1294.000	726.375	79.995	19.996	100.276	20.304	1.483	0.500
1294.500	726.644	79.994	19.996	100.276	20.302	1.595	0.501
1295.000	726.895	79.996	19.995	100.276	20.305	1.411	0.520
1295.500	727.137	79.995	19.995	100.276	20.302	1.603	0.506
1296.000	727.373	79.994	19.995	100.277	20.303	1.509	0.485
1296.500	727.644	79.995	19.995	100.277	20.303	1.551	0.493
1297.000	727.922	79.993	19.995	100.277	20.310	1.078	0.528
1297.500	728.140	79.994	19.996	100.278	20.304	1.474	0.523
1298.000	728.409	79.994	19.996	100.280	20.303	1.529	0.492
1298.500	728.683	79.996	19.996	100.282	20.299	1.813	0.515
1299.000	728.897	79.996	19.995	100.282	20.302	1.583	0.515
1299.500	729.164	79.996	19.996	100.283	20.302	1.610	0.484
1300.000	729.426	79.995	19.995	100.285	20.303	1.520	0.505
1300.500	729.669	79.996	19.996	100.284	20.300	1.727	0.517
1301.000	729.916	79.996	19.995	100.283	20.305	1.376	0.497
1301.501	730.161	79.995	19.994	100.282	20.299	1.802	0.491
1302.001	730.393	79.995	19.995	100.283	20.302	1.610	0.485
1302.500	730.655	79.994	19.995	100.279	20.305	1.409	0.486
1303.000	730.936	79.995	19.995	100.274	20.308	1.219	0.519
1303.500	731.169	79.996	19.995	100.272	20.305	1.387	0.529
1304.000	731.433	79.993	19.994	100.271	20.305	1.405	0.506
1304.500	731.672	79.998	19.994	100.269	20.304	1.485	0.500
1305.000	731.929	79.996	19.994	100.270	20.302	1.627	0.499
1305.500	732.175	79.994	19.995	100.270	20.299	1.835	0.500
1306.000	732.441	79.996	19.995	100.270	20.304	1.457	0.508
1306.500	732.689	79.996	19.994	100.271	20.307	1.239	0.513
1307.000	732.935	79.995	19.995	100.271	20.304	1.475	0.504
1307.500	733.188	79.996	19.995	100.270	20.304	1.482	0.496
1308.000	733.430	79.995	19.995	100.274	20.306	1.324	0.497
1308.500	733.682	79.994	19.996	100.277	20.304	1.461	0.494
1309.000	733.945	79.995	19.994	100.277	20.306	1.351	0.504
1309.500	734.174	79.992	19.993	100.277	20.303	1.550	0.504
1310.000	734.431	79.995	19.995	100.280	20.302	1.586	0.489
1310.500	734.654	79.997	19.994	100.278	20.302	1.642	0.483
1311.000	734.951	79.994	19.995	100.275	20.303	1.522	0.500
1311.500	735.195	79.995	19.994	100.279	20.303	1.538	0.530
1312.000	735.445	79.996	19.995	100.283	20.304	1.492	0.518
1312.500	735.681	79.994	19.995	100.282	20.304	1.490	0.490
1313.000	735.935	79.995	19.994	100.282	20.306	1.355	0.488
1313.500	736.183	79.996	19.995	100.284	20.300	1.732	0.496
1314.000	736.417	79.995	19.994	100.281	20.301	1.688	0.492
1314.500	736.675	79.995	19.996	100.279	20.303	1.551	0.487
1315.000	736.942	79.996	19.994	100.282	20.301	1.646	0.508
1315.500	737.199	79.997	19.995	100.291	20.301	1.675	0.524
1316.000	737.424	79.996	19.995	100.286	20.300	1.764	0.503
1316.500	737.674	79.997	19.994	100.262	20.302	1.594	0.479
1317.000	737.968	80.000	19.995	100.244	20.300	1.729	0.510
1317.500	738.178	79.997	19.995	100.230	20.303	1.574	0.524
1318.000	738.453	79.996	19.995	100.219	20.303	1.553	0.494
1318.500	738.703	79.996	19.995	100.226	20.306	1.326	0.505
1319.000	738.934	79.997	19.995	100.282	20.306	1.328	0.503
1319.501	739.186	79.994	19.995	100.320	20.307	1.254	0.482
1320.001	739.468	79.995	19.997	100.337	20.302	1.621	0.508
1320.500	739.728	79.998	19.995	100.346	20.302	1.596	0.538
1321.000	739.927	79.997	19.995	100.347	20.304	1.444	0.501
1321.500	740.243	79.998	19.994	100.319	20.308	1.221	0.487
1322.000	740.479	79.997	19.995	100.298	20.305	1.385	0.534
1322.500	740.712	79.997	19.994	100.290	20.303	1.561	0.511
1323.001	740.941	79.998	19.995	100.283	20.304	1.470	0.465
1323.501	741.160	79.997	19.994	100.278	20.297	1.982	0.455
1324.000	741.476	79.999	19.995	100.274	20.303	1.561	0.491
1324.500	741.746	79.996	19.994	100.276	20.301	1.710	0.560
1325.001	741.942	79.999	19.995	100.279	20.304	1.450	0.526
1325.501	742.221	79.999	19.996	100.286	20.302	1.624	0.470
1326.000	742.489	79.997	19.994	100.294	20.305	1.378	0.511
1326.501	742.727	79.999	19.994	100.301	20.302	1.609	0.527
1327.001	742.957	79.997	19.995	100.305	20.299	1.817	0.487
1327.500	743.202	79.997	19.995	100.307	20.302	1.603	0.471
1328.001	743.476	80.000	19.995	100.307	20.297	1.978	0.497
