Sample ID:	C:\MCC\MCC Cal\Test\Cellulose_Insulation_MCC_30K_min_220121_R2.txt
Sample Weight (mg):	4.58
Heating Rate (C/s):	0.5
Combustor Temp (C):	900
N2 Flow Rate (cc/min):	80
O2 Flow Rate (cc/min):	20
Calibration File:	C:\MCC\MCC Cal\Coeff1 JN10440_30_210304.txt.txt
T Correction Coefficients:	0	1.024463	0
Time Shift (s):	14
*
Time (s)	Temperature (C)	N2 flow rate (cc/min)	O2 flow rate (cc/min)	Flow Rate (cc/min)	Oxygen (%)	HRR (W/g)	Heating rate (C/s)
0.000	110.659	80.002	19.997	103.626	20.211	0.000	-0.001
0.500	110.644	80.002	19.997	103.624	20.213	-0.145	0.015
1.000	110.624	80.001	19.996	103.622	20.211	-0.025	-0.010
1.500	110.635	80.002	19.996	103.618	20.208	0.175	-0.022
2.000	110.670	80.002	19.995	103.616	20.212	-0.071	0.018
2.500	110.673	80.001	19.994	103.614	20.211	-0.004	0.042
2.999	110.650	80.001	19.994	103.617	20.207	0.281	0.009
3.499	110.642	80.000	19.995	103.617	20.209	0.139	-0.025
3.999	110.624	80.000	19.994	103.615	20.210	0.058	-0.028
4.499	110.670	80.001	19.996	103.614	20.207	0.253	0.001
4.999	110.638	80.002	19.995	103.612	20.208	0.175	0.021
5.499	110.630	80.002	19.995	103.611	20.209	0.127	-0.013
5.999	110.602	80.002	19.992	103.613	20.209	0.093	-0.038
6.499	110.643	80.002	19.994	103.614	20.211	-0.062	-0.011
6.999	110.641	80.002	19.993	103.612	20.210	0.029	0.026
7.499	110.608	80.002	19.994	103.616	20.212	-0.114	0.002
7.999	110.650	80.001	19.994	103.614	20.208	0.212	-0.013
8.499	110.632	80.001	19.994	103.615	20.210	0.042	0.017
8.999	110.633	80.001	19.994	103.621	20.208	0.195	0.003
9.499	110.619	80.000	19.993	103.627	20.208	0.202	-0.015
10.000	110.595	80.002	19.993	103.625	20.208	0.158	-0.025
10.501	110.662	80.001	19.993	103.625	20.210	0.060	0.002
11.001	110.650	80.000	19.993	103.626	20.207	0.243	0.049
11.501	110.643	80.000	19.994	103.625	20.207	0.270	0.018
12.001	110.637	80.002	19.993	103.624	20.208	0.197	-0.016
12.501	110.645	80.000	19.993	103.628	20.208	0.145	-0.006
13.000	110.650	80.000	19.994	103.633	20.209	0.077	0.008
13.499	110.653	80.002	19.993	103.635	20.206	0.351	0.011
13.999	110.677	80.001	19.994	103.635	20.204	0.434	0.017
14.499	110.667	80.001	19.994	103.637	20.205	0.370	0.021
14.999	110.671	80.000	19.993	103.636	20.205	0.380	0.005
15.499	110.671	80.000	19.993	103.640	20.207	0.255	-0.001
15.999	110.663	80.001	19.994	103.646	20.204	0.479	-0.002
16.499	110.680	80.000	19.993	103.650	20.207	0.257	0.001
16.999	110.636	80.001	19.994	103.650	20.205	0.388	-0.009
17.499	110.664	80.000	19.994	103.651	20.205	0.369	-0.022
17.999	110.674	80.000	19.993	103.648	20.205	0.394	0.011
18.499	110.700	79.999	19.994	103.641	20.202	0.624	0.037
18.999	110.647	79.999	19.995	103.642	20.205	0.369	0.005
19.499	110.675	79.999	19.993	103.650	20.203	0.554	-0.026
19.999	110.707	80.002	19.994	103.662	20.200	0.716	0.017
20.499	110.732	80.001	19.994	103.678	20.200	0.749	0.058
20.999	110.744	80.000	19.995	103.694	20.197	0.952	0.047
21.499	110.746	80.001	19.995	103.706	20.199	0.836	0.026
21.999	110.782	80.001	19.993	103.714	20.198	0.881	0.026
22.499	110.791	80.001	19.994	103.717	20.198	0.890	0.041
22.999	110.803	80.002	19.993	103.719	20.196	1.060	0.033
23.499	110.789	80.001	19.994	103.719	20.195	1.099	0.009
23.999	110.819	80.002	19.994	103.721	20.193	1.234	0.007
24.499	110.839	80.001	19.993	103.724	20.191	1.350	0.033
24.999	110.851	80.002	19.993	103.729	20.194	1.145	0.041
25.499	110.850	80.003	19.995	103.735	20.193	1.215	0.021
25.999	110.873	80.001	19.994	103.741	20.189	1.497	0.016
26.499	110.933	80.003	19.993	103.746	20.186	1.709	0.053
26.999	110.964	80.002	19.995	103.752	20.187	1.646	0.087
27.499	110.960	80.002	19.994	103.760	20.184	1.860	0.059
27.999	110.974	80.002	19.994	103.767	20.180	2.152	0.019
28.499	111.027	80.004	19.994	103.775	20.182	2.011	0.038
28.999	111.080	80.004	19.994	103.787	20.181	2.084	0.086
29.499	111.073	80.003	19.993	103.799	20.181	2.079	0.076
29.999	111.138	80.003	19.993	103.807	20.181	2.083	0.052
30.499	111.209	80.002	19.995	103.811	20.180	2.191	0.097
30.999	111.248	80.002	19.995	103.813	20.179	2.241	0.123
31.499	111.294	80.005	19.994	103.814	20.176	2.436	0.098
32.000	111.338	80.004	19.994	103.815	20.176	2.409	0.088
32.500	111.400	80.005	19.994	103.816	20.175	2.484	0.098
32.999	111.418	80.003	19.994	103.815	20.174	2.554	0.093
33.499	111.489	80.003	19.993	103.815	20.174	2.556	0.084
33.999	111.497	80.003	19.993	103.817	20.173	2.668	0.084
34.499	111.588	80.003	19.994	103.816	20.176	2.456	0.089
34.999	111.640	80.003	19.994	103.818	20.175	2.545	0.121
35.499	111.691	80.002	19.994	103.823	20.173	2.622	0.123
36.000	111.761	80.002	19.995	103.828	20.173	2.685	0.112
36.500	111.845	80.003	19.995	103.829	20.167	3.074	0.137
36.999	111.878	80.002	19.995	103.832	20.170	2.859	0.135
37.499	111.972	80.002	19.995	103.839	20.171	2.815	0.122
37.999	112.009	80.002	19.994	103.846	20.167	3.083	0.129
38.499	112.092	80.004	19.995	103.852	20.170	2.846	0.126
38.999	112.177	80.003	19.995	103.858	20.167	3.081	0.144
39.499	112.264	80.002	19.995	103.863	20.165	3.199	0.169
39.999	112.365	80.002	19.995	103.861	20.167	3.078	0.180
40.499	112.397	80.002	19.993	103.861	20.166	3.145	0.160
40.999	112.498	80.002	19.995	103.864	20.166	3.163	0.133
41.499	112.582	80.002	19.994	103.865	20.167	3.112	0.159
41.999	112.650	80.002	19.995	103.865	20.163	3.331	0.169
42.499	112.774	80.003	19.993	103.868	20.163	3.391	0.172
42.999	112.823	80.001	19.996	103.868	20.164	3.319	0.183
43.499	112.933	80.002	19.994	103.867	20.165	3.230	0.166
43.999	113.044	80.002	19.994	103.870	20.163	3.356	0.190
44.499	113.157	80.001	19.994	103.871	20.165	3.213	0.222
44.999	113.265	80.004	19.994	103.870	20.165	3.219	0.222
45.499	113.328	80.003	19.995	103.871	20.164	3.261	0.196
45.999	113.438	80.002	19.995	103.874	20.165	3.199	0.172
46.499	113.565	80.003	19.995	103.871	20.162	3.450	0.205
46.999	113.692	80.002	19.995	103.871	20.161	3.489	0.245
47.499	113.806	80.002	19.995	103.871	20.164	3.317	0.247
47.999	113.882	80.001	19.996	103.869	20.163	3.379	0.216
48.499	114.014	80.003	19.994	103.868	20.166	3.161	0.199
48.999	114.120	80.002	19.995	103.868	20.164	3.320	0.223
49.499	114.269	80.003	19.995	103.870	20.162	3.413	0.246
49.999	114.350	80.002	19.995	103.870	20.162	3.440	0.242
50.499	114.463	80.004	19.995	103.870	20.164	3.314	0.212
50.999	114.606	80.003	19.996	103.870	20.161	3.495	0.225
51.499	114.716	80.002	19.994	103.870	20.162	3.434	0.255
51.999	114.853	80.002	19.995	103.868	20.161	3.525	0.250
52.499	114.990	80.003	19.995	103.868	20.162	3.415	0.260
52.999	115.121	80.003	19.994	103.868	20.163	3.394	0.271
53.499	115.219	80.002	19.995	103.870	20.161	3.502	0.249
53.999	115.378	80.004	19.994	103.870	20.161	3.487	0.243
54.499	115.495	80.003	19.995	103.870	20.164	3.311	0.266
54.999	115.649	80.003	19.996	103.871	20.161	3.529	0.273
55.499	115.774	80.003	19.994	103.871	20.163	3.399	0.275
55.999	115.914	80.003	19.996	103.868	20.164	3.297	0.272
56.499	116.065	80.003	19.996	103.867	20.164	3.316	0.278
56.999	116.209	80.004	19.995	103.867	20.161	3.540	0.293
57.499	116.352	80.002	19.994	103.867	20.162	3.446	0.291
57.999	116.483	80.002	19.995	103.869	20.161	3.481	0.281
58.499	116.633	80.001	19.999	103.875	20.163	3.353	0.277
58.999	116.788	80.002	19.997	103.882	20.159	3.658	0.293
59.499	116.918	80.002	19.997	103.884	20.163	3.392	0.295
59.999	117.065	80.000	19.997	103.890	20.160	3.544	0.282
60.499	117.217	80.000	19.996	103.893	20.163	3.345	0.288
60.999	117.353	80.001	19.996	103.888	20.160	3.585	0.293
61.500	117.509	80.001	19.996	103.884	20.159	3.660	0.290
62.000	117.679	80.002	19.993	103.885	20.159	3.677	0.309
62.499	117.845	80.001	19.995	103.887	20.161	3.509	0.331
62.999	118.017	80.001	19.995	103.890	20.159	3.627	0.337
63.499	118.116	80.002	19.994	103.897	20.159	3.654	0.304
63.999	118.289	80.000	19.994	103.903	20.159	3.624	0.271
64.499	118.459	80.002	19.994	103.907	20.159	3.651	0.307
64.999	118.619	80.002	19.995	103.908	20.158	3.711	0.336
65.499	118.798	80.002	19.995	103.905	20.159	3.672	0.335
65.999	118.938	80.001	19.995	103.905	20.158	3.744	0.329
66.499	119.092	80.001	19.994	103.899	20.159	3.645	0.306
66.999	119.264	80.001	19.994	103.896	20.160	3.599	0.310
67.499	119.421	80.002	19.995	103.895	20.158	3.697	0.328
67.999	119.612	80.002	19.995	103.898	20.158	3.742	0.339
68.499	119.772	80.000	19.995	103.899	20.159	3.645	0.350
68.999	119.924	80.001	19.993	103.902	20.159	3.630	0.332
69.499	120.106	80.001	19.994	103.898	20.161	3.481	0.323
69.999	120.300	80.000	19.994	103.897	20.160	3.552	0.355
70.499	120.478	80.001	19.995	103.898	20.161	3.521	0.374
70.999	120.627	80.001	19.994	103.897	20.156	3.836	0.350
71.499	120.846	80.002	19.994	103.899	20.156	3.885	0.347
71.999	121.009	80.002	19.994	103.903	20.154	4.007	0.375
72.499	121.166	80.002	19.993	103.899	20.157	3.763	0.351
72.999	121.375	80.001	19.994	103.896	20.160	3.585	0.343
73.499	121.499	80.002	19.993	103.897	20.157	3.809	0.350
73.999	121.725	80.002	19.994	103.898	20.157	3.815	0.342
74.499	121.919	80.002	19.995	103.902	20.156	3.827	0.385
74.999	122.078	80.000	19.994	103.908	20.157	3.804	0.386
75.499	122.255	80.002	19.995	103.911	20.158	3.744	0.344
75.999	122.469	80.001	19.994	103.910	20.158	3.697	0.363
76.499	122.639	80.002	19.994	103.911	20.158	3.690	0.388
76.999	122.829	80.002	19.995	103.911	20.160	3.591	0.372
77.499	123.022	80.002	19.994	103.910	20.156	3.873	0.372
77.999	123.213	80.001	19.995	103.910	20.157	3.806	0.383
78.499	123.395	80.000	19.994	103.910	20.158	3.732	0.379
78.999	123.607	80.001	19.994	103.909	20.156	3.827	0.384
79.499	123.803	80.001	19.994	103.909	20.157	3.811	0.401
79.999	123.976	80.000	19.994	103.910	20.157	3.809	0.388
80.499	124.164	80.002	19.995	103.910	20.158	3.746	0.365
80.999	124.375	80.001	19.994	103.910	20.154	4.007	0.380
81.499	124.556	80.002	19.994	103.910	20.155	3.943	0.396
81.999	124.775	80.001	19.994	103.910	20.157	3.780	0.397
82.499	124.957	80.001	19.992	103.909	20.157	3.773	0.401
82.999	125.142	80.001	19.994	103.909	20.159	3.670	0.384
83.499	125.384	79.999	19.994	103.910	20.154	3.970	0.397
83.999	125.554	80.001	19.995	103.910	20.157	3.765	0.420
84.499	125.797	80.002	19.994	103.910	20.157	3.755	0.413
84.999	125.956	80.002	19.993	103.911	20.156	3.873	0.408
85.499	126.171	80.002	19.994	103.911	20.158	3.726	0.388
85.999	126.365	80.001	19.994	103.911	20.159	3.674	0.391
86.499	126.582	80.001	19.995	103.911	20.155	3.929	0.410
86.999	126.803	80.001	19.994	103.911	20.156	3.890	0.424
87.499	127.010	80.001	19.994	103.911	20.157	3.772	0.433
87.999	127.180	80.000	19.994	103.911	20.158	3.691	0.402
88.499	127.425	80.002	19.994	103.912	20.158	3.709	0.396
88.999	127.640	80.002	19.994	103.912	20.158	3.707	0.438
89.499	127.833	80.001	19.994	103.912	20.156	3.832	0.434
89.999	128.032	80.001	19.994	103.911	20.159	3.637	0.400
90.499	128.261	80.000	19.994	103.911	20.159	3.660	0.410
90.999	128.470	80.002	19.993	103.910	20.156	3.855	0.432
91.499	128.686	80.001	19.994	103.910	20.156	3.882	0.432
91.999	128.911	80.001	19.994	103.909	20.155	3.927	0.434
92.499	129.150	80.001	19.994	103.909	20.157	3.795	0.453
92.999	129.296	80.000	19.994	103.909	20.156	3.869	0.424
93.499	129.544	80.001	19.994	103.909	20.157	3.809	0.389
94.000	129.741	80.002	19.993	103.909	20.156	3.842	0.419
94.500	129.979	80.000	19.995	103.909	20.159	3.664	0.440
94.999	130.213	80.002	19.994	103.909	20.160	3.581	0.454
95.500	130.445	80.000	19.995	103.908	20.159	3.672	0.469
96.000	130.651	80.001	19.992	103.907	20.159	3.672	0.452
96.499	130.861	80.000	19.994	103.905	20.158	3.745	0.427
96.999	131.075	80.001	19.994	103.905	20.158	3.749	0.420
97.499	131.309	80.002	19.994	103.903	20.157	3.765	0.436
97.999	131.519	80.001	19.993	103.903	20.158	3.720	0.446
98.499	131.745	80.001	19.993	103.904	20.155	3.950	0.440
98.999	132.006	80.002	19.993	103.906	20.154	3.968	0.461
99.499	132.177	80.002	19.994	103.905	20.155	3.915	0.459
99.999	132.426	80.001	19.993	103.907	20.159	3.633	0.426
100.500	132.633	80.002	19.995	103.906	20.159	3.651	0.438
101.000	132.866	80.001	19.995	103.905	20.157	3.807	0.448
101.499	133.076	80.002	19.994	103.903	20.158	3.749	0.441
101.999	133.308	80.003	19.994	103.902	20.162	3.434	0.442
102.499	133.547	80.002	19.994	103.899	20.160	3.548	0.456
102.999	133.781	80.001	19.994	103.897	20.157	3.766	0.472
103.499	134.001	80.003	19.994	103.897	20.158	3.699	0.463
103.999	134.192	80.002	19.993	103.897	20.158	3.722	0.433
104.499	134.451	80.002	19.994	103.897	20.161	3.540	0.431
104.999	134.720	80.003	19.993	103.900	20.159	3.672	0.489
105.499	134.934	80.003	19.993	103.901	20.160	3.577	0.505
105.999	135.166	80.003	19.994	103.903	20.160	3.598	0.464
106.499	135.360	80.003	19.995	103.902	20.158	3.751	0.436
106.999	135.603	80.002	19.993	103.898	20.161	3.535	0.432
107.499	135.844	80.003	19.993	103.897	20.159	3.658	0.461
107.999	136.072	80.002	19.994	103.899	20.160	3.546	0.477
108.499	136.304	80.001	19.994	103.899	20.162	3.455	0.464
108.999	136.526	80.002	19.993	103.900	20.160	3.610	0.457
109.499	136.773	80.003	19.994	103.904	20.158	3.716	0.462
109.999	136.992	80.002	19.994	103.905	20.158	3.698	0.468
110.499	137.246	80.004	19.994	103.904	20.159	3.623	0.469
110.999	137.495	80.002	19.995	103.902	20.158	3.687	0.487
111.499	137.709	80.002	19.994	103.903	20.157	3.766	0.483
111.999	137.932	80.001	19.995	103.902	20.159	3.639	0.450
112.499	138.218	80.001	19.994	103.900	20.161	3.535	0.473
112.999	138.427	80.002	19.994	103.899	20.161	3.496	0.502
113.499	138.654	80.002	19.995	103.899	20.160	3.562	0.466
113.999	138.880	80.002	19.995	103.896	20.161	3.513	0.445
114.499	139.134	80.000	19.994	103.896	20.158	3.720	0.466
114.999	139.383	80.002	19.996	103.899	20.159	3.623	0.491
115.499	139.608	80.002	19.994	103.898	20.158	3.737	0.488
115.999	139.848	80.001	19.994	103.899	20.160	3.577	0.470
116.499	140.088	80.003	19.994	103.901	20.159	3.677	0.473
116.999	140.340	80.001	19.994	103.900	20.158	3.683	0.486
117.499	140.598	80.003	19.994	103.898	20.161	3.480	0.501
117.999	140.846	80.000	19.994	103.899	20.161	3.536	0.508
118.499	141.065	80.001	19.998	103.901	20.161	3.523	0.486
118.999	141.328	80.003	19.998	103.901	20.159	3.660	0.475
119.499	141.553	80.002	19.996	103.896	20.160	3.546	0.485
119.999	141.793	80.003	19.995	103.895	20.160	3.592	0.476
120.499	142.046	80.002	19.995	103.891	20.159	3.633	0.479
120.999	142.245	80.002	19.995	103.889	20.161	3.494	0.472
121.499	142.550	80.002	19.995	103.890	20.158	3.718	0.477
121.999	142.757	80.002	19.995	103.895	20.160	3.604	0.508
122.499	143.034	80.002	19.994	103.896	20.164	3.326	0.498
122.999	143.274	80.001	19.994	103.900	20.162	3.420	0.501
123.499	143.502	80.002	19.995	103.899	20.160	3.579	0.493
123.999	143.753	80.002	19.995	103.897	20.162	3.414	0.474
124.499	144.023	80.002	19.994	103.897	20.159	3.617	0.500
124.999	144.241	80.003	19.994	103.898	20.158	3.729	0.504
125.500	144.465	80.001	19.993	103.894	20.157	3.781	0.465
126.000	144.753	80.003	19.994	103.894	20.156	3.884	0.477
126.499	144.999	80.002	19.993	103.897	20.159	3.613	0.523
126.999	145.247	80.002	19.994	103.896	20.157	3.770	0.514
127.499	145.481	80.002	19.994	103.894	20.157	3.773	0.488
127.999	145.735	80.001	19.993	103.897	20.157	3.800	0.485
128.500	145.968	80.003	19.994	103.899	20.159	3.655	0.488
129.000	146.208	80.004	19.993	103.891	20.160	3.601	0.480
129.500	146.469	80.003	19.993	103.891	20.159	3.638	0.487
130.000	146.768	80.003	19.993	103.891	20.158	3.723	0.531
130.500	146.946	80.001	19.994	103.893	20.159	3.648	0.519
131.000	147.206	80.002	19.993	103.891	20.159	3.657	0.458
131.500	147.482	80.002	19.994	103.894	20.158	3.702	0.487
132.000	147.689	80.003	19.993	103.893	20.158	3.735	0.509
132.500	147.975	80.001	19.994	103.890	20.159	3.671	0.488
133.000	148.182	80.003	19.995	103.890	20.160	3.592	0.493
133.500	148.420	80.003	19.993	103.892	20.158	3.721	0.470
134.000	148.704	80.001	19.994	103.895	20.160	3.605	0.483
134.500	148.953	80.003	19.995	103.892	20.158	3.733	0.527
135.000	149.188	80.003	19.993	103.891	20.159	3.615	0.508
135.500	149.452	80.002	19.995	103.889	20.161	3.488	0.492
136.000	149.727	80.000	19.994	103.885	20.161	3.494	0.519
136.500	150.015	80.002	19.994	103.884	20.162	3.437	0.551
137.000	150.218	80.002	19.994	103.883	20.158	3.686	0.528
137.500	150.515	79.999	19.996	103.881	20.161	3.526	0.495
138.000	150.718	80.000	19.996	103.878	20.160	3.574	0.500
138.500	150.947	80.000	19.994	103.875	20.159	3.646	0.466
139.000	151.196	79.999	19.995	103.871	20.160	3.605	0.455
139.500	151.415	80.001	19.997	103.873	20.160	3.592	0.473
140.000	151.697	80.001	19.994	103.874	20.161	3.497	0.484
140.500	151.961	80.000	19.994	103.875	20.159	3.631	0.523
141.000	152.203	80.000	19.994	103.875	20.161	3.513	0.526
141.500	152.450	79.999	19.995	103.876	20.159	3.636	0.497
142.000	152.687	80.000	19.994	103.875	20.159	3.656	0.486
142.500	152.982	79.999	19.995	103.878	20.160	3.553	0.508
143.000	153.241	80.001	19.994	103.878	20.165	3.254	0.543
143.500	153.471	79.999	19.994	103.879	20.157	3.816	0.522
144.000	153.721	80.000	19.994	103.882	20.160	3.547	0.485
144.500	153.962	80.000	19.995	103.882	20.156	3.833	0.485
145.000	154.243	80.001	19.995	103.880	20.159	3.626	0.506
145.500	154.436	79.999	19.995	103.886	20.159	3.650	0.498
146.000	154.712	80.000	19.995	103.887	20.160	3.578	0.472
146.500	154.963	80.000	19.995	103.885	20.159	3.659	0.498
147.000	155.221	79.999	19.993	103.885	20.161	3.514	0.518
147.500	155.464	80.000	19.996	103.884	20.158	3.738	0.504
148.000	155.707	80.001	19.993	103.877	20.160	3.563	0.493
148.500	156.007	80.001	19.995	103.876	20.161	3.518	0.515
149.000	156.207	80.000	19.994	103.875	20.158	3.692	0.522
149.500	156.513	80.002	19.995	103.875	20.161	3.530	0.503
150.000	156.780	80.002	19.994	103.874	20.158	3.736	0.539
150.500	156.998	80.000	19.994	103.877	20.161	3.539	0.529
151.000	157.248	80.000	19.993	103.878	20.158	3.717	0.477
151.500	157.480	80.000	19.995	103.879	20.161	3.478	0.475
152.000	157.747	80.001	19.994	103.883	20.160	3.574	0.490
152.500	158.074	80.000	19.994	103.885	20.161	3.470	0.547
153.000	158.252	80.002	19.995	103.882	20.161	3.528	0.550
153.500	158.497	80.001	19.994	103.880	20.159	3.661	0.464
154.000	158.747	80.001	19.993	103.878	20.159	3.659	0.459
154.500	159.001	80.001	19.995	103.873	20.157	3.765	0.499
155.000	159.272	80.001	19.994	103.871	20.159	3.669	0.515
155.500	159.497	80.002	19.993	103.871	20.156	3.827	0.511
156.000	159.768	80.002	19.993	103.871	20.159	3.674	0.495
156.500	160.013	80.001	19.994	103.871	20.157	3.769	0.505
157.000	160.257	80.001	19.992	103.871	20.155	3.939	0.503
157.500	160.497	80.001	19.994	103.871	20.155	3.908	0.487
158.000	160.757	80.000	19.993	103.871	20.158	3.740	0.492
158.500	161.011	80.002	19.994	103.870	20.157	3.761	0.507
159.000	161.273	80.001	19.994	103.870	20.158	3.733	0.515
159.500	161.541	80.001	19.994	103.870	20.158	3.727	0.523
160.000	161.813	80.000	19.994	103.870	20.156	3.883	0.535
160.500	162.023	80.002	19.994	103.870	20.157	3.767	0.511
161.000	162.287	80.001	19.993	103.870	20.158	3.692	0.478
161.500	162.532	80.000	19.995	103.870	20.155	3.897	0.491
162.000	162.768	80.001	19.994	103.870	20.158	3.723	0.495
162.500	163.022	80.000	19.993	103.869	20.159	3.620	0.486
163.000	163.267	80.000	19.993	103.869	20.156	3.850	0.495
163.500	163.529	80.002	19.993	103.869	20.156	3.856	0.503
164.000	163.804	80.001	19.993	103.868	20.159	3.680	0.522
164.500	164.090	80.001	19.993	103.868	20.159	3.653	0.549
165.000	164.303	80.000	19.993	103.869	20.164	3.306	0.530
165.500	164.564	80.001	19.993	103.869	20.159	3.680	0.487
166.000	164.817	80.000	19.993	103.869	20.158	3.740	0.494
166.500	165.042	79.999	19.995	103.868	20.158	3.748	0.495
167.000	165.312	79.999	19.994	103.864	20.157	3.771	0.486
167.500	165.596	80.001	19.991	103.862	20.158	3.682	0.525
168.000	165.833	80.001	19.993	103.862	20.159	3.620	0.538
168.500	166.094	80.001	19.993	103.862	20.159	3.671	0.510
169.000	166.294	80.000	19.993	103.863	20.158	3.742	0.480
169.500	166.596	80.001	19.993	103.868	20.159	3.673	0.482
170.000	166.814	80.001	19.994	103.869	20.155	3.922	0.511
170.500	167.105	80.001	19.994	103.869	20.156	3.840	0.515
171.000	167.323	80.000	19.993	103.869	20.155	3.898	0.509
171.500	167.559	80.000	19.994	103.869	20.153	4.101	0.481
172.000	167.815	79.997	19.994	103.868	20.155	3.945	0.472
172.500	168.082	79.997	19.999	103.866	20.157	3.800	0.507
173.000	168.315	80.003	19.995	103.866	20.158	3.750	0.512
173.500	168.573	79.999	19.995	103.866	20.157	3.816	0.495
174.000	168.817	79.999	19.996	103.867	20.158	3.705	0.496
174.500	169.114	79.999	19.996	103.865	20.158	3.713	0.521
175.000	169.327	80.000	19.994	103.867	20.156	3.883	0.526
175.500	169.565	80.001	19.993	103.868	20.158	3.720	0.481
176.000	169.833	80.001	19.994	103.867	20.157	3.774	0.479
176.500	170.081	80.001	19.995	103.863	20.157	3.765	0.511
177.000	170.350	80.002	19.993	103.862	20.158	3.736	0.516
177.500	170.584	80.001	19.994	103.863	20.158	3.722	0.510
178.000	170.836	79.999	19.993	103.863	20.155	3.900	0.495
178.500	171.121	80.003	19.997	103.864	20.156	3.844	0.512
179.000	171.376	80.001	19.995	103.869	20.153	4.064	0.538
179.500	171.624	80.001	19.995	103.871	20.155	3.946	0.521
180.000	171.823	80.002	19.995	103.867	20.156	3.885	0.475
180.500	172.108	80.002	19.995	103.866	20.157	3.779	0.466
181.000	172.346	80.002	19.995	103.862	20.155	3.947	0.504
181.500	172.586	80.001	19.993	103.861	20.156	3.874	0.501
182.000	172.847	80.003	19.994	103.861	20.158	3.725	0.490
182.500	173.096	80.003	19.992	103.865	20.153	4.047	0.505
183.000	173.385	80.002	19.993	103.866	20.155	3.921	0.523
183.500	173.600	80.003	19.993	103.868	20.154	3.983	0.521
184.000	173.842	80.001	19.994	103.869	20.156	3.844	0.481
184.500	174.108	80.002	19.994	103.869	20.157	3.813	0.483
185.000	174.344	80.003	19.993	103.865	20.155	3.904	0.505
185.500	174.617	80.002	19.992	103.864	20.152	4.155	0.506
186.000	174.820	80.002	19.993	103.862	20.152	4.138	0.493
186.500	175.065	80.003	19.993	103.856	20.156	3.873	0.462
187.000	175.309	80.002	19.993	103.852	20.151	4.181	0.468
187.500	175.592	80.003	19.993	103.852	20.152	4.111	0.508
188.000	175.853	80.002	19.993	103.849	20.156	3.843	0.535
188.500	176.120	80.003	19.993	103.848	20.154	3.976	0.535
189.000	176.334	80.003	19.994	103.850	20.154	4.020	0.504
189.500	176.608	80.001	19.993	103.851	20.155	3.914	0.485
190.000	176.843	80.003	19.993	103.851	20.154	3.987	0.499
190.500	177.097	80.002	19.994	103.856	20.154	4.025	0.499
191.000	177.372	80.001	19.993	103.859	20.153	4.089	0.509
191.500	177.597	80.003	19.994	103.862	20.152	4.135	0.514
192.000	177.840	80.002	19.992	103.866	20.154	4.031	0.484
192.500	178.108	80.002	19.993	103.870	20.156	3.875	0.490
193.000	178.321	80.002	19.995	103.868	20.154	4.003	0.496
193.500	178.582	80.001	19.994	103.864	20.153	4.047	0.477
194.000	178.797	80.002	19.993	103.857	20.154	4.020	0.475
194.500	179.060	80.000	19.993	103.855	20.155	3.894	0.477
195.000	179.309	80.002	19.993	103.850	20.156	3.844	0.495
195.500	179.586	80.001	19.996	103.846	20.155	3.929	0.519
196.000	179.813	80.002	19.993	103.849	20.155	3.937	0.515
196.500	180.076	80.002	19.993	103.854	20.152	4.126	0.497
197.000	180.273	80.003	19.993	103.856	20.155	3.954	0.475
197.500	180.589	80.001	19.994	103.862	20.155	3.943	0.486
198.000	180.800	80.001	19.994	103.866	20.155	3.920	0.520
198.500	181.058	80.001	19.994	103.866	20.157	3.811	0.498
199.000	181.307	80.001	19.993	103.867	20.154	3.975	0.488
199.500	181.570	80.002	19.993	103.865	20.153	4.070	0.510
200.000	181.771	80.003	19.994	103.860	20.155	3.915	0.488
200.500	182.044	80.002	19.993	103.854	20.152	4.157	0.469
201.000	182.289	80.002	19.994	103.849	20.153	4.047	0.495
201.500	182.516	80.002	19.995	103.843	20.152	4.140	0.495
202.000	182.786	80.001	19.994	103.842	20.154	4.024	0.485
202.500	183.050	80.003	19.994	103.847	20.153	4.099	0.515
203.000	183.323	80.003	19.994	103.851	20.156	3.865	0.535
203.500	183.519	80.001	19.995	103.857	20.154	3.979	0.503
204.000	183.817	80.001	19.993	103.863	20.154	3.969	0.481
204.500	184.070	80.003	19.993	103.861	20.152	4.149	0.523
205.000	184.273	80.003	19.993	103.858	20.155	3.950	0.504
205.500	184.556	80.003	19.993	103.855	20.152	4.114	0.471
206.000	184.822	80.003	19.994	103.851	20.152	4.122	0.518
206.500	185.084	80.003	19.994	103.848	20.152	4.160	0.539
207.000	185.298	80.002	19.994	103.853	20.150	4.286	0.502
207.500	185.561	80.002	19.995	103.854	20.152	4.130	0.476
208.000	185.825	80.003	19.993	103.857	20.151	4.205	0.502
208.500	186.093	80.003	19.994	103.857	20.151	4.203	0.530
209.000	186.332	80.001	19.995	103.859	20.153	4.074	0.520
209.500	186.577	80.003	19.992	103.856	20.154	4.033	0.495
210.000	186.834	80.003	19.993	103.856	20.151	4.245	0.493
210.500	187.088	80.004	19.995	103.852	20.153	4.100	0.506
211.000	187.333	80.005	19.993	103.853	20.151	4.183	0.505
211.500	187.580	80.003	19.993	103.854	20.148	4.442	0.496
212.000	187.822	80.004	19.993	103.855	20.151	4.208	0.490
212.500	188.078	80.003	19.993	103.858	20.151	4.193	0.494
213.000	188.351	80.002	19.993	103.863	20.149	4.367	0.513
213.500	188.561	80.003	19.993	103.860	20.153	4.093	0.506
214.000	188.816	80.003	19.993	103.853	20.153	4.084	0.474
214.500	189.040	80.003	19.993	103.849	20.154	4.033	0.472
215.000	189.315	80.001	19.994	103.844	20.152	4.168	0.489
215.500	189.527	80.002	19.994	103.837	20.152	4.174	0.494
216.000	189.796	80.001	19.994	103.838	20.154	3.988	0.484
216.500	190.046	80.001	19.993	103.841	20.151	4.193	0.500
217.000	190.297	80.001	19.995	103.843	20.151	4.210	0.510
217.500	190.525	80.002	19.992	103.841	20.152	4.133	0.490
218.000	190.781	80.000	19.994	103.842	20.150	4.247	0.481
218.500	190.991	80.001	19.994	103.846	20.150	4.299	0.475
219.000	191.266	80.002	19.995	103.845	20.151	4.224	0.475
219.500	191.514	80.002	19.995	103.846	20.148	4.415	0.504
220.000	191.757	80.002	19.994	103.849	20.149	4.380	0.507
220.500	191.983	80.002	19.993	103.848	20.149	4.388	0.480
221.000	192.240	80.000	19.994	103.843	20.149	4.375	0.476
221.500	192.521	80.000	19.994	103.841	20.148	4.401	0.510
222.000	192.717	80.001	19.993	103.836	20.148	4.431	0.508
222.500	192.997	80.002	19.993	103.833	20.149	4.381	0.477
223.000	193.235	79.999	19.994	103.835	20.151	4.215	0.497
223.500	193.498	80.000	19.994	103.841	20.149	4.369	0.509
224.000	193.726	80.001	19.994	103.845	20.147	4.466	0.496
224.500	194.006	80.001	19.995	103.850	20.147	4.466	0.500
225.000	194.258	80.001	19.993	103.852	20.148	4.456	0.520
225.500	194.421	80.000	19.995	103.852	20.149	4.362	0.474
226.000	194.714	80.001	19.994	103.849	20.150	4.304	0.436
226.500	194.943	80.001	19.996	103.843	20.150	4.251	0.489
227.000	195.167	80.002	19.994	103.840	20.150	4.292	0.487
227.500	195.428	80.001	19.995	103.837	20.145	4.657	0.469
228.000	195.677	80.000	19.995	103.837	20.148	4.454	0.498
228.500	195.937	79.999	19.994	103.835	20.145	4.601	0.510
229.000	196.164	80.001	19.994	103.834	20.147	4.497	0.497
229.500	196.416	80.001	19.995	103.832	20.148	4.406	0.483
230.000	196.666	80.000	19.996	103.837	20.150	4.277	0.491
230.500	196.926	80.002	19.996	103.834	20.147	4.526	0.506
231.000	197.179	80.001	19.995	103.836	20.149	4.383	0.511
231.500	197.401	80.001	19.994	103.837	20.150	4.259	0.494
232.000	197.633	79.999	19.994	103.839	20.149	4.373	0.464
232.500	197.876	80.000	19.995	103.835	20.148	4.438	0.464
233.000	198.104	79.999	19.997	103.840	20.144	4.734	0.473
233.500	198.390	79.999	19.995	103.843	20.146	4.537	0.492
234.000	198.648	80.000	19.995	103.845	20.147	4.489	0.529
234.500	198.887	80.001	19.995	103.849	20.146	4.560	0.521
235.000	199.110	80.001	19.995	103.854	20.148	4.447	0.479
235.500	199.331	80.000	19.995	103.853	20.147	4.495	0.453
236.000	199.601	80.000	19.995	103.852	20.147	4.518	0.468
236.500	199.827	80.001	19.995	103.854	20.146	4.593	0.494
237.000	200.100	80.001	19.995	103.850	20.146	4.547	0.498
237.500	200.357	80.000	19.994	103.847	20.147	4.473	0.515
238.000	200.551	80.000	19.995	103.848	20.147	4.508	0.491
238.500	200.829	80.000	19.995	103.848	20.145	4.603	0.461
239.000	201.085	80.001	19.995	103.848	20.146	4.556	0.503
239.500	201.326	80.001	19.996	103.853	20.146	4.554	0.515
240.000	201.585	80.001	19.996	103.859	20.145	4.659	0.499
240.500	201.810	80.001	19.994	103.860	20.144	4.707	0.493
241.000	202.092	80.001	19.994	103.861	20.147	4.483	0.496
241.500	202.304	80.002	19.994	103.860	20.147	4.495	0.500
242.000	202.553	80.001	19.996	103.854	20.144	4.696	0.477
242.500	202.831	80.000	19.995	103.848	20.146	4.544	0.494
243.000	203.045	80.002	19.994	103.843	20.144	4.681	0.509
243.500	203.302	80.002	19.994	103.839	20.142	4.837	0.482
244.000	203.586	80.001	19.993	103.841	20.140	4.978	0.506
244.500	203.840	80.001	19.995	103.842	20.143	4.775	0.539
245.000	204.056	80.001	19.994	103.843	20.142	4.820	0.503
245.500	204.319	80.001	19.994	103.845	20.145	4.634	0.475
246.000	204.583	79.999	19.994	103.850	20.143	4.794	0.504
246.500	204.800	80.000	19.993	103.849	20.141	4.891	0.504
247.000	205.031	80.000	19.994	103.853	20.140	4.972	0.464
247.500	205.290	80.000	19.995	103.852	20.144	4.736	0.469
248.000	205.544	80.001	19.994	103.849	20.143	4.800	0.502
248.500	205.745	80.001	19.993	103.847	20.138	5.142	0.484
249.000	206.052	79.998	19.996	103.846	20.139	5.092	0.481
249.500	206.284	80.003	19.992	103.839	20.137	5.211	0.523
250.000	206.558	80.000	19.993	103.842	20.141	4.898	0.523
250.500	206.780	80.000	19.994	103.844	20.139	5.043	0.501
251.000	207.051	79.999	19.995	103.846	20.139	5.036	0.494
251.500	207.296	80.001	19.995	103.848	20.138	5.110	0.504
252.000	207.554	80.000	19.994	103.852	20.141	4.924	0.510
252.500	207.800	80.000	19.993	103.857	20.138	5.154	0.504
253.000	208.085	80.000	19.995	103.862	20.140	5.005	0.518
253.500	208.271	80.003	19.995	103.862	20.138	5.100	0.501
254.000	208.544	80.001	19.994	103.863	20.139	5.079	0.465
254.500	208.799	80.001	19.994	103.863	20.138	5.129	0.493
255.000	209.043	80.000	19.993	103.862	20.137	5.234	0.514
255.500	209.262	80.002	19.994	103.860	20.137	5.182	0.482
256.000	209.529	80.002	19.993	103.858	20.138	5.151	0.474
256.500	209.750	80.002	19.994	103.854	20.136	5.253	0.487
257.000	210.028	80.003	19.993	103.852	20.135	5.315	0.494
257.500	210.300	80.002	19.993	103.845	20.135	5.331	0.525
258.000	210.504	80.001	19.994	103.846	20.135	5.344	0.513
258.500	210.775	80.002	19.993	103.847	20.135	5.317	0.475
259.000	211.030	80.001	19.993	103.849	20.137	5.172	0.500
259.500	211.256	80.002	19.995	103.848	20.134	5.443	0.503
260.000	211.509	80.004	19.993	103.846	20.133	5.496	0.480
260.500	211.707	80.002	19.994	103.846	20.133	5.508	0.465
261.000	211.986	80.002	19.993	103.849	20.133	5.454	0.465
261.500	212.211	80.003	19.994	103.850	20.133	5.483	0.491
262.000	212.461	80.000	19.994	103.857	20.133	5.518	0.489
262.500	212.726	80.004	19.994	103.862	20.131	5.596	0.495
263.000	212.964	80.004	19.995	103.865	20.132	5.571	0.509
263.500	213.228	80.001	19.992	103.864	20.131	5.638	0.503
264.000	213.452	80.002	19.995	103.862	20.128	5.834	0.495
264.500	213.734	80.002	19.996	103.862	20.126	5.997	0.497
265.000	213.998	80.002	19.993	103.865	20.126	5.970	0.526
265.500	214.268	80.002	19.993	103.866	20.123	6.233	0.540
266.000	214.516	80.003	19.994	103.867	20.127	5.913	0.526
266.500	214.726	80.003	19.994	103.871	20.124	6.129	0.488
267.000	215.006	80.002	19.994	103.872	20.124	6.114	0.474
267.500	215.239	80.003	19.993	103.873	20.122	6.286	0.502
268.000	215.505	80.003	19.992	103.874	20.119	6.513	0.507
268.500	215.685	80.001	19.994	103.874	20.118	6.579	0.473
269.000	216.008	80.004	19.993	103.879	20.117	6.659	0.475
269.500	216.230	80.002	19.994	103.879	20.115	6.740	0.524
270.000	216.501	80.003	19.992	103.880	20.115	6.787	0.518
270.500	216.748	80.003	19.994	103.888	20.110	7.122	0.506
271.000	217.007	80.002	19.994	103.896	20.110	7.155	0.512
271.500	217.255	80.003	19.993	103.899	20.108	7.294	0.506
272.000	217.499	80.000	19.993	103.908	20.104	7.513	0.499
272.500	217.754	80.002	19.994	103.913	20.101	7.756	0.496
273.000	217.998	80.002	19.995	103.914	20.098	7.990	0.499
273.500	218.242	80.003	19.992	103.916	20.098	7.975	0.493
274.000	218.467	80.002	19.993	103.919	20.091	8.460	0.478
274.500	218.744	80.002	19.994	103.922	20.089	8.592	0.486
275.000	218.974	80.001	19.994	103.928	20.088	8.714	0.505
275.500	219.250	80.002	19.994	103.934	20.082	9.081	0.506
276.000	219.508	80.003	19.992	103.941	20.080	9.221	0.520
276.500	219.751	80.001	19.994	103.945	20.076	9.527	0.517
277.000	219.982	80.002	19.994	103.950	20.072	9.829	0.487
277.500	220.227	80.003	19.993	103.953	20.064	10.396	0.475
278.000	220.462	80.002	19.994	103.956	20.064	10.420	0.478
278.500	220.704	80.002	19.993	103.959	20.057	10.916	0.478
279.000	220.968	80.001	19.994	103.966	20.053	11.172	0.492
279.500	221.254	80.004	19.992	103.974	20.047	11.613	0.529
280.000	221.490	80.003	19.993	103.979	20.044	11.834	0.536
280.500	221.700	80.003	19.993	103.984	20.035	12.429	0.484
281.000	221.964	80.004	19.994	103.988	20.029	12.839	0.460
281.500	222.215	80.004	19.993	103.990	20.024	13.215	0.494
282.000	222.453	80.002	19.993	103.993	20.021	13.471	0.502
282.500	222.726	80.001	19.994	103.997	20.012	14.059	0.500
283.000	222.983	80.006	19.993	104.004	20.006	14.526	0.521
283.500	223.203	80.004	19.995	104.012	20.002	14.780	0.504
284.000	223.500	80.004	19.993	104.018	19.991	15.592	0.497
284.500	223.758	80.004	19.995	104.025	19.986	15.919	0.536
285.000	224.007	80.003	19.993	104.032	19.979	16.390	0.531
285.500	224.228	80.004	19.994	104.039	19.970	17.074	0.489
286.000	224.489	80.003	19.994	104.047	19.967	17.254	0.476
286.500	224.704	80.002	19.993	104.054	19.959	17.851	0.478
287.000	224.964	80.002	19.995	104.060	19.950	18.445	0.475
287.500	225.217	80.004	19.994	104.062	19.942	19.066	0.494
288.000	225.453	80.002	19.995	104.064	19.933	19.666	0.501
288.500	225.737	80.003	19.994	104.067	19.927	20.121	0.504
289.000	225.981	80.002	19.994	104.071	19.921	20.502	0.524
289.500	226.241	80.001	19.995	104.077	19.907	21.503	0.516
290.000	226.461	80.003	19.995	104.085	19.901	21.934	0.492
290.500	226.737	80.002	19.995	104.091	19.894	22.442	0.488
291.000	226.954	80.001	19.996	104.094	19.885	23.095	0.495
291.500	227.212	80.002	19.993	104.098	19.874	23.849	0.484
292.000	227.481	80.002	19.995	104.100	19.867	24.326	0.500
292.500	227.698	80.003	19.994	104.100	19.859	24.911	0.506
293.000	227.961	80.002	19.994	104.101	19.848	25.719	0.483
293.500	228.187	80.002	19.994	104.102	19.842	26.101	0.485
294.000	228.480	80.002	19.995	104.104	19.833	26.727	0.504
294.500	228.738	80.002	19.994	104.107	19.824	27.389	0.535
295.000	228.946	79.999	19.996	104.107	19.817	27.914	0.508
295.500	229.200	80.002	19.994	104.109	19.809	28.455	0.464
296.000	229.474	80.001	19.995	104.113	19.801	29.050	0.496
296.500	229.697	80.002	19.993	104.115	19.792	29.653	0.513
297.000	230.004	80.002	19.993	104.114	19.785	30.160	0.513
297.500	230.198	80.002	19.995	104.116	19.779	30.536	0.515
298.000	230.439	79.999	19.993	104.115	19.768	31.362	0.468
298.500	230.691	80.001	19.997	104.112	19.758	32.047	0.464
299.000	230.930	80.002	19.996	104.108	19.751	32.513	0.492
299.500	231.200	80.001	19.996	104.108	19.747	32.843	0.500
300.000	231.444	80.002	19.995	104.106	19.739	33.366	0.511
300.500	231.682	80.002	19.995	104.104	19.733	33.838	0.498
301.000	231.912	80.002	19.996	104.102	19.725	34.381	0.475
301.500	232.200	80.001	19.995	104.094	19.721	34.636	0.493
302.000	232.427	80.002	19.995	104.088	19.715	35.091	0.517
302.500	232.649	80.002	19.994	104.083	19.705	35.758	0.482
303.000	232.920	80.001	19.994	104.077	19.700	36.107	0.471
303.500	233.180	80.001	19.994	104.072	19.697	36.323	0.512
304.000	233.450	80.001	19.994	104.069	19.693	36.619	0.530
304.500	233.673	80.001	19.994	104.061	19.690	36.873	0.512
305.000	233.915	80.002	19.996	104.051	19.685	37.189	0.480
305.500	234.153	80.002	19.994	104.042	19.683	37.357	0.473
306.000	234.392	80.001	19.994	104.033	19.678	37.682	0.478
306.500	234.664	80.002	19.993	104.023	19.676	37.852	0.494
307.000	234.927	80.001	19.993	104.011	19.677	37.727	0.523
307.500	235.145	79.999	19.994	104.003	19.675	37.861	0.508
308.000	235.391	80.001	19.994	103.995	19.672	38.132	0.472
308.500	235.654	80.001	19.993	103.987	19.670	38.259	0.487
309.000	235.876	80.002	19.994	103.978	19.671	38.143	0.497
309.500	236.125	80.001	19.994	103.975	19.670	38.225	0.478
310.000	236.381	80.001	19.995	103.967	19.673	38.037	0.488
310.500	236.659	80.001	19.993	103.959	19.671	38.192	0.519
311.000	236.911	80.000	19.994	103.951	19.673	38.059	0.532
311.500	237.143	80.001	19.994	103.945	19.674	37.964	0.507
312.000	237.376	80.002	19.995	103.933	19.677	37.724	0.475
312.500	237.653	80.000	19.995	103.926	19.679	37.588	0.488
313.000	237.895	80.001	19.994	103.918	19.682	37.381	0.514
313.500	238.144	80.001	19.994	103.913	19.685	37.199	0.505
314.000	238.401	80.001	19.995	103.910	19.692	36.682	0.498
314.500	238.662	80.002	19.995	103.909	19.695	36.470	0.512
315.000	238.903	80.000	19.994	103.903	19.695	36.457	0.510
315.500	239.135	79.998	19.997	103.897	19.701	36.065	0.488
316.000	239.351	80.000	19.996	103.889	19.705	35.761	0.461
316.500	239.613	79.999	19.996	103.881	19.712	35.227	0.463
317.000	239.826	80.000	19.996	103.873	19.715	35.082	0.476
317.500	240.119	80.000	19.995	103.871	19.721	34.626	0.490
318.000	240.373	80.000	19.996	103.864	19.724	34.399	0.527
318.500	240.639	80.001	19.994	103.861	19.732	33.822	0.534
319.000	240.868	80.000	19.994	103.856	19.737	33.522	0.508
319.500	241.088	80.001	19.996	103.850	19.742	33.167	0.471
320.000	241.387	80.001	19.993	103.843	19.747	32.770	0.483
320.500	241.642	79.999	19.994	103.840	19.755	32.248	0.536
321.000	241.860	80.002	19.994	103.838	19.760	31.829	0.514
321.500	242.141	80.000	19.994	103.839	19.766	31.435	0.486
322.000	242.392	80.000	19.995	103.840	19.768	31.320	0.515
322.500	242.631	80.000	19.995	103.840	19.777	30.680	0.510
323.000	242.896	80.000	19.994	103.840	19.783	30.226	0.497
323.500	243.126	80.000	19.995	103.838	19.789	29.785	0.500
324.000	243.404	80.000	19.995	103.831	19.794	29.483	0.502
324.500	243.687	80.000	19.995	103.828	19.798	29.142	0.535
325.000	243.906	80.000	19.995	103.826	19.807	28.551	0.532
325.500	244.139	80.000	19.994	103.826	19.815	27.972	0.477
326.000	244.408	80.000	19.995	103.827	19.817	27.802	0.477
326.500	244.648	80.000	19.994	103.827	19.823	27.384	0.505
327.000	244.895	80.000	19.994	103.826	19.831	26.850	0.498
327.500	245.147	79.999	19.995	103.824	19.835	26.555	0.494
328.000	245.435	80.001	19.993	103.823	19.842	26.097	0.520
328.500	245.674	80.000	19.995	103.823	19.847	25.703	0.533
329.000	245.927	79.999	19.994	103.825	19.852	25.345	0.509
329.500	246.173	80.000	19.994	103.826	19.861	24.725	0.495
330.000	246.440	80.001	19.994	103.830	19.862	24.615	0.506
330.500	246.704	80.000	19.993	103.831	19.868	24.244	0.523
331.000	246.938	80.001	19.993	103.827	19.877	23.598	0.514
331.500	247.198	80.000	19.993	103.820	19.881	23.329	0.496
332.000	247.493	80.001	19.993	103.818	19.880	23.344	0.525
332.500	247.738	80.001	19.994	103.817	19.889	22.760	0.547
333.000	247.969	80.000	19.994	103.814	19.892	22.513	0.508
333.500	248.228	80.000	19.993	103.814	19.896	22.239	0.483
334.000	248.449	80.000	19.994	103.816	19.905	21.633	0.485
334.500	248.730	80.002	19.994	103.816	19.904	21.679	0.491
335.000	248.990	80.001	19.993	103.813	19.913	21.077	0.522
335.500	249.236	80.002	19.992	103.814	19.914	20.952	0.524
336.000	249.477	80.002	19.993	103.815	19.917	20.790	0.497
336.500	249.799	80.002	19.994	103.817	19.921	20.489	0.525
337.000	250.075	80.002	19.994	103.822	19.925	20.219	0.580
337.500	250.296	80.003	19.993	103.821	19.929	19.913	0.548
338.000	250.540	80.002	19.993	103.822	19.930	19.808	0.481
338.500	250.819	80.001	19.995	103.826	19.939	19.197	0.494
339.000	251.102	80.001	19.993	103.822	19.941	19.047	0.542
339.500	251.358	80.001	19.995	103.817	19.940	19.119	0.551
340.000	251.593	80.001	19.992	103.820	19.944	18.843	0.515
340.500	251.847	80.004	19.992	103.820	19.949	18.471	0.490
341.000	252.114	80.002	19.993	103.814	19.951	18.348	0.505
341.500	252.347	80.003	19.992	103.812	19.953	18.227	0.510
342.000	252.635	80.003	19.992	103.813	19.957	17.949	0.510
342.500	252.890	80.003	19.994	103.810	19.959	17.757	0.532
343.000	253.129	80.000	19.997	103.810	19.957	17.913	0.518
343.500	253.405	80.004	19.993	103.814	19.962	17.610	0.504
344.000	253.629	79.998	19.999	103.817	19.965	17.343	0.508
344.500	253.918	80.003	19.992	103.818	19.969	17.092	0.507
345.000	254.179	79.997	20.001	103.819	19.970	17.046	0.532
345.500	254.426	80.003	19.994	103.816	19.974	16.720	0.529
346.000	254.681	80.002	19.995	103.818	19.977	16.552	0.505
346.500	254.933	80.004	19.993	103.821	19.980	16.327	0.505
347.000	255.199	80.002	19.992	103.823	19.980	16.340	0.512
347.500	255.415	80.002	19.994	103.823	19.985	15.929	0.500
348.000	255.706	80.001	19.994	103.825	19.985	15.967	0.495
348.500	255.971	80.001	19.996	103.823	19.987	15.832	0.532
349.000	256.222	80.002	19.997	103.819	19.988	15.724	0.536
349.500	256.469	80.004	19.992	103.814	19.990	15.566	0.507
350.000	256.724	80.001	19.993	103.816	19.993	15.390	0.500
350.500	256.941	80.003	19.994	103.818	19.996	15.164	0.488
351.000	257.218	79.999	19.995	103.820	19.997	15.077	0.483
351.500	257.455	80.003	19.992	103.823	19.999	14.957	0.504
352.000	257.741	80.002	19.994	103.829	20.000	14.861	0.518
352.500	257.988	80.001	19.995	103.830	20.003	14.708	0.528
353.000	258.235	80.000	19.996	103.829	20.006	14.443	0.513
353.500	258.495	80.002	19.993	103.828	20.006	14.463	0.501
354.000	258.788	80.002	19.994	103.826	20.007	14.428	0.531
354.500	259.012	80.001	19.992	103.824	20.009	14.225	0.535
355.000	259.233	80.004	19.993	103.823	20.010	14.189	0.481
355.500	259.476	80.002	19.994	103.824	20.010	14.216	0.455
356.000	259.740	80.003	19.995	103.825	20.011	14.087	0.486
356.500	260.002	80.003	19.993	103.827	20.014	13.876	0.517
357.000	260.226	80.003	19.993	103.829	20.016	13.737	0.506
357.500	260.454	80.002	19.994	103.830	20.017	13.692	0.469
358.000	260.760	80.001	19.991	103.830	20.018	13.652	0.492
358.500	261.012	80.003	19.995	103.830	20.020	13.457	0.546
359.000	261.251	80.003	19.992	103.830	20.020	13.501	0.525
359.500	261.528	80.000	19.994	103.830	20.023	13.290	0.503
360.000	261.754	80.002	19.994	103.830	20.019	13.528	0.509
360.500	262.008	80.005	19.993	103.829	20.022	13.321	0.492
361.000	262.267	80.004	19.995	103.829	20.023	13.287	0.497
361.500	262.529	80.004	19.994	103.829	20.024	13.179	0.517
362.000	262.757	80.004	19.993	103.828	20.028	12.918	0.506
362.500	263.031	80.002	19.994	103.829	20.026	13.051	0.496
363.000	263.256	80.003	19.993	103.829	20.029	12.866	0.500
363.500	263.502	80.003	19.994	103.828	20.029	12.868	0.485
364.000	263.811	80.005	19.993	103.828	20.028	12.897	0.513
364.500	264.032	80.004	19.993	103.828	20.029	12.808	0.542
365.000	264.301	80.003	19.994	103.828	20.030	12.804	0.510
365.500	264.546	80.004	19.993	103.829	20.029	12.856	0.502
366.000	264.811	80.004	19.994	103.830	20.029	12.866	0.512
366.500	265.056	80.004	19.993	103.831	20.032	12.621	0.510
367.000	265.305	80.006	19.992	103.831	20.031	12.685	0.502
367.500	265.537	80.004	19.993	103.831	20.034	12.463	0.487
368.000	265.803	80.004	19.994	103.832	20.036	12.347	0.489
368.500	266.038	80.004	19.993	103.830	20.037	12.309	0.500
369.000	266.303	80.004	19.993	103.830	20.036	12.315	0.501
369.500	266.537	80.004	19.993	103.829	20.038	12.193	0.500
370.000	266.764	80.004	19.994	103.828	20.040	12.037	0.480
370.500	267.049	80.004	19.992	103.827	20.039	12.117	0.486
371.000	267.327	80.002	19.991	103.828	20.039	12.120	0.537
371.500	267.592	80.004	19.992	103.828	20.038	12.198	0.553
372.000	267.804	80.002	19.993	103.828	20.042	11.902	0.510
372.500	268.054	80.003	19.993	103.829	20.042	11.915	0.470
373.000	268.308	80.002	19.992	103.829	20.040	12.054	0.483
373.500	268.562	80.002	19.995	103.829	20.042	11.953	0.506
374.000	268.803	80.001	19.994	103.829	20.040	12.063	0.501
374.500	269.033	80.003	19.992	103.829	20.043	11.816	0.483
375.000	269.282	80.003	19.994	103.830	20.041	12.002	0.475
375.500	269.529	80.000	19.993	103.830	20.044	11.814	0.487
376.000	269.781	80.001	19.993	103.832	20.041	11.988	0.498
376.500	270.076	80.001	19.994	103.832	20.040	12.064	0.523
377.000	270.343	80.002	19.992	103.834	20.046	11.648	0.554
377.500	270.573	80.000	19.993	103.834	20.042	11.915	0.529
378.000	270.784	80.001	19.993	103.834	20.044	11.782	0.469
378.500	271.111	80.000	19.994	103.832	20.043	11.851	0.490
379.000	271.340	80.000	19.995	103.833	20.046	11.652	0.547
379.500	271.587	80.000	19.994	103.837	20.044	11.799	0.516
380.000	271.852	80.001	19.993	103.844	20.044	11.768	0.494
380.500	272.074	80.000	19.995	103.854	20.045	11.728	0.499
381.000	272.329	80.002	19.995	103.859	20.043	11.836	0.482
381.500	272.572	80.000	19.995	103.853	20.044	11.768	0.488
382.000	272.821	80.000	19.995	103.843	20.046	11.658	0.496
382.500	273.049	80.001	19.997	103.835	20.045	11.704	0.485
383.000	273.315	80.001	19.995	103.825	20.044	11.798	0.486
383.500	273.604	80.000	19.994	103.820	20.047	11.594	0.524
384.000	273.866	80.001	19.994	103.827	20.045	11.729	0.553
384.500	274.089	80.000	19.994	103.837	20.043	11.872	0.518
385.000	274.350	80.001	19.995	103.838	20.044	11.795	0.484
385.500	274.567	79.999	19.995	103.838	20.042	11.895	0.481
386.000	274.867	79.999	19.997	103.838	20.046	11.654	0.498
386.500	275.108	80.001	19.996	103.837	20.045	11.702	0.529
387.000	275.339	80.001	19.994	103.837	20.046	11.632	0.506
387.500	275.596	80.001	19.997	103.840	20.042	11.932	0.480
388.000	275.840	80.003	19.994	103.840	20.046	11.671	0.494
388.500	276.068	79.999	19.997	103.840	20.045	11.724	0.486
389.000	276.350	80.003	19.992	103.841	20.048	11.525	0.491
389.500	276.554	80.002	19.994	103.837	20.047	11.538	0.499
390.000	276.848	80.001	19.994	103.836	20.046	11.629	0.492
390.500	277.057	80.001	19.994	103.839	20.047	11.601	0.500
391.000	277.272	80.001	19.993	103.840	20.048	11.500	0.463
391.500	277.560	79.997	19.995	103.842	20.046	11.666	0.463
392.000	277.805	79.999	19.993	103.842	20.047	11.591	0.518
392.500	278.095	80.003	19.994	103.840	20.046	11.623	0.534
393.000	278.302	80.003	19.992	103.838	20.046	11.655	0.516
393.500	278.545	80.000	19.995	103.837	20.046	11.663	0.474
394.000	278.792	80.002	19.993	103.835	20.045	11.678	0.470
394.500	279.045	80.002	19.993	103.835	20.043	11.864	0.495
395.000	279.306	80.001	19.993	103.835	20.044	11.809	0.507
395.500	279.571	80.001	19.994	103.835	20.045	11.739	0.520
396.000	279.799	80.001	19.993	103.834	20.042	11.911	0.510
396.500	280.040	79.999	19.994	103.836	20.047	11.564	0.481
397.000	280.257	80.003	19.994	103.835	20.046	11.639	0.463
397.500	280.505	80.001	19.995	103.834	20.042	11.931	0.462
398.000	280.772	79.999	19.994	103.834	20.045	11.728	0.490
398.500	281.006	80.002	19.994	103.835	20.042	11.890	0.508
399.000	281.259	79.999	19.994	103.836	20.042	11.913	0.494
399.500	281.497	80.001	19.994	103.838	20.043	11.859	0.489
400.000	281.738	80.001	19.994	103.840	20.045	11.735	0.485
400.500	282.013	80.001	19.994	103.842	20.043	11.880	0.497
401.000	282.250	80.003	19.993	103.843	20.043	11.883	0.514
401.500	282.482	80.002	19.993	103.844	20.043	11.856	0.491
402.000	282.757	80.002	19.995	103.844	20.040	12.067	0.488
402.500	283.026	80.001	19.995	103.845	20.042	11.945	0.526
403.000	283.259	80.001	19.994	103.849	20.040	12.032	0.523
403.500	283.506	80.002	19.994	103.851	20.042	11.913	0.491
404.000	283.761	80.000	19.994	103.851	20.041	11.986	0.491
404.500	284.017	80.000	19.994	103.849	20.044	11.795	0.506
405.000	284.230	80.000	19.995	103.849	20.042	11.926	0.490
405.500	284.530	80.000	19.994	103.847	20.041	11.988	0.491
406.000	284.768	80.001	19.994	103.846	20.040	12.039	0.526
406.500	284.995	80.000	19.995	103.843	20.042	11.953	0.502
407.000	285.256	80.000	19.995	103.842	20.042	11.944	0.477
407.500	285.547	80.001	19.995	103.843	20.039	12.154	0.519
408.000	285.733	80.002	19.995	103.843	20.039	12.112	0.514
408.500	286.003	79.999	19.994	103.844	20.037	12.313	0.467
409.000	286.222	80.000	19.994	103.846	20.036	12.324	0.473
409.500	286.477	80.001	19.995	103.846	20.041	12.004	0.481
410.000	286.749	80.001	19.994	103.842	20.037	12.281	0.500
410.500	287.023	80.001	19.996	103.838	20.037	12.257	0.536
411.000	287.266	80.002	19.995	103.836	20.037	12.294	0.532
411.500	287.516	80.001	19.996	103.840	20.035	12.444	0.505
412.000	287.774	80.001	19.995	103.847	20.035	12.421	0.501
412.500	288.019	80.000	19.995	103.851	20.037	12.301	0.506
413.000	288.259	80.002	19.995	103.852	20.034	12.467	0.494
413.500	288.503	80.001	19.994	103.854	20.034	12.498	0.484
414.000	288.763	79.999	19.996	103.851	20.033	12.592	0.494
414.500	289.013	80.003	19.995	103.844	20.035	12.444	0.507
415.000	289.256	80.002	19.995	103.841	20.035	12.417	0.501
415.500	289.475	80.002	19.994	103.840	20.032	12.610	0.478
416.000	289.737	80.002	19.995	103.839	20.031	12.723	0.472
416.500	289.994	80.001	19.995	103.839	20.031	12.678	0.500
417.000	290.243	80.003	19.994	103.846	20.035	12.444	0.513
417.500	290.510	80.002	19.995	103.852	20.035	12.410	0.511
418.000	290.768	80.002	19.994	103.856	20.033	12.586	0.521
418.500	291.009	80.003	19.997	103.853	20.034	12.501	0.512
419.000	291.285	80.003	19.997	103.855	20.031	12.735	0.508
419.500	291.497	80.003	19.994	103.855	20.031	12.705	0.503
420.000	291.767	80.002	19.995	103.856	20.030	12.763	0.485
420.500	292.052	80.002	19.995	103.859	20.028	12.885	0.518
421.000	292.276	80.003	19.994	103.862	20.030	12.771	0.532
421.500	292.531	80.002	19.994	103.859	20.031	12.703	0.494
422.000	292.790	80.002	19.995	103.860	20.031	12.671	0.497
422.500	293.057	80.003	19.993	103.858	20.030	12.747	0.520
423.000	293.270	80.003	19.995	103.856	20.026	13.075	0.503
423.500	293.521	80.003	19.994	103.854	20.028	12.939	0.472
424.000	293.784	80.002	19.995	103.856	20.028	12.904	0.489
424.500	294.020	80.002	19.994	103.854	20.030	12.802	0.506
425.000	294.280	80.002	19.994	103.851	20.027	12.968	0.497
425.500	294.549	80.003	19.994	103.852	20.025	13.106	0.513
426.000	294.786	80.002	19.993	103.855	20.029	12.844	0.518
426.500	295.060	80.002	19.993	103.855	20.027	13.016	0.509
427.000	295.309	80.002	19.994	103.858	20.023	13.260	0.517
427.500	295.540	80.002	19.994	103.857	20.026	13.044	0.501
428.000	295.808	80.001	19.995	103.857	20.027	12.957	0.489
428.500	296.083	80.003	19.993	103.859	20.029	12.816	0.521
429.000	296.327	80.003	19.995	103.862	20.026	13.087	0.531
429.500	296.539	80.002	19.994	103.862	20.024	13.179	0.488
430.000	296.810	80.003	19.993	103.864	20.024	13.211	0.470
430.500	297.019	80.003	19.994	103.860	20.023	13.267	0.481
431.000	297.301	80.004	19.993	103.860	20.026	13.039	0.486
431.500	297.542	80.001	19.992	103.859	20.024	13.233	0.507
432.000	297.806	80.001	19.995	103.858	20.024	13.198	0.514
432.500	298.060	80.003	19.993	103.859	20.024	13.196	0.512
433.000	298.323	80.004	19.994	103.864	20.023	13.281	0.517
433.500	298.556	80.003	19.994	103.865	20.020	13.446	0.506
434.000	298.817	80.004	19.995	103.863	20.023	13.279	0.495
434.500	299.048	80.002	19.994	103.856	20.022	13.358	0.493
435.000	299.335	80.003	19.994	103.854	20.022	13.328	0.505
435.500	299.578	80.003	19.993	103.847	20.023	13.274	0.524
436.000	299.817	80.002	19.995	103.840	20.020	13.513	0.506
436.500	300.100	80.003	19.994	103.837	20.022	13.330	0.501
437.000	300.321	80.004	19.993	103.841	20.019	13.526	0.513
437.500	300.591	80.002	19.994	103.843	20.017	13.671	0.498
438.000	300.849	80.004	19.994	103.847	20.020	13.482	0.509
438.500	301.080	80.004	19.992	103.849	20.021	13.420	0.509
439.000	301.373	80.002	19.994	103.852	20.019	13.538	0.507
439.500	301.584	80.003	19.994	103.852	20.019	13.554	0.514
440.000	301.833	80.003	19.994	103.850	20.015	13.808	0.482
440.500	302.100	80.003	19.994	103.850	20.017	13.658	0.488
441.000	302.374	80.003	19.992	103.855	20.019	13.532	0.528
441.500	302.634	80.003	19.994	103.854	20.017	13.692	0.537
442.000	302.828	80.005	19.994	103.858	20.017	13.715	0.494
442.500	303.094	80.004	19.993	103.863	20.016	13.741	0.457
443.000	303.366	80.003	19.995	103.863	20.018	13.601	0.500
443.500	303.647	80.004	19.994	103.860	20.016	13.775	0.546
444.000	303.872	80.004	19.993	103.859	20.016	13.757	0.529
444.500	304.097	80.004	19.993	103.852	20.016	13.740	0.478
445.000	304.371	80.004	19.993	103.846	20.016	13.771	0.475
445.500	304.615	80.004	19.995	103.841	20.017	13.722	0.508
446.000	304.872	80.005	19.994	103.838	20.017	13.687	0.509
446.500	305.123	80.006	19.994	103.839	20.018	13.621	0.504
447.000	305.375	80.005	19.994	103.847	20.017	13.671	0.506
447.500	305.630	80.004	19.994	103.853	20.017	13.725	0.505
448.000	305.899	80.005	19.994	103.856	20.014	13.873	0.516
448.500	306.120	80.003	19.993	103.859	20.015	13.836	0.507
449.000	306.431	80.003	19.995	103.862	20.019	13.560	0.511
449.500	306.642	80.004	19.993	103.861	20.017	13.714	0.526
450.000	306.909	80.002	19.994	103.859	20.017	13.676	0.500
450.500	307.144	80.002	19.995	103.861	20.018	13.639	0.490
451.000	307.413	80.002	19.994	103.858	20.017	13.697	0.503
451.500	307.631	80.002	19.992	103.851	20.017	13.688	0.496
452.000	307.929	80.002	19.993	103.845	20.017	13.723	0.502
452.500	308.201	80.003	19.992	103.841	20.014	13.881	0.543
453.000	308.408	80.002	19.993	103.841	20.015	13.835	0.524
453.500	308.701	80.001	19.993	103.846	20.020	13.506	0.489
454.000	308.908	80.003	19.993	103.852	20.018	13.610	0.500
454.500	309.179	80.000	19.992	103.859	20.016	13.756	0.489
455.000	309.407	80.000	19.994	103.864	20.016	13.799	0.488
455.500	309.689	80.001	19.995	103.866	20.016	13.785	0.505
456.000	309.928	80.001	19.994	103.866	20.015	13.821	0.516
456.500	310.174	80.001	19.993	103.863	20.016	13.746	0.503
457.000	310.459	80.002	19.993	103.861	20.016	13.729	0.508
457.500	310.713	80.002	19.994	103.861	20.017	13.703	0.535
458.000	310.964	80.002	19.994	103.859	20.014	13.912	0.522
458.500	311.234	80.001	19.994	103.859	20.014	13.933	0.513
459.000	311.467	80.001	19.993	103.863	20.015	13.824	0.512
459.500	311.704	80.002	19.994	103.863	20.013	13.953	0.486
460.000	312.005	80.001	19.993	103.863	20.012	14.067	0.504
460.500	312.258	80.002	19.995	103.864	20.012	14.012	0.546
461.000	312.545	80.001	19.994	103.866	20.014	13.897	0.547
461.500	312.781	80.001	19.994	103.866	20.015	13.802	0.531
462.000	313.036	80.001	19.993	103.868	20.013	13.994	0.507
462.500	313.289	80.000	19.995	103.870	20.014	13.937	0.499
463.000	313.606	80.002	19.994	103.872	20.014	13.929	0.539
463.500	313.827	80.000	19.994	103.869	20.013	13.942	0.554
464.000	314.074	80.001	19.993	103.868	20.012	14.023	0.503
464.500	314.325	80.001	19.996	103.868	20.014	13.935	0.483
465.000	314.599	80.001	19.993	103.863	20.012	14.014	0.512
465.500	314.861	80.002	19.995	103.856	20.013	14.001	0.531
466.000	315.112	80.001	19.995	103.859	20.015	13.826	0.525
466.500	315.358	80.002	19.993	103.859	20.014	13.903	0.505
467.000	315.595	80.002	19.993	103.855	20.014	13.901	0.489
467.500	315.847	80.001	19.993	103.854	20.013	13.962	0.486
468.000	316.098	80.001	19.994	103.856	20.014	13.897	0.496
468.500	316.360	80.001	19.994	103.853	20.010	14.173	0.508
469.000	316.617	80.002	19.994	103.853	20.010	14.162	0.516
469.500	316.909	80.003	19.994	103.850	20.015	13.843	0.534
470.000	317.116	80.000	19.994	103.847	20.013	13.957	0.524
470.500	317.361	80.001	19.994	103.844	20.013	13.998	0.475
471.000	317.592	80.002	19.993	103.843	20.010	14.186	0.464
471.500	317.878	80.002	19.995	103.841	20.011	14.116	0.497
472.000	318.147	80.003	19.995	103.845	20.012	14.023	0.536
472.500	318.406	80.002	19.996	103.853	20.011	14.087	0.542
473.000	318.644	80.002	19.996	103.859	20.012	14.042	0.513
473.500	318.920	80.003	19.996	103.864	20.012	14.029	0.505
474.000	319.135	80.001	19.995	103.868	20.013	14.006	0.502
474.500	319.409	80.002	19.994	103.862	20.012	14.074	0.490
475.000	319.644	80.002	19.994	103.859	20.013	13.997	0.499
475.500	319.924	80.001	19.996	103.855	20.015	13.854	0.512
476.000	320.158	80.002	19.993	103.855	20.011	14.121	0.515
476.500	320.399	80.002	19.995	103.854	20.011	14.104	0.494
477.000	320.692	80.002	19.995	103.860	20.011	14.088	0.504
477.500	320.961	80.002	19.994	103.858	20.012	14.057	0.548
478.000	321.179	80.002	19.992	103.856	20.012	14.013	0.525
478.500	321.459	80.001	19.996	103.854	20.015	13.867	0.492
479.000	321.689	80.000	19.997	103.855	20.013	13.978	0.504
479.500	321.949	80.001	19.996	103.855	20.011	14.144	0.500
480.000	322.211	80.000	19.996	103.859	20.012	14.060	0.506
480.500	322.468	80.005	19.993	103.862	20.011	14.081	0.520
481.000	322.762	80.002	19.996	103.861	20.012	14.023	0.535
481.500	322.968	80.002	19.996	103.859	20.013	13.985	0.526
482.000	323.237	80.000	19.997	103.854	20.016	13.781	0.487
482.500	323.476	80.002	19.995	103.849	20.013	13.998	0.492
483.000	323.737	80.002	19.994	103.847	20.011	14.094	0.504
483.500	323.974	80.002	19.994	103.845	20.015	13.829	0.499
484.000	324.231	80.003	19.994	103.845	20.014	13.934	0.496
484.500	324.500	80.001	19.995	103.849	20.013	13.946	0.510
485.000	324.753	80.002	19.995	103.852	20.013	13.977	0.524
485.500	324.940	80.003	19.994	103.856	20.015	13.866	0.481
486.000	325.259	80.001	19.993	103.856	20.012	14.045	0.473
486.500	325.501	80.000	19.995	103.853	20.013	13.960	0.533
487.000	325.733	80.000	19.994	103.846	20.014	13.884	0.517
487.500	325.995	80.003	19.995	103.843	20.016	13.767	0.484
488.000	326.234	80.000	19.994	103.842	20.016	13.787	0.498
488.500	326.468	80.000	19.996	103.842	20.017	13.668	0.488
489.000	326.769	80.002	19.994	103.845	20.017	13.662	0.505
489.500	327.014	80.001	19.995	103.850	20.017	13.717	0.540
490.000	327.286	80.003	19.993	103.856	20.015	13.836	0.531
490.500	327.548	80.002	19.996	103.854	20.013	13.960	0.525
491.000	327.789	80.001	19.995	103.851	20.016	13.786	0.519
491.500	328.038	80.001	19.996	103.850	20.014	13.892	0.497
492.000	328.320	80.002	19.995	103.849	20.014	13.873	0.511
492.500	328.568	80.002	19.995	103.849	20.014	13.876	0.530
493.000	328.810	80.000	19.996	103.854	20.015	13.830	0.510
493.500	329.064	80.001	19.995	103.859	20.015	13.836	0.493
494.000	329.333	80.002	19.995	103.858	20.017	13.686	0.510
494.500	329.571	80.000	19.997	103.858	20.015	13.838	0.515
495.000	329.812	80.003	19.995	103.858	20.016	13.776	0.493
495.500	330.083	80.002	19.996	103.852	20.018	13.647	0.495
496.000	330.343	80.002	19.997	103.847	20.015	13.805	0.522
496.500	330.576	80.001	19.997	103.845	20.015	13.863	0.512
497.000	330.872	80.003	19.995	103.841	20.016	13.771	0.511
497.500	331.090	80.005	19.995	103.840	20.016	13.795	0.522
498.000	331.348	80.003	19.995	103.847	20.015	13.816	0.495
498.500	331.621	80.003	19.994	103.854	20.016	13.780	0.503
499.000	331.883	80.004	19.993	103.859	20.014	13.925	0.532
499.500	332.151	80.004	19.995	103.864	20.013	13.956	0.532
500.000	332.387	80.003	19.995	103.860	20.015	13.821	0.517
500.500	332.638	80.004	19.996	103.853	20.017	13.685	0.496
501.000	332.847	80.000	19.997	103.847	20.017	13.718	0.474
501.500	333.158	80.002	19.995	103.841	20.017	13.710	0.490
502.000	333.413	80.003	19.996	103.838	20.017	13.718	0.542
502.500	333.706	80.002	19.994	103.838	20.014	13.939	0.557
503.000	333.947	80.002	19.995	103.840	20.015	13.822	0.541
503.500	334.199	80.003	19.994	103.844	20.019	13.552	0.513
504.000	334.455	80.003	19.995	103.849	20.019	13.572	0.500
504.500	334.675	80.004	19.993	103.851	20.018	13.626	0.492
505.000	334.960	80.003	19.995	103.853	20.016	13.795	0.491
505.500	335.223	80.003	19.995	103.851	20.020	13.485	0.527
506.000	335.465	80.002	19.994	103.849	20.018	13.600	0.526
506.500	335.757	80.004	19.994	103.851	20.020	13.476	0.519
507.000	335.960	80.000	19.994	103.853	20.018	13.592	0.514
507.500	336.248	80.002	19.993	103.853	20.018	13.645	0.493
508.000	336.488	80.001	19.994	103.858	20.018	13.599	0.510
508.500	336.693	80.003	19.993	103.859	20.020	13.483	0.486
509.000	337.012	80.002	19.994	103.857	20.018	13.613	0.484
509.500	337.257	80.003	19.993	103.852	20.019	13.544	0.544
510.000	337.505	80.003	19.992	103.852	20.017	13.667	0.529
510.500	337.795	80.000	19.997	103.854	20.022	13.367	0.516
511.000	338.067	80.002	19.995	103.851	20.021	13.425	0.550
511.500	338.282	80.002	19.994	103.847	20.020	13.469	0.525
512.000	338.508	80.004	19.995	103.846	20.017	13.707	0.464
512.500	338.728	80.003	19.996	103.846	20.019	13.554	0.443
513.000	339.039	80.004	19.994	103.846	20.018	13.630	0.488
513.500	339.305	80.003	19.992	103.852	20.019	13.556	0.554
514.000	339.555	80.003	19.994	103.859	20.020	13.506	0.547
514.500	339.825	80.004	19.994	103.864	20.019	13.558	0.518
515.000	340.066	80.005	19.992	103.869	20.021	13.430	0.515
515.500	340.318	80.005	19.993	103.868	20.017	13.717	0.502
516.000	340.553	80.003	19.994	103.861	20.017	13.657	0.490
516.500	340.835	80.003	19.993	103.854	20.019	13.575	0.502
517.000	341.079	80.003	19.994	103.850	20.018	13.631	0.521
517.500	341.315	80.004	19.994	103.845	20.015	13.815	0.503
518.000	341.576	80.004	19.995	103.844	20.019	13.560	0.489
518.500	341.832	80.005	19.993	103.848	20.018	13.595	0.507
519.000	342.115	80.005	19.992	103.851	20.016	13.727	0.528
519.500	342.356	80.004	19.994	103.855	20.016	13.745	0.532
520.000	342.605	80.005	19.993	103.859	20.018	13.624	0.507
520.500	342.893	80.005	19.992	103.861	20.019	13.560	0.514
521.000	343.122	80.005	19.993	103.857	20.015	13.840	0.527
521.500	343.380	80.007	19.994	103.856	20.022	13.353	0.502
522.000	343.618	80.006	19.993	103.855	20.019	13.552	0.491
522.500	343.877	80.004	19.995	103.849	20.020	13.495	0.496
523.000	344.137	80.004	19.994	103.849	20.018	13.642	0.508
523.500	344.367	80.005	19.993	103.853	20.019	13.526	0.505
524.000	344.597	80.004	19.993	103.855	20.020	13.493	0.475
524.500	344.867	80.002	19.996	103.854	20.020	13.494	0.480
525.000	345.113	80.003	19.993	103.855	20.018	13.618	0.508
525.500	345.388	80.006	19.995	103.848	20.020	13.446	0.519
526.000	345.669	80.004	19.993	103.843	20.022	13.348	0.539
526.500	345.920	80.005	19.993	103.840	20.023	13.249	0.544
527.000	346.158	80.003	19.993	103.838	20.020	13.488	0.511
527.500	346.400	80.003	19.993	103.836	20.022	13.337	0.485
528.000	346.682	80.004	19.992	103.836	20.019	13.525	0.502
528.500	346.911	80.003	19.993	103.836	20.021	13.382	0.517
529.000	347.158	80.002	19.993	103.837	20.023	13.290	0.494
529.500	347.411	80.002	19.993	103.839	20.021	13.427	0.488
530.000	347.681	80.003	19.994	103.845	20.021	13.434	0.511
530.500	347.914	80.001	19.994	103.849	20.022	13.354	0.513
531.000	348.162	80.001	19.994	103.852	20.019	13.554	0.492
531.500	348.390	80.000	19.995	103.854	20.021	13.399	0.478
532.000	348.655	80.001	19.995	103.852	20.022	13.330	0.485
532.500	348.921	80.002	19.995	103.850	20.024	13.213	0.512
533.000	349.181	80.001	19.995	103.846	20.022	13.367	0.528
533.500	349.469	80.001	19.994	103.844	20.021	13.398	0.537
534.000	349.711	80.003	19.993	103.841	20.021	13.415	0.539
534.500	349.957	80.003	19.992	103.842	20.025	13.151	0.509
535.000	350.257	80.002	19.993	103.845	20.020	13.502	0.517
535.500	350.482	80.003	19.993	103.852	20.020	13.510	0.536
536.000	350.718	80.004	19.994	103.851	20.021	13.408	0.492
536.500	350.978	80.002	19.994	103.852	20.021	13.375	0.478
537.000	351.253	80.000	19.995	103.853	20.023	13.251	0.516
537.500	351.506	80.002	19.995	103.848	20.020	13.450	0.531
538.000	351.784	80.001	19.994	103.847	20.022	13.352	0.529
538.500	352.010	80.004	19.995	103.848	20.022	13.369	0.518
539.000	352.275	80.001	19.996	103.851	20.021	13.441	0.497
539.500	352.541	80.002	19.995	103.850	20.021	13.395	0.511
540.000	352.838	79.998	19.994	103.856	20.023	13.247	0.547
540.500	353.033	80.002	19.993	103.857	20.021	13.374	0.528
541.000	353.343	80.004	19.995	103.859	20.024	13.222	0.498
541.500	353.591	80.001	19.995	103.860	20.021	13.430	0.532
542.000	353.850	80.000	19.995	103.861	20.022	13.349	0.533
542.500	354.092	80.001	19.991	103.857	20.020	13.448	0.504
543.000	354.366	80.001	19.993	103.853	20.021	13.403	0.508
543.500	354.615	80.001	19.995	103.853	20.022	13.344	0.519
544.000	354.867	80.001	19.994	103.851	20.022	13.329	0.512
544.500	355.101	80.001	19.994	103.854	20.022	13.320	0.494
545.000	355.373	80.002	19.994	103.853	20.025	13.143	0.496
545.500	355.609	80.002	19.993	103.853	20.022	13.340	0.507
546.000	355.892	80.000	19.994	103.853	20.020	13.493	0.513
546.500	356.143	80.002	19.995	103.854	20.022	13.354	0.527
547.000	356.374	80.002	19.995	103.852	20.018	13.592	0.508
547.500	356.654	80.001	19.995	103.855	20.017	13.696	0.496
548.000	356.904	80.002	19.993	103.850	20.022	13.347	0.521
548.500	357.183	80.002	19.995	103.853	20.020	13.505	0.530
549.000	357.438	80.001	19.996	103.855	20.021	13.401	0.531
549.500	357.664	80.003	19.993	103.855	20.021	13.408	0.507
550.000	357.929	80.003	19.992	103.857	20.019	13.517	0.486
550.500	358.165	80.002	19.996	103.857	20.019	13.529	0.496
551.000	358.444	80.002	19.993	103.851	20.023	13.272	0.508
551.500	358.702	80.005	19.993	103.848	20.018	13.629	0.527
552.000	358.954	80.002	19.996	103.849	20.020	13.455	0.524
552.500	359.218	80.004	19.995	103.846	20.022	13.324	0.513
553.000	359.432	80.002	19.994	103.848	20.022	13.351	0.497
553.500	359.698	80.003	19.994	103.848	20.018	13.632	0.479
554.000	359.938	80.003	19.994	103.844	20.023	13.239	0.493
554.500	360.206	80.001	19.995	103.840	20.021	13.415	0.507
555.000	360.463	80.003	19.994	103.842	20.020	13.463	0.517
555.500	360.680	80.000	19.995	103.846	20.022	13.329	0.500
556.000	360.926	80.002	19.994	103.851	20.020	13.478	0.468
556.500	361.205	80.003	19.993	103.851	20.020	13.512	0.494
557.000	361.456	80.002	19.995	103.855	20.021	13.394	0.528
557.500	361.706	80.002	19.994	103.855	20.018	13.653	0.515
558.000	361.983	80.003	19.995	103.849	20.022	13.312	0.513
558.500	362.248	80.001	19.994	103.845	20.023	13.285	0.535
559.000	362.433	80.002	19.994	103.847	20.018	13.623	0.497
559.500	362.730	80.000	19.995	103.847	20.020	13.513	0.466
560.000	362.972	80.000	19.994	103.846	20.020	13.505	0.510
560.500	363.221	80.005	19.993	103.844	20.018	13.626	0.515
561.000	363.482	80.002	19.994	103.847	20.019	13.531	0.501
561.500	363.718	80.000	19.995	103.848	20.023	13.291	0.504
562.000	363.969	80.001	19.995	103.848	20.021	13.410	0.492
562.500	364.218	80.001	19.995	103.845	20.019	13.544	0.493
563.000	364.448	80.001	19.994	103.845	20.022	13.362	0.489
563.500	364.724	80.003	19.995	103.845	20.019	13.571	0.492
564.000	365.000	80.002	19.996	103.846	20.022	13.355	0.529
564.500	365.229	80.001	19.994	103.843	20.019	13.519	0.528
565.000	365.482	80.002	19.995	103.847	20.021	13.414	0.493
565.500	365.766	80.002	19.994	103.851	20.022	13.367	0.509
566.000	365.990	80.001	19.995	103.849	20.020	13.467	0.522
566.500	366.275	79.999	19.997	103.845	20.023	13.268	0.509
567.000	366.506	80.002	19.994	103.844	20.024	13.162	0.513
567.500	366.758	80.001	19.994	103.840	20.022	13.328	0.500
568.000	367.004	80.002	19.995	103.838	20.024	13.212	0.490
568.500	367.257	80.001	19.995	103.840	20.021	13.407	0.498
569.000	367.501	80.003	19.995	103.842	20.023	13.299	0.498
569.500	367.719	80.002	19.995	103.845	20.024	13.206	0.480
570.000	367.994	80.003	19.995	103.847	20.021	13.374	0.477
570.500	368.268	80.002	19.995	103.847	20.021	13.376	0.521
571.000	368.499	80.001	19.994	103.844	20.024	13.189	0.527
571.500	368.768	80.003	19.994	103.840	20.022	13.351	0.503
572.000	369.012	80.002	19.994	103.837	20.019	13.581	0.506
572.500	369.265	80.002	19.994	103.836	20.020	13.512	0.505
573.000	369.528	80.003	19.994	103.841	20.022	13.313	0.506
573.500	369.762	80.004	19.994	103.848	20.022	13.342	0.506
574.000	370.038	80.002	19.995	103.856	20.020	13.464	0.504
574.500	370.256	80.002	19.994	103.863	20.021	13.416	0.502
575.000	370.493	80.003	19.994	103.866	20.020	13.450	0.474
575.500	370.792	80.003	19.993	103.861	20.022	13.340	0.495
576.000	371.049	80.004	19.994	103.859	20.021	13.374	0.546
576.500	371.300	80.003	19.994	103.852	20.021	13.385	0.532
577.000	371.523	80.003	19.994	103.848	20.020	13.474	0.491
577.500	371.791	80.003	19.994	103.848	20.023	13.233	0.483
578.000	372.079	80.002	19.995	103.848	20.024	13.161	0.523
578.500	372.308	80.005	19.995	103.847	20.023	13.262	0.536
579.000	372.600	80.002	19.995	103.851	20.025	13.157	0.519
579.500	372.832	80.004	19.993	103.848	20.023	13.235	0.523
580.000	373.085	80.005	19.993	103.850	20.023	13.281	0.505
580.500	373.348	80.001	19.995	103.849	20.024	13.181	0.500
581.000	373.582	80.002	19.995	103.848	20.022	13.342	0.506
581.500	373.828	80.001	19.995	103.849	20.021	13.412	0.489
582.000	374.122	80.004	19.994	103.852	20.023	13.298	0.510
582.500	374.330	80.003	19.994	103.849	20.025	13.116	0.521
583.000	374.578	80.001	19.994	103.849	20.022	13.351	0.479
583.500	374.877	80.003	19.994	103.853	20.025	13.140	0.502
584.000	375.112	80.003	19.994	103.850	20.023	13.271	0.541
584.500	375.369	80.003	19.994	103.850	20.024	13.226	0.513
585.000	375.597	80.004	19.993	103.856	20.023	13.274	0.488
585.500	375.858	79.998	20.000	103.858	20.022	13.329	0.487
586.000	376.130	80.002	19.993	103.852	20.024	13.211	0.511
586.500	376.394	80.001	19.993	103.850	20.021	13.388	0.535
587.000	376.626	80.001	19.997	103.846	20.023	13.296	0.516
587.500	376.874	80.002	19.995	103.841	20.025	13.122	0.488
588.000	377.080	80.001	19.992	103.843	20.026	13.022	0.466
588.500	377.378	80.003	19.996	103.844	20.025	13.091	0.479
589.000	377.608	80.001	19.996	103.844	20.024	13.178	0.517
589.500	377.890	79.999	19.995	103.843	20.026	13.049	0.520
590.000	378.155	80.000	19.994	103.840	20.026	13.078	0.529
590.500	378.421	80.003	19.990	103.836	20.027	12.998	0.539
591.000	378.647	80.000	19.995	103.844	20.027	12.975	0.511
591.500	378.901	80.001	19.995	103.850	20.027	13.016	0.486
592.000	379.149	80.004	19.993	103.852	20.028	12.905	0.491
592.500	379.427	79.999	19.995	103.857	20.027	12.954	0.514
593.000	379.681	80.002	19.996	103.860	20.029	12.827	0.529
593.500	379.901	80.001	19.994	103.852	20.030	12.742	0.503
594.000	380.164	80.001	19.995	103.845	20.029	12.852	0.478
594.500	380.428	80.000	19.997	103.845	20.027	13.008	0.505
595.000	380.686	80.002	19.995	103.842	20.027	13.004	0.524
595.500	380.919	80.003	19.993	103.837	20.029	12.836	0.507
596.000	381.195	80.002	19.993	103.838	20.031	12.701	0.500
596.500	381.439	80.003	19.995	103.840	20.032	12.658	0.515
597.000	381.697	80.004	19.995	103.839	20.029	12.837	0.511
597.500	381.964	80.004	19.995	103.836	20.030	12.787	0.513
598.000	382.233	80.003	19.992	103.838	20.030	12.743	0.531
598.500	382.443	80.004	19.996	103.837	20.030	12.738	0.508
599.000	382.725	80.005	19.995	103.841	20.029	12.810	0.485
599.500	382.994	80.004	19.995	103.841	20.029	12.856	0.522
600.000	383.226	80.005	19.995	103.842	20.027	12.948	0.526
600.500	383.492	80.006	19.994	103.843	20.028	12.936	0.500
601.000	383.718	80.004	19.995	103.842	20.032	12.608	0.495
601.500	384.016	80.005	19.995	103.835	20.033	12.548	0.508
602.000	384.252	80.004	19.994	103.835	20.032	12.654	0.529
602.500	384.482	80.003	19.994	103.838	20.032	12.634	0.500
603.000	384.781	80.006	19.994	103.836	20.032	12.663	0.497
603.500	385.034	80.004	19.992	103.839	20.030	12.746	0.540
604.000	385.246	80.004	19.992	103.840	20.030	12.791	0.508
604.500	385.477	80.003	19.995	103.840	20.033	12.539	0.454
605.000	385.775	80.004	19.994	103.840	20.034	12.489	0.486
605.500	386.039	80.004	19.993	103.839	20.032	12.595	0.546
606.000	386.304	80.003	19.996	103.836	20.034	12.520	0.546
606.500	386.545	80.004	19.993	103.835	20.035	12.418	0.518
607.000	386.781	80.004	19.994	103.837	20.034	12.516	0.491
607.500	387.071	80.003	19.993	103.833	20.038	12.227	0.501
608.000	387.303	80.002	19.995	103.832	20.032	12.603	0.524
608.500	387.541	80.000	19.993	103.831	20.036	12.343	0.496
609.000	387.817	80.002	19.994	103.832	20.037	12.273	0.492
609.500	388.091	80.000	19.993	103.830	20.034	12.514	0.532
610.000	388.350	80.002	19.993	103.829	20.036	12.313	0.541
610.500	388.583	80.002	19.994	103.830	20.036	12.311	0.512
611.000	388.858	80.000	19.996	103.835	20.035	12.445	0.500
611.500	389.080	80.003	19.995	103.836	20.034	12.466	0.503
612.000	389.359	80.001	19.996	103.837	20.038	12.184	0.499
612.500	389.587	80.002	19.993	103.837	20.037	12.284	0.504
613.000	389.842	80.003	19.994	103.837	20.039	12.138	0.495
613.500	390.112	80.002	19.994	103.832	20.036	12.371	0.504
614.000	390.326	80.001	19.995	103.831	20.038	12.190	0.505
614.500	390.572	80.004	19.992	103.830	20.040	12.078	0.472
615.000	390.845	80.001	19.994	103.831	20.038	12.223	0.489
615.500	391.110	80.002	19.995	103.829	20.040	12.047	0.529
616.000	391.322	80.002	19.994	103.828	20.038	12.192	0.507
616.500	391.630	80.000	19.995	103.828	20.042	11.949	0.498
617.000	391.895	80.003	19.994	103.829	20.040	12.078	0.546
617.500	392.131	80.000	19.993	103.829	20.039	12.144	0.537
618.000	392.391	80.001	19.995	103.831	20.043	11.826	0.498
618.500	392.651	80.002	19.995	103.831	20.041	12.017	0.508
619.000	392.884	80.000	19.994	103.831	20.041	11.980	0.506
619.500	393.172	80.002	19.995	103.831	20.040	12.067	0.507
620.000	393.396	80.002	19.995	103.828	20.040	12.077	0.517
620.500	393.716	80.000	19.997	103.828	20.044	11.808	0.528
621.000	393.966	80.001	19.993	103.828	20.043	11.885	0.557
621.500	394.202	80.002	19.996	103.828	20.043	11.829	0.528
622.000	394.462	80.002	19.994	103.829	20.045	11.738	0.491
622.500	394.712	80.001	19.995	103.831	20.045	11.682	0.503
623.000	394.961	80.003	19.994	103.831	20.046	11.605	0.504
623.500	395.209	80.002	19.995	103.829	20.044	11.777	0.498
624.000	395.471	80.001	19.994	103.829	20.044	11.748	0.504
624.500	395.715	80.002	19.994	103.829	20.042	11.906	0.508
625.000	396.004	80.001	19.995	103.829	20.044	11.767	0.519
625.500	396.233	80.003	19.995	103.829	20.047	11.588	0.525
626.000	396.486	80.003	19.995	103.832	20.046	11.611	0.500
626.500	396.739	80.002	19.995	103.833	20.043	11.827	0.494
627.000	397.017	80.002	19.995	103.832	20.045	11.684	0.519
627.500	397.238	80.002	19.994	103.833	20.043	11.825	0.515
628.000	397.508	80.002	19.992	103.833	20.045	11.702	0.495
628.500	397.755	80.002	19.992	103.834	20.046	11.658	0.504
629.000	397.986	80.003	19.993	103.835	20.043	11.824	0.498
629.500	398.219	80.003	19.994	103.837	20.047	11.592	0.471
630.000	398.509	80.003	19.996	103.838	20.045	11.727	0.493
630.500	398.775	80.001	19.993	103.838	20.048	11.496	0.539
631.000	399.025	79.999	19.993	103.837	20.045	11.701	0.536
631.500	399.268	80.002	19.994	103.835	20.047	11.566	0.504
632.000	399.530	80.003	19.994	103.834	20.045	11.709	0.499
632.500	399.773	79.998	19.994	103.834	20.048	11.531	0.505
633.000	400.014	80.001	19.994	103.833	20.049	11.397	0.495
633.500	400.283	80.002	19.992	103.833	20.050	11.377	0.497
634.000	400.586	80.001	19.994	103.832	20.053	11.145	0.541
634.500	400.805	80.001	19.994	103.831	20.050	11.330	0.547
635.000	401.053	80.003	19.993	103.831	20.050	11.342	0.494
635.500	401.326	80.000	19.994	103.832	20.053	11.134	0.494
636.000	401.552	80.002	19.992	103.832	20.050	11.352	0.510
636.500	401.826	80.001	19.993	103.833	20.051	11.259	0.500
637.000	402.066	80.001	19.995	103.833	20.053	11.118	0.507
637.500	402.317	80.001	19.994	103.832	20.053	11.146	0.503
638.000	402.546	80.001	19.994	103.831	20.052	11.234	0.485
638.500	402.826	80.000	19.994	103.828	20.056	10.916	0.494
639.000	403.078	80.000	19.993	103.823	20.054	11.035	0.521
639.500	403.339	80.000	19.994	103.821	20.054	11.065	0.523
640.000	403.581	80.000	19.993	103.819	20.058	10.804	0.508
640.500	403.856	80.002	19.992	103.817	20.055	10.992	0.509
641.000	404.103	80.001	19.994	103.818	20.056	10.923	0.519
641.500	404.319	79.998	19.993	103.822	20.057	10.882	0.493
642.000	404.583	80.000	19.995	103.823	20.054	11.103	0.472
642.500	404.818	80.000	19.995	103.827	20.057	10.872	0.489
643.000	405.042	80.000	19.994	103.829	20.056	10.907	0.479
643.500	405.328	80.001	19.995	103.826	20.061	10.576	0.484
644.000	405.562	79.999	19.993	103.820	20.060	10.668	0.515
644.500	405.820	79.999	19.994	103.815	20.061	10.575	0.506
645.000	406.082	79.999	19.995	103.810	20.060	10.629	0.507
645.500	406.361	80.000	19.994	103.807	20.059	10.698	0.531
646.000	406.600	80.001	19.995	103.810	20.058	10.812	0.529
646.500	406.830	79.998	19.995	103.814	20.061	10.544	0.494
647.000	407.095	80.001	19.994	103.815	20.058	10.787	0.482
647.500	407.337	80.003	19.994	103.816	20.063	10.422	0.501
648.000	407.580	80.001	19.995	103.816	20.063	10.453	0.496
648.500	407.868	79.999	19.994	103.818	20.063	10.426	0.508
649.000	408.080	80.002	19.993	103.816	20.061	10.558	0.515
649.500	408.397	80.001	19.994	103.814	20.063	10.408	0.514
650.000	408.643	80.002	19.994	103.815	20.062	10.505	0.546
650.500	408.877	79.999	19.995	103.818	20.064	10.369	0.521
651.000	409.112	80.001	19.995	103.817	20.063	10.431	0.475
651.500	409.362	80.002	19.994	103.820	20.066	10.222	0.477
652.000	409.602	80.001	19.994	103.825	20.065	10.304	0.487
652.500	409.849	80.004	19.995	103.830	20.065	10.255	0.489
653.000	410.147	80.001	19.994	103.830	20.066	10.226	0.517
653.500	410.384	80.004	19.994	103.826	20.067	10.137	0.541
654.000	410.609	80.002	19.995	103.822	20.068	10.095	0.498
654.500	410.880	80.003	19.994	103.814	20.069	10.037	0.479
655.000	411.111	80.002	19.994	103.809	20.069	9.998	0.499
655.500	411.364	80.001	19.995	103.808	20.069	10.030	0.493
656.000	411.633	80.002	19.996	103.806	20.069	10.009	0.503
656.500	411.889	80.004	19.994	103.805	20.073	9.756	0.524
657.000	412.126	80.003	19.994	103.806	20.070	9.910	0.509
657.500	412.389	80.005	19.994	103.806	20.068	10.092	0.496
658.000	412.657	80.001	19.994	103.800	20.072	9.782	0.516
658.500	412.909	80.002	19.995	103.799	20.069	10.025	0.526
659.000	413.182	80.002	19.996	103.803	20.071	9.852	0.523
659.500	413.398	80.004	19.996	103.807	20.073	9.715	0.507
660.000	413.662	80.002	19.995	103.809	20.074	9.676	0.485
660.500	413.912	80.001	19.995	103.816	20.073	9.760	0.497
661.000	414.145	80.004	19.996	103.822	20.073	9.706	0.498
661.500	414.369	80.004	19.993	103.818	20.072	9.774	0.470
662.000	414.614	80.002	19.994	103.813	20.073	9.695	0.463
662.500	414.873	80.001	19.996	103.809	20.075	9.619	0.486
663.000	415.128	80.003	19.995	103.803	20.075	9.594	0.509
663.500	415.369	80.002	19.995	103.797	20.073	9.719	0.505
664.000	415.627	80.002	19.993	103.796	20.075	9.615	0.497
664.500	415.881	80.002	19.995	103.795	20.075	9.578	0.506
665.000	416.126	80.002	19.995	103.794	20.074	9.661	0.506
665.500	416.413	80.000	19.995	103.793	20.076	9.539	0.515
666.000	416.609	80.002	19.994	103.792	20.075	9.593	0.507
666.500	416.886	80.004	19.993	103.798	20.077	9.452	0.478
667.000	417.140	80.000	19.995	103.802	20.077	9.442	0.502
667.500	417.408	80.002	19.996	103.802	20.078	9.371	0.526
668.000	417.656	80.001	19.994	103.803	20.076	9.481	0.519
668.500	417.875	80.000	19.995	103.802	20.075	9.591	0.492
669.000	418.170	80.001	19.996	103.795	20.077	9.446	0.491
669.500	418.427	79.999	19.996	103.792	20.075	9.549	0.533
670.000	418.672	80.003	19.995	103.792	20.078	9.370	0.527
670.500	418.956	80.003	19.994	103.793	20.076	9.480	0.515
671.000	419.182	80.002	19.997	103.798	20.077	9.472	0.519
671.500	419.456	80.002	19.995	103.805	20.080	9.263	0.505
672.000	419.705	80.001	19.997	103.810	20.079	9.278	0.511
672.500	419.916	80.002	19.993	103.811	20.078	9.390	0.492
673.000	420.194	80.002	19.996	103.810	20.079	9.272	0.475
673.500	420.450	80.001	19.995	103.808	20.081	9.157	0.511
674.000	420.685	80.002	19.996	103.804	20.080	9.240	0.512
674.500	420.976	80.002	19.995	103.799	20.081	9.130	0.509
675.000	421.228	80.003	19.995	103.798	20.081	9.190	0.535
675.500	421.451	80.000	19.995	103.797	20.081	9.179	0.509
676.000	421.738	80.002	19.994	103.795	20.083	9.034	0.492
676.500	421.973	80.003	19.995	103.792	20.082	9.080	0.516
677.000	422.222	80.002	19.996	103.793	20.083	9.047	0.503
677.500	422.513	80.002	19.996	103.792	20.082	9.070	0.512
678.000	422.737	80.002	19.996	103.791	20.083	9.034	0.527
678.500	422.996	80.001	19.994	103.790	20.082	9.074	0.499
679.000	423.254	80.002	19.994	103.789	20.084	8.939	0.500
679.500	423.531	80.003	19.995	103.790	20.084	8.970	0.526
680.000	423.756	80.004	19.994	103.795	20.082	9.066	0.519
680.500	424.035	80.002	19.996	103.804	20.082	9.120	0.503
681.000	424.272	80.002	19.997	103.809	20.084	8.925	0.509
681.500	424.523	80.004	19.994	103.809	20.083	8.985	0.502
682.000	424.763	80.002	19.995	103.806	20.086	8.782	0.489
682.500	425.023	80.003	19.997	103.800	20.084	8.927	0.496
683.000	425.327	80.004	19.996	103.792	20.084	8.931	0.532
683.500	425.522	80.005	19.995	103.787	20.085	8.902	0.531
684.000	425.782	80.002	19.995	103.790	20.086	8.782	0.477
684.500	426.049	80.003	19.994	103.792	20.086	8.794	0.491
685.000	426.272	80.003	19.994	103.796	20.088	8.691	0.508
685.500	426.549	80.004	19.995	103.797	20.085	8.879	0.495
686.000	426.799	80.000	19.997	103.801	20.088	8.639	0.514
686.500	427.063	80.002	19.996	103.803	20.090	8.523	0.520
687.000	427.329	80.002	19.995	103.804	20.089	8.599	0.522
687.500	427.580	80.004	19.993	103.804	20.090	8.514	0.524
688.000	427.777	80.001	19.995	103.804	20.089	8.583	0.483
688.500	428.071	80.002	19.995	103.801	20.087	8.749	0.470
689.000	428.326	80.001	19.994	103.800	20.088	8.691	0.520
689.500	428.608	80.000	19.994	103.798	20.089	8.606	0.542
690.000	428.851	80.001	19.995	103.796	20.091	8.465	0.531
690.500	429.130	80.000	19.994	103.795	20.091	8.487	0.524
691.000	429.364	79.998	19.995	103.796	20.087	8.718	0.518
691.500	429.596	80.001	19.994	103.793	20.090	8.552	0.490
692.000	429.888	80.000	19.995	103.793	20.091	8.460	0.495
692.500	430.134	80.002	19.995	103.791	20.089	8.558	0.531
693.000	430.346	80.000	19.994	103.791	20.090	8.546	0.498
693.500	430.612	80.003	19.994	103.791	20.091	8.484	0.468
694.000	430.873	79.999	19.994	103.793	20.093	8.336	0.502
694.500	431.136	80.001	19.994	103.793	20.092	8.382	0.525
695.000	431.405	80.000	19.994	103.793	20.094	8.270	0.528
695.500	431.637	80.000	19.994	103.793	20.093	8.286	0.517
696.000	431.896	80.003	19.993	103.793	20.094	8.259	0.496
696.500	432.173	80.002	19.992	103.792	20.094	8.249	0.513
697.000	432.419	80.000	19.994	103.792	20.095	8.178	0.529
697.500	432.672	80.001	19.993	103.792	20.098	7.927	0.511
698.000	432.921	80.003	19.994	103.792	20.095	8.135	0.501
698.500	433.205	80.004	19.994	103.793	20.093	8.334	0.518
699.000	433.469	79.997	19.998	103.793	20.092	8.394	0.540
699.500	433.715	80.002	19.994	103.792	20.096	8.108	0.529
700.000	433.978	80.000	19.994	103.793	20.095	8.189	0.510
700.500	434.219	80.002	19.993	103.792	20.096	8.102	0.506
701.000	434.526	80.001	19.994	103.792	20.095	8.135	0.526
701.500	434.752	80.000	19.993	103.791	20.094	8.232	0.541
702.000	435.007	80.001	19.995	103.792	20.095	8.141	0.507
702.500	435.246	80.002	19.995	103.792	20.095	8.199	0.488
703.000	435.542	80.001	19.994	103.792	20.095	8.147	0.515
703.500	435.748	80.001	19.993	103.791	20.097	8.039	0.519
704.000	436.012	80.000	19.994	103.789	20.093	8.319	0.486
704.500	436.267	80.001	19.993	103.789	20.094	8.230	0.494
705.000	436.540	80.001	19.995	103.789	20.093	8.284	0.523
705.500	436.772	80.000	19.994	103.789	20.096	8.083	0.517
706.000	437.039	80.003	19.993	103.790	20.097	8.002	0.502
706.500	437.307	80.001	19.994	103.792	20.097	8.056	0.517
707.000	437.573	80.001	19.995	103.793	20.097	8.020	0.534
707.500	437.829	80.002	19.994	103.792	20.097	8.014	0.528
708.000	438.069	80.000	19.994	103.791	20.096	8.064	0.509
708.500	438.294	80.001	19.994	103.791	20.100	7.832	0.480
709.000	438.581	80.001	19.996	103.791	20.101	7.766	0.488
709.500	438.842	80.002	19.993	103.790	20.098	7.988	0.530
710.000	439.091	80.001	19.995	103.789	20.101	7.741	0.529
710.500	439.391	80.001	19.994	103.788	20.099	7.871	0.529
711.000	439.627	80.000	19.994	103.788	20.102	7.674	0.542
711.500	439.839	80.000	19.994	103.789	20.100	7.795	0.492
712.000	440.094	80.003	19.994	103.790	20.099	7.896	0.458
712.500	440.375	80.000	19.994	103.792	20.104	7.562	0.502
713.000	440.634	79.999	19.995	103.793	20.100	7.817	0.538
713.500	440.869	80.003	19.993	103.793	20.100	7.793	0.517
714.000	441.128	80.001	19.994	103.793	20.102	7.687	0.494
714.500	441.384	80.001	19.993	103.794	20.102	7.706	0.504
715.000	441.612	80.001	19.995	103.792	20.099	7.920	0.500
715.500	441.880	80.002	19.993	103.792	20.101	7.729	0.490
716.000	442.116	80.000	19.996	103.792	20.102	7.692	0.500
716.500	442.377	80.000	19.996	103.792	20.104	7.523	0.500
717.000	442.662	80.004	19.992	103.791	20.100	7.810	0.521
717.500	442.858	80.002	19.993	103.793	20.104	7.529	0.513
718.000	443.141	79.999	19.995	103.794	20.100	7.782	0.480
718.500	443.386	80.002	19.998	103.794	20.103	7.631	0.504
719.000	443.646	80.002	19.997	103.794	20.102	7.679	0.516
719.500	443.905	80.000	19.996	103.794	20.101	7.710	0.512
720.000	444.151	80.003	19.996	103.791	20.103	7.609	0.512
720.500	444.426	80.003	19.993	103.790	20.100	7.791	0.513
721.000	444.680	80.003	19.995	103.789	20.105	7.476	0.525
721.500	444.909	80.001	19.994	103.789	20.101	7.752	0.506
722.000	445.193	80.002	19.995	103.788	20.103	7.624	0.498
722.500	445.424	80.002	19.993	103.789	20.101	7.737	0.514
723.000	445.691	80.002	19.995	103.790	20.103	7.600	0.506
723.500	445.968	80.003	19.993	103.792	20.102	7.648	0.521
724.000	446.210	80.001	19.994	103.792	20.104	7.559	0.532
724.500	446.461	80.003	19.994	103.791	20.101	7.770	0.506
725.000	446.709	80.002	19.995	103.790	20.100	7.795	0.496
725.500	447.010	80.003	19.994	103.785	20.103	7.590	0.524
726.000	447.236	80.002	19.995	103.782	20.101	7.729	0.538
726.500	447.457	80.002	19.995	103.781	20.104	7.550	0.487
727.000	447.714	80.004	19.994	103.781	20.104	7.502	0.462
727.500	447.984	80.001	19.997	103.782	20.106	7.395	0.502
728.000	448.213	80.005	19.993	103.786	20.103	7.583	0.513
728.500	448.515	80.004	19.994	103.788	20.104	7.557	0.515
729.000	448.748	80.003	19.995	103.787	20.103	7.635	0.533
729.500	448.980	80.002	19.994	103.786	20.102	7.646	0.500
730.000	449.254	80.002	19.994	103.785	20.105	7.453	0.485
730.500	449.506	80.002	19.996	103.785	20.107	7.322	0.516
731.000	449.727	80.004	19.994	103.779	20.106	7.387	0.499
731.500	449.963	80.004	19.994	103.779	20.104	7.505	0.465
732.000	450.260	80.002	19.994	103.780	20.103	7.580	0.495
732.500	450.510	80.002	19.995	103.779	20.105	7.466	0.540
733.000	450.752	80.001	19.994	103.777	20.106	7.412	0.519
733.500	451.006	80.006	19.994	103.781	20.106	7.415	0.494
734.000	451.230	80.004	19.993	103.782	20.106	7.388	0.488
734.500	451.542	80.002	19.993	103.780	20.109	7.186	0.507
735.000	451.759	80.001	19.995	103.778	20.108	7.261	0.532
735.500	452.034	80.003	19.993	103.781	20.108	7.244	0.511
736.000	452.319	80.002	19.997	103.782	20.109	7.206	0.526
736.500	452.568	80.004	19.995	103.781	20.106	7.370	0.546
737.000	452.791	80.006	19.993	103.783	20.105	7.453	0.503
737.500	453.037	80.005	19.995	103.786	20.106	7.375	0.471
738.000	453.267	80.004	19.994	103.785	20.107	7.292	0.472
738.500	453.519	80.002	19.995	103.783	20.105	7.448	0.479
739.000	453.763	80.005	19.995	103.784	20.108	7.257	0.490
739.500	454.025	80.004	19.994	103.784	20.108	7.231	0.501
740.000	454.293	80.002	19.995	103.784	20.109	7.204	0.517
740.500	454.552	80.005	19.994	103.784	20.107	7.289	0.528
741.000	454.801	80.003	19.995	103.782	20.107	7.304	0.518
741.500	455.087	80.004	19.995	103.783	20.108	7.242	0.522
742.000	455.326	80.002	19.994	103.782	20.109	7.158	0.530
742.500	455.588	80.002	19.994	103.779	20.108	7.280	0.513
743.000	455.828	80.004	19.995	103.778	20.108	7.214	0.501
743.500	456.089	80.002	19.995	103.777	20.107	7.330	0.502
744.000	456.338	80.002	19.996	103.772	20.108	7.236	0.506
744.500	456.582	80.002	19.996	103.769	20.107	7.294	0.501
745.000	456.858	80.000	19.994	103.768	20.108	7.223	0.506
745.500	457.104	80.003	19.995	103.770	20.108	7.225	0.521
746.000	457.340	80.003	19.994	103.775	20.108	7.242	0.502
746.500	457.625	80.003	19.995	103.781	20.109	7.161	0.502
747.000	457.858	80.003	19.994	103.784	20.108	7.226	0.519
747.500	458.130	80.004	19.994	103.782	20.107	7.342	0.511
748.000	458.349	80.002	19.994	103.779	20.111	7.066	0.498
748.500	458.682	80.001	19.995	103.775	20.109	7.184	0.521
749.000	458.893	80.003	19.995	103.768	20.109	7.144	0.548
749.500	459.156	80.004	19.995	103.766	20.109	7.149	0.509
750.000	459.432	80.002	19.995	103.771	20.108	7.265	0.507
750.500	459.629	80.001	19.996	103.775	20.110	7.121	0.507
751.000	459.892	80.000	19.995	103.779	20.111	7.057	0.467
751.500	460.136	80.001	19.995	103.782	20.112	6.991	0.483
752.000	460.427	80.005	19.993	103.777	20.108	7.264	0.521
752.500	460.690	80.005	19.995	103.769	20.108	7.281	0.545
753.000	460.926	80.003	19.995	103.763	20.106	7.389	0.526
753.500	461.209	80.003	19.994	103.759	20.112	6.951	0.509
754.000	461.481	80.001	19.995	103.758	20.109	7.185	0.537
754.500	461.711	80.000	19.995	103.763	20.113	6.903	0.529
755.000	461.951	80.004	19.994	103.770	20.108	7.229	0.486
755.500	462.243	80.003	19.993	103.776	20.110	7.119	0.501
756.000	462.449	80.003	19.994	103.781	20.110	7.077	0.515
756.500	462.712	80.004	19.992	103.781	20.109	7.193	0.484
757.000	462.992	80.005	19.994	103.778	20.110	7.098	0.506
757.500	463.207	80.006	19.992	103.771	20.108	7.252	0.519
758.000	463.481	80.004	19.995	103.766	20.110	7.128	0.492
758.500	463.751	80.002	19.994	103.763	20.113	6.912	0.517
759.000	463.978	80.005	19.995	103.766	20.111	7.008	0.521
759.500	464.267	80.002	19.995	103.770	20.114	6.835	0.506
760.000	464.484	80.001	19.997	103.774	20.114	6.823	0.511
760.500	464.760	80.001	19.993	103.773	20.111	7.045	0.500
761.000	464.970	80.002	19.995	103.774	20.110	7.087	0.490
761.500	465.266	80.003	19.995	103.775	20.114	6.813	0.496
762.000	465.496	80.002	19.994	103.777	20.114	6.806	0.516
762.500	465.764	80.003	19.994	103.779	20.114	6.856	0.512
763.000	465.998	80.002	19.996	103.784	20.114	6.795	0.500
763.500	466.261	80.003	19.994	103.783	20.117	6.644	0.500
764.000	466.553	80.003	19.994	103.780	20.115	6.731	0.526
764.500	466.775	80.001	19.996	103.780	20.114	6.798	0.534
765.000	467.034	80.002	19.996	103.779	20.114	6.823	0.497
765.500	467.267	80.001	19.994	103.780	20.113	6.899	0.486
766.000	467.556	80.002	19.994	103.782	20.116	6.671	0.507
766.500	467.793	80.003	19.993	103.786	20.113	6.912	0.524
767.000	468.024	79.999	19.996	103.787	20.114	6.798	0.497
767.500	468.291	79.997	19.998	103.784	20.114	6.833	0.483
768.000	468.564	80.003	19.991	103.778	20.114	6.836	0.519
768.500	468.829	80.000	19.994	103.776	20.115	6.781	0.539
769.000	469.081	80.001	19.993	103.775	20.113	6.885	0.528
769.500	469.331	80.000	19.993	103.770	20.115	6.748	0.510
770.000	469.589	80.003	19.995	103.769	20.113	6.868	0.505
770.500	469.862	79.997	19.995	103.773	20.114	6.816	0.519
771.000	470.080	80.000	19.995	103.769	20.113	6.868	0.511
771.500	470.311	79.999	19.994	103.768	20.112	6.952	0.470
772.000	470.618	80.000	19.995	103.768	20.115	6.779	0.493
772.500	470.852	80.002	19.995	103.772	20.115	6.721	0.539
773.000	471.108	80.000	19.994	103.772	20.114	6.810	0.515
773.500	471.390	79.999	19.996	103.775	20.115	6.756	0.514
774.000	471.623	79.999	19.995	103.778	20.116	6.716	0.526
774.500	471.907	80.001	19.994	103.780	20.112	6.976	0.516
775.000	472.172	80.001	19.995	103.781	20.116	6.682	0.533
775.500	472.349	79.999	19.995	103.779	20.112	6.945	0.495
776.000	472.677	79.999	19.994	103.776	20.116	6.715	0.474
776.500	472.927	80.002	19.993	103.774	20.116	6.665	0.542
777.000	473.144	80.002	19.993	103.772	20.116	6.659	0.522
777.500	473.413	80.003	19.991	103.768	20.116	6.667	0.477
778.000	473.660	79.998	19.993	103.771	20.118	6.553	0.501
778.500	473.939	80.000	19.998	103.772	20.117	6.602	0.520
779.000	474.199	80.000	19.997	103.770	20.119	6.490	0.532
779.500	474.461	80.001	19.994	103.773	20.119	6.487	0.530
780.000	474.708	80.002	19.995	103.778	20.118	6.539	0.515
780.500	474.971	80.001	19.994	103.778	20.118	6.512	0.509
781.000	475.261	80.001	19.994	103.781	20.116	6.664	0.532
781.500	475.502	80.002	19.995	103.780	20.117	6.627	0.542
782.000	475.760	80.001	19.995	103.774	20.118	6.575	0.515
782.500	475.999	80.003	19.994	103.772	20.118	6.540	0.498
783.000	476.247	80.003	19.996	103.775	20.121	6.320	0.492
783.500	476.500	80.002	19.994	103.775	20.118	6.537	0.494
784.000	476.723	80.000	19.995	103.777	20.119	6.448	0.489
784.500	476.999	80.001	19.996	103.781	20.117	6.614	0.487
785.000	477.223	80.003	19.995	103.781	20.120	6.374	0.499
785.500	477.513	80.002	19.994	103.776	20.117	6.619	0.507
786.000	477.773	80.003	19.994	103.773	20.119	6.473	0.532
786.500	478.025	80.002	19.994	103.774	20.118	6.515	0.531
787.000	478.257	80.003	19.994	103.774	20.119	6.444	0.498
787.500	478.558	80.002	19.995	103.774	20.116	6.698	0.508
788.000	478.803	80.002	19.994	103.776	20.121	6.353	0.539
788.500	479.041	80.001	19.995	103.774	20.119	6.440	0.515
789.000	479.323	80.000	19.995	103.769	20.120	6.409	0.502
789.500	479.551	80.003	19.994	103.763	20.120	6.399	0.515
790.000	479.833	80.001	19.995	103.759	20.122	6.274	0.510
790.500	480.072	80.002	19.996	103.760	20.122	6.270	0.515
791.000	480.368	80.003	19.994	103.759	20.119	6.486	0.528
791.500	480.590	80.002	19.994	103.759	20.121	6.324	0.526
792.000	480.862	80.001	19.994	103.761	20.121	6.318	0.506
792.500	481.138	80.002	19.993	103.760	20.119	6.486	0.521
793.000	481.407	80.002	19.995	103.754	20.123	6.164	0.547
793.500	481.625	80.001	19.995	103.756	20.124	6.083	0.516
794.000	481.877	80.004	19.994	103.757	20.124	6.100	0.478
794.500	482.142	80.004	19.994	103.760	20.122	6.247	0.494
795.000	482.378	80.001	19.994	103.761	20.120	6.378	0.509
795.500	482.664	80.002	19.993	103.761	20.121	6.309	0.512
796.000	482.939	80.000	19.994	103.759	20.120	6.400	0.541
796.500	483.169	80.001	19.995	103.757	20.120	6.425	0.533
797.000	483.427	80.001	19.994	103.755	20.122	6.224	0.497
797.500	483.662	80.003	19.993	103.754	20.123	6.199	0.491
798.000	483.950	80.001	19.995	103.754	20.123	6.210	0.508
798.500	484.175	80.001	19.995	103.753	20.122	6.230	0.518
799.000	484.456	80.002	19.994	103.755	20.125	6.018	0.509
799.500	484.673	80.002	19.994	103.752	20.121	6.299	0.502
800.000	484.938	80.000	19.994	103.753	20.124	6.151	0.490
800.500	485.199	80.002	19.994	103.756	20.125	6.068	0.505
801.000	485.477	80.001	19.994	103.756	20.127	5.900	0.533
801.500	485.704	80.001	19.994	103.756	20.124	6.122	0.522
802.000	485.955	80.004	19.992	103.757	20.126	5.968	0.491
802.500	486.201	80.000	19.993	103.757	20.124	6.115	0.488
803.000	486.479	80.002	19.994	103.755	20.125	6.080	0.511
803.500	486.721	80.001	19.994	103.755	20.126	5.966	0.522
804.000	486.970	80.000	19.996	103.755	20.125	6.076	0.505
804.500	487.247	80.001	19.996	103.757	20.125	6.078	0.509
805.000	487.522	80.002	19.993	103.756	20.126	5.958	0.539
805.500	487.748	80.002	19.994	103.759	20.126	5.962	0.527
806.000	488.025	80.003	19.994	103.761	20.128	5.823	0.502
806.500	488.262	80.002	19.993	103.761	20.126	5.993	0.508
807.000	488.539	80.002	19.994	103.759	20.124	6.087	0.514
807.500	488.807	80.002	19.997	103.758	20.126	5.981	0.530
808.000	489.034	80.003	19.994	103.757	20.128	5.823	0.520
808.500	489.320	80.000	19.996	103.756	20.124	6.133	0.504
809.000	489.591	80.002	19.995	103.756	20.123	6.207	0.535
809.500	489.815	80.003	19.994	103.759	20.127	5.915	0.526
810.000	490.036	80.003	19.993	103.760	20.126	5.975	0.470
810.500	490.342	80.004	19.995	103.759	20.127	5.885	0.486
811.000	490.582	80.003	19.994	103.760	20.125	6.049	0.536
811.500	490.863	80.003	19.995	103.767	20.129	5.749	0.533
812.000	491.121	80.003	19.995	103.767	20.128	5.819	0.530
812.500	491.398	80.001	19.994	103.766	20.128	5.809	0.537
813.000	491.648	80.006	19.995	103.768	20.124	6.112	0.530
813.500	491.876	80.002	19.996	103.770	20.126	5.987	0.502
814.000	492.145	80.004	19.994	103.769	20.125	6.028	0.488
814.500	492.392	80.006	19.994	103.770	20.129	5.769	0.507
815.000	492.691	80.004	19.994	103.772	20.125	6.047	0.531
815.500	492.938	80.005	19.994	103.774	20.128	5.846	0.546
816.000	493.178	80.002	19.994	103.768	20.126	6.008	0.517
816.500	493.427	80.004	19.995	103.764	20.126	5.946	0.488
817.000	493.686	80.004	19.994	103.767	20.128	5.867	0.498
817.500	493.972	80.002	19.993	103.768	20.126	5.950	0.526
818.000	494.224	80.004	19.994	103.767	20.122	6.234	0.542
818.500	494.503	80.003	19.994	103.769	20.126	5.968	0.535
819.000	494.790	80.002	19.995	103.767	20.125	6.074	0.549
819.500	495.014	80.004	19.993	103.762	20.126	5.998	0.539
820.000	495.291	80.002	19.994	103.762	20.127	5.888	0.506
820.500	495.514	80.004	19.993	103.763	20.126	5.983	0.501
821.000	495.807	80.003	19.994	103.764	20.126	5.948	0.508
821.500	496.036	80.003	19.993	103.766	20.127	5.923	0.519
822.000	496.306	80.003	19.993	103.765	20.128	5.860	0.510
822.500	496.566	80.004	19.994	103.763	20.127	5.900	0.515
823.000	496.798	80.003	19.993	103.764	20.125	6.035	0.511
823.500	497.075	80.001	19.994	103.763	20.128	5.844	0.500
824.000	497.326	80.003	19.995	103.764	20.128	5.819	0.519
824.500	497.614	80.001	19.994	103.767	20.126	5.945	0.534
825.000	497.852	80.002	19.993	103.767	20.129	5.783	0.532
825.500	498.089	80.006	19.995	103.763	20.130	5.670	0.501
826.000	498.354	80.003	19.995	103.762	20.128	5.809	0.489
826.500	498.610	80.001	19.994	103.760	20.130	5.726	0.511
827.000	498.855	80.002	19.993	103.757	20.131	5.590	0.511
827.500	499.136	80.004	19.994	103.759	20.129	5.740	0.514
828.000	499.361	80.002	19.994	103.765	20.129	5.732	0.516
828.500	499.626	79.999	19.996	103.766	20.125	6.025	0.498
829.000	499.854	80.004	19.994	103.765	20.128	5.827	0.491
829.500	500.127	80.002	19.996	103.765	20.125	6.078	0.497
830.000	500.373	80.002	19.995	103.763	20.129	5.786	0.510
830.500	500.635	80.004	19.995	103.758	20.128	5.816	0.514
831.000	500.899	80.002	19.995	103.760	20.129	5.787	0.517
831.500	501.150	80.004	19.995	103.763	20.128	5.823	0.521
832.000	501.432	80.002	19.994	103.764	20.127	5.887	0.524
832.500	501.650	80.005	19.994	103.765	20.130	5.688	0.516
833.000	501.885	80.005	19.995	103.766	20.129	5.765	0.476
833.500	502.184	80.001	19.996	103.764	20.128	5.856	0.493
834.000	502.456	80.002	19.995	103.765	20.130	5.701	0.553
834.500	502.686	80.002	19.996	103.768	20.131	5.599	0.536
835.000	502.941	80.004	19.995	103.772	20.128	5.820	0.494
835.500	503.205	80.003	19.994	103.776	20.131	5.631	0.503
836.000	503.430	80.005	19.994	103.781	20.127	5.932	0.504
836.500	503.695	80.005	19.995	103.791	20.129	5.730	0.489
837.000	503.959	80.003	19.994	103.791	20.127	5.882	0.510
837.500	504.218	80.004	19.995	103.786	20.131	5.591	0.526
838.000	504.455	80.001	19.994	103.779	20.132	5.586	0.509
838.500	504.682	80.002	19.998	103.772	20.131	5.647	0.480
839.000	504.969	80.005	19.997	103.760	20.131	5.620	0.489
839.500	505.217	80.002	19.996	103.759	20.133	5.466	0.525
840.000	505.492	80.003	19.996	103.762	20.130	5.658	0.530
840.500	505.724	80.004	19.994	103.765	20.129	5.784	0.515
841.000	506.031	80.004	19.995	103.770	20.131	5.610	0.523
841.500	506.234	80.002	19.995	103.774	20.129	5.795	0.524
842.000	506.522	80.001	19.996	103.771	20.127	5.915	0.500
842.500	506.745	80.002	19.993	103.770	20.128	5.809	0.501
843.000	507.004	80.002	19.994	103.773	20.130	5.695	0.497
843.500	507.259	80.002	19.993	103.770	20.131	5.620	0.498
844.000	507.500	80.002	19.995	103.766	20.128	5.819	0.505
844.500	507.775	80.001	19.995	103.764	20.130	5.667	0.506
845.000	508.024	80.000	19.996	103.763	20.131	5.625	0.520
845.500	508.283	80.003	19.995	103.757	20.129	5.766	0.516
846.000	508.538	80.001	19.995	103.756	20.131	5.590	0.511
846.500	508.773	80.001	19.994	103.756	20.128	5.800	0.502
847.000	509.055	80.003	19.994	103.755	20.130	5.676	0.504
847.500	509.316	80.000	19.995	103.753	20.129	5.753	0.530
848.000	509.564	80.004	19.993	103.755	20.131	5.654	0.525
848.500	509.839	80.003	19.996	103.762	20.130	5.711	0.516
849.000	510.058	80.000	19.996	103.768	20.132	5.553	0.508
849.500	510.323	80.002	19.995	103.768	20.131	5.616	0.489
850.000	510.585	79.999	19.994	103.768	20.130	5.672	0.506
850.500	510.879	79.996	20.000	103.766	20.130	5.705	0.542
851.000	511.084	80.002	19.994	103.758	20.128	5.822	0.528
851.500	511.374	80.000	19.997	103.754	20.128	5.865	0.496
852.000	511.601	80.002	19.994	103.754	20.132	5.531	0.506
852.500	511.833	80.002	19.994	103.756	20.130	5.679	0.488
853.000	512.114	80.001	19.996	103.763	20.129	5.756	0.486
853.500	512.370	80.000	19.996	103.766	20.130	5.689	0.526
854.000	512.643	80.004	19.994	103.764	20.128	5.855	0.534
854.500	512.901	80.003	19.996	103.768	20.132	5.560	0.530
855.000	513.113	80.002	19.995	103.771	20.129	5.742	0.500
855.500	513.383	80.005	19.996	103.772	20.131	5.632	0.475
856.000	513.673	80.004	19.994	103.777	20.130	5.668	0.521
856.500	513.904	80.002	19.995	103.784	20.128	5.844	0.541
857.000	514.171	80.002	19.995	103.779	20.131	5.641	0.510
857.500	514.403	80.001	19.994	103.773	20.132	5.551	0.499
858.000	514.675	80.001	19.995	103.767	20.131	5.616	0.502
858.500	514.933	80.001	19.994	103.761	20.129	5.728	0.518
859.000	515.200	80.001	19.994	103.756	20.132	5.518	0.528
859.500	515.461	80.001	19.994	103.760	20.128	5.864	0.526
860.000	515.689	80.000	19.996	103.765	20.128	5.823	0.509
860.500	515.967	80.003	19.993	103.767	20.128	5.825	0.497
861.000	516.217	80.001	19.995	103.764	20.130	5.664	0.516
861.500	516.475	80.002	19.994	103.761	20.131	5.631	0.518
862.000	516.708	80.000	19.995	103.756	20.129	5.772	0.500
862.500	517.000	80.001	19.994	103.751	20.130	5.679	0.508
863.000	517.271	80.001	19.995	103.749	20.130	5.697	0.544
863.500	517.503	80.004	19.994	103.749	20.129	5.735	0.533
864.000	517.730	80.002	19.995	103.751	20.128	5.822	0.480
864.500	518.012	79.999	19.994	103.754	20.130	5.685	0.484
865.000	518.240	80.001	19.994	103.761	20.131	5.610	0.510
865.500	518.523	80.003	19.994	103.763	20.130	5.714	0.511
866.000	518.782	80.003	19.994	103.765	20.129	5.776	0.527
866.500	519.025	80.003	19.993	103.765	20.131	5.620	0.522
867.000	519.274	80.002	19.994	103.763	20.130	5.661	0.497
867.500	519.545	80.000	19.994	103.760	20.129	5.796	0.506
868.000	519.824	80.004	19.994	103.759	20.131	5.642	0.535
868.500	520.048	80.001	19.995	103.762	20.132	5.551	0.527
869.000	520.320	80.005	19.992	103.763	20.128	5.805	0.499
869.500	520.571	80.003	19.993	103.768	20.128	5.817	0.509
870.000	520.828	80.000	19.993	103.769	20.128	5.859	0.516
870.500	521.037	80.003	19.994	103.769	20.129	5.740	0.488
871.000	521.334	80.002	19.994	103.765	20.131	5.603	0.486
871.500	521.617	80.003	19.993	103.762	20.130	5.715	0.543
872.000	521.856	80.002	19.994	103.757	20.130	5.711	0.550
872.500	522.088	80.002	19.993	103.752	20.127	5.921	0.497
873.000	522.348	80.005	19.993	103.751	20.128	5.867	0.482
873.500	522.601	80.002	19.993	103.751	20.129	5.786	0.503
874.000	522.843	80.004	19.992	103.751	20.130	5.709	0.504
874.500	523.107	80.001	19.993	103.753	20.130	5.703	0.500
875.000	523.370	80.002	19.993	103.754	20.128	5.855	0.516
875.500	523.611	80.002	19.992	103.754	20.128	5.805	0.515
876.000	523.863	80.001	19.994	103.754	20.132	5.560	0.498
876.500	524.142	80.001	19.993	103.754	20.131	5.623	0.512
877.000	524.378	80.004	19.994	103.756	20.131	5.626	0.524
877.500	524.617	80.005	19.993	103.764	20.130	5.662	0.495
878.000	524.904	80.000	19.993	103.772	20.133	5.493	0.500
878.500	525.178	80.004	19.993	103.774	20.132	5.520	0.544
879.000	525.402	79.999	19.994	103.776	20.128	5.836	0.530
879.500	525.641	80.000	19.994	103.770	20.131	5.649	0.481
880.000	525.921	80.001	19.993	103.763	20.131	5.624	0.491
880.500	526.154	80.001	19.995	103.760	20.127	5.900	0.516
881.000	526.404	80.001	19.993	103.764	20.128	5.836	0.498
881.500	526.649	80.002	19.994	103.767	20.128	5.805	0.489
882.000	526.944	80.002	19.994	103.774	20.129	5.755	0.518
882.500	527.188	80.003	19.994	103.776	20.127	5.872	0.540
883.000	527.427	80.001	19.993	103.772	20.126	5.959	0.511
883.500	527.710	80.002	19.993	103.768	20.124	6.083	0.502
884.000	527.927	80.000	19.993	103.764	20.127	5.919	0.511
884.500	528.220	80.000	19.994	103.758	20.128	5.849	0.505
885.000	528.431	80.001	19.995	103.756	20.128	5.842	0.507
885.500	528.705	80.002	19.993	103.753	20.130	5.678	0.494
886.000	528.941	80.002	19.993	103.751	20.130	5.674	0.497
886.500	529.207	80.003	19.993	103.751	20.129	5.773	0.506
887.000	529.485	80.001	19.995	103.754	20.130	5.709	0.523
887.500	529.711	80.002	19.994	103.753	20.132	5.581	0.524
888.000	529.975	80.002	19.994	103.759	20.131	5.618	0.497
888.500	530.247	80.000	19.994	103.761	20.130	5.662	0.514
889.000	530.494	80.001	19.993	103.761	20.131	5.657	0.527
889.500	530.768	80.003	19.994	103.763	20.131	5.636	0.519
890.000	530.989	80.001	19.994	103.763	20.128	5.862	0.508
890.500	531.262	80.003	19.994	103.760	20.131	5.618	0.495
891.000	531.529	80.000	19.995	103.759	20.129	5.744	0.517
891.500	531.783	80.003	19.994	103.758	20.131	5.605	0.531
892.000	532.042	80.005	19.994	103.753	20.130	5.694	0.517
892.500	532.303	80.004	19.992	103.753	20.131	5.624	0.516
893.000	532.553	80.003	19.995	103.754	20.128	5.800	0.515
893.500	532.826	80.004	19.993	103.753	20.131	5.606	0.517
894.000	533.055	80.003	19.994	103.753	20.132	5.520	0.513
894.500	533.273	80.005	19.994	103.754	20.131	5.626	0.475
895.000	533.537	80.003	19.996	103.755	20.129	5.772	0.465
895.500	533.795	80.003	19.994	103.757	20.132	5.571	0.502
896.000	534.049	80.003	19.994	103.762	20.127	5.886	0.517
896.500	534.330	80.004	19.994	103.765	20.131	5.604	0.523
897.000	534.573	80.001	19.993	103.764	20.128	5.848	0.529
897.500	534.828	80.003	19.994	103.763	20.131	5.620	0.511
898.000	535.118	80.001	19.992	103.761	20.129	5.738	0.522
898.500	535.334	80.001	19.996	103.756	20.132	5.549	0.525
899.000	535.621	80.001	19.995	103.758	20.130	5.688	0.505
899.500	535.896	80.002	19.995	103.760	20.131	5.657	0.532
900.000	536.110	80.003	19.995	103.763	20.133	5.504	0.525
900.500	536.409	80.002	19.995	103.766	20.133	5.474	0.501
901.000	536.665	80.003	19.995	103.770	20.130	5.718	0.534
901.500	536.895	80.003	19.994	103.768	20.132	5.554	0.520
902.000	537.179	80.003	19.993	103.771	20.130	5.675	0.500
902.500	537.440	80.004	19.994	103.768	20.133	5.458	0.530
903.000	537.697	80.004	19.994	103.768	20.128	5.834	0.532
903.500	537.916	80.002	19.994	103.767	20.130	5.683	0.497
904.000	538.183	80.004	19.992	103.765	20.135	5.326	0.481
904.500	538.439	80.002	19.994	103.760	20.136	5.235	0.504
905.000	538.694	80.000	19.994	103.759	20.133	5.509	0.517
905.500	538.964	80.003	19.993	103.756	20.131	5.631	0.518
906.000	539.175	80.001	19.993	103.754	20.131	5.627	0.503
906.500	539.446	80.003	19.994	103.754	20.132	5.567	0.482
907.000	539.669	80.002	19.994	103.754	20.130	5.668	0.488
907.500	539.966	80.002	19.992	103.756	20.132	5.525	0.507
908.000	540.217	80.002	19.994	103.760	20.129	5.743	0.534
908.500	540.481	80.001	19.994	103.765	20.128	5.867	0.531
909.000	540.713	80.003	19.993	103.768	20.131	5.613	0.506
909.500	540.975	80.004	19.994	103.767	20.131	5.638	0.495
910.000	541.207	80.003	19.995	103.766	20.129	5.729	0.494
910.500	541.474	80.001	19.994	103.760	20.130	5.715	0.496
911.000	541.710	80.003	19.994	103.748	20.128	5.815	0.501
911.500	541.970	80.001	19.994	103.744	20.130	5.659	0.500
912.000	542.253	80.002	19.995	103.745	20.130	5.707	0.520
912.500	542.469	80.004	19.992	103.745	20.128	5.852	0.521
913.000	542.708	80.003	19.994	103.748	20.131	5.605	0.477
913.500	542.997	80.002	19.994	103.754	20.131	5.599	0.491
914.000	543.227	80.003	19.995	103.753	20.129	5.752	0.523
914.500	543.514	80.002	19.994	103.753	20.130	5.663	0.518
915.000	543.751	80.003	19.994	103.751	20.129	5.742	0.521
915.500	543.998	80.003	19.995	103.749	20.131	5.612	0.504
916.000	544.276	80.004	19.993	103.750	20.130	5.664	0.505
916.500	544.462	80.002	19.994	103.751	20.130	5.686	0.494
917.000	544.769	80.003	19.993	103.749	20.130	5.660	0.479
917.500	545.017	80.005	19.993	103.748	20.130	5.717	0.524
918.000	545.246	80.003	19.994	103.748	20.132	5.556	0.516
918.500	545.535	80.005	19.992	103.750	20.133	5.460	0.498
919.000	545.763	80.004	19.994	103.757	20.131	5.603	0.518
919.500	546.021	80.004	19.994	103.763	20.132	5.579	0.501
920.000	546.276	80.004	19.993	103.772	20.133	5.496	0.499
920.500	546.496	80.002	19.995	103.776	20.134	5.438	0.495
921.000	546.768	80.002	19.994	103.775	20.133	5.496	0.484
921.500	547.034	80.004	19.993	103.768	20.132	5.544	0.515
922.000	547.300	80.003	19.995	103.766	20.130	5.670	0.535
922.500	547.552	80.004	19.995	103.763	20.130	5.676	0.525
923.000	547.800	80.002	19.993	103.761	20.132	5.556	0.509
923.500	548.062	80.002	19.995	103.763	20.131	5.656	0.505
924.000	548.297	80.000	19.994	103.771	20.133	5.516	0.504
924.500	548.567	79.999	19.995	103.774	20.133	5.499	0.501
925.000	548.848	80.002	19.994	103.769	20.133	5.497	0.528
925.500	549.057	80.002	19.994	103.771	20.130	5.689	0.521
926.000	549.331	80.003	19.995	103.768	20.130	5.677	0.487
926.500	549.597	80.004	19.994	103.763	20.128	5.817	0.512
927.000	549.873	80.001	19.994	103.759	20.130	5.699	0.541
927.500	550.124	80.001	19.994	103.762	20.129	5.797	0.534
928.000	550.375	80.000	19.995	103.759	20.128	5.816	0.514
928.500	550.652	80.002	19.995	103.761	20.130	5.722	0.515
929.000	550.877	80.002	19.995	103.763	20.130	5.698	0.515
929.500	551.141	80.002	19.995	103.763	20.130	5.692	0.496
930.000	551.351	80.003	19.994	103.760	20.133	5.493	0.482
930.500	551.657	80.002	19.994	103.760	20.145	4.661	0.495
931.000	551.894	80.005	19.993	103.758	20.143	4.788	0.529
931.500	552.156	80.002	19.994	103.756	20.142	4.825	0.521
932.000	552.424	80.001	19.995	103.756	20.132	5.575	0.515
932.500	552.676	80.003	19.994	103.756	20.131	5.627	0.525
933.000	552.949	80.003	19.993	103.757	20.129	5.734	0.523
933.500	553.193	80.002	19.994	103.757	20.129	5.744	0.521
934.000	553.445	80.001	19.996	103.756	20.127	5.873	0.507
934.500	553.715	80.000	19.995	103.758	20.128	5.834	0.509
935.000	553.969	80.002	19.993	103.763	20.129	5.770	0.523
935.500	554.242	80.001	19.995	103.769	20.130	5.712	0.525
936.000	554.480	80.004	19.993	103.774	20.130	5.676	0.519
936.500	554.737	80.001	19.996	103.780	20.128	5.799	0.503
937.000	554.981	80.003	19.994	103.776	20.129	5.741	0.498
937.500	555.265	79.999	19.996	103.771	20.130	5.705	0.514
938.000	555.515	80.004	19.995	103.763	20.131	5.610	0.531
938.500	555.769	80.001	19.994	103.758	20.130	5.707	0.519
939.000	556.044	80.001	19.994	103.754	20.130	5.692	0.517
939.500	556.285	80.001	19.995	103.760	20.132	5.549	0.523
940.000	556.518	80.003	19.994	103.767	20.134	5.413	0.495
940.500	556.772	80.000	19.995	103.768	20.130	5.695	0.480
941.000	557.024	80.002	19.994	103.767	20.131	5.602	0.496
941.500	557.325	80.002	19.995	103.767	20.133	5.466	0.529
942.000	557.564	80.003	19.995	103.762	20.130	5.709	0.547
942.500	557.817	80.004	19.995	103.756	20.133	5.449	0.516
943.000	558.063	80.002	19.995	103.757	20.131	5.599	0.495
943.500	558.281	80.002	19.995	103.757	20.131	5.633	0.482
944.000	558.548	80.001	19.995	103.758	20.131	5.593	0.475
944.500	558.816	80.001	19.995	103.762	20.131	5.641	0.510
945.000	559.112	80.003	19.994	103.760	20.132	5.536	0.549
945.500	559.352	80.002	19.995	103.759	20.133	5.464	0.550
946.000	559.623	80.000	19.995	103.759	20.132	5.574	0.523
946.500	559.900	80.001	19.994	103.757	20.134	5.413	0.530
947.000	560.166	80.001	19.993	103.754	20.133	5.446	0.545
947.500	560.367	79.999	19.995	103.755	20.131	5.607	0.505
948.000	560.670	80.003	19.994	103.754	20.129	5.787	0.485
948.500	560.928	80.001	19.995	103.760	20.132	5.584	0.533
949.000	561.162	80.002	19.995	103.762	20.133	5.482	0.526
949.500	561.429	79.999	19.996	103.763	20.133	5.509	0.496
950.000	561.689	80.002	19.995	103.763	20.132	5.522	0.514
950.500	561.942	80.002	19.994	103.764	20.132	5.528	0.520
951.000	562.186	80.002	19.993	103.759	20.130	5.697	0.505
951.500	562.476	80.000	19.996	103.757	20.133	5.494	0.516
952.000	562.726	79.999	19.995	103.755	20.134	5.421	0.537
952.500	562.999	80.001	19.994	103.759	20.130	5.699	0.531
953.000	563.244	80.001	19.995	103.764	20.130	5.666	0.520
953.500	563.502	80.000	19.994	103.771	20.131	5.655	0.511
954.000	563.743	80.000	19.995	103.774	20.132	5.535	0.501
954.500	564.014	80.002	19.994	103.781	20.131	5.624	0.505
955.000	564.287	79.998	19.995	103.788	20.131	5.656	0.528
955.500	564.550	79.999	19.994	103.786	20.129	5.797	0.540
956.000	564.800	80.002	19.993	103.773	20.130	5.705	0.524
956.500	565.049	80.001	19.993	103.766	20.130	5.701	0.505
957.000	565.306	80.002	19.994	103.759	20.132	5.564	0.502
957.500	565.580	80.000	19.994	103.752	20.126	5.973	0.519
958.000	565.845	79.999	19.993	103.754	20.128	5.850	0.536
958.500	566.065	80.001	19.996	103.764	20.133	5.506	0.512
959.000	566.346	80.001	19.996	103.774	20.130	5.723	0.493
959.500	566.611	80.001	19.996	103.780	20.126	5.974	0.524
960.000	566.833	80.001	19.995	103.780	20.132	5.563	0.517
960.500	567.109	80.002	19.994	103.776	20.130	5.715	0.493
961.000	567.369	80.001	19.994	103.773	20.128	5.863	0.517
961.500	567.619	80.000	19.994	103.765	20.127	5.915	0.523
962.000	567.858	80.001	19.995	103.759	20.126	5.946	0.499
962.500	568.129	80.001	19.993	103.757	20.128	5.838	0.500
963.000	568.393	80.000	19.994	103.758	20.125	6.018	0.523
963.500	568.629	80.000	19.993	103.758	20.126	5.946	0.518
964.000	568.897	80.001	19.994	103.758	20.128	5.821	0.502
964.500	569.161	80.000	19.994	103.758	20.130	5.720	0.518
965.000	569.409	80.002	19.994	103.756	20.127	5.911	0.522
965.500	569.669	80.000	19.994	103.755	20.127	5.933	0.510
966.000	569.941	80.000	19.995	103.756	20.129	5.755	0.520
966.500	570.190	80.001	19.994	103.755	20.130	5.701	0.526
967.000	570.431	80.003	19.993	103.756	20.129	5.794	0.505
967.500	570.686	80.001	19.993	103.757	20.128	5.834	0.493
968.000	570.907	80.002	19.993	103.757	20.131	5.591	0.486
968.500	571.167	80.001	19.995	103.759	20.129	5.735	0.479
969.000	571.438	80.003	19.994	103.766	20.132	5.571	0.506
969.500	571.687	80.002	19.993	103.767	20.133	5.483	0.526
970.000	571.933	80.004	19.994	103.772	20.128	5.838	0.507
970.500	572.173	80.003	19.994	103.774	20.133	5.511	0.490
971.000	572.454	80.004	19.994	103.771	20.131	5.635	0.503
971.500	572.673	80.003	19.994	103.765	20.131	5.631	0.511
972.000	572.942	80.003	19.994	103.765	20.129	5.782	0.495
972.500	573.207	80.003	19.993	103.761	20.129	5.793	0.511
973.000	573.485	80.004	19.993	103.765	20.131	5.652	0.538
973.500	573.760	80.003	19.993	103.765	20.130	5.691	0.547
974.000	574.022	80.004	19.993	103.765	20.131	5.597	0.545
974.500	574.288	80.002	19.993	103.763	20.130	5.703	0.533
975.000	574.520	80.004	19.993	103.763	20.129	5.778	0.513
975.500	574.794	80.004	19.994	103.757	20.131	5.639	0.502
976.000	575.055	80.005	19.993	103.758	20.131	5.643	0.521
976.500	575.246	80.003	19.993	103.761	20.131	5.625	0.493
977.000	575.586	80.004	19.993	103.761	20.129	5.764	0.491
977.500	575.799	80.003	19.993	103.759	20.130	5.687	0.542
978.000	576.050	80.002	19.993	103.759	20.129	5.734	0.509
978.500	576.321	80.004	19.993	103.756	20.131	5.644	0.493
979.000	576.597	80.004	19.992	103.752	20.129	5.787	0.535
979.500	576.811	80.002	19.993	103.753	20.127	5.908	0.519
980.000	577.108	80.002	19.994	103.753	20.129	5.775	0.500
980.500	577.375	80.001	19.994	103.752	20.129	5.744	0.537
981.000	577.611	80.003	19.993	103.753	20.126	6.004	0.534
981.500	577.853	80.003	19.994	103.753	20.129	5.743	0.490
982.000	578.146	80.003	19.993	103.752	20.128	5.849	0.506
982.500	578.378	80.003	19.994	103.751	20.127	5.878	0.530
983.000	578.637	80.003	19.993	103.751	20.126	5.998	0.508
983.500	578.870	80.004	19.994	103.751	20.127	5.873	0.491
984.000	579.125	80.001	19.994	103.752	20.126	5.946	0.490
984.500	579.361	80.001	19.993	103.754	20.127	5.919	0.490
985.000	579.625	80.004	19.994	103.762	20.128	5.832	0.496
985.500	579.878	80.002	19.993	103.767	20.124	6.094	0.508
986.000	580.146	80.001	19.993	103.761	20.129	5.768	0.519
986.500	580.403	80.002	19.994	103.757	20.129	5.778	0.523
987.000	580.631	80.003	19.993	103.754	20.126	5.965	0.505
987.500	580.906	80.002	19.994	103.747	20.125	6.067	0.494
988.000	581.145	80.004	19.993	103.743	20.128	5.820	0.509
988.500	581.407	80.004	19.993	103.753	20.130	5.683	0.508
989.000	581.678	80.003	19.993	103.765	20.127	5.907	0.517
989.500	581.912	80.002	19.994	103.773	20.131	5.655	0.519
990.000	582.149	80.003	19.993	103.778	20.130	5.695	0.488
990.500	582.401	80.004	19.993	103.777	20.126	5.958	0.480
991.000	582.655	80.002	19.994	103.774	20.130	5.660	0.497
991.500	582.893	80.003	19.994	103.766	20.129	5.757	0.499
992.000	583.102	80.003	19.994	103.760	20.130	5.705	0.470
992.500	583.420	80.004	19.992	103.757	20.127	5.880	0.487
993.000	583.648	80.005	19.993	103.758	20.127	5.927	0.536
993.500	583.892	80.004	19.993	103.759	20.129	5.736	0.509
994.000	584.162	80.005	19.994	103.759	20.132	5.531	0.493
994.500	584.403	80.004	19.993	103.757	20.126	5.967	0.512
995.000	584.652	80.003	19.993	103.755	20.127	5.915	0.501
995.500	584.904	80.005	19.992	103.754	20.126	5.952	0.495
996.000	585.178	80.006	19.993	103.752	20.129	5.743	0.513
996.500	585.405	80.004	19.994	103.753	20.127	5.897	0.514
997.000	585.657	80.006	19.993	103.755	20.128	5.840	0.490
997.500	585.900	80.006	19.993	103.754	20.129	5.766	0.487
998.000	586.155	80.006	19.993	103.753	20.124	6.141	0.497
998.500	586.400	80.005	19.994	103.753	20.128	5.815	0.499
999.000	586.653	80.005	19.994	103.753	20.125	6.013	0.499
999.500	586.924	80.005	19.994	103.755	20.126	5.996	0.511
1000.000	587.162	80.005	19.993	103.759	20.125	6.037	0.517
1000.500	587.426	80.006	19.993	103.760	20.126	5.948	0.506
1001.000	587.672	80.004	19.994	103.760	20.127	5.911	0.506
1001.500	587.917	80.004	19.994	103.759	20.125	6.077	0.500
1002.000	588.167	80.005	19.993	103.758	20.124	6.089	0.493
1002.500	588.433	80.004	19.995	103.757	20.127	5.894	0.506
1003.000	588.669	80.004	19.995	103.756	20.125	6.058	0.509
1003.500	588.938	80.005	19.995	103.758	20.130	5.703	0.503
1004.000	589.224	80.004	19.993	103.758	20.125	6.037	0.530
1004.500	589.442	80.002	19.994	103.757	20.127	5.939	0.530
1005.000	589.706	80.003	19.994	103.755	20.126	5.960	0.493
1005.500	589.964	80.001	19.995	103.755	20.127	5.898	0.502
1006.000	590.239	80.002	19.994	103.753	20.124	6.144	0.528
1006.500	590.450	80.002	19.994	103.754	20.124	6.085	0.509
1007.000	590.724	80.002	19.994	103.753	20.127	5.909	0.485
1007.500	590.939	80.002	19.994	103.753	20.126	5.985	0.487
1008.000	591.219	80.002	19.995	103.753	20.122	6.261	0.492
1008.500	591.442	80.002	19.995	103.754	20.126	5.979	0.499
1009.000	591.711	80.000	19.994	103.753	20.126	6.006	0.497
1009.500	591.958	80.000	19.994	103.755	20.126	5.941	0.504
1010.000	592.220	80.002	19.993	103.757	20.124	6.105	0.513
1010.500	592.491	80.002	19.994	103.761	20.124	6.130	0.521
1011.000	592.727	80.003	19.995	103.761	20.123	6.188	0.520
1011.500	592.957	80.000	19.995	103.761	20.126	5.970	0.487
1012.000	593.232	80.001	19.995	103.760	20.125	6.051	0.486
1012.500	593.460	80.002	19.994	103.759	20.128	5.854	0.504
1013.000	593.730	80.000	19.995	103.759	20.123	6.174	0.500
1013.500	594.001	80.002	19.994	103.760	20.125	6.032	0.520
1014.000	594.244	80.001	19.996	103.762	20.125	6.047	0.528
1014.500	594.513	80.001	19.996	103.764	20.124	6.132	0.513
1015.000	594.796	80.002	19.997	103.769	20.126	6.006	0.532
1015.500	595.009	80.001	19.994	103.770	20.124	6.149	0.524
1016.000	595.279	80.002	19.995	103.771	20.125	6.022	0.490
1016.500	595.526	80.002	19.995	103.771	20.122	6.256	0.500
1017.000	595.806	80.001	19.993	103.771	20.124	6.095	0.521
1017.500	596.069	80.002	19.995	103.765	20.124	6.120	0.534
1018.000	596.280	80.001	19.994	103.761	20.123	6.192	0.509
1018.500	596.557	80.001	19.997	103.759	20.122	6.251	0.481
1019.000	596.817	80.002	19.996	103.763	20.123	6.191	0.512
1019.500	597.061	80.002	19.996	103.762	20.123	6.207	0.521
1020.000	597.332	80.002	19.997	103.763	20.122	6.239	0.510
1020.500	597.569	80.002	19.996	103.768	20.122	6.259	0.512
1021.000	597.825	80.002	19.995	103.770	20.121	6.329	0.500
1021.500	598.063	80.002	19.995	103.766	20.123	6.211	0.493
1022.000	598.310	80.001	19.993	103.767	20.124	6.103	0.489
1022.500	598.579	80.002	19.995	103.766	20.124	6.140	0.501
1023.000	598.840	80.003	19.995	103.766	20.124	6.120	0.523
1023.500	599.107	80.001	19.994	103.765	20.124	6.089	0.529
1024.000	599.361	80.002	19.994	103.768	20.125	6.080	0.525
1024.499	599.624	80.001	19.995	103.769	20.121	6.300	0.519
1024.999	599.881	80.002	19.994	103.770	20.124	6.151	0.518
1025.499	600.169	80.001	19.995	103.769	20.126	5.985	0.533
1025.999	600.366	80.001	19.995	103.770	20.122	6.225	0.515
1026.499	600.631	80.002	19.995	103.765	20.124	6.091	0.473
1026.999	600.906	80.001	19.994	103.767	20.124	6.117	0.501
1027.499	601.153	80.002	19.994	103.770	20.122	6.240	0.531
1027.999	601.416	80.003	19.994	103.768	20.125	6.032	0.516
1028.499	601.668	80.003	19.994	103.767	20.122	6.254	0.513
1028.999	601.962	80.001	19.995	103.767	20.122	6.237	0.530
1029.499	602.200	80.002	19.993	103.761	20.123	6.206	0.539
1029.999	602.433	80.002	19.994	103.758	20.122	6.248	0.501
1030.499	602.699	80.002	19.994	103.759	20.124	6.150	0.485
1030.999	602.969	80.002	19.994	103.759	20.124	6.119	0.518
1031.499	603.223	80.002	19.995	103.762	20.122	6.231	0.530
1031.999	603.461	80.001	19.994	103.766	20.124	6.107	0.507
1032.499	603.686	80.000	19.995	103.766	20.122	6.284	0.478
1032.999	603.972	80.002	19.995	103.766	20.122	6.230	0.488
1033.499	604.259	80.002	19.994	103.767	20.126	5.978	0.542
1033.999	604.478	80.001	19.995	103.764	20.124	6.124	0.539
1034.499	604.750	80.003	19.995	103.766	20.123	6.181	0.498
1034.999	604.994	80.002	19.996	103.766	20.121	6.364	0.503
1035.499	605.303	80.002	19.995	103.768	20.123	6.219	0.535
1035.999	605.562	80.001	19.996	103.765	20.121	6.354	0.561
1036.499	605.795	80.000	19.996	103.768	20.120	6.389	0.530
1036.999	606.096	80.001	19.995	103.769	20.121	6.311	0.513
1037.499	606.311	80.001	19.996	103.769	20.121	6.299	0.525
1037.999	606.555	79.999	19.995	103.771	20.118	6.518	0.488
1038.499	606.816	80.000	19.995	103.776	20.123	6.220	0.482
1038.999	607.052	80.000	19.995	103.779	20.125	6.054	0.501
1039.499	607.362	80.000	19.995	103.778	20.122	6.288	0.521
1039.999	607.609	80.002	19.995	103.781	20.125	6.016	0.551
1040.499	607.874	80.000	19.994	103.776	20.123	6.168	0.535
1040.999	608.139	80.003	19.993	103.776	20.124	6.091	0.521
1041.499	608.398	80.002	19.996	103.776	20.121	6.363	0.527
1041.999	608.640	80.002	19.995	103.776	20.123	6.218	0.513
1042.499	608.881	80.002	19.996	103.775	20.121	6.323	0.493
1042.999	609.159	80.001	19.995	103.776	20.121	6.358	0.501
1043.499	609.421	80.002	19.996	103.769	20.121	6.339	0.529
1043.999	609.697	80.003	19.995	103.767	20.121	6.364	0.539
1044.499	610.008	80.003	19.995	103.769	20.124	6.084	0.563
1044.999	610.197	80.002	19.995	103.773	20.120	6.381	0.544
1045.499	610.452	80.002	19.996	103.780	20.122	6.249	0.472
1045.999	610.728	80.003	19.995	103.784	20.120	6.413	0.487
1046.499	611.000	80.004	19.994	103.780	20.118	6.556	0.540
1046.999	611.241	80.004	19.996	103.776	20.118	6.519	0.531
1047.499	611.511	80.003	19.994	103.774	20.116	6.664	0.512
1047.999	611.778	80.005	19.994	103.768	20.118	6.540	0.524
1048.499	612.062	80.003	19.994	103.763	20.120	6.415	0.544
1048.999	612.284	80.005	19.995	103.762	20.119	6.467	0.529
1049.499	612.546	80.004	19.994	103.764	20.119	6.459	0.495
1049.999	612.813	80.003	19.993	103.761	20.114	6.840	0.507
1050.499	613.071	80.003	19.993	103.760	20.114	6.795	0.527
1050.999	613.337	80.003	19.994	103.761	20.118	6.545	0.524
1051.499	613.574	80.004	19.992	103.761	20.116	6.715	0.513
1051.999	613.860	80.003	19.994	103.756	20.116	6.679	0.513
1052.499	614.111	80.003	19.996	103.753	20.118	6.524	0.530
1052.999	614.395	80.004	19.994	103.758	20.119	6.487	0.536
1053.499	614.660	80.004	19.994	103.763	20.117	6.595	0.542
1053.999	614.928	80.004	19.993	103.767	20.118	6.560	0.541
1054.499	615.186	80.003	19.994	103.770	20.120	6.392	0.529
1054.999	615.430	80.004	19.993	103.772	20.120	6.369	0.513
1055.499	615.735	80.003	19.994	103.770	20.116	6.716	0.526
1055.999	615.971	80.005	19.993	103.766	20.119	6.479	0.546
1056.499	616.241	80.004	19.995	103.762	20.117	6.635	0.524
1056.999	616.494	80.004	19.994	103.759	20.118	6.523	0.514
1057.499	616.736	80.003	19.993	103.760	20.115	6.743	0.509
1057.999	616.997	80.004	19.995	103.757	20.116	6.654	0.498
1058.499	617.257	80.003	19.994	103.758	20.118	6.516	0.512
1058.999	617.520	80.003	19.994	103.758	20.117	6.601	0.522
1059.499	617.772	80.004	19.993	103.758	20.117	6.592	0.520
1059.999	618.012	80.002	19.993	103.758	20.117	6.646	0.504
1060.499	618.302	80.004	19.994	103.758	20.116	6.688	0.511
1060.999	618.542	80.003	19.994	103.760	20.114	6.808	0.530
1061.499	618.819	80.001	19.994	103.763	20.116	6.669	0.523
1061.999	619.038	80.003	19.993	103.768	20.118	6.518	0.507
1062.499	619.327	80.004	19.993	103.773	20.115	6.734	0.503
1062.999	619.596	80.003	19.993	103.777	20.117	6.599	0.533
1063.499	619.843	80.004	19.994	103.778	20.116	6.655	0.537
1063.999	620.104	80.002	19.995	103.775	20.117	6.626	0.512
1064.499	620.368	80.003	19.994	103.770	20.115	6.757	0.516
1064.999	620.623	80.003	19.993	103.767	20.114	6.813	0.522
1065.499	620.871	80.003	19.994	103.765	20.115	6.758	0.511
1065.999	621.146	80.003	19.994	103.762	20.118	6.520	0.513
1066.499	621.452	80.001	19.993	103.763	20.117	6.640	0.552
1066.999	621.688	80.005	19.994	103.762	20.118	6.556	0.562
1067.499	621.960	80.003	19.994	103.757	20.116	6.708	0.525
1068.000	622.206	80.004	19.995	103.756	20.118	6.548	0.513
1068.500	622.466	80.003	19.995	103.758	20.119	6.504	0.512
1069.000	622.713	80.002	19.994	103.759	20.118	6.577	0.507
1069.500	623.015	80.003	19.993	103.765	20.116	6.654	0.528
1070.000	623.266	80.003	19.994	103.772	20.116	6.714	0.550
1070.500	623.545	80.002	19.994	103.777	20.117	6.588	0.542
1070.999	623.786	80.004	19.994	103.778	20.120	6.371	0.526
1071.499	624.044	80.004	19.993	103.779	20.117	6.600	0.510
1071.999	624.311	80.004	19.995	103.778	20.122	6.284	0.512
1072.499	624.585	80.004	19.993	103.775	20.121	6.359	0.532
1072.999	624.880	80.003	19.995	103.774	20.118	6.554	0.555
1073.499	625.113	80.004	19.993	103.773	20.118	6.569	0.549
1073.999	625.360	80.004	19.994	103.772	20.117	6.614	0.504
1074.499	625.623	80.005	19.993	103.771	20.116	6.700	0.494
1074.999	625.892	80.004	19.994	103.769	20.115	6.778	0.521
1075.499	626.164	80.004	19.993	103.768	20.114	6.793	0.537
1075.999	626.425	80.004	19.993	103.768	20.116	6.654	0.537
1076.499	626.669	80.005	19.993	103.773	20.114	6.795	0.519
1076.999	626.927	80.004	19.994	103.779	20.118	6.539	0.503
1077.499	627.204	80.005	19.994	103.782	20.114	6.825	0.519
1077.999	627.458	80.003	19.994	103.784	20.117	6.639	0.533
1078.499	627.747	80.006	19.996	103.787	20.117	6.616	0.537
1079.000	627.981	80.004	19.995	103.788	20.119	6.440	0.532
1079.500	628.267	80.004	19.995	103.788	20.119	6.492	0.521
1079.999	628.540	80.003	19.994	103.789	20.114	6.803	0.540
1080.499	628.818	80.003	19.993	103.784	20.115	6.774	0.555
1080.999	629.075	80.002	19.994	103.780	20.115	6.718	0.543
1081.499	629.351	80.004	19.994	103.774	20.120	6.386	0.534
1081.999	629.617	80.004	19.993	103.768	20.116	6.683	0.538
1082.499	629.853	80.004	19.993	103.762	20.115	6.724	0.522
1082.999	630.114	80.003	19.992	103.761	20.116	6.657	0.500
1083.499	630.373	80.002	19.993	103.758	20.115	6.724	0.508
1083.999	630.630	80.002	19.992	103.756	20.117	6.634	0.517
1084.500	630.915	80.001	19.993	103.755	20.116	6.668	0.529
1085.000	631.197	80.002	19.993	103.755	20.116	6.660	0.555
1085.499	631.441	80.001	19.993	103.755	20.114	6.857	0.547
1085.999	631.703	80.003	19.993	103.755	20.115	6.782	0.516
1086.499	631.963	80.002	19.993	103.757	20.113	6.924	0.514
1086.999	632.207	80.001	19.993	103.761	20.116	6.697	0.513
1087.499	632.448	80.003	19.993	103.761	20.116	6.712	0.495
1087.999	632.731	80.001	19.993	103.763	20.115	6.763	0.504
1088.499	632.974	80.001	19.994	103.764	20.115	6.749	0.525
1088.999	633.231	80.002	19.993	103.764	20.116	6.709	0.513
1089.499	633.511	80.001	19.994	103.762	20.117	6.610	0.519
1089.999	633.762	80.001	19.994	103.763	20.113	6.905	0.534
1090.499	633.970	80.001	19.993	103.761	20.117	6.610	0.494
1090.999	634.277	80.002	19.993	103.759	20.117	6.609	0.487
1091.499	634.534	80.002	19.993	103.758	20.112	6.970	0.540
1091.999	634.787	80.003	19.993	103.758	20.114	6.830	0.537
1092.499	635.087	80.003	19.993	103.757	20.115	6.770	0.531
1092.999	635.348	80.002	19.993	103.761	20.112	6.972	0.557
1093.499	635.625	80.003	19.994	103.763	20.113	6.892	0.550
1093.999	635.850	80.002	19.994	103.765	20.116	6.716	0.520
1094.499	636.135	80.002	19.994	103.768	20.115	6.745	0.506
1094.999	636.405	80.003	19.993	103.768	20.115	6.741	0.533
1095.499	636.656	80.001	19.994	103.765	20.114	6.812	0.538
1095.999	636.929	80.001	19.993	103.762	20.112	6.980	0.523
1096.499	637.140	80.002	19.994	103.760	20.111	7.003	0.504
1096.999	637.426	80.002	19.994	103.757	20.111	7.007	0.491
1097.499	637.675	80.001	19.994	103.756	20.113	6.872	0.516
1097.999	637.936	80.002	19.993	103.758	20.110	7.104	0.522
1098.499	638.147	80.002	19.994	103.762	20.113	6.899	0.491
1098.999	638.480	80.003	19.994	103.767	20.113	6.870	0.508
1099.499	638.726	80.002	19.995	103.766	20.110	7.104	0.561
1099.999	638.966	80.002	19.996	103.765	20.113	6.909	0.533
1100.499	639.235	80.003	19.994	103.763	20.113	6.866	0.498
1100.999	639.503	80.002	19.995	103.759	20.111	7.005	0.523
1101.499	639.765	80.002	19.995	103.752	20.110	7.079	0.533
1101.999	639.987	80.002	19.994	103.752	20.111	7.065	0.507
1102.499	640.264	80.001	19.994	103.752	20.111	7.031	0.492
1102.999	640.523	80.002	19.993	103.753	20.109	7.149	0.517
1103.499	640.786	80.002	19.994	103.752	20.111	7.025	0.528
1103.999	641.052	80.002	19.994	103.755	20.109	7.147	0.526
1104.499	641.318	80.002	19.994	103.759	20.109	7.159	0.531
1104.999	641.579	80.003	19.995	103.759	20.110	7.103	0.530
1105.499	641.827	80.002	19.994	103.757	20.111	7.041	0.518
1105.999	642.073	80.003	19.994	103.759	20.106	7.359	0.501
1106.499	642.344	80.003	19.994	103.757	20.108	7.255	0.505
1106.999	642.588	80.002	19.994	103.752	20.108	7.278	0.516
1107.499	642.851	80.003	19.993	103.754	20.106	7.392	0.511
1107.999	643.125	80.002	19.995	103.754	20.105	7.457	0.522
1108.499	643.402	80.004	19.994	103.753	20.105	7.442	0.544
1108.999	643.670	80.003	19.994	103.752	20.106	7.378	0.548
1109.499	643.894	80.002	19.994	103.753	20.106	7.419	0.519
1109.999	644.167	80.002	19.994	103.752	20.107	7.298	0.495
1110.499	644.404	80.002	19.995	103.754	20.104	7.527	0.504
1110.999	644.663	80.003	19.994	103.755	20.108	7.261	0.503
1111.499	644.911	80.003	19.994	103.755	20.108	7.237	0.502
1111.999	645.196	80.004	19.993	103.753	20.106	7.417	0.520
1112.499	645.445	80.002	19.994	103.753	20.107	7.310	0.533
1112.999	645.711	80.001	19.995	103.754	20.107	7.303	0.524
1113.499	646.014	80.002	19.994	103.758	20.107	7.288	0.542
1113.999	646.240	80.004	19.994	103.761	20.108	7.282	0.549
1114.499	646.507	80.003	19.995	103.768	20.108	7.271	0.511
1114.999	646.717	80.002	19.994	103.772	20.111	7.070	0.486
1115.499	647.035	80.002	19.994	103.769	20.105	7.425	0.503
1115.999	647.309	80.001	19.994	103.768	20.108	7.263	0.560
1116.499	647.578	80.001	19.994	103.765	20.106	7.363	0.567
1116.999	647.783	80.001	19.995	103.764	20.107	7.295	0.509
1117.499	648.060	80.001	19.995	103.761	20.105	7.442	0.479
1117.999	648.352	80.002	19.993	103.763	20.106	7.364	0.526
1118.499	648.606	80.001	19.995	103.760	20.104	7.548	0.557
1118.999	648.876	80.001	19.995	103.762	20.107	7.353	0.534
1119.499	649.118	80.000	19.995	103.757	20.107	7.306	0.518
1119.999	649.396	80.000	19.994	103.759	20.106	7.401	0.517
1120.499	649.638	80.002	19.994	103.760	20.106	7.409	0.520
1120.999	649.931	80.003	19.995	103.767	20.108	7.218	0.527
1121.499	650.170	80.002	19.994	103.764	20.105	7.440	0.533
1121.999	650.416	80.001	19.994	103.766	20.107	7.332	0.509
1122.499	650.710	80.002	19.994	103.763	20.106	7.357	0.513
1122.999	650.971	80.002	19.995	103.761	20.105	7.450	0.548
1123.499	651.226	80.002	19.994	103.756	20.105	7.458	0.535
1123.999	651.497	80.002	19.995	103.763	20.107	7.346	0.521
1124.499	651.744	80.002	19.994	103.767	20.103	7.592	0.521
1124.999	652.013	80.001	19.994	103.772	20.103	7.576	0.517
1125.499	652.281	80.002	19.995	103.776	20.106	7.395	0.527
1125.999	652.533	80.002	19.995	103.774	20.105	7.450	0.529
1126.499	652.835	80.003	19.995	103.770	20.104	7.529	0.537
1126.999	653.068	80.001	19.995	103.764	20.105	7.444	0.544
1127.499	653.317	80.002	19.997	103.760	20.107	7.332	0.509
1127.999	653.601	80.002	19.995	103.758	20.103	7.587	0.507
1128.499	653.832	80.001	19.995	103.757	20.104	7.522	0.524
1128.999	654.125	80.002	19.995	103.756	20.106	7.387	0.519
1129.499	654.358	80.003	19.996	103.754	20.105	7.458	0.525
1129.999	654.647	80.003	19.994	103.754	20.107	7.324	0.524
1130.499	654.905	80.002	19.995	103.756	20.106	7.380	0.534
1130.999	655.176	80.003	19.996	103.761	20.105	7.459	0.538
1131.500	655.447	80.003	19.995	103.760	20.107	7.287	0.535
1132.000	655.698	80.002	19.994	103.763	20.106	7.405	0.532
1132.499	655.935	80.004	19.994	103.766	20.104	7.550	0.505
1132.999	656.191	80.002	19.995	103.763	20.107	7.315	0.490
1133.499	656.497	80.003	19.995	103.763	20.103	7.595	0.527
1133.999	656.725	80.004	19.994	103.766	20.108	7.240	0.548
1134.499	656.984	80.002	19.994	103.771	20.104	7.551	0.511
1134.999	657.239	80.003	19.996	103.774	20.103	7.590	0.501
1135.499	657.463	80.004	19.995	103.778	20.107	7.346	0.496
1135.999	657.749	80.003	19.995	103.778	20.104	7.529	0.494
1136.499	657.986	80.003	19.994	103.776	20.107	7.351	0.517
1136.999	658.257	80.003	19.993	103.773	20.107	7.296	0.516
1137.499	658.539	80.003	19.995	103.768	20.108	7.277	0.531
1137.999	658.770	80.003	19.992	103.764	20.106	7.371	0.533
1138.499	659.031	80.003	19.996	103.765	20.105	7.432	0.502
1138.999	659.263	80.001	19.995	103.770	20.104	7.517	0.492
1139.500	659.526	80.001	19.994	103.772	20.107	7.347	0.494
1140.000	659.786	80.002	19.994	103.773	20.103	7.569	0.509
1140.499	659.991	80.003	19.994	103.770	20.105	7.474	0.494
1140.999	660.273	80.001	19.994	103.766	20.105	7.476	0.476
1141.500	660.519	80.004	19.994	103.760	20.100	7.795	0.508
1142.000	660.754	80.001	19.994	103.757	20.104	7.507	0.504
1142.499	661.028	80.003	19.994	103.758	20.106	7.420	0.495
1142.999	661.280	80.003	19.994	103.763	20.106	7.397	0.518
1143.499	661.520	80.002	19.995	103.765	20.105	7.491	0.509
1143.999	661.805	80.002	19.994	103.765	20.105	7.427	0.508
1144.499	662.028	80.003	19.994	103.768	20.104	7.554	0.517
1144.999	662.304	80.002	19.993	103.774	20.107	7.339	0.503
1145.499	662.535	80.002	19.994	103.778	20.104	7.507	0.502
1145.999	662.777	80.003	19.994	103.783	20.106	7.393	0.489
1146.500	663.054	80.004	19.994	103.776	20.106	7.401	0.496
1147.000	663.261	80.003	19.993	103.760	20.104	7.535	0.502
1147.499	663.509	80.003	19.993	103.752	20.103	7.632	0.470
1147.999	663.749	80.003	19.995	103.749	20.104	7.539	0.472
1148.499	663.986	80.003	19.994	103.750	20.103	7.630	0.482
1148.999	664.273	80.003	19.994	103.766	20.106	7.396	0.500
1149.499	664.517	80.003	19.993	103.781	20.105	7.488	0.527
1149.999	664.784	80.004	19.994	103.786	20.102	7.648	0.521
1150.499	665.012	80.003	19.994	103.785	20.106	7.391	0.503
1150.999	665.268	80.003	19.993	103.784	20.104	7.528	0.490
1151.500	665.497	80.003	19.994	103.783	20.104	7.526	0.485
1152.000	665.737	80.004	19.994	103.784	20.101	7.762	0.477
1152.499	665.977	80.005	19.993	103.788	20.103	7.604	0.475
1152.999	666.251	80.004	19.994	103.787	20.102	7.653	0.497
1153.499	666.504	80.004	19.993	103.781	20.102	7.639	0.520
1153.999	666.758	80.004	19.993	103.778	20.104	7.561	0.517
1154.499	667.012	80.003	19.993	103.772	20.103	7.603	0.507
1154.999	667.228	80.005	19.994	103.765	20.103	7.605	0.489
1155.499	667.496	80.004	19.994	103.759	20.103	7.630	0.477
1155.999	667.747	80.004	19.994	103.758	20.103	7.607	0.501
1156.499	668.016	80.004	19.994	103.755	20.100	7.786	0.520
1156.999	668.283	80.004	19.993	103.756	20.100	7.783	0.529
1157.499	668.534	80.005	19.993	103.761	20.100	7.845	0.527
1157.999	668.794	80.004	19.993	103.767	20.102	7.654	0.514
1158.499	669.010	80.004	19.994	103.773	20.101	7.774	0.494
1158.999	669.270	80.005	19.993	103.773	20.101	7.751	0.476
1159.499	669.505	80.004	19.993	103.771	20.102	7.687	0.485
1159.999	669.815	80.002	19.994	103.766	20.101	7.717	0.520
1160.499	670.070	80.004	19.994	103.761	20.103	7.630	0.555
1160.999	670.311	80.003	19.993	103.761	20.103	7.634	0.531
1161.499	670.545	80.003	19.993	103.774	20.100	7.780	0.486
1161.999	670.784	80.003	19.994	103.780	20.101	7.772	0.474
1162.499	671.074	80.004	19.993	103.773	20.102	7.679	0.501
1162.999	671.359	80.003	19.995	103.764	20.103	7.612	0.552
1163.499	671.592	80.003	19.994	103.758	20.100	7.821	0.546
1163.999	671.862	80.002	19.995	103.745	20.102	7.657	0.511
1164.499	672.083	80.002	19.996	103.743	20.099	7.903	0.498
1164.999	672.382	80.002	19.994	103.757	20.100	7.814	0.506
1165.499	672.617	80.002	19.993	103.771	20.101	7.777	0.526
1165.999	672.836	80.002	19.994	103.778	20.100	7.807	0.494
1166.499	673.116	80.001	19.994	103.779	20.100	7.828	0.477
1166.999	673.373	80.002	19.993	103.773	20.098	7.962	0.518
1167.499	673.657	80.003	19.994	103.765	20.098	7.927	0.539
1167.999	673.906	80.003	19.994	103.760	20.097	8.003	0.537
1168.499	674.183	80.000	19.994	103.754	20.101	7.725	0.529
1168.999	674.464	80.002	19.994	103.755	20.103	7.609	0.542
1169.499	674.684	80.002	19.994	103.757	20.101	7.736	0.530
1169.999	674.981	80.002	19.994	103.762	20.101	7.742	0.509
1170.499	675.249	80.003	19.994	103.767	20.099	7.878	0.541
1170.999	675.528	80.002	19.994	103.770	20.100	7.830	0.556
1171.499	675.745	80.002	19.995	103.770	20.100	7.790	0.521
1171.999	676.013	80.003	19.992	103.769	20.102	7.703	0.490
1172.499	676.305	80.002	19.994	103.765	20.098	7.938	0.523
1172.999	676.553	80.001	19.994	103.760	20.099	7.886	0.550
1173.499	676.804	80.002	19.994	103.760	20.098	7.964	0.520
1173.999	677.051	80.001	19.994	103.764	20.097	7.993	0.499
1174.499	677.322	80.001	19.994	103.770	20.099	7.919	0.508
1174.999	677.582	80.003	19.994	103.777	20.098	7.964	0.524
1175.499	677.825	80.002	19.994	103.779	20.098	7.948	0.517
1175.999	678.133	80.002	19.994	103.780	20.095	8.183	0.527
1176.499	678.341	80.002	19.994	103.776	20.098	7.934	0.533
1176.999	678.617	80.002	19.994	103.771	20.098	7.925	0.500
1177.499	678.911	80.002	19.993	103.768	20.098	7.931	0.527
1177.999	679.145	80.001	19.994	103.770	20.100	7.844	0.549
1178.499	679.416	80.001	19.993	103.772	20.097	8.030	0.516
1178.999	679.668	80.002	19.994	103.778	20.099	7.850	0.514
1179.499	679.954	80.003	19.995	103.781	20.103	7.597	0.531
1179.999	680.167	80.002	19.993	103.778	20.099	7.871	0.519
1180.499	680.406	80.003	19.994	103.774	20.099	7.919	0.476
1180.999	680.689	80.002	19.994	103.771	20.099	7.856	0.487
1181.499	680.943	80.001	19.994	103.767	20.099	7.866	0.529
1181.999	681.188	80.001	19.995	103.762	20.098	7.962	0.518
1182.499	681.479	80.002	19.994	103.765	20.098	7.986	0.518
1182.999	681.765	80.001	19.994	103.764	20.093	8.295	0.556
1183.499	682.034	80.002	19.995	103.766	20.098	7.970	0.566
1183.999	682.273	80.002	19.994	103.770	20.093	8.281	0.531
1184.499	682.526	80.002	19.994	103.775	20.095	8.158	0.500
1184.999	682.773	80.003	19.995	103.772	20.092	8.362	0.496
1185.499	683.063	80.002	19.994	103.772	20.097	8.042	0.518
1185.999	683.325	80.002	19.995	103.769	20.096	8.102	0.544
1186.500	683.559	80.001	19.995	103.763	20.096	8.083	0.524
1187.000	683.837	80.002	19.995	103.758	20.096	8.067	0.504
1187.499	684.089	80.002	19.995	103.763	20.093	8.312	0.521
1188.000	684.363	80.002	19.994	103.769	20.098	7.972	0.528
1188.500	684.576	80.001	19.994	103.772	20.096	8.067	0.506
1188.999	684.872	80.002	19.994	103.774	20.095	8.159	0.498
1189.499	685.127	80.003	19.994	103.780	20.094	8.223	0.531
1189.999	685.341	80.002	19.995	103.779	20.096	8.133	0.510
1190.499	685.641	80.002	19.996	103.773	20.098	7.944	0.491
1190.999	685.896	80.002	19.994	103.770	20.095	8.138	0.534
1191.499	686.109	80.001	19.995	103.772	20.098	7.954	0.511
1191.999	686.401	80.001	19.994	103.771	20.097	8.019	0.486
1192.499	686.696	80.002	19.995	103.774	20.099	7.872	0.547
1192.999	686.925	80.001	19.995	103.779	20.097	8.044	0.556
1193.499	687.191	80.001	19.995	103.784	20.096	8.100	0.509
1193.999	687.486	80.000	19.995	103.784	20.096	8.104	0.527
1194.499	687.739	80.001	19.995	103.784	20.097	8.045	0.554
1194.999	687.973	80.000	19.995	103.783	20.096	8.070	0.518
1195.499	688.245	80.001	19.994	103.784	20.093	8.315	0.496
1195.999	688.509	80.001	19.994	103.785	20.094	8.261	0.520
1196.499	688.741	80.000	19.995	103.785	20.093	8.312	0.516
1196.999	689.029	80.000	19.994	103.786	20.098	7.980	0.508
1197.499	689.298	79.999	19.995	103.787	20.095	8.138	0.539
1197.999	689.574	80.000	19.994	103.786	20.093	8.304	0.552
1198.499	689.807	80.000	19.997	103.780	20.094	8.261	0.527
1198.999	690.069	80.001	19.996	103.782	20.098	7.950	0.502
1199.499	690.362	80.002	19.996	103.780	20.094	8.216	0.524
1199.999	690.591	79.999	19.996	103.781	20.094	8.245	0.538
1200.499	690.897	80.001	19.996	103.783	20.093	8.339	0.528
1200.999	691.148	80.001	19.995	103.788	20.096	8.121	0.546
1201.499	691.392	80.001	19.994	103.786	20.094	8.223	0.526
1201.999	691.676	80.001	19.996	103.781	20.097	8.021	0.512
1202.499	691.947	80.002	19.995	103.774	20.097	7.995	0.542
1203.000	692.209	80.001	19.994	103.766	20.094	8.209	0.544
1203.501	692.495	80.002	19.994	103.763	20.094	8.263	0.540
1204.001	692.733	80.001	19.994	103.761	20.095	8.167	0.535
1204.500	693.012	80.001	19.997	103.765	20.092	8.385	0.520
1204.999	693.277	80.002	19.995	103.767	20.095	8.194	0.531
1205.499	693.535	80.001	19.994	103.770	20.094	8.217	0.534
1205.999	693.795	80.000	19.994	103.771	20.094	8.265	0.521
1206.499	694.044	80.002	19.994	103.775	20.094	8.234	0.513
1206.999	694.305	80.002	19.994	103.775	20.096	8.078	0.509
1207.499	694.576	80.001	19.994	103.779	20.095	8.146	0.521
1207.999	694.871	80.002	19.995	103.781	20.098	7.962	0.549
1208.499	695.094	80.003	19.994	103.782	20.097	8.030	0.542
1208.999	695.365	80.003	19.995	103.780	20.095	8.184	0.506
1209.499	695.687	80.004	19.994	103.776	20.096	8.096	0.544
1209.999	695.915	80.001	19.995	103.771	20.094	8.221	0.572
1210.499	696.166	80.002	19.993	103.767	20.095	8.171	0.514
1210.999	696.440	80.004	19.994	103.761	20.094	8.206	0.502
1211.499	696.738	80.003	19.993	103.761	20.093	8.331	0.549
1211.999	696.976	80.003	19.995	103.762	20.096	8.078	0.554
1212.499	697.261	80.002	19.994	103.760	20.097	7.991	0.529
1212.999	697.505	80.002	19.995	103.758	20.094	8.236	0.526
1213.499	697.767	80.002	19.994	103.757	20.094	8.246	0.518
1213.999	698.058	80.003	19.994	103.752	20.096	8.107	0.530
1214.499	698.303	80.002	19.995	103.751	20.096	8.100	0.544
1214.999	698.574	80.001	19.995	103.751	20.091	8.431	0.526
1215.499	698.837	80.002	19.995	103.752	20.095	8.157	0.525
1215.999	699.069	80.001	19.995	103.752	20.093	8.327	0.514
1216.499	699.364	80.001	19.994	103.752	20.092	8.389	0.511
1216.999	699.643	80.001	19.995	103.753	20.090	8.501	0.551
1217.499	699.849	80.001	19.995	103.752	20.094	8.244	0.530
1217.999	700.143	80.001	19.995	103.752	20.094	8.254	0.492
1218.499	700.401	80.001	19.994	103.752	20.094	8.227	0.526
1218.999	700.661	80.001	19.994	103.753	20.095	8.158	0.535
1219.499	700.940	80.001	19.995	103.752	20.093	8.314	0.529
1219.999	701.230	80.001	19.994	103.752	20.094	8.212	0.554
1220.499	701.428	80.000	19.995	103.754	20.092	8.374	0.528
1220.999	701.743	80.000	19.996	103.757	20.092	8.383	0.500
1221.499	701.953	80.001	19.995	103.757	20.090	8.495	0.519
1221.999	702.230	80.001	19.995	103.757	20.095	8.180	0.507
1222.499	702.500	80.002	19.996	103.757	20.094	8.205	0.517
1222.999	702.744	80.002	19.994	103.755	20.093	8.302	0.530
1223.499	703.016	80.002	19.995	103.753	20.093	8.304	0.515
1223.999	703.244	80.001	19.994	103.754	20.093	8.342	0.509
1224.499	703.523	80.001	19.995	103.755	20.093	8.317	0.504
1224.999	703.769	80.002	19.994	103.755	20.092	8.398	0.516
1225.499	704.026	80.002	19.995	103.755	20.094	8.215	0.514
1225.999	704.319	80.003	19.994	103.755	20.092	8.365	0.526
1226.499	704.566	80.002	19.993	103.753	20.096	8.118	0.545
1226.999	704.829	80.003	19.994	103.754	20.096	8.079	0.525
1227.499	705.080	80.002	19.994	103.754	20.095	8.137	0.512
1227.999	705.336	80.001	19.994	103.754	20.090	8.541	0.510
1228.499	705.606	80.002	19.995	103.756	20.092	8.367	0.517
1228.999	705.813	80.002	19.993	103.757	20.093	8.295	0.502
1229.499	706.092	80.003	19.995	103.756	20.093	8.339	0.481
1229.999	706.345	80.002	19.994	103.760	20.093	8.274	0.509
1230.499	706.621	80.003	19.993	103.760	20.095	8.158	0.531
1230.999	706.866	80.003	19.994	103.758	20.093	8.341	0.525
1231.499	707.133	80.003	19.994	103.757	20.092	8.370	0.517
1231.999	707.379	80.003	19.994	103.756	20.092	8.350	0.512
1232.499	707.626	80.003	19.993	103.752	20.094	8.219	0.503
1232.999	707.922	80.004	19.993	103.752	20.094	8.221	0.519
1233.500	708.172	80.003	19.994	103.752	20.097	8.057	0.544
1234.000	708.397	80.005	19.994	103.752	20.094	8.234	0.510
1234.499	708.694	80.004	19.994	103.751	20.094	8.269	0.499
1234.999	708.928	80.005	19.993	103.750	20.091	8.440	0.527
1235.499	709.180	80.005	19.994	103.750	20.094	8.224	0.508
1235.999	709.446	80.004	19.994	103.749	20.095	8.145	0.502
1236.499	709.738	80.004	19.993	103.748	20.092	8.377	0.538
1236.999	709.938	80.004	19.994	103.748	20.096	8.112	0.525
1237.499	710.258	80.004	19.994	103.747	20.091	8.469	0.506
1238.000	710.457	80.005	19.994	103.745	20.091	8.448	0.520
1238.500	710.746	80.003	19.994	103.745	20.093	8.299	0.503
1238.999	710.960	80.004	19.993	103.744	20.093	8.314	0.495
1239.499	711.208	80.002	19.995	103.743	20.087	8.723	0.483
1239.999	711.477	80.002	19.994	103.740	20.093	8.276	0.490
1240.499	711.749	80.003	19.993	103.737	20.089	8.600	0.529
1240.999	712.009	80.004	19.993	103.736	20.097	8.035	0.536
1241.499	712.258	80.003	19.993	103.736	20.079	9.330	0.520
1241.999	712.509	80.004	19.994	103.737	20.091	8.416	0.505
1242.499	712.779	80.003	19.994	103.741	20.089	8.566	0.510
1242.999	713.007	80.003	19.993	103.745	20.089	8.614	0.509
1243.499	713.293	80.002	19.995	103.747	20.094	8.263	0.506
1243.999	713.557	80.002	19.994	103.749	20.092	8.402	0.532
1244.499	713.816	80.002	19.994	103.749	20.091	8.467	0.537
1244.999	714.074	80.002	19.994	103.749	20.091	8.413	0.520
1245.499	714.280	80.002	19.993	103.749	20.091	8.423	0.490
1245.999	714.570	80.002	19.993	103.747	20.091	8.466	0.480
1246.499	714.866	80.003	19.994	103.747	20.090	8.518	0.542
1246.999	715.098	80.003	19.994	103.746	20.092	8.398	0.557
1247.499	715.378	80.002	19.994	103.744	20.089	8.578	0.520
1247.999	715.578	80.001	19.993	103.743	20.088	8.682	0.496
1248.499	715.863	80.003	19.994	103.742	20.090	8.487	0.483
1248.999	716.139	80.001	19.994	103.740	20.090	8.551	0.523
1249.499	716.405	80.003	19.993	103.738	20.088	8.651	0.551
1249.999	716.620	80.002	19.994	103.739	20.089	8.574	0.512
1250.499	716.899	80.002	19.993	103.739	20.086	8.815	0.488
1250.999	717.147	80.001	19.995	103.742	20.088	8.653	0.511
1251.499	717.379	80.002	19.995	103.744	20.090	8.542	0.504
1251.999	717.689	80.002	19.993	103.748	20.089	8.591	0.511
1252.499	717.877	80.002	19.994	103.749	20.088	8.629	0.520
1252.999	718.191	80.003	19.994	103.750	20.093	8.332	0.500
1253.499	718.286	80.001	19.994	103.749	20.091	8.433	0.456
1253.999	718.824	80.003	19.995	103.748	20.091	8.448	0.521
1254.499	718.676	80.001	19.994	103.748	20.090	8.485	0.511
1254.999	720.097	80.002	19.994	103.748	20.093	8.302	0.832
1255.499	719.007	80.002	19.993	103.747	20.093	8.337	0.802
1255.999	719.764	80.002	19.993	103.747	20.092	8.358	-0.001
1256.499	719.717	80.001	19.994	103.748	20.091	8.441	0.189
1256.999	720.219	80.002	19.994	103.748	20.090	8.548	0.583
1257.500	720.448	80.001	19.993	103.747	20.093	8.334	0.593
1258.000	720.754	80.001	19.994	103.749	20.090	8.539	0.633
1258.499	720.948	80.002	19.995	103.749	20.091	8.467	0.517
1258.999	721.194	80.003	19.994	103.749	20.093	8.272	0.470
1259.499	721.437	80.002	19.994	103.747	20.091	8.471	0.465
1259.999	721.728	80.002	19.994	103.748	20.087	8.713	0.512
1260.499	721.934	80.000	19.994	103.748	20.087	8.731	0.515
1260.999	722.258	80.000	19.995	103.748	20.089	8.577	0.513
1261.499	722.446	80.003	19.993	103.744	20.090	8.549	0.521
1261.999	722.746	80.001	19.994	103.745	20.087	8.698	0.500
1262.499	722.962	80.001	19.993	103.744	20.091	8.470	0.501
1262.999	723.174	80.002	19.994	103.742	20.090	8.545	0.472
1263.499	723.487	80.002	19.993	103.743	20.091	8.456	0.477
1263.999	723.729	80.002	19.994	103.747	20.090	8.551	0.540
1264.499	723.957	80.003	19.993	103.749	20.091	8.465	0.512
1264.999	724.163	80.001	19.993	103.750	20.088	8.654	0.452
1265.499	724.490	80.002	19.993	103.751	20.088	8.682	0.483
1265.999	724.743	80.003	19.994	103.751	20.089	8.614	0.556
1266.499	725.000	80.001	19.993	103.751	20.087	8.716	0.546
1266.999	725.223	80.002	19.994	103.750	20.089	8.577	0.495
1267.499	725.497	80.002	19.994	103.748	20.087	8.718	0.488
1267.999	725.753	80.002	19.993	103.744	20.089	8.624	0.514
1268.499	725.981	80.003	19.993	103.743	20.087	8.761	0.507
1268.999	726.217	80.003	19.993	103.743	20.089	8.581	0.474
1269.499	726.463	80.002	19.994	103.744	20.087	8.763	0.473
1269.999	726.717	80.002	19.994	103.744	20.087	8.748	0.491
1270.499	726.958	80.003	19.994	103.748	20.089	8.609	0.498
1270.999	727.175	80.002	19.994	103.747	20.087	8.703	0.477
1271.500	727.453	80.004	19.994	103.742	20.088	8.692	0.476
1272.000	727.673	80.002	19.994	103.737	20.088	8.642	0.496
1272.499	727.949	80.001	19.993	103.733	20.090	8.547	0.497
1273.000	728.174	80.002	19.994	103.732	20.088	8.648	0.499
1273.501	728.413	80.001	19.994	103.730	20.089	8.584	0.482
1274.000	728.674	80.003	19.994	103.730	20.089	8.605	0.482
1274.499	728.894	80.003	19.994	103.730	20.085	8.854	0.490
1274.999	729.169	80.000	19.995	103.736	20.088	8.640	0.488
1275.499	729.416	80.002	19.994	103.737	20.086	8.794	0.509
1275.999	729.655	80.002	19.993	103.742	20.086	8.783	0.504
1276.499	729.908	80.002	19.994	103.745	20.088	8.684	0.488
1277.000	730.144	80.002	19.993	103.750	20.086	8.829	0.490
1277.500	730.360	80.002	19.995	103.747	20.086	8.825	0.471
1277.999	730.681	80.001	19.994	103.747	20.086	8.784	0.495
1278.499	730.885	80.000	19.994	103.746	20.087	8.761	0.531
1278.999	731.108	80.001	19.996	103.748	20.089	8.603	0.475
1279.499	731.364	80.000	19.994	103.747	20.089	8.612	0.453
1279.999	731.625	80.000	19.994	103.749	20.084	8.969	0.499
1280.499	731.869	80.000	19.995	103.750	20.085	8.853	0.511
1281.000	732.113	80.001	19.994	103.750	20.082	9.054	0.496
1281.500	732.430	80.000	19.994	103.750	20.084	8.932	0.524
1281.999	732.626	80.000	19.995	103.751	20.084	8.942	0.537
1282.499	732.882	80.002	19.994	103.753	20.083	9.044	0.483
1282.999	733.138	80.002	19.995	103.754	20.085	8.855	0.482
1283.499	733.372	80.002	19.995	103.754	20.086	8.784	0.500
1283.999	733.601	80.002	19.994	103.755	20.085	8.907	0.477
1284.499	733.852	80.001	19.994	103.754	20.083	9.004	0.471
1284.999	734.109	80.001	19.994	103.755	20.082	9.066	0.494
1285.499	734.401	80.002	19.993	103.755	20.084	8.915	0.528
1285.999	734.630	80.003	19.995	103.754	20.087	8.734	0.535
1286.499	734.886	80.001	19.994	103.754	20.086	8.834	0.503
1286.999	735.144	80.002	19.995	103.754	20.084	8.936	0.500
1287.499	735.383	80.002	19.994	103.753	20.085	8.874	0.506
1287.999	735.682	80.002	19.996	103.753	20.085	8.853	0.517
1288.499	735.884	80.004	19.994	103.752	20.086	8.805	0.519
1288.999	736.151	80.003	19.994	103.750	20.085	8.878	0.485
1289.499	736.430	80.003	19.995	103.750	20.085	8.838	0.508
1289.999	736.654	80.003	19.995	103.749	20.087	8.718	0.524
1290.499	736.931	80.004	19.993	103.748	20.086	8.830	0.502
1290.999	737.164	80.004	19.995	103.747	20.083	8.994	0.506
1291.499	737.396	80.004	19.994	103.747	20.086	8.824	0.487
1291.999	737.650	80.003	19.994	103.747	20.084	8.936	0.475
1292.499	737.905	80.004	19.994	103.746	20.083	8.979	0.498
1292.999	738.178	80.004	19.993	103.745	20.086	8.797	0.519
1293.499	738.415	80.003	19.994	103.746	20.085	8.888	0.519
1293.999	738.659	80.002	19.994	103.746	20.083	9.002	0.495
1294.499	738.885	80.004	19.994	103.746	20.083	9.017	0.475
1294.999	739.190	80.003	19.994	103.746	20.084	8.976	0.501
1295.499	739.434	80.003	19.994	103.747	20.081	9.134	0.540
1295.999	739.683	80.005	19.994	103.748	20.081	9.146	0.521
1296.499	739.905	80.004	19.994	103.748	20.084	8.973	0.482
1296.999	740.174	80.004	19.994	103.748	20.082	9.081	0.481
1297.499	740.420	80.003	19.994	103.748	20.085	8.842	0.503
1298.000	740.673	80.003	19.995	103.746	20.085	8.887	0.507
1298.500	740.900	80.003	19.994	103.745	20.085	8.891	0.489
1298.999	741.193	80.003	19.993	103.745	20.086	8.770	0.500
1299.499	741.414	80.002	19.995	103.746	20.084	8.970	0.517
1299.999	741.698	80.003	19.994	103.746	20.081	9.126	0.509
1300.499	741.945	80.001	19.995	103.747	20.082	9.107	0.518
1300.999	742.219	80.003	19.995	103.747	20.081	9.169	0.526
1301.499	742.445	80.002	19.995	103.744	20.081	9.142	0.510
1301.999	742.667	80.003	19.996	103.744	20.080	9.235	0.474
1302.499	743.009	80.004	19.994	103.741	20.081	9.132	0.506
1302.999	743.218	80.002	19.994	103.743	20.082	9.117	0.558
1303.499	743.479	80.003	19.995	103.743	20.082	9.072	0.510
1303.999	743.724	80.002	19.995	103.745	20.081	9.169	0.488
1304.499	743.997	80.003	19.995	103.747	20.080	9.217	0.512
1304.999	744.232	80.002	19.995	103.750	20.084	8.932	0.513
1305.499	744.464	80.004	19.995	103.745	20.080	9.248	0.488
1305.999	744.721	80.002	19.995	103.736	20.084	8.961	0.478
1306.500	744.993	80.003	19.996	103.730	20.081	9.183	0.509
