Sample ID:	C:\MCC\MCC Cal\Test\PUF_82C_MCC_30K_min_220308_R1.txt
Sample Weight (mg):	4.14
Heating Rate (C/s):	0.5
Combustor Temp (C):	900
N2 Flow Rate (cc/min):	80
O2 Flow Rate (cc/min):	20
Calibration File:	C:\MCC\MCC Cal\Coeff1 JN10440_30_210304.txt.txt
T Correction Coefficients:	0	1.024463	0
Time Shift (s):	14
*
Time (s)	Temperature (C)	N2 flow rate (cc/min)	O2 flow rate (cc/min)	Flow Rate (cc/min)	Oxygen (%)	HRR (W/g)	Heating rate (C/s)
0.000	108.013	80.003	19.995	103.586	20.135	-0.155	0.021
0.500	107.962	80.004	19.993	103.585	20.133	-0.030	-0.004
1.000	107.985	80.006	19.995	103.589	20.132	0.055	-0.027
1.500	107.993	80.004	19.994	103.593	20.134	-0.062	0.001
2.000	107.995	80.003	19.993	103.588	20.135	-0.151	0.020
2.500	108.009	80.003	19.995	103.588	20.132	0.047	0.013
3.000	107.972	80.003	19.994	103.584	20.132	0.066	-0.004
3.500	107.975	80.004	19.993	103.581	20.134	-0.102	-0.029
4.000	107.955	80.004	19.994	103.582	20.134	-0.057	-0.026
4.500	107.984	80.003	19.993	103.589	20.131	0.146	-0.004
5.000	107.996	80.004	19.993	103.590	20.132	0.066	0.025
5.500	107.982	80.004	19.994	103.592	20.133	0.015	0.020
6.000	107.969	80.004	19.992	103.596	20.137	-0.314	-0.014
6.500	107.936	80.003	19.993	103.596	20.133	-0.032	-0.036
7.000	107.978	80.005	19.992	103.596	20.135	-0.174	-0.019
7.500	107.961	80.004	19.993	103.597	20.130	0.253	0.017
8.000	107.976	80.004	19.993	103.599	20.132	0.098	0.012
8.500	107.971	80.004	19.993	103.599	20.134	-0.085	0.004
9.000	107.964	80.003	19.992	103.600	20.130	0.255	-0.002
9.500	107.968	80.006	19.992	103.600	20.130	0.212	-0.008
10.000	107.974	80.002	19.994	103.601	20.130	0.210	0.004
10.500	108.001	80.003	19.993	103.602	20.132	0.100	0.022
11.000	107.991	80.003	19.991	103.607	20.128	0.365	0.025
11.500	107.995	80.003	19.993	103.615	20.129	0.338	0.005
12.000	107.977	80.004	19.992	103.623	20.128	0.380	-0.010
12.500	108.031	80.003	19.993	103.631	20.126	0.563	0.011
13.000	107.981	80.004	19.993	103.639	20.127	0.510	0.020
13.500	107.991	80.005	19.992	103.642	20.127	0.448	-0.018
14.000	108.011	80.005	19.993	103.642	20.127	0.444	-0.005
14.500	108.020	80.003	19.992	103.642	20.127	0.482	0.030
15.000	108.054	80.006	19.993	103.642	20.124	0.701	0.036
15.500	108.069	80.003	19.993	103.643	20.127	0.457	0.046
16.000	108.037	80.004	19.993	103.643	20.126	0.512	0.016
16.500	108.070	80.004	19.993	103.642	20.123	0.809	-0.008
17.000	108.058	80.004	19.992	103.644	20.123	0.788	0.011
17.500	108.043	80.003	19.992	103.644	20.122	0.894	-0.003
18.000	108.104	80.005	19.992	103.644	20.124	0.709	0.010
18.500	108.089	80.004	19.993	103.645	20.124	0.673	0.046
19.000	108.117	80.003	19.992	103.648	20.125	0.597	0.030
19.500	108.133	80.005	19.993	103.650	20.124	0.669	0.029
20.000	108.153	80.002	19.992	103.650	20.120	1.045	0.040
20.500	108.196	80.004	19.993	103.650	20.122	0.867	0.049
21.000	108.162	80.003	19.994	103.649	20.120	0.994	0.036
21.500	108.220	80.003	19.992	103.653	20.119	1.111	0.016
22.000	108.211	80.005	19.993	103.658	20.122	0.844	0.037
22.500	108.262	80.003	19.993	103.665	20.116	1.313	0.046
23.000	108.273	80.004	19.994	103.677	20.120	1.022	0.052
23.500	108.262	80.003	19.994	103.687	20.116	1.360	0.031
24.000	108.276	80.004	19.992	103.693	20.115	1.447	0.001
24.500	108.319	80.003	19.994	103.700	20.117	1.235	0.030
25.000	108.382	80.003	19.993	103.707	20.114	1.471	0.081
25.500	108.372	80.003	19.993	103.713	20.112	1.647	0.079
26.000	108.430	80.002	19.994	103.721	20.111	1.719	0.051
26.500	108.408	80.003	19.994	103.723	20.110	1.770	0.042
27.000	108.482	80.005	19.994	103.723	20.111	1.758	0.044
27.500	108.489	80.003	19.994	103.723	20.109	1.909	0.067
28.000	108.545	80.004	19.994	103.724	20.107	2.058	0.072
28.500	108.568	80.002	19.994	103.727	20.107	2.030	0.071
29.000	108.605	80.004	19.993	103.735	20.106	2.102	0.069
29.500	108.653	80.004	19.995	103.743	20.105	2.175	0.073
30.000	108.727	80.004	19.993	103.751	20.106	2.132	0.103
30.500	108.744	80.004	19.994	103.757	20.104	2.262	0.106
31.000	108.797	80.004	19.993	103.762	20.099	2.702	0.081
31.500	108.804	80.005	19.994	103.769	20.103	2.379	0.065
32.000	108.884	80.005	19.994	103.775	20.101	2.540	0.073
32.500	108.934	80.005	19.993	103.781	20.101	2.474	0.109
33.000	109.018	80.005	19.993	103.788	20.102	2.460	0.132
33.500	109.045	80.007	19.994	103.791	20.101	2.536	0.122
34.000	109.088	80.004	19.994	103.792	20.098	2.747	0.090
34.501	109.136	80.005	19.994	103.793	20.097	2.819	0.081
35.001	109.222	80.007	19.993	103.794	20.100	2.551	0.113
35.500	109.313	80.006	19.994	103.793	20.100	2.600	0.155
36.000	109.353	80.006	19.994	103.794	20.097	2.834	0.154
36.500	109.406	80.005	19.993	103.794	20.098	2.766	0.112
37.001	109.496	80.006	19.993	103.795	20.096	2.910	0.117
37.501	109.547	80.004	19.995	103.796	20.098	2.745	0.142
38.000	109.632	80.003	19.993	103.801	20.095	2.993	0.139
38.500	109.741	80.006	19.993	103.807	20.096	2.930	0.165
39.000	109.766	80.006	19.994	103.810	20.096	2.879	0.164
39.500	109.876	80.004	19.993	103.813	20.097	2.787	0.134
40.000	109.941	80.005	19.994	103.812	20.097	2.836	0.155
40.500	110.025	80.006	19.993	103.807	20.098	2.743	0.162
41.001	110.092	80.003	19.993	103.805	20.097	2.792	0.150
41.501	110.204	80.006	19.993	103.808	20.096	2.881	0.164
42.000	110.278	80.006	19.993	103.809	20.095	2.955	0.183
42.500	110.370	80.006	19.994	103.816	20.094	3.072	0.176
43.000	110.438	80.005	19.994	103.819	20.095	3.006	0.163
43.500	110.529	80.005	19.993	103.816	20.093	3.128	0.159
44.000	110.660	80.004	19.994	103.817	20.091	3.321	0.191
44.500	110.733	80.005	19.993	103.818	20.088	3.500	0.213
45.000	110.827	80.005	19.994	103.816	20.091	3.306	0.185
45.500	110.946	80.004	19.994	103.819	20.093	3.113	0.190
46.000	111.020	80.005	19.993	103.821	20.093	3.145	0.203
46.500	111.153	80.004	19.993	103.821	20.092	3.196	0.201
47.000	111.246	80.004	19.993	103.822	20.091	3.323	0.217
47.500	111.332	80.004	19.994	103.821	20.092	3.215	0.202
48.000	111.461	80.003	19.994	103.822	20.088	3.507	0.197
48.501	111.580	80.005	19.994	103.824	20.088	3.530	0.231
49.001	111.706	80.004	19.995	103.824	20.089	3.451	0.247
49.500	111.813	80.003	19.996	103.826	20.088	3.494	0.239
50.000	111.935	80.004	19.994	103.829	20.088	3.562	0.231
50.500	112.031	80.004	19.992	103.830	20.087	3.632	0.224
51.000	112.159	80.003	19.994	103.832	20.089	3.474	0.221
51.500	112.281	80.004	19.994	103.831	20.086	3.719	0.237
52.001	112.415	80.006	19.993	103.830	20.089	3.481	0.253
52.501	112.527	80.004	19.994	103.830	20.088	3.519	0.251
53.001	112.673	80.005	19.993	103.830	20.085	3.759	0.252
53.500	112.751	80.004	19.994	103.831	20.089	3.427	0.241
54.000	112.899	80.003	19.994	103.833	20.087	3.604	0.225
54.500	113.051	80.005	19.993	103.834	20.088	3.525	0.263
55.000	113.144	80.003	19.995	103.832	20.091	3.317	0.273
55.500	113.304	80.004	19.994	103.833	20.089	3.479	0.249
56.000	113.405	80.005	19.994	103.832	20.086	3.689	0.257
56.501	113.527	80.004	19.994	103.834	20.088	3.509	0.242
57.001	113.677	80.003	19.993	103.835	20.086	3.660	0.247
57.501	113.783	80.005	19.994	103.838	20.084	3.807	0.264
58.000	113.976	80.005	19.995	103.839	20.088	3.543	0.278
58.500	114.049	80.005	19.994	103.845	20.084	3.830	0.283
59.000	114.190	80.007	19.994	103.848	20.087	3.598	0.240
59.500	114.319	80.005	19.994	103.848	20.082	3.957	0.241
60.000	114.446	80.006	19.994	103.846	20.083	3.891	0.263
60.500	114.584	80.005	19.994	103.844	20.084	3.824	0.261
61.000	114.764	80.004	19.993	103.839	20.083	3.883	0.292
61.500	114.903	80.005	19.994	103.835	20.084	3.824	0.319
62.000	115.072	80.006	19.994	103.834	20.086	3.647	0.313
62.500	115.161	80.006	19.994	103.835	20.082	4.017	0.283
63.000	115.377	80.005	19.993	103.836	20.084	3.821	0.281
63.500	115.477	80.004	19.992	103.836	20.081	4.053	0.310
64.000	115.661	80.004	19.993	103.835	20.081	4.047	0.301
64.500	115.799	80.004	19.994	103.835	20.081	4.058	0.303
65.000	115.933	80.004	19.994	103.834	20.083	3.907	0.297
65.500	116.104	80.004	19.994	103.834	20.084	3.837	0.288
66.000	116.248	80.004	19.994	103.834	20.086	3.677	0.309
66.500	116.416	80.002	19.995	103.837	20.082	4.011	0.314
67.000	116.593	80.004	19.994	103.841	20.082	3.964	0.329
67.500	116.745	80.002	19.994	103.847	20.083	3.928	0.337
68.000	116.893	80.003	19.993	103.855	20.081	4.101	0.315
68.500	117.091	80.004	19.994	103.860	20.080	4.190	0.323
69.001	117.236	80.003	19.993	103.858	20.079	4.209	0.345
69.501	117.432	80.002	19.995	103.854	20.082	3.986	0.342
70.000	117.617	80.004	19.993	103.850	20.079	4.226	0.361
70.500	117.761	80.004	19.994	103.846	20.081	4.069	0.355
71.000	117.936	80.002	19.993	103.846	20.080	4.145	0.324
71.500	118.085	80.004	19.993	103.852	20.081	4.054	0.322
72.000	118.267	80.004	19.993	103.859	20.081	4.080	0.328
72.500	118.419	80.003	19.995	103.860	20.082	4.031	0.332
73.000	118.609	80.004	19.993	103.857	20.082	3.980	0.337
73.500	118.763	80.004	19.993	103.855	20.082	3.961	0.343
74.000	118.925	80.004	19.994	103.853	20.084	3.831	0.330
74.500	119.131	80.004	19.993	103.852	20.083	3.935	0.342
75.000	119.326	80.003	19.992	103.854	20.083	3.933	0.384
75.500	119.484	80.004	19.994	103.858	20.085	3.748	0.377
76.000	119.668	80.003	19.994	103.859	20.083	3.922	0.347
76.501	119.859	80.003	19.993	103.858	20.082	4.022	0.359
77.001	120.001	80.002	19.993	103.860	20.080	4.126	0.354
77.501	120.185	80.003	19.992	103.861	20.081	4.061	0.329
78.000	120.374	80.004	19.992	103.865	20.080	4.152	0.350
78.500	120.561	80.002	19.993	103.870	20.081	4.065	0.375
79.000	120.745	80.002	19.993	103.872	20.081	4.063	0.374
79.500	120.947	80.003	19.992	103.874	20.083	3.924	0.379
80.000	121.163	80.002	19.992	103.874	20.082	4.026	0.402
80.500	121.323	80.004	19.993	103.874	20.081	4.097	0.397
81.000	121.502	80.004	19.993	103.874	20.083	3.950	0.357
81.500	121.719	80.004	19.993	103.874	20.081	4.067	0.368
82.000	121.904	80.004	19.992	103.872	20.080	4.135	0.399
82.501	122.087	80.003	19.994	103.872	20.084	3.850	0.385
83.001	122.263	80.002	19.993	103.872	20.080	4.137	0.363
83.501	122.503	80.004	19.994	103.872	20.080	4.180	0.388
84.000	122.688	80.004	19.992	103.874	20.085	3.741	0.421
84.500	122.888	80.004	19.992	103.876	20.080	4.175	0.405
85.000	123.097	80.004	19.993	103.876	20.082	3.984	0.397
85.500	123.274	80.003	19.993	103.875	20.083	3.890	0.398
86.000	123.494	80.003	19.994	103.874	20.082	4.014	0.392
86.500	123.713	80.006	19.993	103.874	20.085	3.771	0.418
87.001	123.899	80.004	19.994	103.874	20.083	3.952	0.422
87.501	124.101	80.003	19.992	103.874	20.081	4.048	0.396
88.000	124.305	80.004	19.993	103.874	20.083	3.933	0.397
88.500	124.495	80.004	19.993	103.875	20.080	4.180	0.400
89.000	124.718	80.004	19.993	103.876	20.081	4.056	0.403
89.500	124.898	80.001	19.993	103.877	20.081	4.063	0.408
90.000	125.121	80.004	19.993	103.877	20.081	4.041	0.403
90.500	125.361	80.003	19.993	103.877	20.082	3.956	0.433
91.000	125.570	80.006	19.992	103.876	20.081	4.056	0.456
91.500	125.739	80.002	19.993	103.875	20.081	4.041	0.414
92.000	125.989	80.004	19.993	103.873	20.082	3.965	0.398
92.500	126.178	80.004	19.993	103.873	20.081	4.063	0.429
93.000	126.409	80.004	19.994	103.872	20.080	4.167	0.430
93.501	126.624	80.003	19.993	103.871	20.081	4.103	0.433
94.001	126.822	80.004	19.995	103.872	20.085	3.750	0.430
94.500	127.032	80.004	19.994	103.873	20.081	4.092	0.410
95.000	127.244	80.002	19.993	103.873	20.081	4.050	0.415
95.500	127.454	80.003	19.994	103.873	20.079	4.228	0.422
96.000	127.659	80.002	19.993	103.873	20.080	4.128	0.419
96.500	127.850	80.005	19.993	103.873	20.079	4.241	0.405
97.000	128.094	80.003	19.994	103.873	20.080	4.163	0.415
97.501	128.327	80.005	19.993	103.873	20.080	4.156	0.456
98.001	128.526	80.004	19.994	103.873	20.081	4.071	0.454
98.500	128.754	80.003	19.994	103.875	20.081	4.035	0.430
99.000	129.011	80.005	19.993	103.876	20.081	4.041	0.456
99.501	129.189	80.002	19.993	103.876	20.080	4.158	0.460
100.001	129.411	80.002	19.994	103.876	20.085	3.756	0.417
100.500	129.639	80.003	19.993	103.875	20.085	3.797	0.425
101.000	129.894	80.005	19.994	103.874	20.083	3.929	0.467
101.501	130.107	80.004	19.993	103.873	20.085	3.788	0.475
102.001	130.293	80.001	19.994	103.873	20.083	3.926	0.433
102.500	130.534	80.002	19.994	103.873	20.083	3.946	0.413
103.000	130.740	80.006	19.994	103.874	20.081	4.045	0.437
103.500	130.945	80.003	19.993	103.874	20.081	4.037	0.430
104.000	131.227	80.005	19.993	103.874	20.085	3.795	0.449
104.500	131.426	80.004	19.993	103.874	20.079	4.220	0.483
105.000	131.659	80.002	19.994	103.874	20.082	4.016	0.456
105.500	131.861	80.003	19.994	103.874	20.083	3.886	0.434
106.000	132.128	80.004	19.991	103.874	20.084	3.816	0.452
106.501	132.343	80.003	19.994	103.874	20.084	3.843	0.476
107.001	132.582	80.004	19.992	103.873	20.085	3.799	0.468
107.501	132.777	80.005	19.993	103.873	20.079	4.247	0.444
108.000	133.010	80.002	19.993	103.873	20.085	3.754	0.431
108.500	133.233	80.006	19.993	103.873	20.083	3.907	0.442
109.000	133.456	80.004	19.996	103.873	20.082	3.958	0.451
109.500	133.723	80.005	19.993	103.873	20.083	3.943	0.468
110.000	133.951	80.006	19.992	103.873	20.082	4.024	0.493
110.500	134.172	80.005	19.993	103.873	20.082	3.967	0.472
111.000	134.384	80.006	19.993	103.874	20.082	4.009	0.441
111.500	134.649	80.005	19.994	103.874	20.081	4.111	0.454
112.000	134.851	80.006	19.993	103.873	20.086	3.658	0.472
112.500	135.114	80.006	19.994	103.872	20.080	4.143	0.466
113.000	135.364	80.005	19.993	103.872	20.084	3.801	0.489
113.500	135.558	80.006	19.993	103.872	20.085	3.790	0.478
114.000	135.835	80.006	19.992	103.872	20.082	4.018	0.457
114.500	136.063	80.005	19.993	103.872	20.082	4.007	0.488
115.000	136.303	80.004	19.993	103.872	20.081	4.075	0.487
115.500	136.545	80.005	19.994	103.871	20.083	3.892	0.475
116.000	136.777	80.004	19.993	103.869	20.081	4.041	0.478
116.500	137.004	80.004	19.994	103.867	20.082	3.984	0.467
117.000	137.270	80.004	19.995	103.868	20.082	4.007	0.476
117.500	137.512	80.005	19.994	103.868	20.084	3.846	0.501
118.000	137.732	80.005	19.992	103.868	20.085	3.780	0.485
118.500	137.981	80.003	19.994	103.870	20.083	3.935	0.465
119.001	138.216	80.005	19.993	103.871	20.083	3.894	0.476
119.501	138.458	80.003	19.993	103.870	20.085	3.788	0.481
120.000	138.711	80.004	19.994	103.870	20.081	4.062	0.486
120.500	138.928	80.004	19.993	103.869	20.082	3.975	0.482
121.000	139.210	80.004	19.993	103.867	20.080	4.188	0.484
121.500	139.415	80.003	19.993	103.867	20.080	4.120	0.493
122.000	139.672	80.001	19.994	103.868	20.081	4.054	0.475
122.500	139.922	80.003	19.993	103.869	20.083	3.901	0.485
123.000	140.160	80.006	19.993	103.869	20.082	3.999	0.497
123.500	140.385	80.004	19.993	103.872	20.081	4.054	0.476
124.000	140.660	80.002	19.995	103.872	20.082	4.009	0.481
124.500	140.904	80.002	19.994	103.869	20.081	4.050	0.509
125.000	141.158	80.004	19.994	103.867	20.081	4.048	0.509
125.501	141.383	80.004	19.994	103.868	20.082	4.022	0.489
126.001	141.657	80.003	19.995	103.867	20.084	3.852	0.489
126.501	141.929	80.003	19.995	103.868	20.082	4.005	0.522
127.001	142.152	80.004	19.994	103.870	20.080	4.189	0.520
127.500	142.377	80.003	19.995	103.873	20.080	4.181	0.472
128.000	142.629	80.004	19.993	103.872	20.081	4.064	0.463
128.500	142.886	80.006	19.993	103.873	20.081	4.054	0.493
129.000	143.120	80.004	19.994	103.872	20.084	3.841	0.500
129.500	143.386	80.003	19.993	103.872	20.084	3.817	0.495
130.000	143.631	80.005	19.994	103.865	20.084	3.826	0.505
130.500	143.877	80.004	19.993	103.863	20.085	3.798	0.501
131.000	144.123	80.004	19.994	103.862	20.083	3.938	0.492
131.500	144.408	80.004	19.993	103.863	20.083	3.881	0.512
132.000	144.626	80.003	19.993	103.862	20.083	3.890	0.517
132.500	144.890	80.006	19.993	103.869	20.084	3.849	0.493
133.000	145.139	80.005	19.994	103.871	20.084	3.862	0.497
133.500	145.379	80.007	19.992	103.873	20.083	3.908	0.501
134.000	145.632	80.007	19.993	103.872	20.083	3.927	0.491
134.500	145.893	80.006	19.992	103.873	20.080	4.127	0.504
135.000	146.098	80.005	19.993	103.873	20.081	4.055	0.490
135.500	146.371	80.005	19.994	103.872	20.084	3.828	0.472
136.000	146.648	80.006	19.993	103.869	20.086	3.719	0.514
136.500	146.895	80.006	19.993	103.867	20.084	3.860	0.537
137.000	147.132	80.005	19.993	103.863	20.085	3.724	0.504
137.500	147.343	80.006	19.993	103.858	20.084	3.830	0.466
138.000	147.614	80.006	19.993	103.854	20.087	3.603	0.465
138.500	147.887	80.004	19.993	103.856	20.086	3.701	0.514
139.000	148.137	80.005	19.994	103.858	20.083	3.924	0.534
139.500	148.392	80.006	19.992	103.861	20.081	4.036	0.514
140.000	148.618	80.004	19.993	103.860	20.085	3.747	0.493
140.500	148.905	80.004	19.993	103.857	20.083	3.878	0.497
141.000	149.148	80.007	19.992	103.853	20.086	3.659	0.521
141.500	149.397	80.005	19.994	103.853	20.085	3.787	0.511
142.000	149.667	80.006	19.994	103.854	20.087	3.577	0.505
142.500	149.885	80.005	19.993	103.860	20.084	3.870	0.504
143.000	150.137	80.005	19.992	103.861	20.082	3.972	0.479
143.500	150.399	80.004	19.994	103.858	20.080	4.142	0.492
144.000	150.639	80.004	19.994	103.852	20.084	3.840	0.508
144.500	150.907	80.003	19.993	103.846	20.086	3.649	0.505
145.000	151.152	80.004	19.994	103.839	20.083	3.897	0.510
145.500	151.439	80.004	19.993	103.842	20.086	3.670	0.522
146.000	151.661	80.004	19.993	103.845	20.083	3.880	0.521
146.500	151.908	80.002	19.993	103.846	20.085	3.759	0.489
147.000	152.196	80.002	19.994	103.848	20.085	3.740	0.502
147.500	152.459	80.004	19.992	103.853	20.082	3.974	0.543
148.000	152.640	80.001	19.994	103.857	20.080	4.123	0.498
148.500	152.940	80.003	19.994	103.859	20.081	4.065	0.462
149.000	153.151	80.004	19.994	103.861	20.082	4.002	0.496
149.500	153.428	80.002	19.994	103.861	20.082	4.017	0.500
150.000	153.690	80.001	19.995	103.856	20.083	3.891	0.513
150.500	153.924	80.005	19.994	103.848	20.084	3.804	0.517
151.000	154.146	80.003	19.994	103.842	20.078	4.336	0.476
151.500	154.426	80.002	19.994	103.838	20.084	3.856	0.479
152.000	154.668	80.003	19.994	103.839	20.079	4.254	0.512
152.500	154.919	80.002	19.994	103.842	20.084	3.848	0.508
153.000	155.161	80.002	19.995	103.845	20.083	3.956	0.493
153.500	155.431	80.003	19.994	103.846	20.083	3.896	0.502
154.000	155.667	80.002	19.994	103.847	20.082	4.014	0.510
154.500	155.946	80.003	19.996	103.842	20.083	3.899	0.511
155.001	156.161	80.003	19.994	103.838	20.084	3.849	0.504
155.501	156.465	80.002	19.997	103.835	20.082	4.003	0.506
156.000	156.693	80.003	19.995	103.834	20.082	4.027	0.526
156.500	156.945	80.002	19.996	103.833	20.083	3.884	0.506
157.000	157.189	80.004	19.995	103.833	20.085	3.787	0.488
157.500	157.424	80.003	19.993	103.834	20.082	4.000	0.487
158.000	157.688	80.002	19.993	103.834	20.083	3.902	0.490
158.500	157.969	80.007	19.992	103.835	20.081	4.085	0.522
159.000	158.220	80.004	19.995	103.837	20.082	4.009	0.538
159.500	158.423	80.002	19.994	103.837	20.081	4.055	0.493
160.000	158.728	80.004	19.994	103.836	20.083	3.934	0.481
160.500	158.962	80.004	19.994	103.838	20.082	3.976	0.524
161.000	159.225	80.003	19.994	103.842	20.086	3.714	0.519
161.500	159.457	80.004	19.993	103.848	20.083	3.887	0.496
162.000	159.705	80.003	19.994	103.856	20.085	3.742	0.487
162.501	159.972	80.004	19.994	103.865	20.087	3.566	0.497
163.000	160.216	80.004	19.993	103.877	20.087	3.587	0.513
163.500	160.471	80.003	19.994	103.894	20.088	3.500	0.505
164.000	160.727	80.004	19.993	103.926	20.089	3.436	0.505
164.500	160.965	80.004	19.994	103.968	20.086	3.653	0.502
165.000	161.222	80.004	19.994	103.986	20.089	3.472	0.494
165.500	161.484	80.003	19.994	103.987	20.087	3.636	0.507
166.001	161.746	80.006	19.993	103.973	20.090	3.389	0.522
166.500	161.993	80.004	19.993	103.937	20.090	3.389	0.517
167.000	162.264	80.006	19.994	103.888	20.087	3.612	0.514
167.500	162.506	80.001	19.994	103.863	20.089	3.442	0.515
168.000	162.738	80.004	19.992	103.849	20.085	3.788	0.494
168.500	163.002	80.003	19.995	103.846	20.086	3.642	0.485
169.000	163.255	80.002	19.993	103.848	20.087	3.576	0.507
169.500	163.482	80.003	19.995	103.851	20.090	3.376	0.499
170.000	163.731	80.004	19.994	103.851	20.089	3.454	0.478
170.500	164.002	80.005	19.995	103.850	20.090	3.355	0.498
171.000	164.245	80.003	19.994	103.845	20.087	3.623	0.517
171.500	164.488	80.004	19.994	103.840	20.087	3.629	0.500
172.000	164.802	80.008	19.994	103.835	20.089	3.448	0.522
172.500	165.013	80.004	19.994	103.833	20.089	3.444	0.541
173.000	165.239	80.002	19.994	103.833	20.087	3.593	0.481
173.500	165.532	80.006	19.993	103.831	20.087	3.580	0.479
174.000	165.751	80.003	19.994	103.832	20.083	3.882	0.516
174.500	166.008	80.000	19.993	103.832	20.086	3.682	0.494
175.000	166.250	80.003	19.992	103.830	20.085	3.760	0.487
175.500	166.564	80.006	19.994	103.830	20.087	3.609	0.527
176.000	166.822	80.007	19.994	103.831	20.085	3.729	0.564
176.500	167.039	80.002	19.993	103.828	20.087	3.580	0.524
177.000	167.284	80.004	19.993	103.823	20.083	3.941	0.468
177.500	167.547	80.005	19.994	103.821	20.082	3.969	0.485
178.000	167.771	80.004	19.994	103.820	20.084	3.801	0.497
178.500	168.045	80.004	19.994	103.818	20.085	3.745	0.492
179.000	168.280	80.003	19.994	103.819	20.083	3.877	0.503
179.500	168.551	80.003	19.993	103.821	20.084	3.843	0.508
180.000	168.800	80.003	19.993	103.819	20.084	3.811	0.513
180.500	169.071	80.003	19.993	103.815	20.082	4.004	0.520
181.000	169.296	80.004	19.994	103.816	20.083	3.917	0.509
181.500	169.558	80.005	19.994	103.817	20.085	3.758	0.491
182.000	169.791	80.003	19.993	103.820	20.080	4.143	0.490
182.500	170.086	80.003	19.993	103.823	20.080	4.177	0.512
183.000	170.312	80.002	19.993	103.826	20.082	4.011	0.525
183.500	170.527	80.003	19.993	103.824	20.082	3.962	0.481
184.000	170.771	80.003	19.995	103.820	20.085	3.771	0.450
184.500	171.043	80.007	19.992	103.814	20.082	4.021	0.487
185.000	171.290	80.004	19.994	103.811	20.084	3.826	0.517
185.500	171.538	80.004	19.994	103.812	20.079	4.249	0.507
186.000	171.815	80.004	19.994	103.812	20.079	4.240	0.510
186.500	172.024	80.003	19.993	103.811	20.080	4.184	0.505
187.000	172.284	80.004	19.993	103.814	20.077	4.402	0.477
187.500	172.544	80.004	19.994	103.813	20.082	3.985	0.494
188.000	172.787	80.006	19.993	103.810	20.085	3.772	0.511
188.500	173.034	80.003	19.995	103.808	20.081	4.080	0.497
189.000	173.282	80.005	19.992	103.807	20.085	3.779	0.492
189.500	173.501	80.003	19.993	103.804	20.082	3.997	0.481
190.000	173.754	80.004	19.993	103.805	20.081	4.059	0.469
190.500	174.021	80.006	19.993	103.803	20.084	3.804	0.496
191.000	174.231	80.005	19.993	103.802	20.081	4.044	0.499
191.500	174.549	80.004	19.992	103.801	20.081	4.059	0.502
192.000	174.757	80.003	19.994	103.800	20.080	4.161	0.527
192.500	174.970	80.006	19.993	103.797	20.082	3.959	0.474
193.000	175.232	80.007	19.992	103.798	20.080	4.147	0.448
193.500	175.487	80.005	19.994	103.800	20.081	4.066	0.496
194.000	175.736	80.006	19.995	103.800	20.081	4.094	0.511
194.500	175.975	80.007	19.992	103.801	20.081	4.104	0.496
195.000	176.199	80.004	19.993	103.800	20.081	4.043	0.475
195.500	176.425	80.005	19.991	103.799	20.081	4.047	0.457
196.000	176.707	80.004	19.992	103.798	20.077	4.357	0.479
196.500	176.912	80.004	19.992	103.797	20.077	4.361	0.498
197.000	177.191	80.004	19.992	103.795	20.077	4.413	0.485
197.500	177.448	80.006	19.993	103.778	20.078	4.334	0.510
198.000	177.687	80.007	19.993	103.755	20.076	4.462	0.516
198.500	177.956	80.007	19.993	103.739	20.078	4.326	0.502
199.000	178.180	80.006	19.992	103.731	20.078	4.271	0.500
199.500	178.444	80.007	19.992	103.727	20.078	4.317	0.491
200.000	178.667	80.005	19.994	103.744	20.080	4.166	0.488
200.500	178.932	80.004	19.993	103.766	20.078	4.281	0.488
201.000	179.206	80.006	19.992	103.782	20.077	4.400	0.513
201.500	179.415	80.006	19.993	103.784	20.078	4.300	0.511
202.000	179.685	80.005	19.992	103.789	20.082	3.996	0.481
202.500	179.893	80.005	19.993	103.789	20.081	4.038	0.479
203.000	180.181	80.006	19.994	103.790	20.079	4.191	0.487
203.500	180.438	80.003	19.990	103.790	20.082	3.962	0.520
204.000	180.678	80.005	19.994	103.797	20.081	4.079	0.521
204.500	180.908	80.006	19.992	103.797	20.082	3.992	0.483
205.000	181.175	80.003	19.995	103.799	20.082	3.998	0.484
205.500	181.401	80.003	19.990	103.798	20.080	4.166	0.495
206.000	181.669	80.006	19.991	103.799	20.081	4.104	0.493
206.500	181.878	80.005	19.992	103.799	20.081	4.095	0.486
207.000	182.117	80.003	19.993	103.800	20.082	4.002	0.463
207.500	182.391	80.006	19.993	103.799	20.081	4.095	0.480
208.000	182.640	80.005	19.991	103.800	20.082	3.966	0.518
208.500	182.869	80.004	19.994	103.802	20.080	4.136	0.500
209.000	183.128	80.005	19.993	103.805	20.080	4.178	0.483
209.500	183.383	80.003	19.993	103.807	20.081	4.032	0.501
210.000	183.640	80.004	19.994	103.810	20.083	3.925	0.513
210.500	183.856	80.005	19.992	103.810	20.087	3.575	0.493
211.000	184.093	80.004	19.992	103.807	20.083	3.924	0.463
211.500	184.289	80.005	19.994	103.803	20.082	4.007	0.442
212.000	184.612	80.006	19.993	103.801	20.082	4.017	0.476
212.500	184.832	80.005	19.993	103.797	20.082	4.001	0.532
213.000	185.100	80.005	19.992	103.797	20.081	4.081	0.516
213.500	185.323	80.006	19.994	103.796	20.081	4.102	0.489
214.000	185.631	80.004	19.993	103.797	20.082	4.009	0.511
214.500	185.867	80.007	19.993	103.798	20.086	3.715	0.538
215.000	186.090	80.005	19.992	103.798	20.083	3.890	0.501
215.500	186.349	80.003	19.994	103.797	20.084	3.800	0.470
216.000	186.597	80.009	19.993	103.795	20.083	3.894	0.495
216.500	186.872	80.005	19.995	103.794	20.081	4.055	0.516
217.000	187.127	80.005	19.993	103.792	20.084	3.860	0.526
217.500	187.409	80.005	19.993	103.791	20.079	4.223	0.533
218.000	187.634	80.007	19.995	103.790	20.082	3.979	0.522
218.500	187.846	80.005	19.993	103.791	20.081	4.096	0.472
219.000	188.103	80.007	19.993	103.790	20.080	4.143	0.453
219.500	188.318	80.006	19.995	103.791	20.083	3.901	0.471
220.000	188.594	80.006	19.993	103.791	20.082	3.992	0.482
220.500	188.791	80.003	19.995	103.791	20.083	3.882	0.482
221.000	189.036	80.007	19.993	103.792	20.084	3.801	0.457
221.500	189.308	80.006	19.994	103.795	20.083	3.937	0.479
222.000	189.569	80.005	19.994	103.798	20.084	3.798	0.525
222.500	189.818	80.003	19.995	103.801	20.086	3.658	0.522
223.000	190.020	80.008	19.992	103.805	20.084	3.824	0.481
223.500	190.313	80.005	19.996	103.809	20.086	3.718	0.473
224.000	190.547	80.007	19.992	103.808	20.084	3.847	0.511
224.500	190.819	80.004	19.994	103.806	20.084	3.854	0.516
225.000	191.044	80.006	19.994	103.804	20.084	3.854	0.502
225.500	191.319	80.009	19.992	103.801	20.086	3.694	0.499
226.000	191.540	79.999	19.996	103.797	20.083	3.884	0.498
226.500	191.778	79.991	19.994	103.796	20.083	3.892	0.477
227.000	192.036	80.008	19.994	103.796	20.082	3.999	0.478
227.500	192.311	80.001	19.994	103.798	20.085	3.767	0.515
228.000	192.476	80.003	19.992	103.800	20.087	3.637	0.487
228.500	192.810	80.003	19.993	103.802	20.086	3.703	0.469
229.000	193.054	80.004	19.993	103.807	20.082	3.972	0.538
229.500	193.252	80.002	19.994	103.811	20.088	3.549	0.510
230.000	193.547	80.003	19.995	103.815	20.082	3.994	0.468
230.500	193.742	80.004	19.993	103.819	20.085	3.783	0.492
231.000	193.971	80.003	19.994	103.817	20.085	3.736	0.457
231.500	194.244	80.003	19.995	103.813	20.086	3.671	0.463
232.000	194.481	80.002	19.995	103.808	20.085	3.760	0.506
232.500	194.723	80.004	19.993	103.804	20.086	3.698	0.495
233.000	194.994	80.003	19.993	103.803	20.085	3.777	0.496
233.500	195.234	80.005	19.993	103.807	20.083	3.943	0.512
234.000	195.479	80.003	19.995	103.808	20.084	3.849	0.497
234.500	195.742	80.004	19.995	103.809	20.083	3.932	0.496
235.000	195.953	80.002	19.995	103.807	20.084	3.832	0.491
235.500	196.204	80.003	19.993	103.805	20.086	3.715	0.468
236.000	196.451	80.003	19.994	103.807	20.087	3.632	0.480
236.500	196.718	80.003	19.995	103.809	20.084	3.862	0.506
237.000	196.986	80.001	19.996	103.811	20.082	3.970	0.525
237.500	197.213	80.002	19.994	103.816	20.081	4.104	0.515
238.000	197.437	80.004	19.995	103.816	20.083	3.885	0.473
238.500	197.711	80.004	19.994	103.810	20.081	4.089	0.474
239.000	197.939	80.004	19.993	103.807	20.087	3.613	0.500
239.500	198.218	80.002	19.995	103.804	20.084	3.873	0.504
240.000	198.432	80.005	19.994	103.799	20.081	4.100	0.500
240.500	198.689	80.001	19.995	103.796	20.083	3.921	0.482
241.000	198.937	80.003	19.995	103.796	20.083	3.949	0.488
241.500	199.185	80.002	19.996	103.795	20.085	3.747	0.500
242.000	199.433	80.002	19.994	103.795	20.082	3.979	0.496
242.500	199.721	80.002	19.994	103.795	20.082	3.974	0.517
243.000	199.896	80.003	19.995	103.794	20.085	3.740	0.499
243.500	200.165	80.005	19.995	103.794	20.083	3.944	0.453
244.000	200.424	80.006	19.994	103.795	20.088	3.546	0.486
244.500	200.622	80.000	19.996	103.794	20.086	3.657	0.493
245.000	200.878	80.005	19.995	103.793	20.086	3.714	0.456
245.500	201.120	80.001	19.995	103.793	20.086	3.653	0.476
246.000	201.396	80.003	19.995	103.792	20.084	3.849	0.508
246.500	201.645	80.004	19.996	103.792	20.083	3.932	0.521
247.000	201.865	80.000	19.996	103.791	20.084	3.825	0.497
247.500	202.084	80.003	19.995	103.792	20.085	3.749	0.454
248.000	202.357	80.002	19.995	103.791	20.086	3.706	0.466
248.500	202.646	80.002	19.995	103.791	20.084	3.848	0.527
249.000	202.855	80.002	19.994	103.791	20.084	3.810	0.530
249.500	203.124	80.005	19.994	103.793	20.082	3.976	0.488
250.000	203.371	80.003	19.995	103.795	20.083	3.882	0.497
250.500	203.604	80.002	19.994	103.797	20.084	3.844	0.498
251.000	203.847	80.002	19.994	103.798	20.082	3.955	0.478
251.500	204.086	80.003	19.994	103.798	20.087	3.621	0.479
252.000	204.314	80.005	19.993	103.798	20.085	3.755	0.475
252.500	204.608	80.001	19.993	103.798	20.084	3.848	0.495
253.000	204.845	80.004	19.992	103.796	20.085	3.795	0.526
253.500	205.077	80.002	19.994	103.789	20.081	4.057	0.500
254.000	205.317	80.002	19.994	103.781	20.086	3.683	0.470
254.500	205.556	80.004	19.993	103.775	20.083	3.925	0.475
255.000	205.795	80.005	19.993	103.769	20.082	3.991	0.479
255.500	206.070	80.003	19.993	103.764	20.084	3.862	0.497
256.000	206.315	80.004	19.994	103.767	20.081	4.104	0.517
256.500	206.542	80.004	19.992	103.775	20.082	3.966	0.496
257.000	206.822	80.002	19.993	103.782	20.082	3.989	0.489
257.500	207.055	80.002	19.994	103.785	20.084	3.855	0.510
258.000	207.323	80.003	19.994	103.786	20.083	3.927	0.507
258.500	207.604	80.001	19.994	103.789	20.084	3.800	0.525
259.000	207.821	80.001	19.992	103.787	20.082	3.969	0.523
259.500	208.127	80.005	19.994	103.779	20.084	3.799	0.510
260.000	208.316	80.003	19.993	103.777	20.083	3.948	0.509
260.500	208.538	80.000	19.994	103.781	20.085	3.786	0.454
261.000	208.811	80.001	19.993	103.779	20.081	4.048	0.453
261.500	209.055	80.003	19.993	103.774	20.084	3.820	0.506
262.000	209.313	80.001	19.995	103.777	20.083	3.890	0.510
262.500	209.541	80.007	19.992	103.777	20.079	4.198	0.494
263.000	209.787	80.006	19.993	103.772	20.085	3.737	0.480
263.500	210.029	80.003	19.992	103.776	20.084	3.801	0.481
264.000	210.285	80.003	19.992	103.779	20.085	3.779	0.493
264.500	210.552	80.004	19.992	103.778	20.084	3.799	0.510
265.001	210.765	80.002	19.994	103.780	20.083	3.907	0.502
265.500	211.047	80.004	19.992	103.785	20.086	3.642	0.487
266.000	211.298	80.002	19.992	103.784	20.086	3.648	0.514
266.500	211.501	80.002	19.998	103.787	20.087	3.616	0.494
267.000	211.788	80.003	19.997	103.793	20.087	3.599	0.472
267.500	212.000	80.003	19.994	103.793	20.085	3.787	0.494
268.000	212.241	80.003	19.992	103.792	20.088	3.501	0.476
268.500	212.496	80.005	19.993	103.791	20.084	3.798	0.475
269.000	212.707	80.005	19.993	103.786	20.089	3.482	0.481
269.500	212.980	80.005	19.993	103.779	20.088	3.533	0.476
270.000	213.209	80.004	19.993	103.773	20.087	3.580	0.493
270.500	213.472	80.006	19.994	103.768	20.089	3.470	0.497
271.000	213.700	80.006	19.993	103.762	20.087	3.595	0.491
271.500	213.979	80.008	19.993	103.765	20.086	3.702	0.499
272.000	214.216	80.004	19.993	103.766	20.084	3.861	0.512
272.500	214.460	80.004	19.993	103.765	20.088	3.487	0.499
273.000	214.719	80.002	19.994	103.760	20.085	3.751	0.492
273.500	214.953	80.008	19.994	103.754	20.083	3.931	0.498
274.000	215.243	80.005	19.993	103.747	20.087	3.617	0.508
274.500	215.411	80.005	19.993	103.746	20.086	3.681	0.491
275.000	215.711	80.004	19.992	103.747	20.086	3.679	0.463
275.500	215.935	80.005	19.993	103.752	20.081	4.051	0.496
276.000	216.200	80.004	19.994	103.755	20.087	3.592	0.506
276.500	216.417	80.005	19.994	103.757	20.085	3.738	0.486
277.000	216.643	80.005	19.993	103.753	20.088	3.530	0.463
277.500	216.892	80.006	19.994	103.748	20.087	3.586	0.459
278.000	217.176	80.006	19.994	103.743	20.089	3.475	0.504
278.500	217.407	80.007	19.993	103.737	20.083	3.911	0.524
279.000	217.666	80.006	19.993	103.736	20.086	3.641	0.503
279.500	217.956	80.003	19.993	103.740	20.084	3.804	0.520
280.000	218.202	80.005	19.993	103.744	20.083	3.938	0.542
280.500	218.427	80.000	19.993	103.751	20.089	3.409	0.503
281.000	218.731	80.004	19.993	103.757	20.086	3.668	0.500
281.500	218.923	80.003	19.993	103.763	20.084	3.815	0.512
282.000	219.192	80.003	19.993	103.771	20.086	3.645	0.479
282.500	219.407	80.004	19.994	103.775	20.088	3.539	0.473
283.000	219.649	80.002	19.997	103.778	20.091	3.318	0.471
283.500	219.900	80.003	19.996	103.784	20.087	3.620	0.475
284.000	220.162	80.006	19.993	103.783	20.090	3.330	0.503
284.500	220.421	80.002	19.994	103.781	20.088	3.494	0.517
285.000	220.623	80.003	19.996	103.782	20.087	3.598	0.491
285.500	220.863	79.998	19.994	103.785	20.087	3.588	0.452
286.000	221.124	79.994	19.995	103.786	20.085	3.773	0.472
286.500	221.393	80.010	19.992	103.787	20.087	3.583	0.516
287.000	221.598	80.006	19.994	103.792	20.090	3.403	0.502
287.500	221.829	79.997	19.992	103.792	20.087	3.615	0.455
288.000	222.080	80.004	19.989	103.793	20.089	3.460	0.459
288.500	222.382	80.005	19.993	103.795	20.085	3.724	0.518
289.000	222.648	80.005	19.996	103.796	20.087	3.605	0.560
289.500	222.853	80.007	19.994	103.794	20.086	3.707	0.519
290.000	223.116	80.016	19.993	103.797	20.089	3.447	0.469
290.500	223.396	80.003	19.992	103.796	20.086	3.683	0.506
291.000	223.601	80.004	19.993	103.796	20.085	3.734	0.514
291.500	223.887	80.005	19.994	103.795	20.084	3.826	0.488
292.000	224.139	80.008	19.993	103.793	20.087	3.577	0.515
292.500	224.362	80.006	19.990	103.793	20.086	3.643	0.507
293.001	224.589	80.005	19.993	103.794	20.085	3.751	0.463
293.500	224.840	80.008	19.989	103.794	20.087	3.632	0.464
294.000	225.123	80.004	19.992	103.794	20.085	3.764	0.506
294.500	225.382	80.004	19.992	103.795	20.093	3.145	0.538
295.000	225.612	80.007	19.994	103.794	20.091	3.324	0.515
295.500	225.874	80.004	19.989	103.794	20.090	3.405	0.491
296.000	226.126	80.012	19.991	103.794	20.092	3.186	0.503
296.500	226.376	80.006	19.996	103.795	20.091	3.269	0.508
297.000	226.653	80.008	19.995	103.794	20.089	3.481	0.515
297.500	226.886	80.006	19.993	103.793	20.089	3.439	0.518
298.000	227.108	80.003	19.997	103.794	20.090	3.339	0.483
298.500	227.429	80.008	19.989	103.793	20.087	3.566	0.499
299.000	227.635	80.002	19.993	103.792	20.089	3.449	0.535
299.500	227.865	80.007	19.993	103.793	20.088	3.547	0.481
300.000	228.128	80.008	19.990	103.794	20.088	3.500	0.464
300.500	228.376	80.005	19.991	103.794	20.093	3.131	0.502
301.000	228.680	80.010	19.992	103.796	20.088	3.532	0.532
301.500	228.886	80.004	19.994	103.795	20.088	3.532	0.531
302.000	229.130	80.005	19.992	103.795	20.090	3.328	0.480
302.500	229.396	80.006	19.993	103.794	20.091	3.311	0.480
303.000	229.667	80.006	19.994	103.792	20.092	3.182	0.524
303.500	229.915	80.004	19.995	103.790	20.091	3.252	0.528
304.000	230.162	80.004	19.994	103.789	20.091	3.301	0.507
304.500	230.382	80.004	19.993	103.789	20.091	3.322	0.481
305.000	230.632	80.004	19.994	103.790	20.090	3.354	0.469
305.500	230.964	80.006	19.990	103.791	20.094	3.067	0.526
306.000	231.169	80.004	19.993	103.789	20.091	3.273	0.559
306.500	231.465	80.006	19.990	103.790	20.094	3.035	0.519
307.000	231.692	80.013	19.988	103.791	20.089	3.411	0.512
307.500	231.938	80.006	19.992	103.792	20.092	3.231	0.498
308.000	232.182	79.998	19.998	103.793	20.087	3.573	0.481
308.500	232.403	79.999	19.996	103.794	20.091	3.297	0.478
309.000	232.680	79.999	19.998	103.791	20.091	3.265	0.482
309.500	232.973	80.011	19.989	103.789	20.087	3.575	0.534
310.000	233.211	80.001	19.992	103.789	20.089	3.458	0.551
310.500	233.459	80.000	19.998	103.789	20.089	3.413	0.509
311.000	233.697	80.005	19.992	103.788	20.091	3.280	0.486
311.500	233.978	80.009	19.995	103.789	20.088	3.509	0.502
312.000	234.257	80.018	19.992	103.790	20.091	3.288	0.540
312.500	234.486	80.004	19.990	103.792	20.090	3.330	0.535
313.000	234.742	80.008	19.993	103.793	20.087	3.579	0.496
313.500	234.975	80.000	19.997	103.797	20.091	3.299	0.487
314.000	235.237	79.998	19.991	103.799	20.093	3.141	0.492
314.500	235.531	80.006	19.992	103.800	20.091	3.288	0.526
315.000	235.723	79.991	19.999	103.797	20.092	3.177	0.521
315.500	235.999	79.997	19.998	103.795	20.093	3.139	0.477
316.000	236.251	80.009	19.991	103.793	20.093	3.156	0.498
316.500	236.487	80.003	19.991	103.793	20.089	3.447	0.508
317.000	236.752	80.001	19.989	103.794	20.090	3.390	0.495
317.500	236.984	80.010	19.992	103.795	20.087	3.577	0.499
318.000	237.284	80.008	19.994	103.797	20.089	3.473	0.514
318.500	237.508	80.005	20.001	103.798	20.089	3.433	0.528
319.000	237.779	80.010	19.989	103.796	20.090	3.386	0.509
319.500	238.013	80.006	19.992	103.797	20.088	3.500	0.500
320.000	238.272	80.004	19.988	103.794	20.090	3.330	0.499
320.500	238.514	80.015	19.991	103.793	20.091	3.273	0.497
321.000	238.754	80.001	19.991	103.794	20.089	3.447	0.492
321.500	239.019	80.009	19.993	103.797	20.090	3.396	0.494
322.000	239.229	80.003	19.991	103.796	20.091	3.322	0.490
322.500	239.496	80.007	19.993	103.798	20.090	3.351	0.476
323.000	239.726	80.001	19.990	103.799	20.088	3.543	0.487
323.500	239.959	79.996	19.992	103.794	20.086	3.710	0.480
324.000	240.235	79.992	19.995	103.794	20.088	3.557	0.486
324.500	240.468	80.003	19.993	103.792	20.090	3.347	0.509
325.000	240.778	80.010	19.993	103.792	20.093	3.160	0.526
325.500	240.965	79.993	19.995	103.794	20.088	3.515	0.520
326.000	241.226	80.003	19.996	103.793	20.089	3.481	0.472
326.500	241.491	80.006	19.994	103.792	20.092	3.237	0.487
327.000	241.703	79.995	19.994	103.792	20.091	3.271	0.502
327.500	241.948	80.011	19.993	103.791	20.088	3.507	0.467
328.000	242.178	80.000	19.995	103.791	20.089	3.464	0.466
328.500	242.474	80.002	19.991	103.792	20.092	3.248	0.500
329.000	242.726	80.021	19.989	103.794	20.092	3.241	0.537
329.500	243.004	80.003	19.995	103.798	20.091	3.307	0.539
330.000	243.200	80.005	19.994	103.797	20.088	3.496	0.503
330.500	243.439	80.001	19.994	103.792	20.093	3.120	0.455
331.000	243.679	80.000	19.994	103.792	20.091	3.307	0.457
331.500	243.911	80.003	19.996	103.790	20.093	3.133	0.475
332.000	244.182	80.006	19.992	103.786	20.090	3.368	0.487
332.500	244.413	80.003	19.994	103.785	20.090	3.383	0.503
333.001	244.705	80.000	19.994	103.784	20.090	3.336	0.512
333.500	244.945	80.002	19.994	103.780	20.088	3.512	0.527
334.000	245.196	80.001	19.995	103.782	20.090	3.341	0.511
334.500	245.384	80.004	19.996	103.778	20.091	3.249	0.465
335.000	245.681	79.999	19.995	103.779	20.090	3.330	0.462
335.500	245.897	80.006	19.993	103.782	20.093	3.107	0.499
336.000	246.136	80.001	19.995	103.786	20.091	3.271	0.484
336.500	246.419	79.999	19.995	103.784	20.090	3.358	0.489
337.000	246.679	79.998	19.993	103.786	20.092	3.237	0.532
337.500	246.889	80.001	19.996	103.789	20.092	3.179	0.506
338.000	247.157	80.004	19.995	103.790	20.092	3.213	0.474
338.500	247.409	80.003	19.996	103.789	20.093	3.166	0.499
339.000	247.665	80.002	19.994	103.789	20.090	3.358	0.514
339.500	247.883	80.003	19.994	103.792	20.090	3.379	0.491
340.000	248.122	80.001	19.995	103.791	20.091	3.324	0.465
340.500	248.380	80.003	19.993	103.792	20.091	3.262	0.477
341.000	248.643	80.005	19.993	103.795	20.090	3.349	0.509
341.500	248.871	80.005	19.995	103.794	20.091	3.319	0.506
342.000	249.113	79.992	19.998	103.793	20.090	3.368	0.480
342.500	249.416	79.998	19.997	103.786	20.092	3.173	0.508
343.000	249.637	80.000	19.994	103.779	20.090	3.337	0.534
343.500	249.885	79.994	19.996	103.773	20.090	3.332	0.497
344.000	250.153	80.001	19.996	103.772	20.092	3.224	0.493
344.500	250.413	80.015	19.993	103.769	20.092	3.228	0.522
345.000	250.655	79.999	19.996	103.777	20.088	3.504	0.515
345.500	250.929	80.010	19.992	103.782	20.089	3.417	0.509
346.000	251.181	80.001	19.994	103.788	20.089	3.409	0.521
346.500	251.401	80.012	19.995	103.789	20.086	3.687	0.499
347.000	251.616	80.006	19.994	103.787	20.087	3.574	0.454
347.500	251.884	80.003	19.996	103.781	20.089	3.464	0.460
348.000	252.096	80.000	19.995	103.781	20.088	3.534	0.482
348.500	252.369	80.002	19.994	103.775	20.086	3.708	0.483
349.001	252.654	80.003	19.996	103.778	20.086	3.699	0.521
349.500	252.872	80.004	19.995	103.783	20.085	3.732	0.530
350.000	253.156	80.002	19.994	103.788	20.085	3.778	0.502
350.500	253.413	80.002	19.993	103.789	20.087	3.581	0.521
351.000	253.600	80.013	19.995	103.791	20.085	3.785	0.493
351.500	253.876	80.007	19.994	103.786	20.088	3.553	0.454
352.000	254.076	80.005	19.994	103.783	20.087	3.587	0.470
352.500	254.312	80.018	19.993	103.779	20.086	3.644	0.456
353.000	254.580	80.007	19.994	103.778	20.086	3.661	0.470
353.500	254.811	80.002	19.993	103.780	20.087	3.621	0.502
354.000	255.079	79.999	19.995	103.785	20.088	3.519	0.499
354.500	255.323	80.008	19.993	103.784	20.090	3.395	0.506
355.000	255.558	80.001	19.991	103.784	20.090	3.393	0.496
355.500	255.851	79.996	19.998	103.780	20.086	3.714	0.503
356.000	256.015	80.006	19.998	103.776	20.086	3.640	0.492
356.500	256.276	80.005	19.994	103.772	20.089	3.474	0.441
357.000	256.564	79.999	19.995	103.777	20.087	3.613	0.487
357.500	256.815	79.991	19.995	103.777	20.086	3.657	0.544
358.000	257.055	80.007	19.994	103.774	20.089	3.432	0.515
358.500	257.289	80.003	19.996	103.772	20.084	3.834	0.483
359.000	257.538	80.011	19.989	103.770	20.087	3.634	0.478
359.500	257.774	80.001	19.992	103.768	20.086	3.666	0.484
360.000	258.030	80.009	19.991	103.768	20.086	3.709	0.489
360.500	258.237	80.003	19.991	103.777	20.084	3.832	0.478
361.000	258.530	80.002	19.992	103.781	20.084	3.832	0.481
361.500	258.743	79.999	19.997	103.782	20.084	3.819	0.503
362.000	259.005	80.007	19.995	103.782	20.088	3.559	0.490
362.500	259.236	80.001	19.993	103.781	20.080	4.176	0.484
363.000	259.494	80.000	19.995	103.775	20.083	3.925	0.491
363.500	259.718	79.995	19.998	103.771	20.082	3.969	0.485
364.000	259.983	80.006	19.990	103.770	20.081	4.069	0.486
364.500	260.179	79.998	19.996	103.766	20.082	4.020	0.475
365.000	260.462	79.994	19.994	103.762	20.082	3.995	0.470
365.500	260.716	80.005	19.994	103.758	20.082	3.969	0.508
366.000	260.960	79.997	19.993	103.761	20.084	3.831	0.517
366.500	261.205	80.003	19.993	103.764	20.086	3.653	0.494
367.000	261.447	80.009	19.995	103.770	20.085	3.793	0.488
367.500	261.666	79.998	19.995	103.775	20.085	3.751	0.474
368.000	261.933	80.016	19.994	103.778	20.086	3.687	0.474
368.500	262.205	80.018	19.995	103.777	20.082	4.013	0.512
369.000	262.437	80.006	19.994	103.778	20.085	3.740	0.522
369.500	262.673	79.994	19.991	103.781	20.082	4.017	0.486
370.000	262.943	79.981	20.002	103.786	20.083	3.876	0.487
370.500	263.177	80.001	19.995	103.790	20.083	3.951	0.505
371.000	263.414	80.011	19.992	103.792	20.084	3.817	0.488
371.500	263.714	80.003	19.994	103.794	20.084	3.825	0.504
372.001	263.935	80.006	19.993	103.788	20.082	3.968	0.529
372.500	264.197	80.006	19.993	103.781	20.084	3.842	0.502
373.000	264.430	79.996	19.986	103.779	20.085	3.777	0.489
373.501	264.684	80.008	19.990	103.775	20.086	3.683	0.491
374.000	264.925	80.003	19.990	103.774	20.080	4.159	0.491
374.500	265.124	79.998	19.993	103.776	20.081	4.100	0.468
375.000	265.394	80.008	19.996	103.776	20.080	4.176	0.455
375.500	265.654	80.003	19.991	103.771	20.079	4.221	0.499
376.000	265.858	79.998	19.992	103.770	20.080	4.110	0.497
376.500	266.084	80.005	19.992	103.769	20.082	4.021	0.447
377.000	266.381	80.008	19.992	103.769	20.082	4.006	0.477
377.500	266.598	80.002	19.993	103.772	20.080	4.142	0.519
378.000	266.847	80.006	19.994	103.780	20.079	4.189	0.490
378.500	267.146	80.006	19.993	103.785	20.086	3.674	0.507
379.000	267.379	80.003	19.993	103.786	20.083	3.914	0.540
379.500	267.625	80.005	19.994	103.789	20.084	3.819	0.505
380.000	267.875	80.002	19.994	103.789	20.079	4.199	0.488
380.500	268.113	80.006	19.996	103.787	20.081	4.053	0.492
381.000	268.389	79.997	19.990	103.786	20.083	3.878	0.501
381.500	268.639	80.013	19.990	103.783	20.081	4.099	0.520
382.000	268.855	80.009	19.992	103.787	20.083	3.895	0.496
382.500	269.098	80.013	19.995	103.786	20.084	3.806	0.462
383.000	269.389	80.010	19.992	103.787	20.083	3.912	0.496
383.500	269.601	80.004	19.991	103.787	20.082	3.963	0.519
384.001	269.871	80.000	19.994	103.790	20.083	3.897	0.493
384.501	270.114	80.003	19.988	103.786	20.082	3.965	0.498
385.000	270.382	80.005	19.995	103.789	20.082	4.027	0.512
385.500	270.664	80.001	19.994	103.788	20.085	3.753	0.531
386.000	270.924	79.995	19.995	103.787	20.085	3.789	0.546
386.500	271.187	80.001	19.997	103.788	20.085	3.778	0.533
387.000	271.398	80.007	19.992	103.788	20.082	4.016	0.498
387.500	271.685	80.003	19.991	103.785	20.081	4.033	0.486
388.000	271.914	80.000	19.995	103.784	20.081	4.038	0.506
388.500	272.144	80.006	19.991	103.783	20.081	4.093	0.487
389.000	272.399	80.002	19.995	103.780	20.080	4.178	0.472
389.500	272.666	80.009	19.993	103.781	20.083	3.900	0.503
390.000	272.899	80.004	19.994	103.781	20.081	4.042	0.511
390.500	273.152	80.000	19.992	103.781	20.081	4.038	0.493
391.000	273.430	80.002	19.993	103.781	20.078	4.299	0.509
391.500	273.659	79.997	19.995	103.780	20.081	4.080	0.519
392.000	273.940	79.998	19.991	103.773	20.081	4.046	0.509
392.500	274.155	80.008	19.997	103.769	20.081	4.095	0.503
393.000	274.415	80.004	19.992	103.768	20.082	4.027	0.485
393.500	274.664	80.006	19.992	103.770	20.081	4.050	0.492
394.000	274.915	79.992	19.996	103.769	20.081	4.041	0.505
394.500	275.212	79.995	19.993	103.767	20.080	4.143	0.524
395.000	275.419	80.002	19.993	103.769	20.084	3.848	0.526
395.500	275.694	80.008	19.991	103.771	20.079	4.205	0.493
396.000	275.951	79.998	19.996	103.772	20.083	3.914	0.507
396.500	276.177	80.002	19.995	103.774	20.082	3.988	0.507
397.000	276.477	80.002	19.992	103.780	20.086	3.650	0.504
397.500	276.708	79.997	19.995	103.781	20.084	3.869	0.529
398.000	276.966	80.007	19.993	103.782	20.079	4.245	0.510
398.500	277.225	79.994	19.994	103.782	20.082	3.976	0.503
399.000	277.450	79.989	19.994	103.778	20.085	3.791	0.500
399.501	277.745	80.004	19.994	103.778	20.082	4.023	0.502
400.001	277.987	79.999	19.994	103.780	20.084	3.836	0.528
400.500	278.222	80.012	19.996	103.780	20.086	3.702	0.506
401.000	278.440	79.999	19.985	103.774	20.083	3.925	0.465
401.500	278.692	80.006	19.995	103.779	20.080	4.141	0.462
402.000	278.944	79.997	19.994	103.777	20.085	3.733	0.487
402.500	279.217	80.000	19.994	103.777	20.081	4.033	0.514
403.000	279.467	80.003	19.995	103.775	20.084	3.825	0.524
403.500	279.687	80.000	19.994	103.779	20.085	3.782	0.496
404.000	279.989	80.004	19.993	103.775	20.083	3.944	0.496
404.500	280.220	80.001	19.995	103.773	20.084	3.833	0.528
405.000	280.468	79.979	19.996	103.769	20.086	3.682	0.506
405.500	280.692	80.006	19.995	103.766	20.083	3.948	0.475
406.000	280.978	80.007	19.994	103.761	20.082	3.952	0.491
406.500	281.222	79.999	19.991	103.759	20.082	3.996	0.520
407.000	281.461	80.006	19.992	103.760	20.079	4.226	0.506
407.500	281.713	80.000	19.997	103.763	20.082	3.967	0.487
408.000	281.971	79.995	19.996	103.763	20.082	3.967	0.501
408.500	282.219	79.995	19.995	103.765	20.083	3.880	0.508
409.000	282.533	80.008	19.992	103.770	20.082	4.026	0.534
409.500	282.778	80.003	19.988	103.776	20.079	4.260	0.560
410.000	282.995	79.989	19.993	103.774	20.081	4.061	0.510
410.500	283.304	80.002	19.993	103.778	20.081	4.040	0.494
411.000	283.540	79.998	19.986	103.777	20.078	4.341	0.536
411.500	283.763	79.998	20.000	103.777	20.081	4.086	0.502
412.000	284.013	80.003	19.997	103.770	20.082	4.020	0.465
412.500	284.264	79.993	19.998	103.769	20.080	4.135	0.486
413.000	284.515	80.022	19.994	103.766	20.084	3.863	0.502
413.500	284.804	80.003	19.993	103.770	20.081	4.051	0.521
414.000	285.028	80.010	19.994	103.767	20.081	4.086	0.526
414.500	285.268	80.021	19.991	103.771	20.084	3.856	0.488
415.000	285.519	80.007	19.998	103.776	20.082	4.024	0.478
415.500	285.760	79.994	19.992	103.776	20.078	4.284	0.492
416.000	286.002	79.987	19.997	103.771	20.080	4.160	0.487
416.500	286.289	79.995	19.996	103.768	20.083	3.926	0.506
417.000	286.546	80.008	19.994	103.764	20.078	4.334	0.537
417.500	286.784	80.012	19.994	103.756	20.080	4.130	0.520
418.000	287.031	79.993	19.995	103.759	20.080	4.168	0.490
418.500	287.302	79.994	19.994	103.758	20.085	3.739	0.501
419.000	287.541	80.014	19.993	103.759	20.083	3.890	0.514
419.500	287.833	79.992	19.991	103.760	20.080	4.150	0.520
420.000	288.076	80.006	19.995	103.764	20.080	4.186	0.533
420.500	288.296	80.019	19.990	103.767	20.078	4.311	0.499
421.000	288.556	80.002	19.991	103.772	20.081	4.043	0.472
421.500	288.830	79.993	19.995	103.777	20.082	3.988	0.507
422.000	289.070	79.986	19.996	103.778	20.078	4.311	0.524
422.500	289.269	79.986	19.995	103.772	20.077	4.366	0.476
423.000	289.543	79.997	19.998	103.766	20.081	4.096	0.456
423.500	289.820	79.987	19.994	103.760	20.079	4.205	0.512
424.000	290.059	80.002	19.996	103.756	20.078	4.279	0.534
424.500	290.284	80.028	19.988	103.754	20.079	4.222	0.490
425.000	290.536	80.001	19.996	103.761	20.082	3.982	0.471
425.500	290.808	79.988	20.001	103.765	20.084	3.835	0.500
426.000	291.036	80.009	19.995	103.763	20.077	4.407	0.511
426.500	291.346	79.981	19.995	103.765	20.081	4.103	0.519
427.000	291.613	80.000	19.999	103.765	20.081	4.086	0.558
427.500	291.867	80.004	19.993	103.759	20.080	4.135	0.549
428.000	292.062	80.003	19.995	103.757	20.082	3.978	0.485
428.500	292.336	80.011	19.996	103.760	20.081	4.084	0.459
429.000	292.569	80.008	19.992	103.756	20.082	3.961	0.488
429.500	292.823	79.998	19.995	103.759	20.087	3.610	0.497
430.000	293.092	79.996	19.993	103.761	20.083	3.899	0.505
430.500	293.348	80.008	19.997	103.763	20.079	4.249	0.524
431.000	293.621	79.992	20.001	103.762	20.083	3.920	0.527
431.500	293.857	79.999	19.994	103.759	20.081	4.037	0.519
432.000	294.115	80.006	19.991	103.757	20.081	4.090	0.502
432.500	294.354	80.005	20.000	103.759	20.078	4.296	0.495
433.000	294.628	80.007	19.996	103.759	20.082	4.005	0.505
433.500	294.839	80.005	19.995	103.761	20.080	4.135	0.499
434.000	295.102	79.997	19.995	103.761	20.082	3.967	0.480
434.500	295.349	79.988	20.004	103.763	20.080	4.173	0.492
435.000	295.578	80.005	19.991	103.762	20.078	4.324	0.493
435.500	295.872	80.011	19.989	103.762	20.076	4.447	0.499
436.000	296.130	80.002	19.993	103.765	20.080	4.122	0.538
436.500	296.355	79.996	19.994	103.771	20.079	4.216	0.517
437.000	296.597	79.999	19.998	103.771	20.079	4.246	0.475
437.500	296.803	80.013	19.990	103.766	20.077	4.361	0.457
438.000	297.084	80.018	19.991	103.770	20.079	4.262	0.467
438.500	297.321	80.002	19.991	103.768	20.080	4.177	0.503
439.000	297.613	80.002	19.993	103.766	20.077	4.345	0.524
439.500	297.871	80.022	19.991	103.765	20.079	4.230	0.540
440.000	298.136	80.002	19.990	103.770	20.079	4.241	0.536
440.500	298.367	80.016	19.992	103.767	20.081	4.077	0.509
441.000	298.612	80.007	19.994	103.766	20.079	4.205	0.486
441.500	298.861	79.993	19.995	103.764	20.079	4.228	0.485
442.000	299.078	80.000	19.994	103.764	20.080	4.177	0.480
442.500	299.325	79.987	19.994	103.767	20.081	4.058	0.465
443.000	299.602	80.002	19.994	103.766	20.081	4.092	0.494
443.500	299.875	80.009	19.992	103.763	20.078	4.313	0.537
444.000	300.102	80.003	19.993	103.765	20.078	4.290	0.525
444.500	300.361	80.000	19.995	103.764	20.083	3.890	0.493
445.000	300.634	80.004	19.993	103.759	20.079	4.190	0.509
445.500	300.850	80.011	19.992	103.757	20.080	4.156	0.511
446.000	301.117	80.012	19.989	103.762	20.079	4.224	0.486
446.500	301.342	80.010	19.990	103.767	20.081	4.094	0.488
447.000	301.628	80.006	19.992	103.772	20.083	3.929	0.502
447.500	301.836	79.996	19.992	103.776	20.081	4.103	0.502
448.000	302.108	80.019	19.992	103.778	20.079	4.201	0.487
448.500	302.317	79.981	19.996	103.778	20.079	4.233	0.481
449.000	302.596	80.004	19.994	103.769	20.081	4.095	0.485
449.500	302.829	79.996	19.996	103.763	20.080	4.161	0.500
450.000	303.102	80.001	19.990	103.760	20.081	4.090	0.509
450.500	303.327	79.988	19.994	103.760	20.078	4.275	0.502
451.000	303.601	80.007	19.990	103.754	20.079	4.245	0.498
451.500	303.830	79.999	19.993	103.760	20.081	4.043	0.501
452.000	304.104	80.001	19.992	103.761	20.080	4.158	0.503
452.500	304.385	80.016	19.990	103.763	20.080	4.113	0.529
453.000	304.596	80.003	19.993	103.764	20.080	4.126	0.524
453.500	304.874	80.013	19.996	103.769	20.081	4.107	0.491
454.000	305.058	80.001	19.995	103.768	20.083	3.897	0.475
454.500	305.360	80.002	19.996	103.767	20.082	3.986	0.474
455.000	305.598	80.000	19.992	103.765	20.080	4.113	0.513
455.500	305.834	79.982	19.997	103.762	20.078	4.326	0.507
456.001	306.091	80.008	19.994	103.758	20.079	4.239	0.483
456.500	306.370	80.009	19.995	103.756	20.077	4.409	0.514
457.000	306.628	79.998	19.994	103.757	20.078	4.300	0.537
457.500	306.914	80.007	19.989	103.758	20.074	4.649	0.541
458.000	307.133	80.007	19.993	103.767	20.076	4.447	0.524
458.500	307.396	80.008	19.994	103.774	20.074	4.645	0.493
459.000	307.612	80.017	19.991	103.774	20.078	4.277	0.481
459.500	307.875	80.006	19.993	103.777	20.079	4.209	0.479
460.000	308.112	80.003	19.995	103.777	20.079	4.254	0.489
460.500	308.358	80.004	19.993	103.770	20.074	4.611	0.491
461.000	308.614	80.014	19.988	103.766	20.079	4.247	0.492
461.500	308.855	80.006	19.987	103.768	20.080	4.166	0.499
462.000	309.148	80.009	19.993	103.764	20.075	4.559	0.516
462.500	309.361	79.998	19.991	103.764	20.075	4.509	0.520
463.000	309.617	80.006	19.997	103.763	20.075	4.513	0.487
463.500	309.877	80.003	19.994	103.761	20.079	4.258	0.492
464.000	310.086	79.997	19.994	103.759	20.076	4.496	0.493
464.500	310.349	79.992	19.994	103.759	20.075	4.555	0.471
465.000	310.625	80.004	19.997	103.760	20.074	4.625	0.506
465.500	310.835	79.999	19.996	103.759	20.076	4.474	0.512
466.000	311.106	80.002	19.992	103.756	20.078	4.319	0.483
466.500	311.362	80.008	19.994	103.756	20.077	4.355	0.504
467.000	311.605	80.000	19.995	103.757	20.079	4.215	0.513
467.500	311.871	80.015	19.991	103.756	20.077	4.362	0.504
468.000	312.089	80.012	19.991	103.759	20.077	4.407	0.497
468.500	312.381	80.011	19.990	103.764	20.075	4.577	0.497
469.000	312.593	80.007	19.993	103.770	20.075	4.511	0.506
469.500	312.875	80.003	19.994	103.773	20.076	4.490	0.499
470.000	313.100	80.004	19.993	103.772	20.070	4.949	0.501
470.500	313.363	80.005	19.994	103.769	20.078	4.335	0.498
471.000	313.594	80.009	19.993	103.767	20.075	4.564	0.491
471.500	313.826	79.997	19.993	103.761	20.077	4.365	0.478
472.000	314.112	80.003	19.992	103.756	20.074	4.605	0.490
472.500	314.324	80.005	19.995	103.757	20.075	4.552	0.508
473.000	314.599	80.002	19.991	103.759	20.073	4.686	0.493
473.500	314.819	80.009	19.995	103.759	20.075	4.543	0.491
474.000	315.118	79.999	19.989	103.759	20.075	4.549	0.507
474.500	315.316	79.997	19.996	103.762	20.073	4.675	0.508
475.000	315.584	80.006	19.991	103.760	20.078	4.292	0.482
475.500	315.808	80.000	19.994	103.759	20.077	4.375	0.479
476.000	316.022	80.000	19.995	103.757	20.076	4.492	0.465
476.500	316.321	80.004	19.991	103.754	20.073	4.683	0.475
477.000	316.530	80.008	19.993	103.751	20.073	4.671	0.511
477.500	316.804	80.020	19.992	103.753	20.073	4.709	0.496
478.000	317.043	80.002	19.996	103.755	20.074	4.579	0.498
478.500	317.326	80.003	19.989	103.757	20.073	4.675	0.517
479.000	317.547	80.007	19.990	103.762	20.072	4.759	0.513
479.500	317.801	80.005	19.992	103.766	20.071	4.887	0.489
480.000	318.059	80.008	19.991	103.767	20.071	4.819	0.493
480.500	318.315	80.006	19.989	103.766	20.071	4.834	0.513
481.000	318.562	80.001	19.988	103.768	20.072	4.764	0.509
481.500	318.762	79.990	19.995	103.768	20.068	5.089	0.474
482.000	319.045	80.018	19.989	103.767	20.068	5.114	0.465
482.500	319.344	80.004	19.991	103.775	20.070	4.923	0.532
483.000	319.536	80.004	19.999	103.779	20.069	4.969	0.537
483.500	319.784	80.003	19.992	103.781	20.072	4.793	0.466
484.000	320.021	79.988	19.989	103.780	20.073	4.730	0.463
484.500	320.282	80.010	19.992	103.779	20.072	4.789	0.491
485.000	320.546	80.003	19.996	103.771	20.073	4.709	0.512
485.500	320.788	80.017	19.991	103.766	20.071	4.883	0.516
486.000	321.060	80.007	19.989	103.765	20.072	4.774	0.510
486.500	321.289	80.013	19.994	103.768	20.073	4.732	0.508
487.000	321.499	80.014	19.993	103.773	20.072	4.774	0.470
487.500	321.824	79.993	19.995	103.774	20.070	4.929	0.487
488.000	322.043	80.000	19.994	103.776	20.073	4.674	0.539
488.500	322.322	79.990	19.995	103.774	20.072	4.768	0.521
489.000	322.561	80.010	19.993	103.771	20.071	4.876	0.508
489.500	322.811	80.006	19.999	103.767	20.068	5.082	0.503
490.000	323.086	80.015	19.997	103.762	20.070	4.904	0.507
490.500	323.320	80.012	19.988	103.760	20.069	4.987	0.517
491.000	323.507	79.995	19.993	103.764	20.071	4.817	0.465
491.500	323.812	80.010	19.988	103.762	20.068	5.081	0.457
492.000	324.018	80.008	19.994	103.760	20.069	5.027	0.502
492.500	324.307	80.000	19.999	103.763	20.068	5.074	0.503
493.000	324.497	79.994	19.998	103.763	20.069	4.983	0.487
493.500	324.771	79.995	19.993	103.757	20.073	4.728	0.471
494.000	325.045	80.005	19.993	103.757	20.069	5.021	0.506
494.500	325.255	79.992	19.995	103.761	20.067	5.145	0.516
495.000	325.523	80.003	19.996	103.761	20.068	5.106	0.481
495.500	325.771	80.000	19.994	103.763	20.066	5.255	0.497
496.000	326.038	79.975	20.001	103.766	20.069	4.974	0.516
496.500	326.248	79.995	19.993	103.769	20.069	5.036	0.496
497.000	326.554	79.996	19.994	103.763	20.068	5.110	0.496
497.500	326.801	80.005	19.991	103.762	20.067	5.178	0.534
498.000	327.042	80.006	19.991	103.757	20.068	5.048	0.521
498.500	327.301	79.996	19.995	103.758	20.067	5.153	0.495
499.000	327.562	80.012	19.992	103.755	20.069	5.006	0.510
499.500	327.777	80.001	19.995	103.760	20.069	5.000	0.498
500.000	328.030	80.001	19.999	103.759	20.065	5.293	0.471
500.500	328.340	80.002	19.992	103.760	20.066	5.240	0.516
501.000	328.555	79.998	19.993	103.764	20.066	5.246	0.544
501.500	328.838	80.006	19.994	103.767	20.068	5.055	0.511
502.000	329.056	80.009	19.996	103.766	20.066	5.236	0.499
502.500	329.318	80.002	19.996	103.770	20.069	5.025	0.491
503.000	329.575	80.012	19.994	103.767	20.069	5.042	0.499
503.500	329.791	80.007	19.992	103.765	20.067	5.164	0.496
504.000	330.090	80.011	19.993	103.766	20.064	5.397	0.494
504.500	330.349	80.003	19.992	103.769	20.070	4.949	0.536
505.000	330.564	80.007	19.991	103.773	20.064	5.389	0.516
505.500	330.825	80.003	19.993	103.781	20.065	5.306	0.475
506.000	331.102	80.002	19.993	103.778	20.065	5.316	0.507
506.500	331.314	80.004	19.997	103.776	20.068	5.123	0.513
507.000	331.566	80.002	19.993	103.771	20.067	5.201	0.477
507.500	331.812	79.999	19.997	103.768	20.065	5.329	0.481
508.001	332.091	80.005	19.992	103.761	20.067	5.159	0.512
508.500	332.330	80.003	19.992	103.766	20.063	5.512	0.521
509.000	332.598	80.006	19.996	103.764	20.068	5.074	0.512
509.500	332.807	80.005	19.996	103.765	20.065	5.308	0.492
510.000	333.107	80.000	19.994	103.761	20.065	5.299	0.493
510.500	333.385	80.002	19.990	103.764	20.063	5.482	0.543
511.000	333.612	80.006	19.992	103.764	20.066	5.253	0.542
511.500	333.824	80.004	19.997	103.766	20.065	5.342	0.473
512.000	334.115	80.005	19.994	103.766	20.065	5.325	0.471
512.500	334.343	79.998	19.998	103.769	20.069	5.026	0.511
513.000	334.639	80.005	19.990	103.770	20.063	5.455	0.521
513.500	334.891	80.006	19.993	103.770	20.064	5.389	0.536
514.000	335.137	79.996	19.994	103.770	20.064	5.414	0.523
514.500	335.367	79.997	19.994	103.773	20.067	5.138	0.487
515.000	335.638	80.000	19.997	103.772	20.066	5.261	0.488
515.500	335.903	80.008	19.992	103.770	20.065	5.310	0.519
516.000	336.149	80.005	19.991	103.767	20.062	5.571	0.524
516.500	336.420	80.001	19.995	103.767	20.065	5.322	0.514
517.000	336.655	80.012	19.986	103.763	20.065	5.294	0.512
517.500	336.948	80.006	19.991	103.764	20.065	5.337	0.517
518.000	337.162	80.003	19.996	103.765	20.065	5.350	0.517
518.500	337.405	79.990	19.997	103.766	20.062	5.535	0.482
519.000	337.631	80.002	19.997	103.764	20.063	5.488	0.463
519.500	337.907	80.018	19.993	103.764	20.061	5.599	0.486
520.000	338.164	79.992	19.997	103.763	20.059	5.824	0.517
520.500	338.422	79.990	20.002	103.766	20.062	5.552	0.524
521.000	338.673	80.011	19.991	103.762	20.059	5.793	0.512
521.500	338.910	80.009	19.995	103.770	20.059	5.807	0.498
522.000	339.227	80.012	19.987	103.774	20.061	5.635	0.521
522.500	339.428	80.003	19.993	103.778	20.063	5.470	0.536
523.000	339.696	80.014	19.989	103.773	20.063	5.474	0.493
523.500	339.943	80.007	19.988	103.777	20.062	5.584	0.492
524.000	340.182	79.999	19.993	103.774	20.063	5.497	0.501
524.500	340.476	80.005	19.993	103.770	20.060	5.703	0.510
525.000	340.703	80.002	19.992	103.766	20.063	5.465	0.527
525.500	340.952	79.997	19.993	103.769	20.059	5.797	0.498
526.000	341.221	80.009	19.995	103.766	20.062	5.554	0.497
526.500	341.479	80.009	19.994	103.763	20.062	5.548	0.523
527.000	341.707	79.996	19.991	103.762	20.061	5.629	0.507
527.500	341.976	79.991	19.999	103.762	20.060	5.690	0.492
528.000	342.183	79.998	19.993	103.756	20.061	5.601	0.487
528.500	342.508	80.007	19.997	103.752	20.059	5.781	0.504
529.000	342.751	79.995	19.997	103.752	20.061	5.597	0.550
529.500	342.990	80.003	19.995	103.757	20.067	5.133	0.524
530.000	343.223	80.005	19.994	103.761	20.061	5.599	0.477
530.500	343.471	79.995	19.996	103.769	20.065	5.342	0.477
531.000	343.742	80.002	19.991	103.770	20.061	5.605	0.500
531.500	344.016	80.013	19.991	103.772	20.064	5.403	0.532
532.000	344.229	80.011	19.993	103.773	20.063	5.460	0.516
532.500	344.502	80.005	19.991	103.770	20.067	5.139	0.487
533.000	344.739	79.996	19.997	103.769	20.066	5.265	0.498
533.500	344.944	80.001	19.998	103.773	20.063	5.495	0.476
534.000	345.246	80.003	19.993	103.773	20.063	5.494	0.475
534.500	345.484	80.021	19.991	103.770	20.064	5.367	0.524
535.000	345.741	80.013	19.993	103.770	20.062	5.582	0.517
535.500	346.024	80.006	19.990	103.768	20.062	5.543	0.517
536.000	346.258	80.008	19.992	103.767	20.062	5.568	0.528
536.500	346.515	80.011	19.992	103.768	20.064	5.394	0.504
537.000	346.766	80.015	19.999	103.770	20.059	5.826	0.500
537.500	347.056	80.010	19.989	103.769	20.060	5.677	0.525
538.000	347.278	80.002	19.992	103.769	20.059	5.826	0.527
538.500	347.527	79.996	19.993	103.767	20.060	5.737	0.491
539.000	347.807	80.009	19.989	103.765	20.057	5.941	0.500
539.500	348.016	80.004	19.992	103.764	20.061	5.618	0.509
540.000	348.255	80.015	19.995	103.764	20.059	5.751	0.469
540.500	348.564	80.003	19.994	103.760	20.060	5.730	0.498
541.000	348.809	80.013	19.991	103.763	20.057	5.922	0.551
541.500	349.073	80.005	19.997	103.762	20.060	5.703	0.532
542.000	349.355	80.014	19.994	103.757	20.055	6.077	0.527
542.500	349.593	80.005	19.991	103.757	20.058	5.835	0.533
543.000	349.837	80.004	19.996	103.760	20.057	5.956	0.501
543.500	350.154	80.022	19.990	103.756	20.061	5.650	0.522
544.000	350.409	79.998	19.989	103.760	20.058	5.896	0.567
544.500	350.670	80.009	19.993	103.763	20.058	5.839	0.544
545.000	350.877	80.000	19.992	103.761	20.056	5.994	0.492
545.500	351.135	80.005	19.993	103.759	20.059	5.803	0.467
546.000	351.409	80.000	19.992	103.760	20.054	6.204	0.498
546.500	351.619	80.005	19.997	103.756	20.056	6.026	0.508
547.000	351.952	80.016	19.993	103.754	20.056	5.990	0.514
547.500	352.189	80.011	19.990	103.757	20.057	5.965	0.556
548.000	352.441	79.995	19.994	103.759	20.058	5.837	0.530
548.500	352.709	80.011	19.997	103.763	20.057	5.950	0.505
549.000	352.936	80.003	19.995	103.763	20.055	6.077	0.507
549.500	353.205	80.009	19.993	103.766	20.051	6.430	0.495
550.000	353.464	80.002	19.994	103.763	20.053	6.283	0.512
550.500	353.696	80.001	19.994	103.763	20.054	6.183	0.509
551.000	353.944	80.002	19.995	103.759	20.055	6.098	0.485
551.500	354.250	80.015	19.991	103.758	20.055	6.113	0.517
552.000	354.460	80.004	19.991	103.762	20.052	6.330	0.535
552.500	354.711	80.002	19.996	103.767	20.055	6.109	0.489
553.000	354.984	79.984	19.993	103.766	20.048	6.623	0.493
553.500	355.215	79.991	19.999	103.769	20.052	6.351	0.514
554.000	355.467	80.004	19.997	103.769	20.053	6.260	0.494
554.500	355.740	79.985	19.997	103.767	20.048	6.684	0.504
555.000	355.980	79.992	19.994	103.767	20.055	6.073	0.519
555.500	356.246	79.998	19.992	103.764	20.052	6.362	0.510
556.000	356.511	79.997	19.996	103.767	20.051	6.407	0.519
556.500	356.752	80.007	19.993	103.766	20.054	6.180	0.519
557.001	356.996	79.995	19.994	103.767	20.052	6.364	0.495
557.500	357.267	80.001	19.992	103.764	20.053	6.285	0.500
558.000	357.588	80.012	19.990	103.771	20.055	6.098	0.554
558.500	357.775	80.010	19.989	103.774	20.048	6.621	0.550
559.000	358.016	80.008	19.990	103.777	20.049	6.579	0.468
559.500	358.302	80.002	19.996	103.775	20.051	6.447	0.478
560.000	358.534	79.990	19.990	103.775	20.051	6.445	0.522
560.500	358.811	80.000	19.994	103.769	20.047	6.745	0.513
561.000	359.030	80.005	19.993	103.764	20.047	6.734	0.502
561.500	359.303	80.006	19.995	103.764	20.048	6.613	0.494
562.000	359.550	80.016	19.992	103.762	20.048	6.645	0.506
562.500	359.797	80.002	19.996	103.767	20.048	6.677	0.507
563.000	360.032	80.016	19.995	103.770	20.049	6.608	0.488
563.500	360.287	80.004	19.991	103.769	20.046	6.777	0.486
564.000	360.546	80.013	19.989	103.766	20.049	6.568	0.502
564.500	360.780	80.007	19.996	103.768	20.048	6.653	0.503
565.000	361.062	80.011	19.995	103.764	20.048	6.622	0.505
565.500	361.307	80.003	19.992	103.764	20.045	6.847	0.521
566.000	361.610	79.991	19.993	103.766	20.049	6.581	0.537
566.500	361.794	80.011	19.993	103.773	20.049	6.584	0.518
567.000	362.019	79.984	19.997	103.776	20.046	6.822	0.448
567.500	362.323	79.999	19.989	103.777	20.045	6.864	0.469
568.000	362.591	80.016	19.999	103.773	20.044	6.950	0.551
568.500	362.775	79.995	19.998	103.770	20.045	6.848	0.512
569.000	363.054	80.006	19.988	103.767	20.040	7.304	0.457
569.500	363.341	80.011	19.989	103.767	20.040	7.284	0.514
570.000	363.561	79.995	19.986	103.770	20.042	7.091	0.537
570.500	363.825	80.004	19.988	103.776	20.044	6.950	0.496
571.000	364.063	80.002	19.990	103.782	20.044	6.924	0.493
571.500	364.349	79.994	19.989	103.784	20.041	7.235	0.513
572.000	364.559	80.004	19.992	103.780	20.040	7.252	0.510
572.500	364.822	79.984	19.992	103.781	20.042	7.144	0.484
573.000	365.088	79.999	19.992	103.780	20.041	7.235	0.500
573.500	365.344	80.001	19.993	103.775	20.043	7.006	0.525
574.000	365.624	80.009	19.994	103.772	20.040	7.284	0.529
574.500	365.897	79.995	19.989	103.775	20.039	7.335	0.545
575.000	366.123	79.992	20.001	103.773	20.039	7.363	0.526
575.500	366.341	80.005	19.995	103.772	20.041	7.190	0.472
576.000	366.594	80.003	19.996	103.776	20.038	7.430	0.457
576.500	366.841	80.004	19.991	103.776	20.037	7.517	0.485
577.000	367.137	80.012	19.989	103.777	20.040	7.309	0.522
577.500	367.371	80.012	19.991	103.783	20.038	7.445	0.537
578.000	367.647	79.995	19.992	103.786	20.039	7.352	0.520
578.500	367.892	80.022	19.991	103.786	20.035	7.636	0.515
579.000	368.140	80.007	19.992	103.791	20.037	7.479	0.507
579.500	368.403	79.997	19.998	103.788	20.036	7.615	0.502
580.000	368.636	80.004	19.997	103.779	20.031	7.954	0.503
580.500	368.914	79.995	19.992	103.775	20.036	7.601	0.503
581.000	369.181	79.994	19.991	103.769	20.033	7.832	0.528
581.500	369.411	80.002	19.994	103.763	20.033	7.825	0.522
582.000	369.670	80.009	19.994	103.761	20.032	7.867	0.493
582.500	369.911	80.000	19.996	103.764	20.032	7.895	0.494
583.000	370.134	79.994	19.997	103.767	20.032	7.898	0.482
583.500	370.410	80.008	19.993	103.768	20.030	8.080	0.481
584.000	370.681	79.998	19.994	103.771	20.031	8.009	0.523
584.500	370.948	80.003	19.997	103.770	20.028	8.181	0.542
585.000	371.194	80.013	19.993	103.768	20.030	8.064	0.525
585.500	371.436	80.000	19.991	103.766	20.024	8.497	0.500
586.000	371.691	79.998	19.995	103.768	20.025	8.463	0.493
586.500	371.953	79.993	19.997	103.764	20.027	8.314	0.507
587.000	372.205	79.997	20.000	103.765	20.021	8.731	0.516
587.500	372.492	80.000	19.994	103.764	20.023	8.612	0.527
588.000	372.753	79.993	19.995	103.768	20.023	8.612	0.544
588.500	372.989	80.007	19.995	103.768	20.021	8.765	0.522
589.000	373.310	80.013	19.991	103.771	20.022	8.714	0.527
589.500	373.525	79.998	19.995	103.782	20.022	8.701	0.547
590.000	373.831	80.000	19.987	103.791	20.021	8.767	0.528
590.500	374.041	80.002	19.996	103.795	20.018	8.978	0.518
591.000	374.275	80.006	19.990	103.799	20.012	9.460	0.480
591.500	374.564	80.010	19.995	103.800	20.013	9.352	0.484
592.000	374.780	80.006	19.993	103.796	20.012	9.477	0.514
592.500	375.059	79.996	19.993	103.787	20.012	9.452	0.500
593.000	375.340	80.019	19.990	103.784	20.011	9.531	0.528
593.500	375.570	80.010	19.993	103.788	20.011	9.552	0.535
594.000	375.799	79.994	19.994	103.791	20.007	9.879	0.485
594.500	376.108	80.007	19.994	103.791	20.007	9.826	0.499
595.000	376.353	80.005	19.989	103.797	20.005	9.996	0.546
595.500	376.594	80.000	19.992	103.799	20.004	10.132	0.520
596.000	376.849	80.002	19.993	103.796	20.004	10.078	0.491
596.500	377.081	80.004	19.995	103.793	20.004	10.087	0.491
597.000	377.359	80.006	19.995	103.792	20.000	10.419	0.499
597.500	377.635	80.002	19.995	103.794	20.001	10.319	0.532
598.000	377.882	80.011	19.990	103.789	20.002	10.232	0.538
598.500	378.158	80.004	19.991	103.789	19.997	10.659	0.523
599.000	378.416	80.007	19.996	103.792	19.999	10.484	0.528
599.500	378.681	80.006	19.996	103.796	19.995	10.826	0.528
600.000	378.948	80.006	19.990	103.795	19.991	11.080	0.527
600.500	379.220	80.009	19.990	103.797	19.993	10.942	0.536
601.000	379.451	80.004	19.986	103.797	19.990	11.186	0.521
601.500	379.698	80.001	19.992	103.798	19.989	11.244	0.491
602.000	379.948	80.009	19.992	103.795	19.986	11.505	0.487
602.500	380.246	80.004	19.995	103.797	19.985	11.549	0.522
603.000	380.541	80.004	19.991	103.796	19.987	11.438	0.570
603.500	380.747	80.011	19.992	103.799	19.984	11.692	0.547
604.000	380.986	80.004	19.993	103.798	19.981	11.900	0.473
604.500	381.259	80.008	19.990	103.800	19.981	11.876	0.479
605.000	381.480	80.000	19.998	103.798	19.979	12.019	0.503
605.500	381.726	80.021	19.990	103.797	19.975	12.374	0.480
606.000	381.999	80.005	19.997	103.796	19.976	12.310	0.493
606.500	382.285	80.015	19.990	103.795	19.974	12.429	0.539
607.000	382.547	80.002	19.996	103.794	19.973	12.527	0.554
607.500	382.790	80.011	19.993	103.793	19.969	12.797	0.527
608.000	383.034	80.001	19.991	103.798	19.967	12.976	0.497
608.500	383.305	79.996	20.000	103.796	19.966	13.080	0.501
609.000	383.568	80.001	19.996	103.795	19.963	13.303	0.524
609.500	383.828	79.989	19.996	103.796	19.961	13.471	0.528
610.000	384.083	80.007	19.993	103.794	19.958	13.677	0.519
610.500	384.387	80.013	19.990	103.790	19.957	13.758	0.537
611.000	384.603	80.007	19.991	103.795	19.960	13.509	0.539
611.500	384.874	80.002	20.000	103.798	19.956	13.821	0.503
612.000	385.142	80.017	19.991	103.796	19.954	13.996	0.513
612.500	385.396	80.001	19.993	103.798	19.953	14.053	0.531
613.000	385.663	80.016	19.994	103.797	19.951	14.262	0.522
613.500	385.928	80.009	19.996	103.792	19.951	14.239	0.527
614.000	386.198	79.984	19.995	103.791	19.948	14.499	0.533
614.500	386.434	79.995	19.993	103.794	19.947	14.544	0.520
615.000	386.713	79.991	19.996	103.792	19.948	14.494	0.511
615.500	386.940	80.011	19.995	103.793	19.945	14.717	0.511
616.000	387.232	80.007	19.991	103.793	19.943	14.850	0.513
616.500	387.498	80.005	19.993	103.794	19.942	14.986	0.539
617.000	387.757	80.013	19.991	103.793	19.939	15.174	0.541
617.500	388.022	80.013	19.990	103.796	19.938	15.259	0.524
618.000	388.308	80.007	19.992	103.797	19.937	15.324	0.537
618.500	388.536	80.005	19.997	103.798	19.935	15.502	0.532
619.000	388.770	80.011	19.987	103.797	19.933	15.677	0.488
619.500	389.060	80.004	19.997	103.798	19.930	15.872	0.493
620.000	389.351	80.005	19.998	103.799	19.926	16.192	0.552
620.500	389.594	80.010	19.990	103.798	19.927	16.093	0.557
621.000	389.882	80.007	19.996	103.799	19.925	16.284	0.533
621.500	390.120	80.015	19.990	103.799	19.923	16.420	0.529
622.000	390.347	80.001	19.993	103.799	19.919	16.741	0.496
622.500	390.618	80.005	19.991	103.795	19.921	16.561	0.481
623.000	390.855	80.006	19.991	103.796	19.917	16.896	0.503
623.500	391.134	80.005	19.995	103.798	19.917	16.900	0.512
624.000	391.383	79.998	19.991	103.803	19.916	17.018	0.522
624.500	391.651	80.014	19.992	103.804	19.910	17.428	0.522
625.000	391.913	79.993	19.996	103.809	19.906	17.747	0.523
625.500	392.186	79.997	19.994	103.813	19.900	18.204	0.532
626.000	392.403	79.998	19.989	103.817	19.902	18.083	0.513
626.500	392.686	80.010	19.993	103.819	19.900	18.255	0.495
627.000	392.966	80.008	19.997	103.823	19.894	18.720	0.531
627.500	393.234	80.004	19.993	103.823	19.891	18.958	0.555
628.000	393.491	79.998	19.989	103.819	19.892	18.888	0.536
628.500	393.749	80.007	19.994	103.812	19.888	19.169	0.520
629.000	394.049	79.999	19.993	103.806	19.886	19.330	0.537
629.500	394.329	80.004	19.989	103.803	19.880	19.775	0.569
630.000	394.569	80.004	19.991	103.810	19.880	19.802	0.550
630.500	394.822	79.996	19.995	103.818	19.878	19.971	0.507
631.000	395.084	79.996	19.994	103.824	19.871	20.506	0.504
631.500	395.345	80.004	19.994	103.830	19.869	20.688	0.519
632.000	395.597	79.975	19.995	103.831	19.862	21.213	0.518
632.500	395.893	80.020	19.991	103.828	19.861	21.259	0.531
633.000	396.131	80.019	19.989	103.831	19.860	21.357	0.541
633.500	396.384	80.006	19.984	103.836	19.854	21.841	0.513
634.000	396.653	79.995	19.988	103.839	19.848	22.333	0.506
634.500	396.882	80.006	19.992	103.842	19.847	22.413	0.509
635.000	397.171	79.985	19.994	103.846	19.841	22.888	0.507
635.500	397.429	80.008	19.989	103.846	19.837	23.165	0.532
636.000	397.668	79.996	19.993	103.847	19.835	23.339	0.523
636.500	397.941	80.004	19.993	103.844	19.830	23.686	0.505
637.000	398.201	80.003	19.995	103.845	19.824	24.194	0.522
637.500	398.443	79.997	19.998	103.843	19.825	24.144	0.517
638.000	398.759	80.010	19.992	103.838	19.818	24.691	0.530
638.500	398.981	80.000	19.995	103.840	19.814	24.950	0.548
639.000	399.247	79.995	19.997	103.841	19.809	25.339	0.513
639.500	399.526	80.000	19.987	103.843	19.807	25.550	0.517
640.000	399.784	80.002	19.992	103.847	19.802	25.931	0.541
640.501	400.028	80.002	19.994	103.852	19.799	26.139	0.520
641.001	400.296	79.996	19.991	103.847	19.795	26.439	0.507
641.500	400.515	79.993	19.998	103.845	19.794	26.558	0.499
642.000	400.791	79.999	19.992	103.839	19.785	27.226	0.491
642.500	401.065	80.013	19.993	103.837	19.785	27.268	0.523
643.000	401.324	80.002	19.993	103.835	19.779	27.692	0.542
643.500	401.560	80.003	19.993	103.838	19.776	27.939	0.514
644.000	401.842	80.003	19.995	103.840	19.771	28.352	0.506
644.500	402.069	80.001	19.993	103.848	19.766	28.775	0.514
645.000	402.311	80.006	19.994	103.853	19.759	29.290	0.490
645.500	402.615	80.003	19.993	103.858	19.756	29.541	0.508
646.000	402.861	79.977	19.992	103.862	19.750	29.974	0.548
646.500	403.129	80.010	19.993	103.865	19.744	30.447	0.532
647.000	403.399	79.999	19.994	103.870	19.741	30.672	0.526
647.500	403.655	79.991	19.995	103.873	19.735	31.149	0.532
648.000	403.914	80.008	19.988	103.870	19.732	31.412	0.520
648.500	404.201	79.999	19.994	103.875	19.727	31.799	0.530
649.000	404.413	79.995	19.994	103.879	19.726	31.865	0.522
649.500	404.691	80.004	19.994	103.875	19.724	32.040	0.495
650.000	404.931	80.000	20.000	103.874	19.721	32.233	0.504
650.500	405.217	79.999	19.992	103.875	19.721	32.302	0.522
651.000	405.447	79.990	20.000	103.867	19.717	32.565	0.521
651.500	405.705	80.001	20.000	103.857	19.711	33.045	0.502
652.001	405.963	79.998	19.998	103.851	19.712	33.003	0.501
652.501	406.200	79.999	19.996	103.849	19.709	33.232	0.505
653.000	406.519	79.996	19.988	103.851	19.699	33.994	0.526
653.500	406.758	80.001	19.994	103.859	19.694	34.421	0.557
654.000	407.003	80.008	19.989	103.868	19.690	34.730	0.521
654.500	407.284	80.012	19.993	103.878	19.686	35.051	0.505
655.000	407.530	79.994	19.995	103.886	19.685	35.118	0.527
655.500	407.786	80.003	19.998	103.893	19.676	35.775	0.515
656.000	408.018	79.989	19.996	103.899	19.673	36.033	0.495
656.500	408.247	79.989	19.993	103.906	19.669	36.342	0.474
657.000	408.514	80.000	19.995	103.912	19.663	36.813	0.478
657.500	408.772	80.025	19.984	103.915	19.661	36.986	0.511
658.000	409.032	80.008	19.994	103.920	19.658	37.234	0.522
658.500	409.242	80.001	19.991	103.920	19.654	37.537	0.494
659.000	409.516	80.004	19.993	103.919	19.645	38.251	0.477
659.500	409.796	80.004	19.993	103.917	19.641	38.551	0.519
660.000	410.025	79.998	19.998	103.917	19.636	38.907	0.531
660.500	410.240	79.991	19.993	103.911	19.630	39.424	0.477
661.000	410.531	80.007	19.994	103.908	19.623	39.969	0.475
661.500	410.775	80.005	19.994	103.905	19.617	40.441	0.520
662.000	411.010	79.995	19.995	103.904	19.610	41.014	0.506
662.500	411.210	80.008	19.992	103.901	19.606	41.263	0.457
663.000	411.517	80.004	19.990	103.902	19.601	41.723	0.471
663.500	411.773	80.011	19.988	103.911	19.597	41.984	0.536
664.000	412.060	79.998	19.992	103.926	19.589	42.620	0.553
664.500	412.272	79.995	19.996	103.938	19.579	43.443	0.521
665.000	412.501	80.010	19.992	103.946	19.573	43.878	0.470
665.500	412.743	80.004	19.992	103.957	19.564	44.597	0.456
666.000	412.980	80.009	19.995	103.958	19.558	45.095	0.474
666.500	413.244	80.007	19.991	103.957	19.548	45.849	0.490
667.000	413.504	79.996	20.000	103.959	19.541	46.411	0.513
667.500	413.749	79.989	19.994	103.959	19.531	47.196	0.514
668.000	413.969	79.999	19.999	103.956	19.522	47.919	0.485
668.500	414.214	79.998	19.990	103.955	19.515	48.467	0.465
669.000	414.495	79.998	19.994	103.954	19.505	49.217	0.495
669.500	414.730	80.020	19.988	103.950	19.496	49.922	0.521
670.000	414.957	80.020	19.989	103.957	19.487	50.658	0.489
670.500	415.206	80.004	19.993	103.964	19.481	51.129	0.469
671.000	415.465	79.998	19.996	103.966	19.469	52.053	0.492
671.500	415.719	80.009	19.987	103.969	19.455	53.176	0.511
672.000	415.959	80.015	19.989	103.976	19.446	53.873	0.503
672.500	416.215	80.011	19.991	103.978	19.434	54.805	0.494
673.000	416.455	79.986	19.992	103.980	19.423	55.704	0.496
673.500	416.712	79.999	19.999	103.983	19.413	56.489	0.497
674.000	416.934	80.011	19.988	103.984	19.403	57.262	0.488
674.500	417.200	80.003	19.999	103.988	19.391	58.190	0.483
675.000	417.486	80.004	19.992	103.987	19.385	58.701	0.520
675.500	417.727	80.008	19.992	103.984	19.374	59.550	0.540
676.000	417.957	80.001	19.987	103.990	19.368	60.054	0.499
676.500	418.225	80.024	19.991	103.993	19.357	60.922	0.484
677.000	418.478	80.003	19.992	103.992	19.346	61.712	0.509
677.500	418.721	80.003	19.994	103.993	19.341	62.175	0.508
678.000	418.989	80.002	19.993	103.993	19.330	62.983	0.503
678.500	419.202	80.005	19.996	103.992	19.323	63.549	0.496
679.000	419.498	79.999	19.996	103.992	19.316	64.151	0.495
679.500	419.728	80.002	19.996	103.990	19.306	64.948	0.518
680.000	419.995	79.999	20.002	103.987	19.296	65.672	0.512
680.500	420.240	80.003	19.998	103.987	19.285	66.538	0.504
681.000	420.475	80.003	20.000	103.985	19.277	67.225	0.496
681.500	420.662	80.009	20.000	103.983	19.269	67.811	0.451
682.000	420.944	80.003	19.994	103.987	19.258	68.682	0.446
682.500	421.216	80.001	19.994	103.997	19.248	69.460	0.511
683.000	421.451	80.001	19.994	104.014	19.238	70.267	0.531
683.500	421.701	79.998	19.997	104.032	19.229	70.902	0.496
684.000	421.913	79.997	19.995	104.048	19.223	71.383	0.473
684.500	422.161	80.014	19.995	104.066	19.211	72.350	0.461
685.000	422.418	80.008	19.992	104.080	19.200	73.171	0.483
685.500	422.630	79.998	19.995	104.090	19.187	74.254	0.486
686.000	422.909	80.003	19.997	104.097	19.175	75.140	0.480
686.500	423.143	79.994	19.994	104.105	19.162	76.195	0.502
687.000	423.380	80.007	19.992	104.106	19.148	77.327	0.492
687.500	423.660	80.007	19.996	104.107	19.132	78.580	0.494
688.000	423.871	80.009	19.994	104.109	19.116	79.818	0.504
688.500	424.151	80.004	19.993	104.114	19.095	81.512	0.491
689.000	424.413	80.011	19.992	104.120	19.076	83.045	0.517
689.500	424.649	80.001	19.993	104.133	19.059	84.326	0.520
690.000	424.917	80.005	19.996	104.147	19.041	85.809	0.501
690.500	425.172	80.004	19.995	104.156	19.026	86.999	0.514
691.000	425.380	79.996	19.995	104.161	19.011	88.113	0.493
691.500	425.678	80.012	19.994	104.162	18.996	89.285	0.484
692.000	425.890	80.003	19.988	104.158	18.985	90.210	0.507
692.500	426.115	80.005	19.994	104.152	18.974	91.032	0.473
693.000	426.410	80.014	19.988	104.146	18.961	92.057	0.478
693.500	426.580	79.992	19.997	104.140	18.941	93.640	0.492
694.000	426.826	80.001	19.993	104.131	18.928	94.722	0.441
694.500	427.074	80.010	19.995	104.122	18.912	95.979	0.455
695.000	427.334	79.991	19.993	104.115	18.895	97.363	0.501
695.500	427.559	79.997	19.995	104.115	18.881	98.487	0.497
696.000	427.841	80.005	19.993	104.116	18.862	100.070	0.496
696.500	428.075	80.001	19.995	104.118	18.846	101.325	0.511
697.000	428.336	80.006	19.991	104.123	18.834	102.262	0.505
697.500	428.588	80.003	19.996	104.132	18.821	103.318	0.504
698.000	428.864	80.013	19.992	104.132	18.806	104.491	0.521
698.500	429.049	80.004	20.001	104.145	18.790	105.637	0.495
699.000	429.336	80.008	19.996	104.168	18.778	106.580	0.466
699.500	429.545	80.010	19.996	104.188	18.769	107.275	0.484
700.000	429.773	80.006	19.997	104.203	18.751	108.677	0.466
700.500	430.031	80.008	19.990	104.222	18.745	109.092	0.462
701.000	430.304	80.011	19.994	104.237	18.735	109.834	0.509
701.500	430.561	80.020	19.989	104.239	18.720	110.990	0.531
702.000	430.793	80.018	19.997	104.241	18.712	111.658	0.509
702.500	430.979	79.999	19.998	104.238	18.700	112.670	0.453
703.000	431.251	80.007	19.992	104.232	18.686	113.822	0.438
703.500	431.473	80.001	19.996	104.225	18.666	115.407	0.476
704.000	431.724	80.006	19.996	104.231	18.637	117.725	0.484
704.500	431.984	80.007	19.993	104.244	18.606	120.201	0.492
705.000	432.230	80.007	19.992	104.266	18.575	122.708	0.509
705.500	432.507	79.989	19.996	104.297	18.537	125.740	0.514
706.000	432.726	79.992	20.002	104.325	18.502	128.501	0.509
706.500	433.009	80.000	19.994	104.377	18.473	130.782	0.499
707.000	433.269	80.002	19.995	104.446	18.447	132.811	0.523
707.500	433.531	80.000	19.994	104.467	18.425	134.514	0.533
708.000	433.779	79.996	19.994	104.469	18.406	136.025	0.516
708.500	434.025	80.005	19.992	104.471	18.393	136.988	0.501
709.000	434.231	79.998	19.996	104.452	18.382	137.837	0.473
709.500	434.510	79.999	19.994	104.405	18.370	138.665	0.468
710.000	434.774	80.010	19.996	104.388	18.357	139.635	0.514
710.500	434.970	79.994	19.998	104.370	18.345	140.581	0.502
711.000	435.266	79.999	19.998	104.341	18.317	142.807	0.476
711.500	435.493	80.010	19.995	104.301	18.284	145.477	0.508
712.000	435.778	80.009	19.991	104.270	18.251	148.235	0.518
712.500	435.964	79.999	19.995	104.256	18.209	151.635	0.492
713.000	436.229	79.994	19.999	104.254	18.171	154.718	0.461
713.500	436.483	80.006	19.993	104.300	18.140	157.155	0.485
714.000	436.731	79.989	19.996	104.349	18.113	159.253	0.510
714.500	436.990	80.002	19.994	104.374	18.091	160.948	0.504
715.000	437.243	80.007	19.991	104.410	18.076	162.112	0.509
715.500	437.496	79.993	19.993	104.465	18.053	163.858	0.509
716.000	437.749	79.999	19.996	104.489	18.033	165.452	0.506
716.500	437.982	80.000	19.996	104.512	18.020	166.481	0.496
717.000	438.271	80.004	19.996	104.546	17.998	168.189	0.504
717.500	438.492	80.004	19.995	104.553	17.978	169.758	0.516
718.000	438.777	79.991	19.995	104.546	17.958	171.305	0.508
718.500	439.031	80.001	19.991	104.530	17.942	172.530	0.523
719.000	439.276	80.004	19.994	104.506	17.923	174.029	0.519
719.500	439.516	80.001	19.999	104.476	17.904	175.576	0.492
720.000	439.812	79.999	19.991	104.436	17.885	177.131	0.511
720.500	440.043	80.002	19.997	104.379	17.864	178.777	0.532
721.000	440.328	80.007	19.992	104.334	17.846	180.253	0.522
721.500	440.591	80.007	19.992	104.323	17.827	181.830	0.532
722.000	440.855	79.999	19.993	104.347	17.808	183.312	0.537
722.500	441.099	79.998	19.992	104.409	17.793	184.563	0.518
723.000	441.346	80.006	19.989	104.492	17.780	185.554	0.500
723.500	441.561	80.000	19.995	104.569	17.768	186.507	0.476
724.000	441.806	80.001	19.989	104.621	17.758	187.317	0.461
724.500	442.086	80.010	19.996	104.644	17.751	187.893	0.492
725.001	442.324	79.990	19.995	104.634	17.743	188.490	0.521
725.500	442.600	80.007	19.989	104.605	17.737	188.997	0.516
726.000	442.844	80.016	19.991	104.577	17.729	189.581	0.517
726.500	443.138	80.008	19.990	104.554	17.729	189.595	0.529
727.000	443.356	79.995	19.991	104.536	17.726	189.771	0.525
727.500	443.624	80.007	19.989	104.526	17.725	189.901	0.499
728.000	443.891	80.010	19.992	104.523	17.722	190.123	0.510
728.500	444.163	79.998	19.993	104.517	17.721	190.208	0.537
729.000	444.403	80.002	20.001	104.510	17.719	190.357	0.526
729.500	444.708	80.002	19.993	104.507	17.716	190.550	0.528
730.000	444.934	80.000	19.992	104.511	17.711	190.940	0.538
730.500	445.181	80.025	19.987	104.525	17.714	190.756	0.502
731.000	445.463	80.000	19.997	104.547	17.709	191.102	0.501
731.500	445.708	80.013	19.988	104.566	17.711	190.926	0.528
732.000	445.945	80.002	19.991	104.591	17.711	190.928	0.505
732.500	446.202	80.010	19.997	104.615	17.707	191.263	0.488
733.000	446.457	80.002	19.998	104.632	17.709	191.069	0.503
733.500	446.717	80.018	19.991	104.639	17.702	191.594	0.514
734.000	446.987	80.006	19.992	104.649	17.701	191.663	0.522
734.500	447.237	80.007	19.994	104.651	17.700	191.780	0.525
735.000	447.540	80.001	19.994	104.651	17.700	191.732	0.536
735.500	447.771	80.003	19.994	104.655	17.698	191.932	0.543
736.000	448.051	80.007	19.993	104.656	17.698	191.949	0.522
736.500	448.309	79.992	19.996	104.655	17.697	191.989	0.524
737.000	448.556	80.004	19.995	104.649	17.695	192.147	0.522
737.501	448.826	80.009	19.991	104.643	17.694	192.234	0.511
738.001	449.061	80.003	19.992	104.634	17.696	192.102	0.511
738.500	449.367	80.004	19.991	104.626	17.695	192.164	0.523
739.000	449.607	80.013	19.990	104.622	17.694	192.255	0.543
739.500	449.880	80.008	19.990	104.622	17.696	192.056	0.530
740.000	450.136	80.006	19.993	104.621	17.696	192.016	0.521
740.500	450.406	80.001	19.993	104.621	17.698	191.866	0.527
741.000	450.686	80.007	19.993	104.620	17.701	191.618	0.538
741.500	450.932	80.003	19.999	104.620	17.703	191.450	0.538
742.000	451.207	80.013	19.993	104.616	17.706	191.183	0.524
742.500	451.448	79.990	19.996	104.618	17.711	190.831	0.519
743.000	451.755	79.990	19.997	104.616	17.711	190.818	0.532
743.500	451.998	80.000	19.995	104.610	17.714	190.592	0.549
744.000	452.264	80.015	19.993	104.603	17.720	190.050	0.529
744.500	452.534	80.009	19.995	104.596	17.729	189.372	0.523
745.000	452.799	80.000	19.992	104.586	17.733	189.042	0.536
745.500	453.069	80.006	19.989	104.581	17.744	188.161	0.535
746.000	453.338	80.006	19.990	104.585	17.751	187.587	0.537
746.500	453.603	80.011	19.991	104.586	17.756	187.144	0.536
747.000	453.844	80.009	19.994	104.588	17.764	186.486	0.519
747.500	454.123	80.008	19.990	104.590	17.779	185.353	0.513
748.000	454.402	80.002	19.987	104.590	17.785	184.832	0.539
748.500	454.643	80.008	19.990	104.585	17.801	183.544	0.539
749.000	454.891	80.000	19.996	104.583	17.809	182.926	0.505
749.500	455.155	79.996	19.992	104.581	17.822	181.879	0.500
750.000	455.438	79.990	20.005	104.578	17.836	180.742	0.530
750.500	455.750	80.016	19.992	104.574	17.848	179.790	0.572
751.000	455.992	79.996	19.994	104.564	17.863	178.658	0.575
751.500	456.263	80.002	19.992	104.556	17.876	177.613	0.533
752.000	456.530	80.006	19.993	104.549	17.894	176.150	0.525
752.500	456.813	80.012	19.991	104.543	17.908	175.056	0.544
753.000	457.110	79.999	19.994	104.540	17.927	173.523	0.565
753.500	457.351	79.997	19.994	104.537	17.944	172.185	0.559
754.000	457.576	80.015	19.993	104.535	17.962	170.778	0.502
754.500	457.837	80.007	19.997	104.533	17.977	169.607	0.476
755.000	458.094	80.007	19.990	104.527	18.000	167.783	0.502
755.500	458.401	80.004	19.993	104.517	18.017	166.412	0.541
756.000	458.629	79.997	19.997	104.511	18.042	164.409	0.550
756.500	458.934	80.014	19.993	104.502	18.062	162.826	0.534
757.000	459.176	80.014	19.991	104.491	18.080	161.451	0.540
757.500	459.468	79.999	19.999	104.483	18.106	159.336	0.540
758.000	459.724	80.012	19.991	104.474	18.125	157.832	0.541
758.500	460.038	80.018	19.988	104.467	18.148	156.056	0.559
759.000	460.258	80.000	19.992	104.462	18.172	154.113	0.552
759.500	460.531	80.009	19.994	104.459	18.191	152.617	0.513
760.000	460.850	80.007	19.993	104.449	18.215	150.695	0.543
760.500	461.064	79.987	19.997	104.442	18.241	148.669	0.563
761.000	461.321	79.995	19.993	104.432	18.266	146.686	0.502
761.500	461.633	80.025	19.988	104.423	18.290	144.770	0.520
762.000	461.883	80.014	19.995	104.413	18.316	142.703	0.565
762.500	462.165	80.005	19.993	104.411	18.337	141.061	0.547
763.000	462.441	79.996	19.992	104.406	18.361	139.191	0.545
763.500	462.717	80.005	19.992	104.399	18.390	136.843	0.555
764.000	462.927	80.016	19.991	104.392	18.413	135.029	0.519
764.500	463.242	80.005	19.993	104.383	18.440	132.946	0.506
765.000	463.501	79.993	19.997	104.371	18.469	130.648	0.549
765.500	463.743	80.004	19.991	104.364	18.493	128.787	0.537
766.000	463.984	80.016	19.994	104.357	18.522	126.493	0.492
766.500	464.280	79.998	19.995	104.347	18.546	124.581	0.510
767.000	464.576	80.008	19.988	104.338	18.574	122.373	0.565
767.500	464.788	80.006	19.994	104.334	18.603	120.077	0.551
768.000	465.085	80.002	19.997	104.325	18.622	118.593	0.509
768.500	465.318	79.986	19.993	104.316	18.654	116.047	0.519
769.000	465.599	80.006	19.990	104.309	18.691	113.141	0.522
769.500	465.855	80.004	19.994	104.307	18.716	111.173	0.526
770.000	466.121	80.004	19.994	104.298	18.739	109.422	0.530
770.500	466.408	80.006	19.996	104.288	18.762	107.584	0.537
771.000	466.670	80.012	19.992	104.276	18.797	104.849	0.551
771.500	466.972	80.007	19.997	104.262	18.818	103.153	0.557
772.000	467.177	79.997	19.997	104.246	18.852	100.505	0.535
772.500	467.497	80.004	19.996	104.229	18.882	98.141	0.516
773.000	467.772	80.001	19.994	104.219	18.910	95.891	0.560
773.500	468.009	80.000	19.993	104.212	18.939	93.621	0.554
774.000	468.285	79.999	19.996	104.203	18.968	91.345	0.513
774.500	468.546	80.001	19.993	104.193	18.994	89.300	0.525
775.000	468.832	80.014	19.994	104.193	19.022	87.105	0.542
775.500	469.096	79.998	19.998	104.190	19.055	84.534	0.548
776.000	469.317	80.008	19.995	104.183	19.076	82.894	0.518
776.500	469.612	80.012	19.989	104.179	19.100	80.952	0.501
777.000	469.918	80.010	19.989	104.174	19.128	78.799	0.558
777.500	470.125	80.007	19.991	104.166	19.157	76.489	0.557
778.000	470.430	79.993	19.995	104.156	19.176	75.012	0.513
778.500	470.694	80.008	19.991	104.148	19.205	72.703	0.540
779.000	470.935	80.008	19.992	104.144	19.229	70.889	0.536
779.500	471.198	79.993	19.994	104.139	19.252	69.052	0.504
780.000	471.490	80.003	19.989	104.129	19.274	67.340	0.530
780.500	471.779	80.006	19.993	104.124	19.294	65.702	0.569
781.000	472.000	80.006	19.995	104.120	19.316	64.038	0.546
781.500	472.289	80.002	19.992	104.111	19.340	62.136	0.510
782.000	472.529	80.008	19.988	104.103	19.356	60.903	0.519
782.500	472.779	80.013	19.993	104.099	19.380	59.012	0.509
783.000	473.088	79.998	19.988	104.088	19.394	57.920	0.524
783.500	473.294	80.000	19.993	104.082	19.414	56.311	0.537
784.000	473.601	79.997	20.001	104.074	19.433	54.863	0.514
784.500	473.942	80.004	20.001	104.064	19.446	53.819	0.580
785.000	474.157	80.006	19.993	104.054	19.463	52.487	0.602
785.500	474.403	79.998	19.991	104.047	19.480	51.144	0.509
786.000	474.730	80.002	19.994	104.038	19.493	50.102	0.517
786.500	475.012	80.001	19.993	104.031	19.506	49.068	0.591
787.000	475.255	79.993	19.998	104.030	19.523	47.782	0.567
787.501	475.574	80.014	19.989	104.023	19.533	46.955	0.543
788.001	475.795	80.004	19.995	104.020	19.548	45.836	0.551
788.501	476.063	80.004	19.992	104.012	19.560	44.841	0.515
789.000	476.264	80.003	19.994	104.006	19.578	43.499	0.479
789.500	476.546	80.016	19.992	103.996	19.588	42.637	0.476
790.000	476.830	80.005	19.996	103.992	19.599	41.847	0.524
790.500	477.103	80.000	19.995	103.980	19.609	41.026	0.562
791.000	477.376	79.998	19.999	103.975	19.621	40.115	0.551
791.500	477.618	79.993	19.997	103.967	19.630	39.347	0.530
792.000	477.887	80.001	19.990	103.960	19.644	38.255	0.513
792.500	478.119	80.011	19.990	103.952	19.653	37.540	0.506
793.000	478.431	80.005	19.989	103.950	19.660	37.053	0.523
793.500	478.699	80.001	19.997	103.949	19.672	36.078	0.562
794.000	479.020	80.011	19.992	103.949	19.682	35.301	0.584
794.500	479.202	79.999	19.994	103.950	19.693	34.428	0.546
795.000	479.467	80.000	19.987	103.949	19.702	33.742	0.474
795.501	479.731	79.998	20.000	103.943	19.708	33.257	0.488
796.001	479.974	79.997	19.996	103.931	19.720	32.332	0.518
796.501	480.286	80.015	19.993	103.921	19.724	32.019	0.531
797.000	480.548	80.006	19.989	103.915	19.730	31.510	0.564
797.500	480.841	79.997	19.996	103.911	19.736	31.041	0.565
798.001	481.055	80.004	19.993	103.909	19.747	30.219	0.531
798.500	481.337	80.005	19.988	103.911	19.751	29.909	0.502
799.000	481.548	80.000	19.990	103.910	19.763	28.999	0.495
799.500	481.827	80.001	19.996	103.907	19.767	28.651	0.491
800.000	482.099	79.995	19.998	103.903	19.773	28.137	0.520
800.500	482.390	80.008	19.985	103.893	19.784	27.345	0.557
801.000	482.642	80.007	19.997	103.891	19.790	26.808	0.553
801.500	482.883	80.002	19.992	103.887	19.797	26.284	0.518
802.000	483.149	80.002	19.989	103.884	19.799	26.165	0.499
802.501	483.429	80.000	19.993	103.879	19.805	25.658	0.526
803.001	483.676	80.000	19.996	103.881	19.812	25.157	0.537
803.501	483.932	80.009	19.996	103.876	19.816	24.837	0.515
804.000	484.253	80.021	19.992	103.876	19.824	24.214	0.540
804.500	484.412	79.991	20.001	103.873	19.828	23.847	0.528
805.000	484.749	80.006	19.993	103.870	19.832	23.521	0.488
805.500	484.986	79.999	19.994	103.870	19.833	23.438	0.535
806.000	485.239	79.997	19.994	103.866	19.839	23.043	0.532
806.500	485.522	80.014	19.991	103.863	19.844	22.609	0.513
807.000	485.780	79.994	19.999	103.867	19.847	22.379	0.539
807.500	486.017	80.014	19.991	103.865	19.853	21.928	0.518
808.000	486.278	79.999	19.994	103.862	19.859	21.473	0.496
808.500	486.532	80.010	19.994	103.864	19.862	21.182	0.506
809.000	486.799	80.016	19.993	103.861	19.865	20.950	0.518
809.500	487.060	79.985	19.999	103.854	19.868	20.769	0.525
810.000	487.348	80.008	19.995	103.848	19.871	20.482	0.538
810.500	487.587	79.998	19.994	103.842	19.873	20.363	0.538
811.000	487.825	80.007	19.993	103.839	19.876	20.081	0.502
811.500	488.103	80.001	19.992	103.834	19.882	19.628	0.497
812.000	488.355	80.005	19.995	103.831	19.887	19.252	0.523
812.500	488.601	79.987	19.994	103.834	19.888	19.179	0.514
813.000	488.892	80.014	19.996	103.833	19.892	18.838	0.518
813.500	489.146	80.007	19.998	103.832	19.895	18.604	0.541
814.000	489.408	80.001	19.996	103.833	19.897	18.454	0.531
814.500	489.664	80.016	19.996	103.831	19.901	18.129	0.517
815.000	489.919	80.010	19.992	103.831	19.902	18.056	0.514
815.500	490.220	80.004	19.996	103.831	19.907	17.680	0.533
816.000	490.461	79.996	19.993	103.829	19.906	17.749	0.549
816.500	490.696	80.003	19.993	103.830	19.910	17.453	0.509
817.000	490.987	79.991	19.998	103.830	19.913	17.173	0.501
817.500	491.231	80.002	19.994	103.828	19.916	16.979	0.530
818.000	491.498	79.997	19.998	103.828	19.920	16.648	0.523
818.500	491.779	80.012	19.992	103.829	19.921	16.576	0.529
819.000	492.015	80.003	19.991	103.826	19.924	16.353	0.532
819.500	492.272	80.006	19.992	103.826	19.926	16.205	0.505
820.000	492.542	80.007	19.992	103.825	19.924	16.385	0.511
820.500	492.776	79.997	19.999	103.823	19.928	16.030	0.516
821.000	493.062	80.010	19.993	103.815	19.935	15.510	0.512
821.500	493.327	80.004	19.995	103.813	19.933	15.629	0.536
822.000	493.575	80.009	19.992	103.807	19.937	15.343	0.532
822.500	493.824	79.990	19.991	103.804	19.937	15.367	0.504
823.000	494.133	80.000	19.991	103.799	19.941	15.046	0.527
823.500	494.367	80.004	19.994	103.801	19.943	14.878	0.551
824.000	494.628	80.007	19.992	103.798	19.941	15.052	0.519
824.500	494.883	79.997	19.993	103.800	19.947	14.577	0.505
825.000	495.122	80.004	19.994	103.801	19.948	14.457	0.505
825.500	495.400	80.007	19.994	103.802	19.943	14.844	0.505
826.000	495.700	80.001	19.993	103.802	19.949	14.427	0.547
826.500	495.933	80.006	19.995	103.800	19.950	14.316	0.555
827.000	496.184	80.006	19.993	103.795	19.951	14.201	0.508
827.500	496.481	80.016	19.991	103.793	19.954	13.973	0.516
828.000	496.688	79.987	19.994	103.794	19.954	14.022	0.526
828.500	496.940	80.010	19.993	103.792	19.959	13.643	0.482
829.000	497.232	80.007	19.995	103.794	19.959	13.609	0.502
829.500	497.481	80.005	19.994	103.795	19.960	13.496	0.543
830.000	497.724	79.999	19.992	103.799	19.964	13.253	0.516
830.500	498.011	80.005	19.994	103.799	19.962	13.391	0.511
831.000	498.268	80.011	19.994	103.800	19.964	13.209	0.537
831.500	498.516	80.001	19.995	103.800	19.966	13.067	0.524
832.000	498.781	80.006	19.990	103.801	19.965	13.172	0.509
832.500	499.032	80.001	19.995	103.799	19.969	12.845	0.515
833.000	499.290	80.003	19.993	103.796	19.969	12.855	0.512
833.500	499.549	80.001	19.993	103.797	19.967	12.959	0.512
834.000	499.757	79.996	19.993	103.796	19.968	12.916	0.492
834.500	500.015	80.015	19.994	103.797	19.972	12.574	0.467
835.000	500.268	80.029	19.988	103.796	19.972	12.576	0.489
835.500	500.532	80.000	19.994	103.799	19.971	12.667	0.514
836.000	500.789	79.999	19.996	103.797	19.975	12.382	0.519
836.500	501.049	80.007	19.993	103.796	19.976	12.293	0.519
837.000	501.283	80.004	19.995	103.791	19.979	12.074	0.505
837.500	501.637	80.018	19.991	103.789	19.977	12.174	0.541
838.000	501.844	80.007	19.992	103.787	19.980	11.988	0.574
838.500	502.090	80.009	19.993	103.786	19.979	12.043	0.507
839.000	502.355	80.007	19.992	103.782	19.978	12.142	0.482
839.500	502.601	80.006	19.990	103.781	19.983	11.738	0.511
840.000	502.875	80.015	19.990	103.776	19.981	11.882	0.516
840.500	503.088	79.999	19.993	103.773	19.984	11.671	0.504
841.000	503.355	80.005	19.989	103.768	19.983	11.711	0.484
841.500	503.631	80.005	19.994	103.772	19.980	11.981	0.511
842.001	503.879	80.002	19.989	103.776	19.980	11.928	0.533
842.500	504.139	80.008	19.989	103.781	19.984	11.675	0.516
843.000	504.362	80.008	19.991	103.782	19.983	11.708	0.496
843.500	504.627	80.014	19.992	103.788	19.983	11.764	0.485
844.000	504.889	80.008	19.996	103.783	19.982	11.775	0.507
844.500	505.147	79.998	19.994	103.781	19.984	11.688	0.523
845.000	505.433	80.007	19.994	103.777	19.986	11.470	0.532
845.500	505.687	80.007	19.993	103.778	19.986	11.508	0.542
846.000	505.939	80.001	19.991	103.775	19.989	11.300	0.523
846.500	506.169	80.005	19.996	103.774	19.986	11.486	0.494
847.000	506.471	80.004	19.992	103.772	19.990	11.176	0.507
847.500	506.727	80.003	19.989	103.774	19.988	11.308	0.545
848.000	506.984	80.002	19.991	103.773	19.989	11.242	0.536
848.500	507.212	80.009	19.992	103.775	19.989	11.269	0.499
849.000	507.493	79.996	19.998	103.779	19.987	11.384	0.497
849.500	507.722	80.002	19.993	103.780	19.987	11.386	0.509
850.000	508.000	80.001	19.995	103.776	19.990	11.150	0.508
850.500	508.254	80.002	19.992	103.772	19.989	11.292	0.520
851.000	508.513	80.003	19.993	103.767	19.990	11.150	0.523
851.500	508.759	80.005	19.995	103.762	19.988	11.348	0.509
852.000	509.053	80.006	19.996	103.761	19.989	11.293	0.523
852.500	509.301	80.006	19.991	103.757	19.992	11.063	0.541
853.000	509.540	79.996	19.995	103.757	19.993	10.957	0.514
853.500	509.748	79.991	19.999	103.756	19.989	11.290	0.467
854.000	510.048	80.007	19.992	103.755	19.992	11.026	0.478
854.500	510.314	80.007	19.991	103.758	19.992	11.035	0.537
855.000	510.584	80.011	19.992	103.763	19.993	10.931	0.551
855.500	510.779	80.000	19.995	103.765	19.994	10.882	0.500
856.000	511.059	80.007	19.990	103.766	19.992	11.024	0.470
856.500	511.347	80.006	19.992	103.767	19.993	10.962	0.521
857.000	511.608	79.998	19.992	103.765	19.995	10.763	0.558
857.500	511.829	80.005	19.994	103.764	19.992	10.997	0.516
858.000	512.026	79.996	19.995	103.762	19.994	10.837	0.450
858.500	512.309	80.018	19.991	103.761	19.991	11.092	0.449
859.000	512.560	80.009	19.993	103.764	19.992	11.012	0.507
859.500	512.800	80.005	19.993	103.762	19.996	10.716	0.513
860.000	513.134	80.008	19.992	103.760	19.991	11.101	0.532
860.500	513.352	80.007	19.993	103.759	19.992	11.061	0.563
861.000	513.644	80.002	19.993	103.760	19.993	10.982	0.531
861.500	513.818	80.005	19.992	103.757	19.991	11.140	0.488
862.000	514.147	80.016	19.989	103.757	19.993	10.961	0.485
862.500	514.393	80.011	19.991	103.760	19.993	10.963	0.539
863.000	514.618	80.008	19.994	103.759	19.995	10.763	0.523
863.500	514.922	80.003	19.991	103.759	19.993	10.971	0.500
864.000	515.123	80.003	19.993	103.757	19.994	10.854	0.517
864.500	515.408	80.005	19.991	103.756	19.995	10.809	0.496
865.000	515.666	80.009	19.995	103.754	19.993	10.939	0.515
865.500	515.893	80.003	19.999	103.756	19.994	10.850	0.514
866.000	516.151	80.008	19.990	103.754	19.994	10.859	0.485
866.500	516.451	80.002	19.997	103.755	19.994	10.874	0.521
867.000	516.697	80.002	19.998	103.753	19.992	11.012	0.552
867.500	516.941	80.002	19.993	103.752	19.992	11.038	0.518
868.000	517.235	79.999	19.994	103.752	19.991	11.072	0.514
868.500	517.471	80.003	19.996	103.753	19.994	10.908	0.534
869.000	517.757	80.007	19.991	103.753	19.994	10.908	0.526
869.500	518.015	80.002	19.995	103.756	19.993	10.989	0.533
870.000	518.249	80.005	19.994	103.756	19.996	10.747	0.518
870.500	518.495	80.001	19.993	103.756	19.993	10.934	0.486
871.000	518.759	80.000	19.995	103.757	19.994	10.891	0.495
871.500	518.999	80.004	19.993	103.756	19.994	10.910	0.507
872.000	519.283	80.017	19.993	103.756	19.993	10.955	0.514
872.500	519.505	80.012	19.992	103.759	19.994	10.897	0.515
873.000	519.807	80.011	19.989	103.760	19.993	10.929	0.515
873.500	520.049	80.002	19.997	103.759	19.994	10.840	0.534
874.000	520.273	80.004	19.993	103.759	19.990	11.148	0.505
874.500	520.554	80.003	19.997	103.756	19.993	10.965	0.486
875.000	520.790	79.999	19.997	103.752	19.992	11.063	0.511
875.500	521.026	80.002	19.995	103.749	19.996	10.740	0.494
876.000	521.333	80.002	19.990	103.749	19.995	10.761	0.508
876.500	521.549	80.009	19.991	103.751	19.989	11.235	0.533
877.000	521.850	80.006	19.992	103.754	19.994	10.856	0.520
877.500	522.108	80.001	19.995	103.758	19.993	10.937	0.538
878.000	522.337	80.013	19.993	103.760	19.992	11.065	0.523
878.500	522.617	80.007	19.992	103.762	19.990	11.192	0.498
879.000	522.865	80.009	19.992	103.762	19.994	10.899	0.518
879.500	523.111	80.003	19.998	103.762	19.992	11.058	0.511
880.000	523.347	80.005	19.995	103.762	19.990	11.148	0.488
880.500	523.575	80.004	19.991	103.762	19.992	11.046	0.474
881.000	523.862	80.002	19.994	103.762	19.992	11.016	0.489
881.500	524.112	79.998	19.999	103.762	19.994	10.891	0.526
882.000	524.396	80.007	19.997	103.759	19.993	10.970	0.536
882.500	524.640	80.003	19.995	103.760	19.992	11.061	0.531
883.000	524.898	80.014	19.995	103.758	19.994	10.897	0.515
883.500	525.129	79.996	19.998	103.756	19.992	11.027	0.495
884.000	525.398	80.004	19.994	103.755	19.993	10.961	0.495
884.500	525.660	80.017	19.992	103.758	19.994	10.865	0.516
885.000	525.923	80.005	19.995	103.754	19.992	11.021	0.527
885.500	526.186	80.004	19.993	103.755	19.992	11.044	0.525
886.000	526.423	80.000	19.997	103.755	19.992	11.001	0.513
886.500	526.680	80.004	19.994	103.755	19.993	10.972	0.497
887.000	526.942	79.997	19.997	103.755	19.992	11.048	0.506
887.500	527.198	80.007	19.999	103.756	19.992	10.998	0.519
888.000	527.448	79.997	19.989	103.754	19.992	11.038	0.512
888.500	527.690	79.999	19.998	103.753	19.994	10.872	0.499
889.000	527.984	80.006	19.990	103.753	19.993	10.978	0.514
889.500	528.224	80.005	19.995	103.754	19.991	11.097	0.535
890.000	528.502	80.008	19.992	103.754	19.993	10.927	0.526
890.500	528.731	79.996	19.994	103.756	19.993	10.940	0.513
891.000	528.984	80.002	19.995	103.756	19.992	11.051	0.494
891.500	529.272	80.001	19.995	103.757	19.990	11.159	0.512
892.000	529.510	80.006	19.994	103.756	19.991	11.135	0.533
892.500	529.736	80.007	19.986	103.758	19.993	10.959	0.495
893.000	530.015	79.995	19.994	103.760	19.993	10.920	0.484
893.500	530.259	80.000	19.993	103.760	19.989	11.256	0.514
894.000	530.535	80.002	20.000	103.760	19.989	11.228	0.522
894.500	530.780	80.006	19.990	103.758	19.988	11.360	0.520
895.000	531.011	79.998	19.999	103.761	19.990	11.218	0.498
895.500	531.297	80.003	19.994	103.757	19.986	11.475	0.497
896.000	531.581	80.000	20.000	103.759	19.987	11.407	0.544
896.500	531.821	80.013	19.993	103.759	19.988	11.373	0.547
897.000	532.109	80.001	19.994	103.759	19.990	11.186	0.526
897.500	532.338	80.005	19.992	103.758	19.992	11.041	0.522
898.000	532.615	80.009	19.992	103.761	19.986	11.520	0.512
898.500	532.844	80.005	19.996	103.762	19.988	11.318	0.506
899.000	533.152	79.999	19.996	103.761	19.990	11.152	0.521
899.500	533.353	80.004	19.990	103.761	19.992	11.021	0.523
900.000	533.642	80.003	19.992	103.762	19.987	11.399	0.500
900.500	533.887	79.998	19.998	103.761	19.990	11.210	0.512
901.000	534.137	80.002	19.992	103.760	19.990	11.185	0.515
901.500	534.409	79.997	19.998	103.765	19.992	11.066	0.509
902.000	534.656	80.000	19.994	103.764	19.993	10.985	0.520
902.500	534.877	79.990	19.999	103.762	19.990	11.166	0.493
903.000	535.179	80.007	19.995	103.759	19.992	11.023	0.495
903.500	535.413	79.997	19.994	103.759	19.994	10.899	0.530
904.000	535.691	80.018	19.990	103.755	19.992	11.061	0.525
904.500	535.936	79.994	19.995	103.757	19.992	11.001	0.518
905.000	536.143	80.016	19.995	103.755	19.988	11.371	0.488
905.500	536.447	80.005	19.992	103.757	19.988	11.312	0.481
906.000	536.707	79.992	20.001	103.757	19.987	11.395	0.537
906.500	536.971	80.000	19.995	103.757	19.989	11.255	0.544
907.000	537.198	80.002	19.994	103.755	19.987	11.393	0.508
907.500	537.443	80.003	19.994	103.756	19.988	11.319	0.482
908.000	537.698	79.997	19.994	103.757	19.990	11.193	0.486
908.500	537.972	79.998	19.994	103.755	19.990	11.196	0.514
909.000	538.253	79.987	19.995	103.758	19.987	11.386	0.542
909.500	538.443	79.996	19.996	103.757	19.988	11.303	0.513
910.000	538.706	80.003	19.992	103.758	19.990	11.205	0.462
910.500	538.965	80.012	19.991	103.760	19.992	11.063	0.487
911.000	539.251	80.004	19.989	103.760	19.987	11.411	0.533
911.500	539.486	80.017	19.991	103.763	19.990	11.216	0.534
912.000	539.753	79.999	19.995	103.767	19.987	11.384	0.512
912.500	540.012	80.002	19.987	103.767	19.984	11.650	0.514
913.000	540.275	79.989	19.995	103.766	19.988	11.346	0.524
913.500	540.541	80.001	19.996	103.765	19.988	11.371	0.525
914.000	540.810	80.000	19.995	103.762	19.987	11.446	0.532
914.500	541.029	80.000	19.993	103.757	19.987	11.430	0.512
915.000	541.331	80.007	19.992	103.758	19.986	11.468	0.504
915.500	541.537	80.005	19.993	103.758	19.988	11.335	0.514
916.000	541.825	80.004	19.997	103.759	19.993	10.980	0.501
916.500	542.057	80.009	19.993	103.758	19.988	11.345	0.507
917.000	542.367	80.007	19.990	103.759	19.988	11.347	0.531
917.500	542.603	80.016	19.986	103.762	19.991	11.116	0.544
918.000	542.867	79.990	19.995	103.765	19.989	11.234	0.523
918.500	543.120	80.005	19.993	103.766	19.992	11.033	0.508
919.000	543.336	80.000	19.992	103.766	19.990	11.194	0.493
919.500	543.580	79.994	19.996	103.767	19.989	11.245	0.465
920.000	543.872	80.002	19.993	103.763	19.986	11.460	0.498
920.500	544.088	80.000	19.993	103.758	19.988	11.346	0.522
921.000	544.341	80.002	19.997	103.757	19.987	11.382	0.488
921.500	544.621	80.003	19.990	103.756	19.989	11.237	0.500
922.000	544.891	80.004	19.992	103.757	19.990	11.187	0.541
922.500	545.167	80.012	19.995	103.760	19.990	11.203	0.548
923.000	545.370	79.997	19.995	103.763	19.989	11.227	0.512
923.500	545.616	80.008	19.988	103.762	19.988	11.326	0.464
924.000	545.905	80.008	19.995	103.763	19.984	11.617	0.492
924.500	546.149	80.007	19.999	103.762	19.986	11.475	0.534
925.000	546.398	80.004	19.999	103.760	19.987	11.424	0.513
925.500	546.643	80.000	19.995	103.756	19.988	11.315	0.493
926.000	546.922	80.002	19.992	103.755	19.987	11.409	0.509
926.500	547.173	80.002	19.987	103.755	19.987	11.440	0.528
927.000	547.424	80.002	19.993	103.755	19.987	11.404	0.516
927.500	547.652	79.993	19.997	103.755	19.987	11.419	0.491
928.000	547.944	80.003	19.992	103.752	19.987	11.428	0.500
928.500	548.209	80.001	19.994	103.754	19.988	11.328	0.538
929.000	548.487	80.022	19.992	103.752	19.986	11.464	0.550
929.500	548.698	80.002	19.994	103.753	19.987	11.428	0.516
930.000	548.961	80.003	19.992	103.754	19.988	11.326	0.481
930.500	549.250	80.012	19.989	103.755	19.984	11.655	0.513
931.000	549.439	80.007	19.996	103.758	19.984	11.689	0.515
931.500	549.763	80.001	19.992	103.759	19.986	11.496	0.495
932.000	550.042	80.015	19.993	103.760	19.984	11.653	0.558
932.500	550.277	79.998	19.992	103.761	19.985	11.536	0.559
933.000	550.520	80.001	19.994	103.763	19.987	11.433	0.497
933.500	550.772	80.012	19.993	103.759	19.986	11.473	0.487
934.000	550.994	80.008	19.993	103.758	19.985	11.549	0.484
934.500	551.279	80.009	19.993	103.756	19.985	11.568	0.490
935.000	551.548	79.993	19.994	103.757	19.986	11.489	0.530
935.500	551.817	79.985	19.994	103.755	19.986	11.464	0.546
936.000	552.044	80.022	19.991	103.753	19.987	11.423	0.517
936.500	552.320	80.014	19.995	103.755	19.985	11.557	0.500
937.000	552.546	80.006	19.993	103.754	19.982	11.787	0.503
937.500	552.820	80.007	19.989	103.751	19.988	11.358	0.501
938.000	553.044	80.006	19.992	103.751	19.983	11.705	0.499
938.500	553.333	80.008	19.994	103.754	19.982	11.845	0.506
939.000	553.579	79.991	19.996	103.754	19.982	11.809	0.524
939.500	553.848	80.003	19.993	103.751	19.984	11.680	0.525
940.000	554.113	80.000	19.992	103.751	19.985	11.614	0.524
940.500	554.407	80.004	19.993	103.752	19.984	11.645	0.546
941.000	554.602	80.007	19.994	103.751	19.981	11.900	0.525
941.500	554.878	79.998	19.990	103.750	19.979	12.025	0.480
942.000	555.130	80.016	19.992	103.753	19.981	11.897	0.500
942.500	555.418	80.010	19.991	103.754	19.982	11.793	0.534
943.000	555.666	80.016	19.992	103.755	19.977	12.197	0.538
943.500	555.914	80.014	19.991	103.755	19.982	11.815	0.516
944.000	556.214	80.013	19.992	103.757	19.983	11.713	0.522
944.500	556.403	79.998	19.995	103.757	19.984	11.624	0.518
945.000	556.673	79.993	19.993	103.756	19.985	11.564	0.474
945.500	556.952	80.006	19.995	103.754	19.980	11.927	0.504
946.000	557.190	79.999	19.993	103.753	19.983	11.751	0.533
946.500	557.446	80.008	19.990	103.751	19.983	11.702	0.505
947.001	557.741	80.006	19.991	103.750	19.982	11.781	0.522
947.500	557.975	80.006	19.991	103.752	19.980	11.934	0.540
948.000	558.223	80.004	19.994	103.754	19.980	11.941	0.506
948.500	558.496	80.012	19.992	103.754	19.980	11.947	0.501
949.000	558.734	80.005	19.996	103.759	19.982	11.826	0.516
949.500	558.977	80.002	19.999	103.761	19.981	11.925	0.496
950.000	559.234	80.021	19.990	103.760	19.983	11.736	0.491
950.500	559.475	79.994	19.994	103.764	19.981	11.906	0.499
951.000	559.732	79.994	19.997	103.764	19.984	11.651	0.498
951.500	559.988	80.009	19.993	103.758	19.985	11.567	0.505
952.000	560.236	79.998	19.991	103.755	19.984	11.643	0.508
952.500	560.498	80.003	19.990	103.756	19.979	12.008	0.507
953.000	560.733	80.001	19.994	103.753	19.981	11.892	0.504
953.500	561.025	80.008	19.992	103.753	19.981	11.868	0.513
954.000	561.261	80.003	19.992	103.757	19.983	11.743	0.527
954.500	561.504	80.000	19.995	103.758	19.982	11.819	0.503
955.000	561.795	80.004	19.994	103.757	19.978	12.091	0.506
955.500	562.028	80.000	19.994	103.757	19.980	12.003	0.529
956.000	562.293	80.000	19.993	103.757	19.984	11.621	0.511
956.500	562.560	80.003	19.994	103.755	19.979	12.024	0.515
957.000	562.814	79.993	19.990	103.755	19.984	11.680	0.526
957.500	563.053	80.013	19.989	103.756	19.979	12.021	0.507
958.000	563.328	80.002	19.995	103.759	19.980	11.934	0.503
958.500	563.560	80.001	19.995	103.759	19.982	11.819	0.510
959.000	563.810	80.008	19.993	103.759	19.982	11.829	0.495
959.500	564.078	79.998	19.996	103.761	19.980	11.929	0.500
960.000	564.309	80.002	19.994	103.758	19.981	11.891	0.508
960.500	564.591	80.004	19.990	103.755	19.981	11.897	0.506
961.000	564.838	80.002	19.992	103.756	19.984	11.626	0.521
961.500	565.082	80.000	19.993	103.757	19.982	11.777	0.510
962.000	565.311	80.002	19.986	103.756	19.980	12.002	0.482
962.500	565.588	80.002	19.991	103.760	19.981	11.926	0.489
963.000	565.817	79.999	19.997	103.760	19.980	11.951	0.506
963.500	566.098	79.999	19.994	103.758	19.980	11.930	0.508
964.000	566.357	80.003	19.994	103.758	19.981	11.904	0.525
964.501	566.600	80.000	19.994	103.758	19.982	11.837	0.521
965.000	566.884	80.003	19.995	103.756	19.979	12.019	0.514
965.500	567.129	80.006	19.994	103.757	19.982	11.828	0.528
966.000	567.398	80.005	19.992	103.752	19.978	12.102	0.522
966.500	567.625	80.010	19.992	103.750	19.977	12.213	0.505
967.000	567.889	80.001	19.997	103.750	19.978	12.119	0.494
967.500	568.113	80.001	19.994	103.749	19.977	12.174	0.490
968.000	568.373	80.000	19.988	103.748	19.976	12.259	0.486
968.500	568.673	80.001	19.991	103.753	19.978	12.096	0.522
969.000	568.862	79.984	19.998	103.755	19.977	12.232	0.524
969.500	569.152	79.982	19.996	103.751	19.977	12.206	0.484
970.000	569.437	80.012	19.992	103.751	19.977	12.202	0.527
970.500	569.664	79.998	19.995	103.753	19.976	12.304	0.544
971.000	569.925	80.003	19.995	103.753	19.975	12.334	0.500
971.500	570.188	80.005	19.991	103.752	19.974	12.416	0.506
972.000	570.425	80.000	19.996	103.757	19.976	12.302	0.512
972.500	570.695	80.008	19.994	103.759	19.975	12.370	0.503
973.000	570.911	80.005	19.991	103.757	19.973	12.525	0.496
973.500	571.174	80.007	19.993	103.758	19.973	12.546	0.482
974.000	571.422	80.004	19.993	103.758	19.974	12.402	0.495
974.500	571.716	80.006	19.992	103.757	19.975	12.319	0.526
975.000	571.926	80.004	19.997	103.758	19.976	12.255	0.523
975.500	572.210	80.001	19.991	103.760	19.975	12.350	0.499
976.000	572.429	80.002	19.995	103.761	19.975	12.338	0.499
976.500	572.712	80.003	19.990	103.761	19.976	12.267	0.502
977.000	572.974	80.000	19.995	103.761	19.975	12.382	0.523
977.500	573.241	80.005	19.988	103.760	19.973	12.501	0.537
978.000	573.498	80.002	19.994	103.760	19.976	12.276	0.527
978.500	573.764	80.003	19.996	103.759	19.974	12.422	0.523
979.000	573.989	80.001	19.991	103.758	19.975	12.384	0.507
979.500	574.283	79.999	19.990	103.758	19.975	12.363	0.505
980.000	574.513	80.002	19.993	103.760	19.976	12.267	0.522
980.500	574.800	80.001	19.997	103.759	19.974	12.471	0.521
981.000	575.008	80.007	19.993	103.759	19.978	12.155	0.506
981.500	575.293	79.996	19.994	103.760	19.978	12.127	0.494
982.000	575.525	80.004	19.993	103.759	19.978	12.106	0.505
982.500	575.833	79.999	19.994	103.758	19.976	12.278	0.528
983.000	576.063	80.006	19.990	103.758	19.978	12.146	0.539
983.500	576.306	80.003	19.994	103.759	19.976	12.275	0.505
984.000	576.573	80.005	19.993	103.759	19.976	12.292	0.492
984.500	576.831	80.003	19.988	103.760	19.975	12.347	0.518
985.000	577.064	80.000	19.993	103.761	19.975	12.358	0.508
985.500	577.289	80.001	19.993	103.760	19.977	12.186	0.474
986.000	577.589	80.003	19.994	103.759	19.974	12.432	0.491
986.500	577.842	80.003	19.993	103.757	19.974	12.424	0.539
987.000	578.046	80.002	19.995	103.758	19.974	12.464	0.505
987.500	578.297	80.003	19.994	103.756	19.977	12.209	0.456
988.000	578.585	79.998	19.996	103.754	19.975	12.339	0.497
988.500	578.814	80.002	19.993	103.753	19.973	12.535	0.528
989.000	579.088	80.000	19.993	103.754	19.975	12.383	0.510
989.500	579.360	80.001	19.994	103.752	19.974	12.417	0.525
990.000	579.611	80.001	19.995	103.753	19.972	12.621	0.534
990.500	579.832	80.001	19.997	103.753	19.976	12.311	0.497
991.000	580.116	80.002	19.994	103.754	19.974	12.439	0.489
991.500	580.341	80.000	19.994	103.754	19.972	12.583	0.507
992.000	580.621	80.005	19.994	103.754	19.974	12.460	0.507
992.500	580.876	80.004	19.995	103.754	19.972	12.577	0.520
993.000	581.113	80.005	19.995	103.754	19.975	12.384	0.513
993.500	581.347	80.003	19.995	103.755	19.970	12.749	0.482
994.000	581.613	80.002	19.995	103.752	19.972	12.630	0.485
994.500	581.880	80.005	19.995	103.751	19.971	12.702	0.517
995.000	582.158	80.004	19.995	103.750	19.968	12.893	0.539
995.500	582.425	80.005	19.995	103.750	19.969	12.847	0.545
996.000	582.635	80.001	19.994	103.748	19.968	12.934	0.511
996.500	582.880	80.003	19.995	103.748	19.967	12.989	0.466
997.000	583.153	80.003	19.995	103.749	19.965	13.138	0.487
997.500	583.388	80.004	19.995	103.749	19.968	12.872	0.513
998.000	583.619	80.003	19.993	103.749	19.967	12.968	0.487
998.500	583.873	80.005	19.993	103.751	19.965	13.117	0.475
999.000	584.167	80.006	19.993	103.752	19.968	12.940	0.516
999.500	584.344	80.005	19.994	103.752	19.964	13.220	0.509
1000.000	584.610	80.003	19.995	103.750	19.965	13.129	0.457
1000.500	584.865	80.006	19.992	103.749	19.969	12.804	0.482
1001.000	585.123	80.004	19.992	103.748	19.964	13.178	0.517
1001.500	585.385	80.004	19.993	103.748	19.971	12.653	0.517
1002.000	585.633	80.007	19.994	103.749	19.969	12.847	0.515
1002.500	585.864	80.000	19.994	103.751	19.967	12.951	0.495
1003.000	586.131	80.008	19.990	103.752	19.965	13.142	0.489
1003.500	586.374	80.007	19.993	103.752	19.967	13.011	0.504
1004.000	586.567	80.004	19.994	103.752	19.969	12.813	0.473
1004.500	586.893	80.000	19.995	103.750	19.968	12.923	0.477
1005.000	587.100	80.013	19.992	103.749	19.968	12.936	0.526
1005.500	587.346	80.003	19.993	103.750	19.965	13.136	0.493
1006.000	587.616	79.998	19.999	103.750	19.967	12.968	0.484
1006.500	587.857	80.014	19.994	103.749	19.967	12.981	0.513
1007.000	588.111	80.001	19.993	103.751	19.968	12.934	0.503
1007.500	588.318	80.006	19.994	103.752	19.966	13.057	0.478
1008.000	588.628	80.006	19.992	103.752	19.962	13.353	0.489
1008.500	588.823	80.007	19.993	103.752	19.964	13.206	0.511
1009.000	589.055	80.004	19.995	103.754	19.963	13.325	0.466
1009.500	589.301	80.007	19.994	103.752	19.967	12.991	0.452
1010.000	589.552	80.004	19.995	103.751	19.965	13.104	0.487
1010.500	589.793	80.004	19.994	103.748	19.967	12.996	0.495
1011.000	590.044	80.005	19.994	103.748	19.967	13.004	0.492
1011.500	590.318	80.005	19.994	103.749	19.967	13.021	0.508
1012.000	590.583	80.004	19.993	103.749	19.966	13.077	0.532
1012.500	590.788	80.005	19.992	103.750	19.965	13.123	0.505
1013.000	591.081	80.006	19.993	103.753	19.967	13.017	0.484
1013.500	591.283	80.004	19.995	103.754	19.964	13.183	0.497
1014.000	591.528	80.004	19.992	103.754	19.965	13.168	0.471
1014.500	591.835	80.004	19.994	103.753	19.965	13.172	0.499
1015.000	592.051	80.006	19.993	103.753	19.965	13.126	0.537
1015.500	592.358	80.006	19.994	103.752	19.964	13.226	0.523
1016.000	592.610	80.003	19.994	103.751	19.964	13.192	0.541
1016.500	592.829	80.003	19.995	103.751	19.963	13.319	0.515
1017.000	593.074	80.005	19.989	103.752	19.964	13.245	0.468
1017.500	593.346	80.007	19.990	103.753	19.961	13.430	0.490
1018.000	593.565	80.002	19.996	103.753	19.964	13.179	0.504
1018.500	593.835	80.004	19.996	103.752	19.962	13.351	0.490
1019.000	594.133	80.004	19.993	103.752	19.963	13.311	0.529
1019.500	594.344	80.003	19.993	103.753	19.964	13.238	0.539
1020.000	594.631	80.006	19.993	103.753	19.962	13.403	0.504
1020.500	594.890	80.006	19.993	103.753	19.961	13.459	0.522
1021.000	595.102	80.005	19.993	103.754	19.962	13.354	0.509
1021.500	595.390	80.009	19.991	103.754	19.964	13.229	0.486
1022.000	595.600	80.001	19.995	103.755	19.961	13.444	0.499
1022.500	595.880	80.006	19.993	103.754	19.961	13.476	0.494
1023.000	596.118	80.007	19.989	103.754	19.963	13.272	0.504
1023.500	596.388	80.007	19.993	103.755	19.966	13.028	0.513
1024.001	596.662	80.004	19.995	103.756	19.962	13.340	0.526
1024.500	596.876	80.001	19.991	103.755	19.963	13.302	0.516
1025.000	597.156	80.004	19.991	103.756	19.960	13.521	0.491
1025.500	597.374	80.004	19.992	103.756	19.965	13.168	0.495
1026.000	597.660	80.007	19.989	103.755	19.960	13.538	0.501
1026.500	597.882	80.008	19.990	103.756	19.958	13.666	0.506
1027.000	598.163	80.009	19.991	103.758	19.959	13.628	0.505
1027.500	598.408	80.011	19.987	103.758	19.962	13.371	0.515
1028.000	598.675	80.008	19.988	103.760	19.962	13.411	0.520
1028.500	598.900	80.000	19.993	103.761	19.960	13.504	0.502
1029.000	599.142	80.003	19.994	103.757	19.960	13.519	0.479
1029.500	599.368	80.003	19.991	103.756	19.959	13.572	0.467
1030.000	599.649	80.000	19.995	103.756	19.960	13.527	0.488
1030.500	599.932	79.999	19.990	103.752	19.960	13.510	0.536
1031.000	600.141	80.003	19.998	103.749	19.958	13.687	0.528
1031.500	600.422	80.004	19.992	103.750	19.964	13.251	0.491
1032.000	600.668	80.003	19.991	103.751	19.960	13.529	0.508
1032.500	600.870	80.007	19.991	103.751	19.960	13.521	0.487
1033.000	601.213	80.003	19.993	103.754	19.964	13.209	0.497
1033.500	601.405	80.005	19.996	103.756	19.963	13.322	0.540
1034.000	601.662	79.998	19.991	103.757	19.959	13.602	0.492
1034.500	601.942	80.004	19.994	103.756	19.971	12.702	0.493
1035.000	602.165	80.004	19.994	103.755	19.953	14.102	0.520
1035.500	602.438	80.007	19.993	103.755	19.952	14.161	0.500
1036.000	602.647	80.001	19.992	103.756	19.966	13.061	0.489
1036.501	602.953	80.002	19.989	103.758	19.951	14.261	0.499
1037.001	603.176	80.005	19.997	103.760	19.959	13.602	0.522
1037.500	603.459	80.004	19.995	103.760	19.961	13.443	0.517
1038.000	603.722	80.004	19.995	103.760	19.964	13.224	0.526
1038.500	603.949	79.997	19.995	103.760	19.960	13.568	0.518
1039.000	604.124	80.005	19.988	103.759	19.960	13.543	0.446
1039.500	604.436	80.003	19.993	103.759	19.960	13.509	0.444
1040.000	604.586	80.001	19.993	103.757	19.959	13.645	0.474
1040.500	605.003	80.003	19.994	103.757	19.964	13.209	0.514
1041.000	605.205	79.996	19.998	103.757	19.962	13.381	0.593
1041.500	605.422	79.999	19.997	103.756	19.955	13.952	0.519
1042.000	605.702	79.998	19.995	103.755	19.963	13.281	0.458
1042.500	605.884	80.001	19.991	103.756	19.959	13.574	0.479
1043.000	606.176	80.003	19.990	103.757	19.962	13.372	0.468
1043.500	606.511	80.000	19.998	103.757	19.957	13.737	0.551
1044.000	606.645	80.003	19.990	103.758	19.958	13.655	0.548
1044.500	606.862	80.002	19.992	103.759	19.954	13.978	0.410
1045.000	607.268	80.001	19.995	103.762	19.955	13.914	0.487
1045.500	607.549	80.008	19.992	103.763	19.959	13.646	0.655
1046.000	607.654	79.999	19.989	103.762	19.956	13.863	0.537
1046.500	607.709	80.007	19.990	103.763	19.957	13.774	0.273
1047.000	608.277	79.993	19.993	103.764	19.956	13.867	0.391
1047.500	608.802	79.998	19.993	103.761	19.959	13.627	0.858
1048.000	608.592	79.995	19.996	103.762	19.956	13.808	0.704
1048.500	609.116	80.006	19.992	103.761	19.958	13.695	0.315
1049.000	608.474	79.998	19.995	103.762	19.957	13.731	0.098
1049.500	608.811	80.008	19.995	103.759	19.956	13.808	-0.211
1050.000	609.941	80.000	19.993	103.762	19.956	13.825	0.581
1050.500	609.667	80.001	19.992	103.760	19.954	13.969	1.161
1051.000	609.713	80.006	19.991	103.761	19.957	13.737	0.314
1051.500	610.685	80.011	19.989	103.760	19.957	13.784	0.395
1052.000	610.820	80.006	19.995	103.762	19.953	14.101	1.062
1052.500	610.822	79.999	19.993	103.758	19.954	13.982	0.622
1053.000	611.225	80.004	19.994	103.758	19.956	13.831	0.271
1053.500	611.522	80.004	19.996	103.758	19.957	13.767	0.552
1054.000	611.696	80.004	19.994	103.755	19.955	13.903	0.586
1054.500	612.027	80.004	19.996	103.754	19.950	14.294	0.488
1055.000	612.434	80.007	19.991	103.755	19.952	14.158	0.621
1055.500	612.371	80.003	19.989	103.755	19.953	14.067	0.541
1056.000	612.882	80.002	19.989	103.756	19.955	13.927	0.396
1056.501	613.056	80.000	19.993	103.756	19.954	14.005	0.567
1057.001	613.297	80.005	19.993	103.755	19.951	14.252	0.550
1057.501	613.490	80.000	19.996	103.757	19.951	14.237	0.424
1058.001	613.714	79.999	19.994	103.756	19.949	14.381	0.425
1058.500	614.032	80.000	19.991	103.754	19.950	14.318	0.480
1059.000	614.281	79.999	19.990	103.755	19.952	14.171	0.555
1059.500	614.556	80.000	19.994	103.758	19.949	14.390	0.545
1060.000	614.769	79.995	19.994	103.757	19.950	14.345	0.506
1060.501	615.130	80.003	19.994	103.756	19.951	14.226	0.531
1061.001	615.312	80.000	19.993	103.756	19.953	14.097	0.558
1061.500	615.606	80.000	19.995	103.757	19.952	14.135	0.509
1062.000	615.850	80.003	19.995	103.755	19.954	13.971	0.507
1062.500	616.052	80.008	19.994	103.755	19.951	14.266	0.492
1063.000	616.360	80.003	19.991	103.757	19.951	14.196	0.478
1063.500	616.645	80.003	19.995	103.758	19.952	14.168	0.552
1064.000	616.851	80.003	19.993	103.755	19.952	14.185	0.542
1064.501	617.093	80.002	19.993	103.756	19.957	13.803	0.469
1065.001	617.385	80.005	19.995	103.756	19.957	13.792	0.491
1065.501	617.650	79.999	19.996	103.755	19.954	14.024	0.546
1066.001	617.882	80.008	19.992	103.754	19.952	14.145	0.527
1066.501	618.117	80.001	19.991	103.755	19.953	14.079	0.482
1067.001	618.346	80.002	19.993	103.755	19.954	13.984	0.465
1067.500	618.677	80.005	19.993	103.755	19.955	13.888	0.512
1068.000	618.882	80.002	19.993	103.756	19.951	14.223	0.548
1068.500	619.172	80.004	19.993	103.757	19.955	13.937	0.516
1069.000	619.413	80.001	19.993	103.757	19.955	13.917	0.513
1069.500	619.639	80.008	19.992	103.756	19.955	13.909	0.499
1070.000	619.927	80.000	19.997	103.756	19.956	13.879	0.490
1070.500	620.147	80.005	19.995	103.755	19.952	14.141	0.511
1071.000	620.433	79.991	19.995	103.755	19.953	14.060	0.507
1071.500	620.690	80.003	19.994	103.754	19.955	13.945	0.525
1072.000	620.935	80.002	19.995	103.755	19.953	14.064	0.523
1072.500	621.206	80.003	19.994	103.754	19.955	13.892	0.509
1073.000	621.478	80.005	19.994	103.754	19.954	13.992	0.530
1073.500	621.734	80.003	19.996	103.754	19.955	13.922	0.535
1074.000	621.959	80.003	19.997	103.753	19.952	14.171	0.504
1074.500	622.256	80.004	19.993	103.753	19.953	14.064	0.501
1075.000	622.538	80.003	19.992	103.753	19.954	14.007	0.551
1075.500	622.779	80.002	19.993	103.753	19.955	13.900	0.551
1076.000	623.072	80.006	19.994	103.753	19.954	13.964	0.529
1076.500	623.321	80.001	19.993	103.754	19.954	13.959	0.538
1077.000	623.629	80.007	19.992	103.753	19.955	13.921	0.549
1077.500	623.807	80.003	19.993	103.755	19.951	14.208	0.521
1078.000	624.120	80.002	19.999	103.755	19.952	14.155	0.488
1078.500	624.355	80.002	19.996	103.753	19.952	14.136	0.520
1079.000	624.638	80.003	19.998	103.751	19.950	14.344	0.533
1079.500	624.843	80.008	19.990	103.751	19.953	14.093	0.503
1080.000	625.160	80.005	19.994	103.751	19.952	14.159	0.505
1080.501	625.437	80.012	19.990	103.750	19.951	14.232	0.558
1081.001	625.654	80.000	20.002	103.753	19.954	13.977	0.544
1081.500	625.908	80.006	19.998	103.753	19.952	14.147	0.483
1082.000	626.224	80.004	19.994	103.753	19.952	14.121	0.521
1082.500	626.453	80.004	20.001	103.752	19.953	14.038	0.557
1083.001	626.748	80.005	19.993	103.751	19.952	14.125	0.534
1083.501	626.983	80.002	19.994	103.750	19.952	14.122	0.527
1084.000	627.307	80.002	19.993	103.751	19.954	14.004	0.544
1084.501	627.551	80.005	19.994	103.752	19.951	14.233	0.563
1085.001	627.785	80.004	19.999	103.753	19.953	14.108	0.523
1085.500	628.076	80.004	19.994	103.753	19.949	14.413	0.502
1086.000	628.305	80.004	19.993	103.753	19.953	14.103	0.523
1086.501	628.581	80.002	19.992	103.750	19.952	14.128	0.513
1087.001	628.811	80.000	19.996	103.751	19.951	14.203	0.505
1087.501	629.088	80.007	19.993	103.747	19.954	14.024	0.507
1088.001	629.369	80.003	19.996	103.748	19.952	14.143	0.533
1088.500	629.627	80.000	19.995	103.747	19.951	14.266	0.548
1089.000	629.829	80.004	19.998	103.748	19.953	14.082	0.499
1089.500	630.096	79.998	19.999	103.748	19.956	13.820	0.464
1090.000	630.399	80.000	19.996	103.747	19.951	14.232	0.520
1090.500	630.663	80.005	19.996	103.747	19.955	13.958	0.568
1091.000	630.911	80.008	19.993	103.748	19.952	14.128	0.540
1091.500	631.173	80.000	19.996	103.750	19.952	14.139	0.511
1092.000	631.457	80.000	19.996	103.749	19.951	14.253	0.528
1092.501	631.671	80.005	19.994	103.751	19.953	14.094	0.522
1093.001	631.934	80.006	19.987	103.750	19.952	14.179	0.487
1093.500	632.182	79.999	19.995	103.747	19.953	14.105	0.494
1094.000	632.413	80.005	19.995	103.744	19.950	14.300	0.496
1094.500	632.719	80.001	19.995	103.742	19.953	14.071	0.508
1095.000	632.978	80.005	19.996	103.744	19.951	14.213	0.551
1095.500	633.291	80.005	19.994	103.745	19.950	14.300	0.568
1096.000	633.473	80.003	19.997	103.749	19.953	14.073	0.533
1096.501	633.770	80.002	19.991	103.751	19.952	14.181	0.487
1097.001	633.988	80.003	19.994	103.754	19.950	14.328	0.497
1097.501	634.290	80.006	19.994	103.755	19.949	14.355	0.518
1098.001	634.549	80.003	19.993	103.755	19.950	14.308	0.540
1098.500	634.813	80.000	19.992	103.756	19.948	14.491	0.542
1099.000	635.060	80.003	19.997	103.756	19.954	13.988	0.517
1099.500	635.364	80.002	19.992	103.755	19.953	14.109	0.531
1100.000	635.615	80.005	19.990	103.754	19.953	14.113	0.554
1100.500	635.851	80.004	19.990	103.755	19.950	14.338	0.521
1101.000	636.114	80.003	19.997	103.755	19.954	13.962	0.492
1101.500	636.377	80.007	19.993	103.753	19.953	14.042	0.513
1102.000	636.627	80.005	19.992	103.754	19.952	14.159	0.520
1102.500	636.909	80.009	19.991	103.753	19.951	14.244	0.522
1103.001	637.138	80.008	19.997	103.751	19.951	14.249	0.522
1103.501	637.392	80.009	19.989	103.750	19.950	14.285	0.497
1104.000	637.674	80.002	19.999	103.752	19.949	14.353	0.509
1104.500	637.938	80.009	19.992	103.751	19.953	14.111	0.540
1105.000	638.185	80.003	19.994	103.753	19.954	14.037	0.528
1105.501	638.412	80.006	19.988	103.752	19.953	14.054	0.493
1106.001	638.699	80.006	19.986	103.752	19.950	14.311	0.494
1106.500	638.942	80.009	19.991	103.753	19.952	14.177	0.522
1107.000	639.229	80.004	19.990	103.755	19.953	14.039	0.530
1107.501	639.495	80.005	19.993	103.753	19.953	14.101	0.541
1108.001	639.719	80.001	19.996	103.752	19.955	13.956	0.522
1108.500	639.990	80.008	19.992	103.752	19.953	14.109	0.493
1109.000	640.271	80.001	19.990	103.751	19.951	14.258	0.524
1109.500	640.507	80.006	19.988	103.751	19.951	14.214	0.534
1110.001	640.736	79.997	19.996	103.753	19.953	14.099	0.491
1110.501	640.998	80.003	19.996	103.756	19.951	14.260	0.478
1111.000	641.230	80.006	19.993	103.754	19.951	14.237	0.492
1111.500	641.498	80.004	19.993	103.750	19.949	14.373	0.497
1112.000	641.803	80.001	19.993	103.749	19.951	14.228	0.536
1112.500	642.036	79.998	19.999	103.747	19.952	14.181	0.556
1113.000	642.270	79.998	20.003	103.747	19.948	14.441	0.503
1113.500	642.590	80.002	19.993	103.747	19.951	14.224	0.510
1114.000	642.859	80.006	19.992	103.752	19.950	14.307	0.571
1114.500	643.106	80.002	19.991	103.753	19.953	14.086	0.552
1115.000	643.345	80.002	19.993	103.754	19.951	14.230	0.501
1115.501	643.658	80.004	19.994	103.755	19.950	14.283	0.520
1116.001	643.864	80.007	19.992	103.757	19.952	14.175	0.536
1116.500	644.100	79.997	19.996	103.757	19.951	14.253	0.481
1117.001	644.369	80.004	19.992	103.756	19.953	14.045	0.474
1117.501	644.626	79.998	19.995	103.756	19.953	14.088	0.515
1118.001	644.892	80.001	19.995	103.756	19.951	14.260	0.524
1118.501	645.150	80.003	19.996	103.756	19.952	14.134	0.523
1119.000	645.384	80.003	19.991	103.755	19.950	14.271	0.508
1119.500	645.667	80.008	19.992	103.756	19.950	14.331	0.504
1120.000	645.900	80.001	19.995	103.757	19.951	14.256	0.516
1120.500	646.141	80.002	19.990	103.757	19.951	14.225	0.495
1121.000	646.443	79.997	19.994	103.756	19.950	14.316	0.509
1121.500	646.680	80.008	19.993	103.756	19.951	14.213	0.541
1122.000	646.913	80.000	19.996	103.756	19.953	14.111	0.504
1122.501	647.186	80.005	19.995	103.754	19.951	14.257	0.488
1123.001	647.430	80.002	19.991	103.754	19.950	14.272	0.511
1123.500	647.725	80.004	19.994	103.754	19.950	14.314	0.528
1124.000	647.964	80.004	19.994	103.755	19.951	14.210	0.537
1124.500	648.184	80.003	19.995	103.754	19.951	14.242	0.497
1125.000	648.453	80.003	19.995	103.755	19.952	14.125	0.474
1125.501	648.715	80.003	19.995	103.754	19.952	14.132	0.510
1126.001	649.005	80.000	19.995	103.754	19.951	14.220	0.542
1126.500	649.242	80.002	19.994	103.754	19.950	14.296	0.540
1127.000	649.484	80.004	19.993	103.754	19.949	14.387	0.503
1127.500	649.742	80.006	19.993	103.752	19.949	14.400	0.489
1128.000	649.997	80.003	19.989	103.753	19.948	14.439	0.507
1128.500	650.266	79.997	19.995	103.752	19.950	14.315	0.518
1129.000	650.509	80.001	19.996	103.751	19.951	14.252	0.518
1129.500	650.784	80.003	19.994	103.749	19.947	14.568	0.515
1130.000	651.006	80.004	19.994	103.744	19.951	14.253	0.507
1130.500	651.315	80.002	19.993	103.743	19.952	14.171	0.514
1131.000	651.530	80.004	19.994	103.744	19.949	14.396	0.528
1131.500	651.818	80.003	19.994	103.746	19.950	14.313	0.514
1132.000	652.068	80.004	19.995	103.748	19.946	14.653	0.521
1132.500	652.293	80.004	19.993	103.754	19.950	14.335	0.506
1133.000	652.579	80.003	19.992	103.754	19.947	14.550	0.493
1133.500	652.811	80.001	19.994	103.751	19.951	14.230	0.515
1134.000	653.056	80.005	19.994	103.747	19.949	14.381	0.497
1134.500	653.307	80.009	19.991	103.743	19.949	14.382	0.486
1135.000	653.582	80.001	19.994	103.745	19.949	14.350	0.511
1135.500	653.847	80.004	19.992	103.746	19.955	13.928	0.534
1136.000	654.078	80.002	19.994	103.749	19.953	14.093	0.518
1136.500	654.380	80.005	19.993	103.752	19.949	14.362	0.514
1137.000	654.579	80.001	19.994	103.757	19.950	14.303	0.517
1137.500	654.858	80.002	19.993	103.755	19.949	14.380	0.490
1138.000	655.043	80.004	19.993	103.754	19.954	14.020	0.471
1138.501	655.337	80.005	19.994	103.754	19.952	14.174	0.472
1139.001	655.616	80.005	19.993	103.756	19.952	14.182	0.526
1139.500	655.831	80.001	19.993	103.754	19.951	14.258	0.534
1140.000	656.156	80.002	19.993	103.754	19.952	14.137	0.517
1140.501	656.381	80.003	19.992	103.752	19.953	14.077	0.545
1141.001	656.594	79.997	19.993	103.746	19.953	14.047	0.495
1141.500	656.860	80.005	19.995	103.743	19.954	14.031	0.459
1142.000	657.122	80.005	19.994	103.740	19.951	14.269	0.503
1142.500	657.347	80.006	19.993	103.738	19.954	14.029	0.507
1143.000	657.632	80.003	19.994	103.742	19.950	14.308	0.499
1143.500	657.865	79.998	19.994	103.746	19.951	14.242	0.514
1144.000	658.129	80.005	19.993	103.747	19.950	14.277	0.508
1144.500	658.469	80.003	19.993	103.750	19.950	14.275	0.551
1145.000	658.587	80.004	19.994	103.751	19.950	14.313	0.531
1145.500	658.979	80.005	19.994	103.749	19.952	14.130	0.484
1146.000	658.945	80.001	19.994	103.748	19.952	14.122	0.434
1146.500	659.419	80.001	19.994	103.748	19.951	14.217	0.399
1147.000	659.598	80.002	19.995	103.745	19.951	14.215	0.546
1147.500	659.825	80.004	19.994	103.742	19.953	14.049	0.529
1148.000	660.288	80.003	19.993	103.743	19.954	14.033	0.548
1148.500	660.446	80.001	19.994	103.743	19.952	14.148	0.656
1149.000	660.541	80.003	19.994	103.742	19.954	14.004	0.437
1149.500	660.924	80.002	19.994	103.746	19.949	14.383	0.365
1150.001	661.222	80.009	19.994	103.746	19.951	14.226	0.579
1150.501	661.421	80.004	19.995	103.743	19.954	14.019	0.589
1151.000	661.709	80.000	19.994	103.739	19.953	14.079	0.492
1151.500	661.950	80.005	19.994	103.738	19.954	14.000	0.508
1152.000	662.197	80.002	19.993	103.736	19.950	14.308	0.509
1152.500	662.405	79.999	19.992	103.739	19.951	14.205	0.471
1153.000	662.719	80.003	19.995	103.741	19.952	14.123	0.488
1153.500	662.968	80.001	19.995	103.744	19.952	14.140	0.542
1154.000	663.210	80.004	19.994	103.748	19.955	13.906	0.527
1154.500	663.535	80.003	19.995	103.751	19.952	14.184	0.529
1155.000	663.740	80.004	19.994	103.751	19.950	14.299	0.549
1155.500	663.964	80.004	19.994	103.753	19.953	14.049	0.479
1156.000	664.237	80.008	19.994	103.754	19.953	14.097	0.463
1156.500	664.457	80.001	19.997	103.749	19.950	14.302	0.495
1157.001	664.713	80.006	19.993	103.742	19.952	14.127	0.485
1157.501	664.976	80.006	19.992	103.739	19.954	13.987	0.498
1158.000	665.243	80.003	19.995	103.737	19.950	14.303	0.524
1158.500	665.510	80.004	19.993	103.736	19.951	14.261	0.532
1159.000	665.724	80.005	19.993	103.739	19.951	14.227	0.508
1159.500	666.045	80.005	19.993	103.743	19.950	14.274	0.508
1160.000	666.230	80.005	19.994	103.746	19.951	14.240	0.521
1160.500	666.521	80.006	19.994	103.750	19.953	14.051	0.491
1161.000	666.759	80.005	19.993	103.752	19.954	14.013	0.503
1161.500	667.017	80.006	19.993	103.749	19.950	14.292	0.513
1162.000	667.250	80.004	19.994	103.749	19.950	14.302	0.494
1162.500	667.546	80.005	19.993	103.747	19.951	14.270	0.510
1163.000	667.758	80.006	19.993	103.745	19.950	14.310	0.518
1163.500	668.009	80.005	19.994	103.743	19.950	14.309	0.486
1164.000	668.266	80.006	19.993	103.744	19.949	14.411	0.486
1164.500	668.500	80.006	19.994	103.745	19.951	14.267	0.499
1165.000	668.753	80.005	19.992	103.744	19.952	14.156	0.489
1165.500	669.043	80.007	19.994	103.745	19.950	14.297	0.515
1166.000	669.230	79.998	19.998	103.748	19.950	14.329	0.510
1166.500	669.520	79.998	19.993	103.747	19.952	14.185	0.477
1167.000	669.776	80.016	19.993	103.745	19.951	14.236	0.512
1167.500	670.004	80.003	19.993	103.748	19.955	13.949	0.515
1168.000	670.253	80.005	19.994	103.746	19.954	13.979	0.480
1168.500	670.477	80.005	19.994	103.744	19.953	14.081	0.475
1169.000	670.731	80.002	19.994	103.746	19.951	14.204	0.475
1169.500	671.025	80.013	19.992	103.745	19.952	14.184	0.513
1170.000	671.247	80.005	19.994	103.744	19.953	14.078	0.532
1170.500	671.490	80.005	19.994	103.745	19.953	14.110	0.490
1171.000	671.770	79.998	19.994	103.746	19.952	14.122	0.494
1171.500	671.995	80.011	19.992	103.749	19.953	14.044	0.514
1172.000	672.261	80.012	19.993	103.753	19.954	14.033	0.498
1172.500	672.518	80.004	19.995	103.754	19.955	13.935	0.507
1173.001	672.747	80.002	19.993	103.752	19.951	14.226	0.505
1173.501	672.998	80.002	19.995	103.750	19.952	14.173	0.483
1174.000	673.219	80.002	19.994	103.745	19.950	14.345	0.476
1174.500	673.508	80.006	19.994	103.742	19.947	14.549	0.491
1175.000	673.770	80.003	19.994	103.739	19.948	14.495	0.531
1175.500	673.991	80.005	19.993	103.740	19.953	14.085	0.517
1176.000	674.250	80.001	19.995	103.738	19.953	14.093	0.482
1176.500	674.513	80.007	19.994	103.742	19.953	14.055	0.501
1177.000	674.756	80.006	19.994	103.745	19.950	14.316	0.514
1177.500	675.040	80.006	19.993	103.748	19.955	13.929	0.516
1178.000	675.331	80.004	19.995	103.748	19.953	14.084	0.551
1178.500	675.532	80.003	19.993	103.750	19.949	14.412	0.534
1179.000	675.775	80.003	19.993	103.750	19.948	14.433	0.468
1179.500	676.026	80.004	19.995	103.747	19.950	14.347	0.469
1180.000	676.300	80.005	19.994	103.745	19.952	14.161	0.509
1180.500	676.546	80.002	19.995	103.745	19.953	14.093	0.522
1181.000	676.794	80.005	19.994	103.745	19.952	14.132	0.507
1181.500	677.061	80.006	19.994	103.741	19.950	14.272	0.505
1182.001	677.250	80.003	19.995	103.741	19.950	14.318	0.486
1182.501	677.568	80.006	19.993	103.742	19.951	14.196	0.481
1183.000	677.817	80.002	19.995	103.741	19.951	14.236	0.537
1183.500	678.052	80.003	19.995	103.741	19.950	14.276	0.526
1184.000	678.302	80.004	19.995	103.741	19.950	14.302	0.484
1184.500	678.536	80.005	19.994	103.742	19.951	14.230	0.485
1185.000	678.864	80.004	19.996	103.739	19.952	14.120	0.523
1185.501	679.065	80.005	19.996	103.739	19.948	14.496	0.545
1186.001	679.294	80.005	19.993	103.736	19.951	14.207	0.480
1186.500	679.579	80.005	19.994	103.733	19.952	14.180	0.472
1187.000	679.796	80.005	19.995	103.728	19.951	14.215	0.508
1187.500	680.033	80.001	19.994	103.728	19.953	14.056	0.478
1188.000	680.322	79.991	19.994	103.728	19.954	13.981	0.491
1188.500	680.462	80.004	19.996	103.726	19.952	14.114	0.478
1189.000	681.371	79.997	19.996	103.728	19.950	14.286	0.739
1189.500	680.981	80.004	19.994	103.731	19.952	14.170	0.784
1190.000	681.290	80.004	19.993	103.731	19.950	14.321	0.219
1190.500	681.539	80.005	19.995	103.737	19.951	14.251	0.238
1191.001	681.815	80.005	19.994	103.742	19.950	14.287	0.542
1191.501	682.395	80.005	19.995	103.747	19.952	14.119	0.690
1192.000	682.404	80.005	19.994	103.748	19.953	14.111	0.722
1192.500	682.538	80.005	19.994	103.747	19.952	14.147	0.366
1193.000	682.733	80.006	19.992	103.740	19.951	14.201	0.236
1193.500	683.033	80.002	19.996	103.734	19.952	14.154	0.412
1194.000	683.304	80.005	19.994	103.732	19.951	14.243	0.533
1194.500	683.571	80.005	19.995	103.734	19.950	14.301	0.555
1195.000	683.823	80.005	19.993	103.737	19.951	14.264	0.528
1195.500	684.064	80.003	19.991	103.740	19.950	14.285	0.506
1196.000	684.269	80.004	19.990	103.740	19.955	13.914	0.469
1196.500	684.554	80.003	19.992	103.743	19.950	14.318	0.468
1197.000	684.796	80.008	19.990	103.742	19.951	14.197	0.509
1197.500	685.011	79.993	19.994	103.742	19.951	14.197	0.492
1198.000	685.293	80.009	19.993	103.738	19.948	14.431	0.477
1198.500	685.547	80.006	19.996	103.740	19.951	14.259	0.517
1199.000	685.749	80.001	19.999	103.733	19.949	14.391	0.497
1199.500	686.011	80.000	19.993	103.728	19.949	14.414	0.460
1200.000	686.306	80.000	19.992	103.726	19.951	14.231	0.510
1200.500	686.569	80.006	19.993	103.732	19.949	14.407	0.557
1201.000	686.793	80.005	19.993	103.731	19.950	14.289	0.523
1201.500	687.021	80.002	19.993	103.732	19.950	14.284	0.470
1202.001	687.265	80.007	19.993	103.735	19.948	14.476	0.462
1202.501	687.531	80.003	19.993	103.734	19.949	14.351	0.491
1203.000	687.792	80.004	19.994	103.735	19.952	14.140	0.519
1203.500	688.024	80.004	19.992	103.738	19.947	14.555	0.510
1204.000	688.262	80.003	19.994	103.744	19.948	14.471	0.481
1204.500	688.483	80.002	19.995	103.743	19.949	14.397	0.465
1205.000	688.797	80.004	19.993	103.741	19.947	14.554	0.497
1205.500	689.011	80.003	19.994	103.740	19.946	14.595	0.531
1206.000	689.283	80.006	19.993	103.738	19.948	14.491	0.507
1206.500	689.506	80.005	19.993	103.736	19.950	14.325	0.491
1207.000	689.765	80.009	19.993	103.739	19.946	14.621	0.489
1207.500	689.995	80.004	19.993	103.745	19.952	14.136	0.485
1208.000	690.258	80.005	19.993	103.742	19.949	14.397	0.491
1208.500	690.536	80.002	19.994	103.744	19.952	14.186	0.516
1209.000	690.727	80.001	19.994	103.746	19.952	14.154	0.505
1209.500	691.019	80.006	19.994	103.747	19.950	14.314	0.476
1210.000	691.191	80.002	19.993	103.747	19.950	14.331	0.473
1210.500	691.494	80.007	19.993	103.750	19.948	14.435	0.470
1211.000	691.789	80.005	19.995	103.746	19.951	14.200	0.537
1211.500	691.985	80.004	19.994	103.745	19.951	14.225	0.544
1212.000	692.250	80.005	19.994	103.745	19.950	14.341	0.476
1212.500	692.494	80.003	19.993	103.746	19.949	14.396	0.485
1213.001	692.725	80.003	19.994	103.748	19.950	14.337	0.492
1213.501	692.968	80.002	19.994	103.751	19.949	14.350	0.475
1214.000	693.238	80.006	19.993	103.750	19.950	14.318	0.493
1214.500	693.470	80.000	19.993	103.749	19.949	14.410	0.507
1215.001	693.725	80.005	19.994	103.747	19.952	14.149	0.495
1215.501	693.988	80.004	19.993	103.743	19.946	14.602	0.503
1216.000	694.222	80.004	19.994	103.744	19.950	14.332	0.508
1216.500	694.464	80.005	19.995	103.746	19.948	14.485	0.486
1217.000	694.744	80.001	19.995	103.748	19.950	14.336	0.499
1217.500	694.990	80.006	19.995	103.748	19.948	14.460	0.524
1218.000	695.234	80.004	19.993	103.750	19.947	14.581	0.508
1218.500	695.491	80.003	19.995	103.748	19.950	14.294	0.496
1219.001	695.743	80.005	19.993	103.743	19.951	14.251	0.505
1219.502	695.993	80.005	19.994	103.740	19.951	14.249	0.506
1220.001	696.237	80.002	19.994	103.742	19.950	14.312	0.498
1220.500	696.467	80.003	19.993	103.742	19.950	14.348	0.484
1221.000	696.751	80.004	19.995	103.744	19.950	14.323	0.494
1221.500	696.988	80.003	19.994	103.746	19.951	14.211	0.517
1222.000	697.245	80.002	19.994	103.748	19.951	14.243	0.508
1222.500	697.501	80.005	19.993	103.744	19.950	14.331	0.504
1223.001	697.754	80.003	19.995	103.742	19.948	14.460	0.511
1223.501	698.035	80.002	19.994	103.741	19.950	14.294	0.521
1224.000	698.246	80.003	19.993	103.742	19.950	14.326	0.513
1224.500	698.495	80.002	19.994	103.742	19.948	14.468	0.477
1225.000	698.771	80.004	19.994	103.746	19.949	14.407	0.493
1225.500	699.013	80.006	19.993	103.748	19.950	14.324	0.521
1226.000	699.278	80.001	19.993	103.750	19.948	14.435	0.512
1226.500	699.506	80.005	19.993	103.752	19.949	14.367	0.500
1227.000	699.746	80.002	19.994	103.752	19.951	14.216	0.480
1227.500	700.022	80.003	19.993	103.751	19.950	14.318	0.492
1228.000	700.251	80.002	19.995	103.753	19.949	14.418	0.510
1228.500	700.536	80.005	19.994	103.753	19.951	14.201	0.510
1229.000	700.743	80.004	19.994	103.753	19.949	14.370	0.503
1229.500	701.045	80.004	19.994	103.754	19.950	14.323	0.501
1230.000	701.293	80.004	19.993	103.754	19.949	14.419	0.530
1230.500	701.518	80.004	19.994	103.750	19.950	14.338	0.512
1231.000	701.797	80.004	19.994	103.747	19.947	14.518	0.489
1231.500	701.995	80.004	19.993	103.747	19.947	14.513	0.490
1232.000	702.291	80.003	19.993	103.748	19.950	14.305	0.486
1232.500	702.535	80.002	19.993	103.750	19.949	14.383	0.517
1233.000	702.841	80.001	19.994	103.755	19.948	14.497	0.545
1233.501	703.029	80.004	19.993	103.757	19.946	14.589	0.522
1234.001	703.302	80.005	19.994	103.757	19.946	14.620	0.478
1234.500	703.563	80.004	19.993	103.757	19.948	14.503	0.497
1235.000	703.808	80.005	19.994	103.757	19.949	14.354	0.520
1235.500	704.083	80.004	19.994	103.756	19.949	14.398	0.513
1236.000	704.339	80.004	19.992	103.756	19.949	14.362	0.526
1236.500	704.612	80.003	19.993	103.757	19.948	14.433	0.530
1237.000	704.810	80.003	19.994	103.757	19.948	14.451	0.500
1237.500	705.100	80.005	19.992	103.758	19.947	14.505	0.479
1238.000	705.335	80.004	19.993	103.759	19.949	14.403	0.507
1238.500	705.595	80.005	19.993	103.759	19.950	14.329	0.510
1239.000	705.824	80.003	19.993	103.758	19.950	14.347	0.492
1239.500	706.115	80.004	19.995	103.755	19.949	14.350	0.505
1240.000	706.328	80.005	19.993	103.752	19.950	14.322	0.512
1240.500	706.621	80.004	19.993	103.748	19.948	14.457	0.505
1241.000	706.889	80.003	19.994	103.749	19.945	14.699	0.534
1241.500	707.099	80.004	19.993	103.748	19.944	14.804	0.519
1242.001	707.348	80.004	19.993	103.745	19.943	14.881	0.468
1242.502	707.654	80.005	19.993	103.742	19.945	14.662	0.507
1243.001	707.874	80.004	19.994	103.741	19.947	14.545	0.540
1243.500	708.116	80.005	19.993	103.736	19.949	14.403	0.494
1244.000	708.329	80.004	19.995	103.735	19.944	14.749	0.459
1244.500	708.612	80.005	19.993	103.738	19.945	14.670	0.476
1245.000	708.859	80.005	19.993	103.743	19.944	14.742	0.513
1245.500	709.097	80.005	19.994	103.747	19.946	14.626	0.507
1246.000	709.349	80.006	19.994	103.744	19.949	14.381	0.487
1246.500	709.597	80.004	19.994	103.740	19.949	14.421	0.495
1247.000	709.867	80.003	19.994	103.737	19.947	14.544	0.509
1247.500	710.071	80.004	19.995	103.732	19.945	14.698	0.496
1248.000	710.305	80.003	19.993	103.725	19.947	14.526	0.456
1248.500	710.579	80.004	19.995	103.727	19.946	14.656	0.473
1249.000	710.834	80.003	19.995	103.728	19.947	14.508	0.518
1249.500	711.104	80.004	19.995	103.731	19.945	14.689	0.527
1250.000	711.338	80.004	19.995	103.735	19.945	14.673	0.515
1250.500	711.593	80.007	19.996	103.741	19.944	14.757	0.496
1251.001	711.843	80.004	19.995	103.744	19.945	14.713	0.497
1251.501	712.102	80.004	19.995	103.748	19.948	14.475	0.507
1252.000	712.364	80.005	19.995	103.747	19.942	14.936	0.515
1252.500	712.634	80.003	19.996	103.743	19.945	14.666	0.526
1253.000	712.888	80.006	19.995	103.743	19.944	14.747	0.528
1253.500	713.107	80.004	19.994	103.743	19.947	14.579	0.499
1254.000	713.352	80.003	19.995	103.743	19.944	14.797	0.469
1254.500	713.573	80.004	19.994	103.743	19.948	14.477	0.465
1255.000	713.872	80.006	19.994	103.743	19.947	14.551	0.493
1255.500	714.088	80.003	19.994	103.737	19.949	14.417	0.518
1256.000	714.328	80.003	19.994	103.734	19.946	14.619	0.485
1256.500	714.614	80.006	19.994	103.729	19.944	14.808	0.491
1257.000	714.863	80.003	19.993	103.724	19.945	14.677	0.531
1257.500	715.126	80.005	19.993	103.721	19.943	14.823	0.524
1258.000	715.389	80.004	19.994	103.720	19.944	14.811	0.519
1258.500	715.649	80.001	19.995	103.724	19.943	14.854	0.524
1259.000	715.922	80.002	19.995	103.729	19.943	14.849	0.528
1259.500	716.159	80.000	19.994	103.732	19.943	14.854	0.522
1260.000	716.418	80.005	19.994	103.734	19.945	14.693	0.503
1260.501	716.689	80.004	19.995	103.735	19.943	14.856	0.513
1261.001	716.938	80.004	19.995	103.732	19.946	14.631	0.525
1261.500	717.178	80.004	19.995	103.726	19.945	14.710	0.504
1262.000	717.406	80.002	19.994	103.727	19.940	15.098	0.478
1262.500	717.683	80.005	19.994	103.727	19.942	14.932	0.487
1263.000	717.938	80.002	19.996	103.725	19.946	14.656	0.519
1263.501	718.194	80.003	19.994	103.723	19.943	14.819	0.521
1264.001	718.412	80.004	19.994	103.727	19.941	14.980	0.492
1264.500	718.660	80.004	19.994	103.730	19.943	14.836	0.470
1265.000	718.923	80.006	19.994	103.736	19.942	14.954	0.489
1265.500	719.174	80.006	19.995	103.739	19.940	15.100	0.512
1266.000	719.422	80.006	19.994	103.740	19.941	15.049	0.506
1266.500	719.682	80.007	19.993	103.739	19.941	15.027	0.503
1267.000	719.912	80.009	19.994	103.737	19.940	15.112	0.499
1267.500	720.185	80.006	19.994	103.738	19.942	14.956	0.497
1268.000	720.461	80.006	19.994	103.740	19.940	15.093	0.526
1268.500	720.715	80.006	19.995	103.742	19.942	14.967	0.539
1269.000	720.959	80.005	19.995	103.746	19.938	15.224	0.514
1269.500	721.213	80.007	19.994	103.746	19.939	15.145	0.498
1270.000	721.447	80.005	19.995	103.742	19.940	15.128	0.493
1270.500	721.729	80.007	19.993	103.735	19.941	15.043	0.502
1271.000	721.973	80.007	19.993	103.736	19.937	15.334	0.521
1271.500	722.232	80.007	19.994	103.735	19.938	15.219	0.515
1272.000	722.476	80.005	19.994	103.736	19.940	15.079	0.503
1272.500	722.722	80.005	19.994	103.739	19.940	15.107	0.496
1273.001	723.004	80.005	19.994	103.744	19.939	15.200	0.509
1273.501	723.224	80.004	19.994	103.744	19.940	15.067	0.515
1274.000	723.492	80.006	19.994	103.744	19.941	14.990	0.495
1274.500	723.738	80.005	19.995	103.742	19.937	15.293	0.501
1275.000	724.015	80.004	19.994	103.739	19.941	15.021	0.518
1275.500	724.265	80.005	19.994	103.738	19.941	15.015	0.524
1276.000	724.531	80.004	19.995	103.735	19.941	14.987	0.521
1276.500	724.744	80.005	19.995	103.732	19.940	15.109	0.498
1277.000	725.049	80.004	19.994	103.733	19.939	15.194	0.499
1277.500	725.340	80.004	19.994	103.737	19.942	14.909	0.557
1278.000	725.491	80.004	19.996	103.742	19.943	14.890	0.519
1278.500	725.776	80.002	19.996	103.749	19.942	14.897	0.439
1279.000	726.031	80.003	19.995	103.752	19.943	14.859	0.488
1279.500	726.287	80.002	19.997	103.751	19.941	15.039	0.526
1280.000	726.530	80.002	19.995	103.751	19.942	14.951	0.505
1280.500	726.759	80.002	19.995	103.747	19.940	15.127	0.485
1281.000	727.064	80.005	19.994	103.746	19.940	15.126	0.503
1281.501	727.306	80.002	19.994	103.747	19.944	14.818	0.541
1282.001	727.559	80.003	19.995	103.747	19.943	14.847	0.521
1282.500	727.817	80.004	19.995	103.745	19.941	15.010	0.503
1283.000	728.084	80.001	19.995	103.748	19.942	14.934	0.518
1283.500	728.312	80.003	19.996	103.749	19.941	15.035	0.510
1284.000	728.584	80.003	19.995	103.749	19.941	15.027	0.497
1284.500	728.850	80.002	19.995	103.750	19.939	15.133	0.518
1285.000	729.108	80.002	19.995	103.752	19.935	15.488	0.531
1285.500	729.352	80.005	19.994	103.746	19.939	15.139	0.513
1286.000	729.600	80.003	19.995	103.744	19.935	15.462	0.497
1286.500	729.848	80.004	19.995	103.744	19.936	15.425	0.494
1287.000	730.132	80.005	19.995	103.745	19.935	15.478	0.514
1287.500	730.387	80.003	19.995	103.747	19.936	15.429	0.535
1288.000	730.651	80.005	19.993	103.750	19.937	15.354	0.529
1288.500	730.913	80.004	19.995	103.747	19.939	15.150	0.523
1289.000	731.166	80.003	19.994	103.744	19.939	15.180	0.520
1289.500	731.437	80.004	19.994	103.739	19.939	15.178	0.519
1290.000	731.681	80.005	19.994	103.737	19.940	15.128	0.520
1290.500	731.965	80.004	19.995	103.736	19.938	15.252	0.522
1291.000	732.178	80.003	19.994	103.740	19.939	15.179	0.512
1291.500	732.451	80.004	19.993	103.742	19.937	15.313	0.491
1292.000	732.719	80.004	19.994	103.746	19.938	15.230	0.514
1292.500	732.973	80.004	19.993	103.747	19.937	15.351	0.532
1293.000	733.259	80.004	19.994	103.745	19.937	15.353	0.531
1293.500	733.486	80.004	19.993	103.741	19.936	15.391	0.526
1294.000	733.714	80.005	19.994	103.741	19.939	15.169	0.484
1294.500	734.016	80.004	19.993	103.739	19.939	15.186	0.493
1295.000	734.265	80.004	19.992	103.737	19.938	15.224	0.541
1295.500	734.546	80.005	19.993	103.739	19.939	15.192	0.540
1296.000	734.780	80.003	19.993	103.739	19.938	15.258	0.522
1296.500	735.015	80.005	19.994	103.737	19.937	15.318	0.492
1297.000	735.313	80.004	19.992	103.733	19.937	15.295	0.501
1297.500	735.540	80.006	19.993	103.730	19.940	15.112	0.529
1298.000	735.776	80.004	19.994	103.729	19.936	15.401	0.494
1298.500	736.007	80.005	19.994	103.728	19.936	15.422	0.465
1299.000	736.253	80.003	19.994	103.726	19.936	15.388	0.472
1299.500	736.507	80.002	19.994	103.725	19.937	15.337	0.488
1300.000	736.761	80.004	19.994	103.727	19.935	15.453	0.504
1300.500	737.036	80.002	19.993	103.729	19.935	15.464	0.519
1301.000	737.309	80.004	19.993	103.731	19.935	15.455	0.539
1301.500	737.542	80.003	19.994	103.735	19.940	15.115	0.527
1302.000	737.770	80.004	19.992	103.736	19.936	15.388	0.483
1302.500	738.022	80.003	19.995	103.735	19.936	15.422	0.470
1303.000	738.312	80.004	19.994	103.735	19.939	15.165	0.511
1303.500	738.596	80.003	19.994	103.733	19.936	15.390	0.558
1304.000	738.883	80.002	19.994	103.731	19.937	15.354	0.573
1304.500	739.103	80.005	19.993	103.734	19.938	15.230	0.539
1305.000	739.359	80.002	19.992	103.736	19.938	15.264	0.492
1305.500	739.614	80.003	19.994	103.735	19.936	15.442	0.494
1306.000	739.843	80.004	19.992	103.735	19.934	15.542	0.498
1306.500	740.097	80.006	19.993	103.737	19.934	15.551	0.484
1307.000	740.390	80.003	19.994	103.738	19.935	15.462	0.515
1307.501	740.633	80.003	19.993	103.739	19.934	15.524	0.541
1308.001	740.912	80.003	19.991	103.740	19.936	15.410	0.529
1308.500	741.155	80.001	19.995	103.742	19.934	15.563	0.522
1309.000	741.400	80.003	19.994	103.738	19.934	15.588	0.505
1309.500	741.657	80.003	19.994	103.739	19.934	15.575	0.495
1310.000	741.935	80.004	19.993	103.736	19.933	15.615	0.518
1310.500	742.182	80.004	19.995	103.736	19.935	15.463	0.530
1311.001	742.444	80.001	19.995	103.733	19.935	15.509	0.517
1311.501	742.664	80.004	19.993	103.733	19.935	15.464	0.495
1312.001	742.935	80.001	19.994	103.731	19.935	15.460	0.487
1312.501	743.198	80.003	19.994	103.734	19.936	15.416	0.513
1313.000	743.434	80.003	19.994	103.737	19.934	15.567	0.517
