Sample ID:	C:\MCC\MCC Cal\Test\Asphalt_Shingle\Asphalt_Shingle_MCC_30K_min_210928_R1.txt
Sample Weight (mg):	4.94
Heating Rate (C/s):	0.5
Combustor Temp (C):	900
N2 Flow Rate (cc/min):	80
O2 Flow Rate (cc/min):	20
Calibration File:	C:\MCC\MCC Cal\Coeff1 JN10440_30_210304.txt.txt
T Correction Coefficients:	0	1.024463	0
Time Shift (s):	14
*
Time (s)	Temperature (C)	N2 flow rate (cc/min)	O2 flow rate (cc/min)	Flow Rate (cc/min)	Oxygen (%)	HRR (W/g)	Heating rate (C/s)
0.000	108.626	80.008	19.995	100.200	20.143	-0.254	0.012
0.500	108.597	80.007	19.995	100.198	20.144	-0.320	0.015
1.000	108.585	80.006	19.995	100.197	20.138	0.035	-0.026
1.500	108.612	80.007	19.994	100.197	20.144	-0.342	-0.013
2.001	108.590	80.006	19.995	100.199	20.143	-0.225	0.010
2.500	108.590	80.007	19.994	100.202	20.144	-0.285	-0.008
3.000	108.596	80.008	19.994	100.205	20.138	0.069	-0.008
3.500	108.612	80.008	19.995	100.206	20.138	0.054	0.014
4.000	108.550	80.008	19.994	100.207	20.142	-0.190	-0.012
4.500	108.594	80.008	19.994	100.208	20.143	-0.264	-0.032
5.001	108.599	80.008	19.995	100.207	20.143	-0.237	0.015
5.500	108.624	80.006	19.995	100.208	20.144	-0.316	0.039
6.000	108.586	80.008	19.995	100.208	20.141	-0.147	0.009
6.500	108.561	80.007	19.994	100.209	20.142	-0.176	-0.038
7.000	108.558	80.006	19.995	100.208	20.143	-0.233	-0.045
7.500	108.571	80.008	19.994	100.209	20.139	0.026	-0.009
8.000	108.600	80.009	19.995	100.210	20.140	-0.067	0.026
8.500	108.547	80.008	19.994	100.207	20.138	0.055	0.009
9.000	108.570	80.008	19.995	100.205	20.139	0.029	-0.027
9.501	108.573	80.007	19.993	100.203	20.137	0.143	-0.002
10.001	108.563	80.008	19.996	100.199	20.136	0.192	0.009
10.500	108.540	80.005	19.995	100.196	20.140	-0.092	-0.020
11.000	108.568	80.007	19.995	100.197	20.136	0.169	-0.014
11.500	108.581	80.008	19.995	100.196	20.137	0.157	0.023
12.000	108.583	80.008	19.995	100.195	20.137	0.124	0.028
12.500	108.552	80.007	19.995	100.197	20.140	-0.048	-0.007
13.001	108.615	80.007	19.995	100.201	20.141	-0.105	0.001
13.501	108.605	80.009	19.994	100.202	20.137	0.102	0.042
14.000	108.624	80.006	19.995	100.204	20.137	0.102	0.031
14.500	108.601	80.008	19.996	100.208	20.141	-0.142	0.002
15.000	108.597	80.006	19.995	100.210	20.137	0.126	-0.016
15.500	108.572	80.006	19.994	100.210	20.138	0.078	-0.028
16.000	108.599	80.006	19.995	100.210	20.137	0.147	-0.014
16.500	108.606	80.007	19.995	100.211	20.139	0.017	0.018
17.000	108.571	80.005	19.996	100.214	20.142	-0.169	0.004
17.500	108.562	80.007	19.995	100.220	20.140	-0.038	-0.036
18.000	108.578	80.007	19.996	100.223	20.137	0.119	-0.019
18.500	108.574	80.006	19.996	100.225	20.138	0.060	0.009
19.000	108.587	80.007	19.996	100.226	20.139	0.016	0.010
19.500	108.618	80.006	19.995	100.226	20.137	0.156	0.026
20.000	108.594	80.007	19.994	100.225	20.134	0.314	0.026
20.500	108.599	80.007	19.996	100.225	20.137	0.157	-0.006
21.000	108.601	80.006	19.994	100.224	20.130	0.600	-0.006
21.500	108.630	80.006	19.995	100.224	20.131	0.477	0.019
22.000	108.568	80.007	19.995	100.221	20.130	0.596	-0.001
22.500	108.608	80.007	19.995	100.221	20.135	0.282	-0.027
23.000	108.589	80.008	19.995	100.223	20.132	0.436	-0.001
23.500	108.587	80.006	19.995	100.231	20.135	0.239	-0.000
24.000	108.647	80.006	19.995	100.237	20.132	0.449	0.019
24.500	108.626	80.007	19.995	100.246	20.133	0.370	0.049
25.000	108.635	80.006	19.995	100.249	20.132	0.458	0.013
25.500	108.622	80.007	19.995	100.250	20.134	0.323	-0.008
26.000	108.655	80.007	19.995	100.249	20.138	0.040	0.008
26.500	108.686	80.007	19.995	100.248	20.131	0.479	0.042
27.000	108.638	80.007	19.995	100.246	20.135	0.254	0.024
27.500	108.719	80.008	19.994	100.244	20.132	0.418	0.008
28.000	108.723	80.007	19.995	100.244	20.129	0.604	0.059
28.500	108.694	80.009	19.995	100.243	20.129	0.614	0.030
29.000	108.725	80.007	19.994	100.242	20.132	0.432	-0.012
29.500	108.728	80.010	19.996	100.243	20.130	0.562	0.018
30.000	108.722	80.009	19.994	100.244	20.130	0.591	0.016
30.500	108.761	80.009	19.996	100.245	20.128	0.711	0.015
31.000	108.788	80.007	19.995	100.246	20.126	0.809	0.049
31.500	108.803	80.011	19.995	100.248	20.127	0.739	0.054
32.000	108.803	80.009	19.995	100.254	20.124	0.927	0.028
32.500	108.790	80.008	19.995	100.262	20.129	0.661	0.001
33.000	108.841	80.010	19.995	100.266	20.126	0.815	0.013
33.500	108.842	80.009	19.996	100.273	20.124	0.939	0.045
34.000	108.843	80.010	19.996	100.280	20.128	0.715	0.027
34.501	108.858	80.008	19.994	100.284	20.125	0.896	0.009
35.001	108.878	80.008	19.994	100.287	20.121	1.144	0.025
35.501	108.920	80.008	19.996	100.291	20.122	1.080	0.049
36.000	108.929	80.008	19.994	100.297	20.122	1.099	0.057
36.500	108.945	80.007	19.995	100.305	20.120	1.194	0.038
37.000	108.996	80.010	19.995	100.311	20.120	1.220	0.046
37.500	109.022	80.010	19.995	100.315	20.126	0.832	0.072
38.000	109.055	80.009	19.995	100.321	20.124	0.973	0.068
38.500	109.095	80.009	19.995	100.323	20.124	0.973	0.066
39.000	109.089	80.008	19.996	100.324	20.118	1.307	0.054
39.500	109.187	80.009	19.996	100.324	20.122	1.085	0.063
40.001	109.219	80.009	19.995	100.325	20.120	1.213	0.111
40.501	109.271	80.007	19.995	100.326	20.119	1.265	0.107
41.001	109.304	80.009	19.996	100.331	20.121	1.165	0.085
41.501	109.305	80.009	19.995	100.337	20.115	1.506	0.060
42.000	109.354	80.005	19.996	100.344	20.117	1.397	0.042
42.500	109.399	80.009	19.994	100.352	20.114	1.577	0.071
43.000	109.406	80.008	19.995	100.358	20.112	1.699	0.073
43.500	109.496	80.008	19.996	100.365	20.114	1.573	0.075
44.000	109.546	80.008	19.995	100.368	20.112	1.744	0.118
44.500	109.594	80.008	19.995	100.371	20.109	1.893	0.119
45.000	109.633	80.006	19.997	100.378	20.109	1.909	0.092
45.500	109.721	80.008	19.995	100.386	20.108	1.950	0.107
46.000	109.712	80.008	19.995	100.390	20.107	2.018	0.104
46.501	109.812	80.008	19.995	100.395	20.106	2.122	0.085
47.001	109.908	80.008	19.996	100.399	20.110	1.850	0.143
47.500	109.953	80.007	19.996	100.396	20.107	2.039	0.168
48.000	110.013	80.008	19.996	100.396	20.104	2.215	0.123
48.501	110.059	80.008	19.994	100.396	20.107	2.045	0.105
49.001	110.141	80.009	19.995	100.398	20.105	2.179	0.117
49.500	110.210	80.007	19.996	100.398	20.109	1.933	0.140
50.000	110.287	80.009	19.996	100.401	20.106	2.090	0.149
50.500	110.372	80.009	19.997	100.402	20.107	2.061	0.154
51.001	110.473	80.008	19.996	100.402	20.107	2.061	0.174
51.501	110.558	80.007	19.997	100.400	20.104	2.213	0.186
52.000	110.658	80.008	19.997	100.401	20.108	1.973	0.186
52.500	110.720	80.008	19.997	100.401	20.103	2.274	0.174
53.000	110.788	80.009	19.997	100.400	20.105	2.181	0.146
53.500	110.876	80.011	19.995	100.400	20.103	2.264	0.143
54.000	110.944	80.008	19.998	100.401	20.101	2.411	0.155
54.501	111.059	80.009	19.995	100.401	20.103	2.278	0.169
55.001	111.151	80.009	19.996	100.401	20.102	2.321	0.195
55.500	111.243	80.009	19.996	100.402	20.101	2.423	0.196
56.000	111.314	80.008	19.996	100.405	20.103	2.302	0.173
56.500	111.419	80.010	19.995	100.405	20.102	2.324	0.170
57.000	111.502	80.011	19.995	100.405	20.104	2.222	0.182
57.500	111.608	80.008	19.995	100.405	20.105	2.165	0.188
58.000	111.683	80.011	19.995	100.405	20.104	2.215	0.185
58.500	111.777	80.006	19.995	100.401	20.102	2.344	0.175
59.000	111.864	80.009	19.995	100.399	20.102	2.330	0.175
59.500	111.989	80.011	19.994	100.395	20.105	2.188	0.196
60.000	112.112	80.010	19.994	100.395	20.100	2.503	0.230
60.501	112.203	80.010	19.995	100.395	20.105	2.185	0.232
61.001	112.266	80.010	19.994	100.395	20.101	2.404	0.184
61.500	112.446	80.010	19.995	100.398	20.099	2.527	0.198
62.000	112.491	80.009	19.995	100.402	20.103	2.313	0.234
62.501	112.604	80.010	19.993	100.403	20.101	2.389	0.192
63.001	112.737	80.011	19.993	100.405	20.101	2.429	0.202
63.501	112.886	80.010	19.994	100.405	20.100	2.467	0.263
64.001	112.968	80.011	19.994	100.405	20.097	2.635	0.257
64.500	113.107	80.008	19.995	100.406	20.096	2.701	0.227
65.000	113.199	80.010	19.993	100.405	20.098	2.616	0.226
65.500	113.335	80.008	19.994	100.405	20.100	2.495	0.229
66.000	113.434	80.010	19.994	100.405	20.100	2.504	0.231
66.500	113.584	80.006	19.995	100.405	20.100	2.466	0.242
67.000	113.681	80.008	19.995	100.405	20.099	2.550	0.248
67.500	113.835	80.005	19.993	100.406	20.102	2.329	0.249
68.000	113.927	80.007	19.994	100.407	20.097	2.687	0.248
68.500	114.084	80.008	19.994	100.411	20.098	2.580	0.248
69.000	114.204	80.010	19.994	100.415	20.097	2.684	0.264
69.500	114.323	80.007	19.995	100.420	20.098	2.621	0.258
70.000	114.488	80.008	19.994	100.424	20.099	2.568	0.262
70.501	114.606	80.009	19.993	100.427	20.095	2.817	0.283
71.001	114.736	80.008	19.994	100.430	20.094	2.833	0.265
71.501	114.857	80.005	19.995	100.428	20.099	2.545	0.249
72.001	114.978	80.008	19.994	100.425	20.096	2.725	0.246
72.501	115.103	80.008	19.993	100.422	20.097	2.656	0.244
73.000	115.272	80.007	19.995	100.422	20.097	2.696	0.270
73.500	115.400	80.008	19.996	100.418	20.097	2.668	0.296
74.000	115.525	80.006	19.996	100.423	20.095	2.772	0.275
74.500	115.684	80.009	19.994	100.429	20.097	2.675	0.269
75.000	115.820	80.009	19.994	100.435	20.093	2.888	0.289
75.500	115.962	80.007	19.995	100.440	20.097	2.651	0.286
76.000	116.066	80.005	19.994	100.444	20.096	2.755	0.262
76.500	116.222	80.007	19.996	100.445	20.090	3.110	0.253
77.000	116.370	80.007	19.994	100.446	20.094	2.857	0.282
77.500	116.533	80.006	19.995	100.447	20.098	2.616	0.308
78.000	116.698	80.007	19.995	100.448	20.092	2.988	0.319
78.500	116.877	80.006	19.995	100.449	20.094	2.886	0.335
79.000	116.956	80.007	19.996	100.449	20.095	2.765	0.301
79.501	117.137	80.007	19.995	100.449	20.093	2.891	0.259
80.001	117.282	80.007	19.995	100.447	20.092	2.957	0.294
80.501	117.459	80.007	19.996	100.446	20.092	3.002	0.324
81.000	117.664	80.008	19.994	100.446	20.089	3.201	0.352
81.500	117.788	80.007	19.996	100.446	20.096	2.730	0.355
82.000	117.953	80.007	19.994	100.447	20.092	3.001	0.309
82.500	118.142	80.008	19.995	100.448	20.097	2.677	0.322
83.000	118.319	80.008	19.995	100.447	20.095	2.808	0.360
83.500	118.389	80.009	19.995	100.447	20.094	2.886	0.306
84.000	118.624	80.007	19.995	100.447	20.093	2.943	0.276
84.500	118.755	80.009	19.996	100.446	20.090	3.137	0.336
85.000	118.939	80.006	19.996	100.446	20.093	2.929	0.340
85.500	119.100	80.008	19.994	100.446	20.093	2.909	0.330
86.000	119.260	80.006	19.995	100.446	20.095	2.782	0.333
86.500	119.463	80.007	19.995	100.446	20.092	2.999	0.342
87.000	119.607	80.008	19.996	100.446	20.095	2.812	0.354
87.500	119.797	80.008	19.995	100.447	20.095	2.808	0.340
88.000	119.976	80.007	19.994	100.447	20.097	2.680	0.351
88.500	120.154	80.007	19.994	100.447	20.088	3.208	0.363
89.000	120.340	80.008	19.995	100.447	20.096	2.699	0.361
89.500	120.492	80.008	19.995	100.446	20.092	2.954	0.351
90.001	120.679	80.007	19.996	100.446	20.091	3.077	0.339
90.501	120.858	80.011	19.995	100.446	20.092	2.978	0.352
91.001	121.040	80.008	19.994	100.445	20.096	2.755	0.363
91.500	121.240	80.008	19.993	100.446	20.096	2.716	0.371
92.000	121.406	80.007	19.995	100.447	20.096	2.760	0.374
92.500	121.595	80.009	19.996	100.448	20.093	2.921	0.361
93.000	121.777	80.008	19.994	100.448	20.090	3.096	0.363
93.500	121.930	80.007	19.995	100.447	20.087	3.281	0.353
94.000	122.126	80.008	19.994	100.446	20.095	2.807	0.342
94.500	122.278	80.008	19.994	100.444	20.090	3.097	0.349
95.000	122.485	80.009	19.993	100.443	20.094	2.839	0.354
95.500	122.668	80.007	19.995	100.442	20.092	2.980	0.374
96.000	122.851	80.008	19.996	100.442	20.092	3.014	0.378
96.500	123.084	80.008	19.995	100.443	20.092	2.954	0.391
97.000	123.246	80.007	19.995	100.443	20.091	3.052	0.405
97.500	123.460	80.009	19.996	100.445	20.089	3.156	0.385
98.000	123.616	80.008	19.995	100.447	20.095	2.796	0.373
98.500	123.788	80.009	19.994	100.446	20.096	2.741	0.349
99.000	124.021	80.007	19.994	100.446	20.091	3.049	0.366
99.500	124.205	80.008	19.995	100.447	20.093	2.947	0.411
100.000	124.378	80.009	19.995	100.446	20.096	2.735	0.387
100.500	124.591	80.005	19.995	100.444	20.094	2.857	0.371
101.000	124.788	80.007	19.994	100.445	20.095	2.822	0.398
101.501	124.959	80.008	19.995	100.444	20.090	3.132	0.389
102.001	125.207	80.008	19.995	100.444	20.095	2.812	0.393
102.500	125.358	80.008	19.995	100.445	20.090	3.104	0.409
103.000	125.571	80.008	19.995	100.445	20.095	2.791	0.382
103.500	125.728	80.007	19.995	100.445	20.091	3.033	0.367
104.000	126.009	80.009	19.994	100.446	20.096	2.723	0.404
104.500	126.174	80.009	19.994	100.445	20.096	2.760	0.443
105.000	126.383	80.007	19.994	100.445	20.098	2.573	0.410
105.500	126.569	80.008	19.994	100.445	20.093	2.916	0.384
106.000	126.783	80.006	19.995	100.445	20.093	2.912	0.398
106.500	126.973	80.008	19.994	100.443	20.095	2.787	0.402
107.000	127.166	80.007	19.996	100.444	20.092	2.962	0.393
107.500	127.377	80.007	19.995	100.445	20.094	2.848	0.393
108.000	127.585	80.009	19.995	100.445	20.093	2.933	0.412
108.500	127.813	80.009	19.994	100.445	20.098	2.585	0.428
109.001	128.013	80.007	19.994	100.447	20.095	2.773	0.432
109.501	128.193	80.009	19.997	100.447	20.095	2.796	0.404
110.000	128.398	80.008	19.994	100.445	20.096	2.715	0.383
110.500	128.605	80.009	19.995	100.444	20.093	2.896	0.399
111.000	128.820	80.009	19.994	100.443	20.093	2.938	0.417
111.500	129.019	80.009	19.994	100.442	20.095	2.789	0.418
112.000	129.236	80.009	19.997	100.442	20.093	2.909	0.415
112.500	129.457	80.008	19.996	100.442	20.096	2.704	0.427
113.000	129.703	80.008	19.996	100.444	20.095	2.810	0.452
113.500	129.872	80.008	19.995	100.445	20.093	2.947	0.441
114.000	130.064	80.010	19.997	100.444	20.093	2.888	0.388
114.500	130.300	80.010	19.995	100.444	20.091	3.073	0.395
115.000	130.483	80.010	19.996	100.444	20.094	2.884	0.424
115.500	130.715	80.010	19.995	100.442	20.093	2.905	0.417
116.000	130.966	80.009	19.997	100.442	20.092	2.961	0.449
116.500	131.118	80.009	19.994	100.441	20.095	2.779	0.443
117.000	131.350	80.008	19.996	100.441	20.093	2.933	0.394
117.500	131.585	80.009	19.995	100.441	20.098	2.590	0.426
118.000	131.818	80.010	19.995	100.442	20.091	3.026	0.468
118.500	132.017	80.011	19.996	100.441	20.097	2.673	0.450
119.000	132.239	80.009	19.995	100.441	20.096	2.741	0.427
119.500	132.455	80.010	19.995	100.440	20.098	2.621	0.430
120.000	132.674	80.008	19.994	100.440	20.093	2.914	0.437
120.500	132.840	80.010	19.996	100.439	20.095	2.807	0.410
121.000	133.076	80.007	19.996	100.440	20.092	2.973	0.393
121.500	133.296	80.008	19.996	100.440	20.093	2.910	0.429
122.000	133.512	80.010	19.996	100.441	20.091	3.075	0.447
122.500	133.703	80.006	19.997	100.442	20.095	2.813	0.421
123.000	133.963	80.012	19.996	100.442	20.094	2.881	0.428
123.500	134.190	80.009	19.998	100.442	20.093	2.910	0.469
124.000	134.393	80.008	19.996	100.442	20.093	2.895	0.459
124.500	134.586	80.009	19.994	100.441	20.090	3.101	0.413
125.000	134.836	80.009	19.995	100.441	20.092	2.978	0.420
125.500	135.065	80.008	19.994	100.441	20.096	2.727	0.461
126.000	135.284	80.008	19.993	100.441	20.092	2.988	0.463
126.500	135.474	80.009	19.996	100.442	20.095	2.817	0.429
127.000	135.683	80.008	19.996	100.442	20.093	2.924	0.404
127.500	135.918	80.010	19.995	100.443	20.091	3.033	0.421
128.000	136.153	80.009	19.996	100.443	20.095	2.816	0.457
128.500	136.326	80.009	19.995	100.444	20.094	2.837	0.439
129.000	136.609	80.009	19.996	100.443	20.093	2.903	0.432
129.500	136.813	80.006	19.997	100.443	20.096	2.738	0.472
130.000	137.038	80.008	19.997	100.444	20.092	2.953	0.458
130.501	137.276	80.007	19.995	100.444	20.094	2.855	0.446
131.000	137.504	80.008	19.996	100.444	20.097	2.658	0.464
131.500	137.759	80.005	19.996	100.444	20.095	2.820	0.474
132.000	137.948	80.008	19.996	100.445	20.093	2.910	0.463
132.500	138.182	80.009	19.996	100.445	20.092	2.967	0.434
133.000	138.427	80.007	19.995	100.445	20.091	3.047	0.451
133.500	138.611	80.011	19.993	100.444	20.098	2.585	0.454
134.000	138.862	80.008	19.996	100.445	20.097	2.690	0.432
134.500	139.059	80.011	19.996	100.445	20.093	2.896	0.442
135.000	139.313	80.007	19.998	100.445	20.095	2.775	0.450
135.500	139.512	80.008	19.993	100.444	20.095	2.786	0.452
136.000	139.784	80.008	19.995	100.446	20.094	2.877	0.462
136.500	139.979	80.008	19.994	100.445	20.096	2.734	0.469
137.000	140.205	80.009	19.996	100.446	20.099	2.564	0.444
137.500	140.424	80.008	19.994	100.445	20.097	2.689	0.433
138.000	140.697	80.009	19.996	100.441	20.098	2.592	0.468
138.500	140.900	80.009	19.996	100.433	20.098	2.586	0.484
139.000	141.143	80.006	19.995	100.425	20.097	2.687	0.460
139.500	141.379	80.009	19.994	100.420	20.095	2.773	0.462
140.000	141.593	80.009	19.995	100.420	20.094	2.839	0.465
140.500	141.802	80.010	19.996	100.425	20.096	2.727	0.437
141.000	142.057	80.009	19.995	100.431	20.097	2.640	0.443
141.500	142.265	80.009	19.994	100.439	20.094	2.844	0.464
142.000	142.494	80.009	19.995	100.443	20.095	2.803	0.450
142.500	142.762	80.010	19.995	100.440	20.094	2.844	0.466
143.000	142.989	80.010	19.997	100.435	20.100	2.464	0.496
143.501	143.241	80.009	19.996	100.434	20.095	2.777	0.488
144.000	143.473	80.011	19.994	100.432	20.095	2.789	0.482
144.500	143.678	80.010	19.995	100.430	20.099	2.545	0.461
145.000	143.925	80.009	19.996	100.432	20.098	2.628	0.444
145.501	144.148	80.007	19.995	100.436	20.096	2.737	0.461
146.000	144.369	80.009	19.991	100.437	20.096	2.744	0.457
146.500	144.644	80.007	19.996	100.440	20.096	2.711	0.470
147.000	144.873	80.007	19.998	100.443	20.095	2.786	0.500
147.500	145.119	80.011	19.994	100.442	20.098	2.618	0.490
148.000	145.374	80.013	19.994	100.441	20.096	2.720	0.488
148.500	145.557	80.010	19.998	100.440	20.097	2.652	0.469
149.000	145.819	80.003	20.001	100.439	20.095	2.803	0.441
149.500	146.040	80.010	19.995	100.437	20.097	2.661	0.464
150.000	146.261	80.005	20.000	100.439	20.101	2.441	0.463
150.500	146.552	80.008	19.998	100.440	20.099	2.517	0.477
151.000	146.738	80.005	19.996	100.441	20.094	2.844	0.494
151.500	146.962	80.007	19.997	100.442	20.092	3.010	0.443
152.000	147.184	80.007	19.995	100.442	20.096	2.730	0.428
152.500	147.444	80.007	19.995	100.438	20.095	2.811	0.464
153.001	147.713	80.005	19.999	100.438	20.099	2.550	0.506
153.501	147.921	80.008	19.996	100.438	20.100	2.502	0.503
154.000	148.123	80.008	19.994	100.437	20.096	2.737	0.443
154.500	148.393	80.010	19.990	100.437	20.097	2.638	0.441
155.000	148.648	80.008	19.995	100.436	20.094	2.827	0.499
155.500	148.912	80.007	19.995	100.436	20.096	2.730	0.522
156.000	149.129	80.007	19.995	100.434	20.098	2.570	0.500
156.500	149.352	80.009	19.994	100.436	20.096	2.759	0.460
157.000	149.561	80.008	19.994	100.438	20.094	2.835	0.436
157.500	149.802	80.006	19.995	100.441	20.096	2.738	0.441
158.000	150.073	80.009	19.994	100.440	20.095	2.766	0.481
158.500	150.323	80.008	19.995	100.442	20.092	2.951	0.517
159.000	150.581	80.008	19.994	100.440	20.092	3.009	0.515
159.500	150.813	80.007	19.994	100.440	20.093	2.903	0.499
160.000	151.051	80.008	19.993	100.437	20.094	2.867	0.480
160.500	151.277	80.008	19.993	100.433	20.092	3.007	0.467
161.001	151.511	80.005	19.996	100.426	20.093	2.908	0.462
161.500	151.733	80.011	19.993	100.424	20.097	2.680	0.458
162.000	152.004	80.008	19.998	100.422	20.095	2.782	0.474
162.500	152.216	80.008	19.998	100.420	20.098	2.626	0.488
163.000	152.502	80.009	19.996	100.423	20.095	2.787	0.491
163.500	152.711	80.009	19.994	100.430	20.095	2.790	0.497
164.000	152.956	80.009	19.994	100.433	20.096	2.709	0.474
164.501	153.207	80.008	19.995	100.435	20.094	2.870	0.475
165.000	153.438	80.007	19.995	100.436	20.097	2.674	0.489
165.500	153.672	80.007	19.995	100.430	20.094	2.837	0.474
166.000	153.952	80.006	19.995	100.422	20.096	2.733	0.490
166.500	154.160	80.007	19.996	100.418	20.093	2.906	0.501
167.000	154.395	80.007	19.994	100.416	20.100	2.494	0.466
167.501	154.600	80.009	19.992	100.418	20.095	2.778	0.441
168.001	154.858	80.006	19.997	100.420	20.095	2.821	0.451
168.500	155.133	80.007	19.993	100.424	20.096	2.728	0.498
169.000	155.365	80.007	19.995	100.426	20.095	2.762	0.520
169.500	155.565	80.007	19.996	100.429	20.090	3.123	0.470
170.000	155.833	80.007	19.995	100.430	20.095	2.792	0.450
170.500	156.046	80.004	19.994	100.435	20.096	2.737	0.474
171.000	156.305	80.009	19.996	100.436	20.096	2.736	0.476
171.500	156.492	80.009	19.993	100.438	20.091	3.020	0.459
172.000	156.799	80.009	19.996	100.437	20.095	2.778	0.470
172.500	156.988	80.009	19.995	100.434	20.091	3.019	0.495
173.000	157.248	80.007	19.995	100.433	20.089	3.181	0.473
173.500	157.497	80.006	19.992	100.428	20.087	3.322	0.479
174.000	157.734	80.007	19.995	100.426	20.097	2.671	0.497
174.500	157.979	80.007	19.994	100.423	20.096	2.721	0.484
175.000	158.243	80.009	19.995	100.418	20.092	2.969	0.496
175.500	158.486	80.008	19.995	100.415	20.097	2.653	0.508
176.000	158.769	80.009	19.995	100.417	20.092	2.963	0.516
176.500	158.980	80.007	19.995	100.417	20.097	2.653	0.509
177.000	159.223	80.004	19.996	100.419	20.096	2.716	0.474
177.500	159.397	80.008	19.995	100.421	20.095	2.769	0.436
178.000	159.722	80.009	19.995	100.418	20.097	2.664	0.458
178.500	159.969	80.007	19.995	100.416	20.092	3.005	0.536
179.000	160.187	80.005	19.994	100.414	20.099	2.551	0.519
179.500	160.436	80.008	19.992	100.413	20.096	2.731	0.466
180.000	160.674	80.008	19.993	100.416	20.097	2.657	0.477
180.500	160.955	80.008	19.994	100.420	20.098	2.600	0.503
181.000	161.197	80.008	19.995	100.420	20.098	2.605	0.520
181.500	161.421	80.007	19.996	100.418	20.091	3.064	0.494
182.000	161.681	80.005	19.996	100.414	20.095	2.761	0.475
182.500	161.930	80.008	19.993	100.411	20.098	2.586	0.497
183.000	162.159	80.005	19.995	100.409	20.096	2.757	0.494
183.500	162.403	80.004	19.994	100.413	20.096	2.730	0.475
184.000	162.656	80.008	19.996	100.418	20.098	2.586	0.485
184.500	162.919	80.006	19.993	100.421	20.098	2.615	0.507
185.000	163.153	80.007	19.993	100.420	20.096	2.747	0.506
185.500	163.391	80.008	19.994	100.420	20.097	2.683	0.485
186.000	163.616	80.007	19.994	100.420	20.098	2.624	0.468
186.501	163.894	80.005	19.995	100.416	20.098	2.622	0.483
187.000	164.141	80.008	19.993	100.412	20.092	2.953	0.514
187.500	164.359	80.009	19.995	100.413	20.093	2.915	0.495
188.000	164.660	80.009	19.993	100.416	20.096	2.728	0.492
188.500	164.921	80.008	19.995	100.412	20.096	2.724	0.541
189.000	165.133	80.008	19.995	100.412	20.101	2.402	0.518
189.500	165.410	80.006	19.995	100.413	20.097	2.641	0.481
190.000	165.671	80.008	19.995	100.413	20.094	2.857	0.513
190.500	165.935	80.010	19.996	100.409	20.100	2.473	0.531
191.000	166.202	80.006	19.996	100.412	20.099	2.527	0.528
191.500	166.406	80.009	19.995	100.412	20.097	2.658	0.501
192.000	166.659	80.008	19.994	100.414	20.099	2.565	0.464
192.500	166.905	80.007	19.995	100.417	20.093	2.941	0.478
193.000	167.175	80.008	19.994	100.420	20.094	2.840	0.508
193.500	167.425	80.007	19.994	100.419	20.096	2.743	0.519
194.000	167.703	80.009	19.994	100.418	20.100	2.444	0.524
194.500	167.925	80.008	19.993	100.416	20.097	2.665	0.514
195.000	168.170	80.008	19.994	100.413	20.100	2.471	0.483
195.500	168.417	80.009	19.995	100.410	20.095	2.785	0.479
196.000	168.657	80.008	19.994	100.407	20.102	2.375	0.490
196.500	168.891	80.014	19.993	100.408	20.098	2.584	0.481
197.000	169.142	80.008	19.995	100.409	20.101	2.401	0.479
197.500	169.392	80.008	19.996	100.410	20.094	2.854	0.493
198.000	169.663	80.011	19.995	100.409	20.098	2.584	0.511
198.500	169.911	80.012	19.992	100.409	20.102	2.317	0.520
199.000	170.146	80.006	19.995	100.410	20.099	2.560	0.501
199.500	170.413	80.011	19.994	100.408	20.098	2.582	0.492
200.000	170.674	80.007	19.994	100.407	20.104	2.243	0.515
200.500	170.918	80.010	19.994	100.407	20.097	2.643	0.516
201.000	171.125	80.011	19.993	100.408	20.098	2.591	0.478
201.500	171.381	80.005	19.999	100.408	20.098	2.598	0.457
202.000	171.663	80.012	19.992	100.408	20.104	2.250	0.500
202.500	171.891	80.010	19.996	100.408	20.099	2.554	0.524
203.000	172.178	80.011	19.995	100.407	20.102	2.340	0.513
203.500	172.398	80.011	19.993	100.408	20.098	2.606	0.511
204.000	172.691	80.010	19.996	100.407	20.097	2.670	0.510
204.500	172.903	80.004	19.994	100.408	20.100	2.490	0.509
205.000	173.153	80.011	19.996	100.408	20.100	2.449	0.484
205.500	173.393	80.010	19.995	100.408	20.100	2.458	0.476
206.000	173.648	80.012	19.992	100.408	20.096	2.757	0.492
206.500	173.859	80.010	19.994	100.408	20.100	2.487	0.480
207.000	174.139	80.002	19.998	100.408	20.099	2.525	0.478
207.500	174.413	80.008	19.998	100.408	20.100	2.489	0.523
208.000	174.660	80.011	19.996	100.409	20.104	2.193	0.538
208.500	174.927	80.008	19.995	100.408	20.090	3.120	0.517
209.000	175.168	80.008	19.992	100.407	20.097	2.691	0.511
209.500	175.388	80.012	19.993	100.407	20.092	2.999	0.484
210.000	175.684	80.007	19.995	100.408	20.099	2.567	0.489
210.500	175.912	80.008	19.994	100.408	20.096	2.700	0.520
211.000	176.185	80.008	19.992	100.408	20.100	2.475	0.513
211.500	176.418	80.009	19.995	100.408	20.100	2.492	0.504
212.000	176.658	80.006	19.997	100.407	20.099	2.537	0.489
212.500	176.929	80.006	19.995	100.406	20.100	2.445	0.492
213.000	177.179	80.007	19.998	100.405	20.097	2.686	0.516
213.500	177.417	80.009	19.996	100.403	20.100	2.461	0.504
214.000	177.666	80.008	19.995	100.404	20.095	2.805	0.487
214.500	177.928	80.007	19.993	100.406	20.099	2.528	0.498
215.000	178.187	80.009	19.993	100.406	20.098	2.608	0.516
215.500	178.427	80.010	19.995	100.407	20.097	2.643	0.510
216.000	178.647	80.007	19.992	100.407	20.096	2.743	0.480
216.500	178.941	80.006	19.996	100.407	20.104	2.239	0.487
217.000	179.184	80.009	19.994	100.407	20.087	3.279	0.526
217.500	179.440	80.007	19.993	100.408	20.106	2.087	0.518
218.000	179.650	80.010	19.995	100.407	20.101	2.380	0.483
218.500	179.903	80.003	19.994	100.405	20.106	2.111	0.465
219.000	180.157	80.010	19.992	100.404	20.094	2.857	0.485
219.500	180.429	80.009	19.994	100.406	20.101	2.426	0.516
220.000	180.649	80.012	19.993	100.405	20.099	2.554	0.508
220.500	180.926	80.009	19.994	100.404	20.096	2.708	0.494
221.000	181.222	80.007	19.995	100.406	20.096	2.746	0.535
221.500	181.463	80.010	19.990	100.407	20.101	2.402	0.555
222.000	181.656	80.009	19.996	100.407	20.099	2.516	0.485
222.500	181.904	80.013	19.993	100.406	20.107	2.040	0.438
223.000	182.140	80.008	19.997	100.407	20.099	2.547	0.463
223.500	182.442	80.010	19.993	100.405	20.104	2.198	0.511
224.000	182.659	80.011	19.995	100.403	20.095	2.786	0.529
224.500	182.938	80.011	19.995	100.402	20.099	2.519	0.508
225.000	183.180	80.012	19.993	100.402	20.103	2.265	0.509
225.500	183.446	80.010	19.996	100.401	20.103	2.265	0.514
226.000	183.645	80.008	19.995	100.398	20.099	2.552	0.487
226.500	183.923	80.008	19.993	100.396	20.099	2.556	0.471
227.000	184.165	80.008	19.997	100.395	20.100	2.492	0.499
227.500	184.417	80.007	19.995	100.395	20.102	2.377	0.507
228.000	184.647	80.009	19.997	100.394	20.107	2.043	0.487
228.500	184.945	80.010	19.994	100.396	20.099	2.535	0.505
229.000	185.171	80.008	19.995	100.398	20.102	2.341	0.527
229.500	185.439	80.010	19.994	100.399	20.099	2.549	0.509
230.000	185.685	80.012	19.995	100.399	20.099	2.511	0.504
230.500	185.961	80.011	19.994	100.398	20.102	2.374	0.518
231.000	186.199	80.010	19.993	100.398	20.099	2.551	0.518
231.500	186.442	80.006	19.996	100.399	20.103	2.281	0.497
232.000	186.692	80.009	19.996	100.398	20.102	2.367	0.487
232.500	186.968	80.006	19.996	100.397	20.099	2.545	0.510
233.000	187.233	80.009	19.995	100.398	20.096	2.711	0.533
233.500	187.462	80.005	19.996	100.398	20.098	2.571	0.517
234.000	187.723	80.007	19.997	100.395	20.096	2.716	0.492
234.501	187.951	80.005	19.994	100.393	20.098	2.588	0.490
235.000	188.214	80.005	19.995	100.390	20.100	2.459	0.490
235.500	188.482	80.007	19.996	100.389	20.101	2.414	0.510
236.000	188.713	80.008	19.995	100.389	20.093	2.940	0.515
236.500	188.979	80.009	19.997	100.390	20.099	2.552	0.498
237.000	189.208	80.007	19.995	100.392	20.100	2.471	0.496
237.501	189.468	80.003	19.997	100.389	20.105	2.168	0.492
238.000	189.736	80.007	19.995	100.386	20.100	2.497	0.509
238.500	189.980	80.009	19.995	100.383	20.103	2.277	0.520
239.000	190.214	80.007	19.997	100.378	20.101	2.422	0.495
239.500	190.468	80.009	19.996	100.377	20.103	2.270	0.483
240.000	190.750	80.011	19.993	100.381	20.094	2.867	0.512
240.500	190.907	80.005	20.000	100.385	20.095	2.796	0.487
241.000	191.159	80.003	19.994	100.390	20.102	2.327	0.424
241.500	191.426	80.007	19.998	100.396	20.095	2.799	0.464
242.000	191.729	80.007	19.997	100.396	20.104	2.233	0.544
242.500	191.945	80.009	20.000	100.392	20.105	2.159	0.544
243.000	192.181	80.011	19.997	100.390	20.097	2.654	0.486
243.500	192.490	80.005	19.995	100.387	20.099	2.507	0.499
244.000	192.678	80.013	19.997	100.381	20.098	2.602	0.521
244.500	192.899	80.009	19.996	100.377	20.100	2.492	0.453
245.000	193.164	80.003	19.997	100.376	20.102	2.365	0.447
245.500	193.430	80.007	19.994	100.374	20.099	2.521	0.508
246.000	193.715	80.007	20.000	100.373	20.101	2.417	0.541
246.501	193.965	80.001	19.994	100.373	20.096	2.747	0.543
247.000	194.160	80.004	19.999	100.377	20.101	2.417	0.490
247.500	194.401	80.007	19.995	100.378	20.097	2.651	0.441
248.000	194.640	80.006	19.997	100.377	20.098	2.592	0.458
248.500	194.959	80.014	19.994	100.378	20.102	2.317	0.519
249.000	195.191	80.006	19.999	100.380	20.102	2.357	0.555
249.500	195.401	80.008	19.994	100.375	20.097	2.692	0.496
250.000	195.686	80.006	19.997	100.374	20.099	2.516	0.468
250.500	195.922	80.009	19.995	100.370	20.098	2.613	0.508
251.000	196.181	80.006	19.994	100.367	20.101	2.388	0.508
251.500	196.428	80.013	19.995	100.364	20.091	3.040	0.501
252.000	196.708	80.007	19.994	100.363	20.097	2.646	0.516
252.500	196.895	80.012	19.992	100.362	20.101	2.415	0.497
253.000	197.175	80.011	19.994	100.366	20.100	2.488	0.467
253.500	197.381	80.010	19.992	100.366	20.101	2.426	0.476
254.000	197.619	80.009	19.995	100.372	20.103	2.255	0.465
254.500	197.876	80.004	19.993	100.376	20.096	2.698	0.469
255.000	198.162	80.009	19.991	100.377	20.097	2.661	0.519
255.500	198.379	80.008	19.995	100.379	20.097	2.647	0.523
256.000	198.621	80.002	19.995	100.378	20.097	2.640	0.481
256.500	198.852	80.009	19.994	100.375	20.104	2.248	0.466
257.000	199.101	80.007	19.995	100.376	20.101	2.431	0.476
257.500	199.335	80.005	19.995	100.374	20.097	2.634	0.481
258.000	199.607	80.011	19.993	100.375	20.095	2.796	0.495
258.500	199.882	80.001	19.996	100.377	20.092	2.976	0.527
259.000	200.125	80.011	19.994	100.380	20.098	2.630	0.532
259.500	200.351	80.011	19.995	100.379	20.093	2.902	0.493
260.000	200.595	80.008	19.994	100.379	20.093	2.924	0.470
260.500	200.810	80.011	19.996	100.379	20.104	2.220	0.464
261.000	201.101	80.007	19.995	100.383	20.099	2.523	0.482
261.500	201.307	80.008	19.995	100.382	20.100	2.455	0.501
262.000	201.554	80.009	19.996	100.382	20.094	2.831	0.475
262.500	201.784	80.007	19.993	100.384	20.100	2.485	0.465
263.000	202.073	80.006	19.994	100.385	20.100	2.465	0.498
263.500	202.326	80.008	19.995	100.381	20.096	2.697	0.531
264.000	202.571	80.009	19.993	100.381	20.095	2.820	0.520
264.500	202.841	80.010	19.993	100.389	20.089	3.142	0.506
265.000	203.095	80.006	19.995	100.388	20.097	2.685	0.520
265.500	203.340	80.009	19.994	100.385	20.093	2.902	0.512
266.000	203.599	80.008	19.994	100.387	20.093	2.886	0.502
266.500	203.808	80.009	19.995	100.386	20.089	3.161	0.486
267.000	204.062	80.001	19.995	100.384	20.100	2.478	0.465
267.500	204.311	80.005	19.994	100.387	20.090	3.118	0.483
268.000	204.550	80.010	19.995	100.389	20.095	2.820	0.496
268.500	204.794	80.009	19.994	100.389	20.086	3.358	0.486
269.000	205.011	80.009	19.995	100.387	20.097	2.645	0.472
269.500	205.269	80.008	19.993	100.383	20.097	2.652	0.468
270.000	205.470	80.005	19.995	100.380	20.093	2.919	0.467
270.500	205.761	80.008	19.995	100.378	20.089	3.190	0.476
271.000	206.068	80.008	19.992	100.374	20.093	2.941	0.545
271.500	206.257	80.007	19.995	100.376	20.098	2.621	0.547
272.000	206.523	80.006	19.995	100.376	20.079	3.798	0.475
272.500	206.765	80.010	19.996	100.373	20.096	2.727	0.482
273.000	207.002	80.005	19.996	100.374	20.096	2.711	0.494
273.500	207.241	80.005	19.995	100.377	20.095	2.760	0.477
274.000	207.470	80.004	19.995	100.375	20.092	3.005	0.472
274.500	207.781	80.008	19.998	100.376	20.095	2.818	0.504
275.000	208.032	80.010	19.995	100.380	20.093	2.886	0.550
275.500	208.245	80.009	19.994	100.382	20.095	2.791	0.513
276.000	208.512	80.008	19.995	100.379	20.094	2.855	0.472
276.500	208.782	80.009	19.996	100.377	20.096	2.756	0.509
277.000	209.046	80.013	19.994	100.379	20.096	2.713	0.535
277.500	209.267	80.010	19.996	100.377	20.092	2.958	0.509
278.000	209.489	80.008	19.994	100.373	20.094	2.839	0.464
278.500	209.747	80.006	19.995	100.373	20.090	3.099	0.462
279.000	209.993	80.007	19.992	100.374	20.094	2.825	0.492
279.500	210.201	80.009	19.991	100.372	20.097	2.690	0.479
280.000	210.465	80.007	19.994	100.371	20.100	2.491	0.463
280.500	210.708	80.012	19.992	100.371	20.094	2.882	0.489
281.000	210.961	80.008	19.992	100.371	20.092	3.010	0.502
281.500	211.189	80.007	19.994	100.371	20.098	2.621	0.489
282.000	211.469	80.006	19.989	100.373	20.092	3.003	0.495
282.500	211.691	80.009	19.993	100.378	20.092	2.984	0.505
283.000	211.937	80.010	19.995	100.378	20.085	3.427	0.485
283.500	212.197	80.006	19.997	100.380	20.094	2.844	0.487
284.000	212.398	80.012	19.996	100.381	20.101	2.410	0.483
284.500	212.663	80.010	19.994	100.377	20.090	3.137	0.463
285.000	212.903	80.008	19.995	100.372	20.094	2.842	0.486
285.500	213.152	80.009	19.995	100.371	20.096	2.739	0.497
286.000	213.403	80.012	19.991	100.369	20.089	3.183	0.494
286.500	213.695	80.008	19.994	100.370	20.092	2.977	0.522
287.000	213.876	80.005	19.995	100.372	20.096	2.721	0.508
287.500	214.148	80.012	19.994	100.372	20.095	2.803	0.463
288.001	214.392	79.999	19.993	100.373	20.094	2.880	0.485
288.500	214.668	80.007	19.994	100.370	20.098	2.602	0.518
289.000	214.884	80.006	19.994	100.370	20.093	2.901	0.506
289.500	215.116	80.012	19.995	100.370	20.091	3.062	0.470
290.000	215.388	80.010	19.994	100.371	20.094	2.877	0.476
290.500	215.628	80.006	19.995	100.370	20.088	3.211	0.508
291.000	215.871	80.010	19.996	100.372	20.091	3.029	0.498
291.500	216.097	80.007	19.994	100.368	20.092	2.958	0.476
292.000	216.349	80.009	19.996	100.368	20.094	2.884	0.473
292.500	216.613	80.010	19.994	100.367	20.087	3.268	0.497
293.000	216.865	80.010	19.996	100.367	20.092	2.984	0.516
293.500	217.122	80.008	19.995	100.367	20.092	2.982	0.512
294.000	217.284	80.009	19.993	100.368	20.091	3.053	0.464
294.500	217.639	80.006	19.995	100.369	20.088	3.228	0.469
295.000	217.803	80.009	19.994	100.367	20.091	3.015	0.518
295.500	218.081	80.009	19.993	100.368	20.090	3.097	0.480
296.000	218.282	80.012	19.994	100.369	20.085	3.406	0.460
296.500	218.564	80.009	19.995	100.368	20.091	3.029	0.481
297.000	218.816	80.013	19.993	100.366	20.091	3.014	0.508
297.500	219.067	80.009	19.994	100.363	20.088	3.245	0.519
298.000	219.309	80.008	19.996	100.362	20.093	2.899	0.498
298.500	219.601	80.007	19.995	100.363	20.091	3.071	0.513
299.000	219.832	80.001	19.996	100.363	20.088	3.235	0.529
299.500	220.078	80.008	19.995	100.363	20.092	2.986	0.500
300.000	220.336	80.007	19.992	100.365	20.088	3.242	0.490
300.500	220.596	80.009	19.993	100.362	20.097	2.692	0.511
301.000	220.787	80.013	19.996	100.362	20.090	3.078	0.484
301.500	221.053	80.006	19.998	100.363	20.088	3.244	0.454
302.000	221.296	80.007	19.998	100.363	20.090	3.133	0.484
302.500	221.548	80.009	19.996	100.363	20.089	3.190	0.502
303.000	221.775	80.011	19.997	100.366	20.093	2.944	0.487
303.500	222.049	80.013	19.997	100.365	20.085	3.401	0.490
304.000	222.289	80.009	19.998	100.363	20.087	3.270	0.507
304.500	222.518	80.009	19.997	100.362	20.092	2.991	0.492
305.000	222.793	80.006	19.997	100.364	20.089	3.143	0.486
305.500	223.022	80.012	19.997	100.363	20.088	3.252	0.504
306.000	223.283	80.002	20.004	100.364	20.087	3.297	0.497
306.500	223.497	80.015	19.996	100.362	20.091	3.031	0.483
307.000	223.760	80.011	19.990	100.362	20.094	2.832	0.476
307.500	223.991	80.017	19.997	100.361	20.090	3.086	0.485
308.000	224.249	80.009	19.995	100.363	20.084	3.500	0.492
308.500	224.521	80.009	19.996	100.362	20.089	3.154	0.510
309.000	224.785	80.013	19.997	100.364	20.085	3.398	0.533
309.500	225.016	80.009	19.997	100.366	20.088	3.237	0.515
310.000	225.244	80.010	19.996	100.367	20.085	3.436	0.477
310.500	225.502	80.012	19.994	100.365	20.089	3.202	0.473
311.000	225.744	80.014	19.996	100.365	20.091	3.021	0.493
311.500	225.979	80.010	19.996	100.366	20.087	3.275	0.489
312.000	226.197	80.009	19.997	100.364	20.087	3.308	0.465
312.500	226.499	80.011	19.995	100.363	20.091	3.066	0.486
313.000	226.752	80.013	19.994	100.364	20.088	3.252	0.537
313.500	226.969	80.011	19.995	100.364	20.075	4.090	0.512
314.000	227.222	80.005	19.998	100.364	20.083	3.579	0.470
314.500	227.493	80.012	19.997	100.364	20.087	3.296	0.497
315.000	227.764	80.007	19.993	100.365	20.081	3.695	0.533
315.500	227.986	80.004	19.998	100.364	20.085	3.413	0.518
316.000	228.192	80.008	19.995	100.363	20.083	3.538	0.460
316.500	228.479	80.007	19.994	100.362	20.083	3.533	0.460
317.000	228.707	80.008	19.997	100.363	20.088	3.240	0.504
317.500	228.982	80.007	19.997	100.364	20.088	3.214	0.509
318.000	229.208	80.008	19.995	100.366	20.089	3.159	0.502
318.500	229.470	80.009	19.995	100.367	20.088	3.207	0.495
319.000	229.739	80.010	19.997	100.369	20.080	3.721	0.510
319.500	229.990	80.006	19.997	100.368	20.086	3.349	0.525
320.000	230.246	80.008	19.995	100.368	20.088	3.220	0.513
320.500	230.470	80.011	19.996	100.366	20.081	3.697	0.493
321.000	230.722	80.005	19.998	100.366	20.088	3.223	0.478
321.500	230.985	80.013	19.994	100.364	20.089	3.166	0.495
322.000	231.256	80.006	19.997	100.365	20.082	3.623	0.524
322.500	231.465	80.006	19.992	100.363	20.088	3.247	0.507
323.001	231.700	79.997	19.997	100.366	20.086	3.344	0.462
323.501	231.972	80.008	19.995	100.364	20.090	3.131	0.476
324.000	232.268	80.011	19.996	100.365	20.085	3.405	0.537
324.500	232.456	80.010	19.994	100.364	20.085	3.438	0.526
325.000	232.689	80.009	19.996	100.366	20.087	3.272	0.452
325.500	232.972	80.006	19.998	100.364	20.088	3.207	0.468
326.000	233.190	80.007	19.992	100.366	20.084	3.491	0.508
326.500	233.441	80.010	19.997	100.367	20.085	3.425	0.485
327.000	233.734	80.006	19.995	100.367	20.083	3.581	0.506
327.500	233.990	80.008	19.994	100.366	20.079	3.827	0.547
328.000	234.223	80.007	19.994	100.366	20.085	3.451	0.519
328.500	234.444	80.009	19.994	100.365	20.085	3.455	0.471
329.000	234.703	80.007	19.997	100.365	20.090	3.111	0.467
329.500	234.964	80.011	19.993	100.366	20.087	3.329	0.500
330.000	235.212	80.007	19.996	100.368	20.089	3.159	0.515
330.500	235.439	80.010	19.993	100.369	20.085	3.453	0.492
331.000	235.700	80.015	19.996	100.369	20.087	3.327	0.482
331.500	235.964	80.009	19.994	100.368	20.080	3.763	0.506
332.001	236.206	80.006	20.000	100.368	20.085	3.432	0.515
332.500	236.451	80.005	19.997	100.367	20.088	3.263	0.496
333.000	236.738	80.005	19.995	100.367	20.080	3.737	0.510
333.500	236.954	80.008	19.995	100.368	20.083	3.576	0.518
334.000	237.205	80.009	19.995	100.369	20.081	3.678	0.485
334.500	237.476	80.008	19.996	100.369	20.090	3.105	0.494
335.000	237.707	80.009	19.994	100.370	20.081	3.647	0.512
335.500	237.993	80.008	19.995	100.368	20.084	3.484	0.509
336.000	238.256	80.006	19.993	100.368	20.083	3.557	0.534
336.500	238.474	80.009	19.997	100.366	20.090	3.109	0.515
337.000	238.769	80.006	19.991	100.364	20.079	3.830	0.497
337.500	238.969	80.011	19.996	100.364	20.080	3.737	0.504
338.000	239.250	80.013	19.988	100.366	20.082	3.598	0.488
338.500	239.449	80.002	19.996	100.367	20.084	3.464	0.480
339.000	239.730	80.003	19.993	100.370	20.078	3.900	0.480
339.500	239.943	80.007	20.000	100.371	20.080	3.713	0.487
340.000	240.221	80.006	19.999	100.370	20.080	3.716	0.492
340.500	240.439	80.005	19.997	100.368	20.069	4.451	0.493
341.000	240.693	80.011	19.996	100.366	20.082	3.631	0.484
341.500	240.949	80.010	19.997	100.366	20.073	4.173	0.491
342.001	241.179	80.003	19.996	100.365	20.082	3.636	0.498
342.500	241.402	80.005	19.994	100.366	20.075	4.036	0.469
343.000	241.677	80.007	19.996	100.367	20.084	3.519	0.475
343.500	241.919	80.007	20.001	100.367	20.081	3.656	0.508
344.000	242.194	80.010	19.993	100.368	20.079	3.815	0.517
344.500	242.462	80.007	19.998	100.370	20.079	3.823	0.530
345.001	242.704	80.007	19.997	100.370	20.074	4.097	0.526
345.501	242.948	80.014	19.997	100.369	20.074	4.111	0.498
346.001	243.224	80.007	19.995	100.369	20.077	3.943	0.503
346.501	243.471	80.005	19.999	100.369	20.077	3.906	0.521
347.000	243.692	80.009	19.999	100.366	20.074	4.105	0.496
347.500	243.961	80.004	19.995	100.367	20.076	4.000	0.479
348.000	244.185	80.012	19.994	100.366	20.083	3.529	0.491
348.500	244.437	80.010	19.994	100.366	20.079	3.830	0.484
349.001	244.714	80.009	19.995	100.367	20.076	3.970	0.503
349.501	244.906	80.002	20.000	100.369	20.077	3.958	0.499
350.001	245.176	80.008	19.994	100.368	20.073	4.159	0.466
350.502	245.432	80.007	19.998	100.370	20.074	4.147	0.494
351.001	245.683	80.008	19.992	100.370	20.075	4.039	0.516
351.500	245.927	80.005	19.992	100.368	20.073	4.167	0.501
352.000	246.196	80.003	19.998	100.363	20.074	4.091	0.504
352.500	246.458	80.010	19.996	100.361	20.075	4.084	0.522
353.000	246.662	80.006	19.995	100.361	20.080	3.732	0.499
353.500	246.921	80.010	19.997	100.361	20.071	4.302	0.464
354.000	247.168	80.005	19.993	100.363	20.079	3.823	0.485
354.500	247.429	80.010	19.992	100.367	20.074	4.117	0.508
355.000	247.676	80.004	19.994	100.368	20.070	4.379	0.508
355.500	247.926	80.010	19.994	100.367	20.070	4.363	0.503
356.000	248.144	80.007	19.998	100.368	20.077	3.941	0.482
356.500	248.406	80.008	19.994	100.367	20.073	4.199	0.473
357.000	248.656	80.010	19.992	100.367	20.075	4.057	0.496
357.500	248.882	80.007	19.997	100.369	20.071	4.335	0.494
358.000	249.192	80.008	19.995	100.370	20.069	4.438	0.506
358.500	249.459	80.008	19.998	100.368	20.073	4.187	0.557
359.000	249.692	80.009	19.995	100.367	20.070	4.356	0.539
359.500	249.919	80.008	19.994	100.367	20.073	4.213	0.480
360.000	250.220	80.005	19.996	100.362	20.073	4.166	0.494
360.501	250.433	80.009	19.995	100.361	20.072	4.223	0.521
361.000	250.716	80.011	19.995	100.362	20.067	4.577	0.505
361.500	250.980	80.011	19.994	100.363	20.073	4.169	0.521
362.000	251.222	80.010	19.994	100.361	20.068	4.496	0.527
362.500	251.463	80.008	19.993	100.364	20.062	4.875	0.495
363.000	251.692	80.014	19.993	100.366	20.068	4.486	0.476
363.500	251.977	80.005	19.993	100.365	20.064	4.757	0.492
364.000	252.216	80.005	19.994	100.363	20.069	4.415	0.519
364.500	252.414	80.009	19.995	100.365	20.067	4.562	0.480
365.000	252.679	80.012	19.995	100.366	20.075	4.071	0.450
365.500	252.944	80.008	19.999	100.365	20.068	4.484	0.497
366.000	253.212	80.011	19.992	100.364	20.067	4.588	0.532
366.500	253.428	80.012	19.996	100.365	20.069	4.422	0.509
367.000	253.722	80.011	19.998	100.364	20.071	4.282	0.496
367.500	253.948	80.011	19.994	100.365	20.070	4.406	0.515
368.000	254.187	80.011	19.995	100.365	20.069	4.461	0.493
368.500	254.431	80.010	19.991	100.368	20.075	4.060	0.474
369.000	254.649	80.006	19.993	100.368	20.061	4.915	0.472
369.500	254.901	80.009	19.993	100.367	20.070	4.394	0.466
370.000	255.184	80.012	19.995	100.366	20.063	4.844	0.503
370.500	255.449	80.013	19.998	100.365	20.068	4.472	0.541
371.000	255.688	80.012	19.992	100.363	20.063	4.840	0.526
371.500	255.969	80.006	20.002	100.363	20.074	4.143	0.512
372.000	256.140	80.006	19.996	100.362	20.070	4.373	0.486
372.500	256.428	80.010	19.996	100.361	20.068	4.494	0.456
373.000	256.665	80.008	19.992	100.359	20.067	4.591	0.492
373.500	256.911	80.009	19.994	100.360	20.069	4.417	0.504
374.000	257.146	80.013	19.996	100.359	20.064	4.757	0.482
374.500	257.434	80.011	19.993	100.360	20.064	4.781	0.502
375.000	257.631	80.010	19.998	100.362	20.069	4.458	0.504
375.500	257.936	80.014	19.995	100.362	20.064	4.729	0.493
376.000	258.182	80.012	19.996	100.363	20.069	4.422	0.527
376.500	258.431	80.011	19.998	100.363	20.065	4.695	0.523
377.000	258.722	80.015	19.995	100.364	20.065	4.698	0.518
377.500	258.939	80.009	19.998	100.363	20.063	4.797	0.524
378.000	259.198	80.009	19.997	100.366	20.063	4.809	0.492
378.500	259.468	80.005	19.996	100.364	20.063	4.797	0.503
379.000	259.682	80.011	19.996	100.362	20.063	4.809	0.507
379.500	259.953	80.012	19.997	100.363	20.066	4.617	0.484
380.000	260.236	80.011	19.998	100.363	20.063	4.812	0.519
380.500	260.465	80.010	19.992	100.361	20.067	4.576	0.533
381.000	260.688	80.009	19.999	100.363	20.063	4.814	0.482
381.500	260.942	80.011	19.997	100.363	20.061	4.930	0.464
382.000	261.225	80.014	19.992	100.361	20.061	4.918	0.507
382.500	261.447	80.012	19.991	100.361	20.064	4.752	0.521
383.000	261.711	80.008	19.995	100.363	20.061	4.972	0.495
383.500	261.951	80.008	19.994	100.363	20.062	4.910	0.495
384.000	262.201	80.014	19.995	100.365	20.064	4.733	0.497
384.500	262.450	80.012	19.994	100.365	20.066	4.641	0.495
385.000	262.717	80.011	19.993	100.363	20.063	4.840	0.508
385.500	262.919	80.014	19.995	100.361	20.059	5.041	0.493
386.000	263.212	80.006	19.991	100.360	20.064	4.766	0.482
386.500	263.441	80.010	19.996	100.358	20.064	4.729	0.508
387.000	263.725	80.010	19.994	100.360	20.060	5.004	0.518
387.500	263.955	80.013	19.994	100.361	20.057	5.214	0.514
388.000	264.180	80.008	20.004	100.360	20.051	5.565	0.484
388.500	264.428	80.012	19.991	100.358	20.060	5.005	0.464
389.000	264.676	80.013	19.997	100.356	20.063	4.828	0.484
389.501	264.979	80.012	19.991	100.355	20.060	4.993	0.523
390.001	265.194	80.014	19.992	100.356	20.057	5.177	0.535
390.500	265.445	80.004	19.998	100.357	20.057	5.170	0.492
391.000	265.702	80.012	19.989	100.358	20.057	5.219	0.487
391.500	265.971	80.006	19.993	100.360	20.056	5.243	0.517
392.000	266.179	80.013	19.994	100.360	20.056	5.239	0.501
392.501	266.458	80.007	19.992	100.360	20.057	5.220	0.482
393.001	266.748	80.012	19.991	100.361	20.059	5.094	0.528
393.501	266.960	80.008	19.997	100.363	20.059	5.054	0.535
394.001	267.226	80.010	19.991	100.363	20.052	5.497	0.490
394.501	267.457	80.007	19.991	100.363	20.053	5.428	0.488
395.000	267.716	80.003	19.989	100.362	20.054	5.418	0.493
395.500	267.967	80.015	19.994	100.360	20.051	5.582	0.500
396.000	268.180	80.011	19.992	100.356	20.049	5.678	0.487
396.500	268.428	80.009	19.994	100.356	20.057	5.224	0.463
397.000	268.718	80.006	19.994	100.355	20.053	5.453	0.499
397.500	268.963	80.009	19.990	100.354	20.054	5.357	0.537
398.000	269.251	80.011	19.994	100.352	20.052	5.535	0.534
398.500	269.492	80.009	19.995	100.355	20.052	5.504	0.531
399.000	269.691	80.008	19.996	100.358	20.052	5.501	0.485
399.500	269.970	80.006	19.995	100.359	20.053	5.464	0.459
400.000	270.206	80.010	19.994	100.359	20.053	5.461	0.496
400.500	270.470	80.006	19.995	100.361	20.051	5.593	0.507
401.000	270.746	80.006	19.997	100.357	20.048	5.747	0.520
401.500	271.010	80.005	19.997	100.353	20.051	5.610	0.540
402.000	271.241	80.009	19.995	100.350	20.049	5.695	0.518
402.500	271.525	80.012	19.993	100.352	20.050	5.632	0.505
403.000	271.794	80.007	19.996	100.351	20.050	5.636	0.534
403.500	272.052	80.008	19.997	100.351	20.047	5.835	0.540
404.000	272.257	80.009	19.996	100.353	20.048	5.797	0.495
404.501	272.522	80.005	19.995	100.354	20.050	5.641	0.466
405.000	272.768	80.006	19.994	100.354	20.053	5.451	0.490
405.500	272.995	80.010	19.996	100.355	20.049	5.711	0.492
406.000	273.256	80.013	19.994	100.360	20.047	5.863	0.481
406.500	273.522	80.005	19.996	100.360	20.050	5.648	0.508
407.000	273.756	80.009	19.997	100.360	20.051	5.610	0.513
407.500	274.015	80.013	19.996	100.360	20.051	5.575	0.496
408.000	274.253	80.017	19.996	100.363	20.053	5.428	0.495
408.500	274.499	80.009	19.996	100.358	20.045	5.952	0.491
409.000	274.773	80.009	19.997	100.352	20.046	5.902	0.502
409.500	275.005	80.008	19.995	100.352	20.049	5.711	0.513
410.000	275.277	80.006	19.997	100.353	20.050	5.638	0.505
410.500	275.492	80.009	19.994	100.351	20.049	5.687	0.495
411.000	275.772	80.008	19.997	100.353	20.052	5.492	0.491
411.500	276.045	80.007	19.991	100.357	20.051	5.552	0.524
412.000	276.279	80.006	19.991	100.360	20.051	5.599	0.530
412.500	276.536	80.011	19.994	100.359	20.046	5.883	0.499
413.000	276.801	80.010	19.996	100.359	20.048	5.794	0.506
413.500	277.029	80.009	19.993	100.359	20.046	5.888	0.508
414.000	277.272	80.008	19.995	100.361	20.049	5.729	0.482
414.500	277.505	80.009	19.995	100.360	20.045	5.982	0.474
415.000	277.776	80.007	19.992	100.363	20.042	6.170	0.491
415.500	278.016	80.012	19.996	100.362	20.042	6.177	0.508
416.000	278.241	80.005	19.994	100.363	20.047	5.837	0.487
416.500	278.523	80.008	19.995	100.363	20.041	6.187	0.485
417.000	278.803	80.011	19.996	100.362	20.042	6.129	0.534
417.500	279.033	80.009	19.995	100.355	20.041	6.207	0.536
418.000	279.295	80.014	19.993	100.354	20.041	6.187	0.501
418.500	279.561	80.008	19.993	100.353	20.041	6.213	0.510
419.000	279.781	80.010	19.996	100.349	20.045	5.958	0.507
419.500	280.034	80.006	19.989	100.344	20.043	6.076	0.479
420.000	280.285	80.010	19.992	100.345	20.040	6.254	0.489
420.500	280.512	80.008	19.993	100.344	20.044	6.047	0.491
421.000	280.790	80.011	19.996	100.342	20.045	5.945	0.491
421.500	281.085	80.004	19.995	100.342	20.040	6.255	0.539
422.000	281.279	80.001	19.995	100.348	20.044	6.046	0.531
422.500	281.580	80.017	19.994	100.348	20.040	6.284	0.492
423.000	281.811	80.018	19.996	100.345	20.045	5.983	0.514
423.500	282.036	80.003	19.997	100.346	20.044	5.997	0.494
424.000	282.309	80.013	19.995	100.347	20.043	6.068	0.477
424.500	282.592	80.011	19.996	100.347	20.042	6.148	0.527
425.000	282.791	80.020	19.993	100.350	20.039	6.317	0.519
425.500	283.063	80.014	19.996	100.355	20.039	6.362	0.476
426.000	283.319	80.003	20.003	100.356	20.042	6.177	0.500
426.500	283.540	80.012	19.991	100.350	20.040	6.245	0.503
427.000	283.805	80.006	19.995	100.343	20.041	6.210	0.481
427.500	284.063	80.003	19.994	100.340	20.036	6.542	0.504
428.000	284.303	80.007	19.995	100.339	20.043	6.087	0.510
428.500	284.546	80.008	19.995	100.338	20.033	6.718	0.491
429.000	284.769	79.997	20.000	100.343	20.041	6.230	0.475
429.500	285.042	80.013	19.998	100.343	20.039	6.318	0.481
430.000	285.262	80.005	19.996	100.343	20.040	6.306	0.495
430.500	285.522	80.007	19.999	100.341	20.038	6.380	0.487
431.000	285.798	80.009	19.996	100.342	20.035	6.569	0.508
431.501	286.045	80.003	19.995	100.346	20.038	6.430	0.529
432.001	286.258	80.005	19.997	100.352	20.032	6.767	0.491
432.500	286.550	80.006	19.996	100.353	20.039	6.359	0.483
433.000	286.840	80.004	19.999	100.355	20.036	6.548	0.544
433.500	287.038	80.006	19.997	100.357	20.034	6.648	0.535
434.000	287.286	80.013	19.997	100.354	20.035	6.609	0.467
434.500	287.532	80.002	19.995	100.352	20.037	6.436	0.470
435.000	287.808	79.999	19.998	100.353	20.037	6.453	0.508
435.500	288.077	80.003	19.996	100.354	20.035	6.574	0.534
436.000	288.288	80.012	19.997	100.351	20.034	6.655	0.513
436.500	288.546	80.004	19.997	100.354	20.036	6.504	0.474
437.000	288.780	80.010	19.997	100.356	20.037	6.445	0.481
437.501	289.037	80.009	19.997	100.357	20.036	6.551	0.492
438.000	289.269	80.014	19.995	100.357	20.038	6.385	0.490
438.500	289.549	79.996	19.999	100.356	20.036	6.513	0.501
439.000	289.785	80.007	20.001	100.346	20.035	6.621	0.514
439.500	290.048	80.011	19.994	100.341	20.031	6.830	0.508
440.000	290.363	80.007	19.997	100.337	20.031	6.863	0.538
440.500	290.551	80.008	19.997	100.336	20.030	6.903	0.540
441.000	290.858	80.009	19.996	100.335	20.034	6.635	0.499
441.500	291.052	80.011	19.994	100.337	20.034	6.687	0.498
442.000	291.319	80.012	19.988	100.337	20.034	6.661	0.481
442.500	291.550	80.009	19.991	100.336	20.028	7.039	0.479
443.000	291.857	80.009	19.998	100.334	20.029	6.963	0.518
443.500	292.095	80.010	19.992	100.334	20.033	6.750	0.542
444.000	292.348	80.009	19.996	100.338	20.031	6.822	0.518
444.500	292.576	80.012	19.988	100.336	20.027	7.094	0.486
445.000	292.824	80.006	20.001	100.338	20.031	6.847	0.479
445.500	293.092	80.007	20.002	100.340	20.032	6.757	0.496
446.000	293.316	80.008	19.997	100.338	20.024	7.319	0.504
446.500	293.562	80.011	19.995	100.332	20.033	6.717	0.481
447.000	293.831	80.008	19.995	100.333	20.029	7.002	0.493
447.500	294.079	80.007	19.999	100.330	20.031	6.874	0.516
448.000	294.304	80.009	19.994	100.326	20.025	7.243	0.495
448.500	294.581	80.013	19.995	100.328	20.029	6.966	0.488
449.000	294.834	80.009	19.992	100.329	20.028	7.057	0.516
449.500	295.043	80.012	19.993	100.334	20.025	7.209	0.496
450.000	295.301	80.008	19.996	100.338	20.030	6.891	0.465
450.500	295.589	80.014	19.990	100.344	20.028	7.021	0.507
451.000	295.790	80.010	19.998	100.347	20.026	7.180	0.518
451.500	296.069	80.011	19.993	100.348	20.024	7.285	0.484
452.000	296.329	80.009	19.989	100.348	20.024	7.273	0.510
452.500	296.578	80.008	19.992	100.346	20.027	7.125	0.524
453.000	296.838	80.008	19.994	100.341	20.026	7.190	0.509
453.500	297.055	80.008	19.994	100.338	20.024	7.280	0.493
454.000	297.282	80.009	19.995	100.336	20.025	7.235	0.460
454.501	297.519	79.991	19.999	100.332	20.020	7.520	0.454
455.000	297.795	80.009	20.001	100.329	20.026	7.150	0.489
455.500	298.089	80.014	19.992	100.330	20.024	7.314	0.541
456.000	298.337	80.011	19.994	100.330	20.023	7.383	0.556
456.501	298.582	80.005	19.997	100.330	20.020	7.551	0.518
457.000	298.801	80.017	19.995	100.328	20.023	7.333	0.478
457.500	299.076	80.015	19.996	100.329	20.023	7.344	0.479
458.000	299.324	80.005	19.994	100.329	20.024	7.268	0.509
458.500	299.580	80.002	19.995	100.333	20.027	7.116	0.514
459.000	299.813	80.004	19.996	100.335	20.022	7.435	0.496
459.500	300.101	80.017	19.990	100.337	20.025	7.248	0.505
460.000	300.293	80.007	19.990	100.342	20.021	7.481	0.500
460.500	300.539	80.012	19.994	100.346	20.021	7.460	0.459
461.000	300.810	80.001	19.994	100.344	20.025	7.208	0.477
461.500	301.095	80.008	19.993	100.346	20.017	7.726	0.537
462.000	301.314	80.013	19.995	100.348	20.025	7.228	0.531
462.500	301.574	80.011	19.996	100.348	20.016	7.811	0.492
463.000	301.820	80.009	19.993	100.349	20.020	7.558	0.492
463.500	302.063	80.010	19.994	100.349	20.019	7.615	0.497
464.000	302.285	80.008	19.996	100.345	20.016	7.783	0.476
464.500	302.567	80.019	19.994	100.343	20.021	7.504	0.485
465.000	302.809	80.011	19.996	100.339	20.020	7.535	0.514
465.500	303.063	80.011	19.993	100.336	20.019	7.605	0.510
466.000	303.310	80.002	19.993	100.337	20.020	7.538	0.499
466.500	303.539	80.013	19.997	100.338	20.015	7.849	0.489
467.000	303.791	80.008	19.996	100.338	20.021	7.494	0.478
467.500	304.031	80.018	19.994	100.335	20.022	7.437	0.486
468.000	304.302	80.008	19.996	100.337	20.018	7.672	0.501
468.500	304.536	80.008	19.994	100.340	20.020	7.525	0.508
469.000	304.773	80.007	19.996	100.343	20.014	7.926	0.488
469.500	305.050	80.009	19.995	100.347	20.016	7.816	0.492
470.000	305.261	80.014	19.994	100.354	20.017	7.746	0.500
470.500	305.519	80.006	19.996	100.355	20.023	7.326	0.479
471.000	305.793	80.007	19.994	100.349	20.014	7.932	0.501
471.500	306.004	80.009	19.996	100.349	20.014	7.920	0.508
472.001	306.317	80.006	19.995	100.350	20.014	7.894	0.504
472.501	306.565	80.010	19.994	100.344	20.016	7.800	0.543
473.000	306.813	80.008	19.994	100.342	20.016	7.788	0.529
473.500	307.085	80.016	19.993	100.343	20.012	8.074	0.508
474.000	307.291	80.006	19.995	100.341	20.012	8.042	0.499
474.500	307.545	80.010	19.995	100.335	20.021	7.477	0.469
475.000	307.818	80.024	19.993	100.335	20.017	7.740	0.493
475.500	308.046	80.005	19.990	100.334	20.016	7.775	0.514
476.000	308.294	80.021	19.989	100.338	20.016	7.780	0.488
476.500	308.562	80.011	19.995	100.340	20.010	8.181	0.496
477.000	308.793	80.006	19.993	100.342	20.010	8.198	0.507
477.500	309.066	80.008	19.994	100.342	20.007	8.380	0.501
478.000	309.302	79.995	19.989	100.340	20.009	8.257	0.507
478.500	309.536	80.015	19.997	100.335	20.012	8.080	0.490
479.000	309.831	80.013	19.994	100.334	20.006	8.433	0.499
479.500	310.075	80.017	19.993	100.334	20.012	8.080	0.534
480.000	310.325	80.006	19.995	100.335	20.007	8.338	0.516
480.500	310.573	80.014	19.993	100.337	20.009	8.252	0.496
481.000	310.806	80.013	19.994	100.338	20.010	8.173	0.490
481.500	311.076	80.011	19.994	100.338	20.005	8.502	0.492
482.000	311.277	80.013	19.994	100.340	20.009	8.270	0.487
482.500	311.539	80.000	19.998	100.341	20.006	8.452	0.467
483.000	311.797	80.002	19.995	100.339	20.003	8.592	0.492
483.500	312.077	80.019	19.991	100.336	20.008	8.293	0.529
484.000	312.323	80.008	19.995	100.340	20.005	8.495	0.532
484.500	312.528	80.008	19.994	100.342	20.002	8.709	0.489
485.000	312.833	79.999	19.996	100.339	20.005	8.502	0.481
485.500	313.079	80.000	19.995	100.340	20.008	8.273	0.530
486.000	313.340	80.024	19.992	100.342	20.008	8.289	0.529
486.500	313.603	80.007	19.995	100.344	20.007	8.364	0.515
487.000	313.796	80.007	19.995	100.343	20.006	8.400	0.490
487.500	314.072	80.011	19.994	100.342	20.005	8.499	0.462
488.000	314.334	80.009	19.994	100.343	20.007	8.371	0.504
488.501	314.577	80.007	19.995	100.343	20.006	8.458	0.522
489.000	314.816	80.010	19.995	100.336	20.002	8.693	0.493
489.500	315.099	80.006	19.996	100.338	20.005	8.504	0.502
490.000	315.401	80.008	19.994	100.340	20.004	8.547	0.554
490.500	315.711	80.005	19.997	100.340	20.001	8.757	0.599
491.000	315.932	80.006	19.994	100.339	20.009	8.256	0.572
491.500	316.135	80.007	19.996	100.338	20.002	8.699	0.477
492.001	316.409	80.006	19.995	100.333	20.005	8.486	0.450
492.500	316.566	80.007	19.995	100.333	20.002	8.669	0.454
493.000	316.919	80.007	19.992	100.332	20.005	8.471	0.471
493.500	317.174	80.008	19.996	100.332	20.005	8.522	0.559
494.000	317.472	80.007	19.995	100.332	20.005	8.497	0.580
494.500	317.678	80.009	19.996	100.333	20.006	8.457	0.528
495.000	317.856	80.008	19.995	100.331	19.999	8.860	0.444
495.500	318.110	80.010	19.995	100.330	20.005	8.494	0.408
496.000	318.380	80.009	19.994	100.331	20.003	8.648	0.478
496.501	318.642	80.010	19.995	100.329	20.000	8.826	0.528
497.000	318.883	80.005	19.995	100.329	20.001	8.733	0.517
497.500	319.128	80.008	19.995	100.333	20.002	8.702	0.495
498.000	319.383	80.007	19.995	100.336	20.004	8.541	0.493
498.500	319.634	80.009	19.995	100.338	20.003	8.595	0.503
499.000	319.944	80.008	19.996	100.342	20.001	8.717	0.533
499.500	320.133	80.010	19.996	100.343	20.002	8.707	0.530
500.000	320.402	80.009	19.994	100.339	20.003	8.638	0.479
500.500	320.621	80.008	19.996	100.337	20.005	8.510	0.473
501.000	320.844	80.002	19.996	100.334	20.000	8.801	0.465
501.500	321.163	80.003	19.995	100.329	19.998	8.929	0.492
502.000	321.413	80.008	19.997	100.327	20.004	8.529	0.556
502.500	321.617	80.007	19.994	100.330	20.002	8.674	0.512
503.000	321.917	79.998	19.997	100.328	20.000	8.790	0.479
503.500	322.153	80.004	19.994	100.330	19.998	8.912	0.520
504.000	322.409	80.010	19.996	100.331	19.998	8.923	0.514
504.500	322.661	80.007	19.993	100.331	19.999	8.877	0.500
505.000	322.903	80.005	19.990	100.331	19.996	9.058	0.501
505.500	323.138	80.013	19.995	100.337	20.001	8.759	0.486
506.000	323.424	80.015	19.995	100.336	19.996	9.043	0.499
506.500	323.687	80.009	19.996	100.339	19.998	8.939	0.535
507.000	323.915	80.005	19.995	100.339	20.000	8.835	0.520
507.500	324.191	80.007	19.996	100.336	20.002	8.660	0.498
508.000	324.414	80.007	19.997	100.331	19.997	8.992	0.502
508.500	324.690	80.007	19.995	100.328	19.996	9.082	0.499
509.000	324.930	80.009	19.993	100.326	20.001	8.737	0.507
509.500	325.178	80.008	19.996	100.326	19.994	9.173	0.502
510.000	325.439	80.008	19.995	100.326	19.996	9.048	0.499
510.500	325.665	80.008	19.997	100.326	19.996	9.052	0.498
511.000	325.960	80.008	19.998	100.327	19.995	9.149	0.504
511.500	326.205	80.005	19.994	100.326	19.996	9.083	0.531
512.000	326.504	80.009	19.995	100.327	19.995	9.114	0.542
512.500	326.691	80.009	19.995	100.330	19.996	9.085	0.515
513.000	327.006	80.005	19.995	100.330	19.995	9.121	0.494
513.500	327.230	80.010	19.995	100.329	19.993	9.249	0.521
514.000	327.501	80.007	19.994	100.330	19.995	9.124	0.517
514.500	327.696	80.008	19.995	100.331	19.993	9.276	0.481
515.000	328.003	80.008	19.995	100.328	19.990	9.425	0.484
515.500	328.232	80.008	19.993	100.329	19.994	9.169	0.519
516.000	328.476	80.007	19.996	100.330	19.994	9.167	0.505
516.500	328.751	80.007	19.995	100.330	19.993	9.233	0.496
517.000	328.979	80.006	19.995	100.327	19.990	9.458	0.510
517.500	329.273	80.007	19.996	100.326	19.990	9.451	0.512
518.000	329.521	80.006	19.997	100.325	19.988	9.541	0.533
518.500	329.779	80.008	19.996	100.325	19.987	9.662	0.524
519.000	330.026	80.009	19.996	100.325	19.991	9.394	0.505
519.500	330.278	80.009	19.995	100.327	19.989	9.495	0.501
520.000	330.517	80.008	19.996	100.328	19.987	9.639	0.495
520.500	330.759	80.006	19.997	100.330	19.989	9.536	0.487
521.000	331.068	80.008	19.995	100.330	19.990	9.415	0.516
521.500	331.315	80.005	19.995	100.331	19.989	9.524	0.553
522.000	331.568	80.003	19.995	100.331	19.984	9.795	0.528
522.500	331.795	80.012	19.994	100.334	19.988	9.563	0.490
523.000	332.034	80.011	19.996	100.334	19.987	9.627	0.473
523.500	332.332	80.011	19.994	100.334	19.988	9.556	0.501
524.001	332.585	80.009	19.997	100.333	19.986	9.665	0.544
524.500	332.831	80.006	19.996	100.331	19.984	9.821	0.525
525.000	333.079	80.013	19.994	100.328	19.985	9.786	0.497
525.500	333.347	80.009	19.996	100.326	19.985	9.762	0.505
526.000	333.634	80.009	19.996	100.326	19.985	9.752	0.536
526.500	333.837	80.009	19.994	100.326	19.984	9.817	0.522
527.000	334.104	80.006	19.997	100.328	19.982	9.963	0.480
527.500	334.405	80.009	19.996	100.330	19.984	9.838	0.519
528.000	334.647	80.008	19.997	100.330	19.983	9.895	0.555
528.500	334.860	80.008	19.994	100.329	19.983	9.914	0.499
529.001	335.107	80.010	19.996	100.331	19.987	9.658	0.457
529.500	335.381	80.013	19.996	100.332	19.984	9.791	0.490
530.000	335.601	80.012	19.996	100.333	19.981	9.982	0.507
530.500	335.838	80.011	19.997	100.334	19.979	10.168	0.476
531.000	336.100	80.010	19.997	100.337	19.981	10.021	0.478
531.500	336.366	80.013	19.997	100.336	19.984	9.833	0.514
532.000	336.657	80.011	19.995	100.334	19.984	9.847	0.543
532.500	336.897	80.006	19.996	100.332	19.979	10.164	0.544
533.000	337.125	80.011	19.997	100.329	19.983	9.913	0.499
533.500	337.384	80.007	19.998	100.327	19.980	10.084	0.478
534.000	337.660	80.009	19.995	100.326	19.978	10.212	0.511
534.500	337.886	80.010	19.995	100.326	19.981	10.012	0.518
535.000	338.149	80.008	19.997	100.325	19.981	10.018	0.495
535.500	338.390	80.005	19.997	100.326	19.982	9.968	0.496
536.000	338.653	80.008	19.995	100.324	19.981	10.044	0.504
536.500	338.924	80.013	19.995	100.325	19.981	10.006	0.519
537.000	339.147	80.012	19.996	100.325	19.981	10.002	0.514
537.500	339.434	80.014	19.995	100.326	19.983	9.875	0.502
538.000	339.679	80.009	19.996	100.328	19.980	10.107	0.521
538.500	339.920	80.009	19.995	100.328	19.983	9.890	0.509
539.000	340.166	80.007	19.995	100.329	19.977	10.281	0.486
539.500	340.451	80.007	19.997	100.327	19.981	10.020	0.509
540.000	340.664	80.009	19.997	100.326	19.981	9.987	0.515
540.500	340.945	80.008	19.996	100.325	19.981	9.982	0.496
541.000	341.175	80.007	19.996	100.326	19.979	10.151	0.502
541.500	341.411	80.011	19.995	100.326	19.979	10.145	0.488
542.000	341.703	80.009	19.994	100.327	19.979	10.127	0.497
542.500	341.938	80.011	19.995	100.328	19.978	10.224	0.528
543.000	342.204	80.012	19.994	100.329	19.978	10.181	0.514
543.500	342.424	80.010	19.995	100.330	19.977	10.236	0.493
544.000	342.703	80.014	19.994	100.330	19.974	10.455	0.493
544.500	342.913	80.006	19.996	100.333	19.973	10.495	0.494
545.000	343.185	80.004	19.997	100.332	19.977	10.265	0.485
545.500	343.450	80.006	19.995	100.331	19.978	10.203	0.510
546.000	343.662	80.006	19.997	100.330	19.976	10.337	0.508
546.500	343.956	80.007	19.996	100.329	19.973	10.548	0.492
547.000	344.231	80.011	19.993	100.326	19.976	10.330	0.537
547.500	344.445	80.006	19.995	100.326	19.972	10.578	0.529
548.000	344.674	80.013	19.994	100.328	19.974	10.452	0.466
548.500	344.951	80.011	19.993	100.329	19.973	10.540	0.475
549.000	345.200	80.013	19.994	100.330	19.974	10.481	0.516
549.500	345.453	80.008	19.994	100.331	19.970	10.692	0.514
550.000	345.719	80.014	19.994	100.331	19.974	10.460	0.510
550.500	345.948	80.013	19.993	100.331	19.971	10.621	0.507
551.000	346.228	80.000	19.996	100.331	19.975	10.383	0.502
551.500	346.528	80.016	19.994	100.328	19.971	10.637	0.544
552.000	346.771	80.015	19.993	100.329	19.973	10.523	0.562
552.500	346.998	80.016	19.993	100.331	19.973	10.497	0.507
553.000	347.260	80.002	19.995	100.331	19.970	10.725	0.479
553.500	347.521	80.004	19.997	100.329	19.972	10.573	0.505
554.000	347.759	80.006	19.996	100.331	19.971	10.637	0.511
554.500	347.997	80.010	19.995	100.329	19.972	10.615	0.488
555.000	348.284	80.008	19.994	100.326	19.971	10.622	0.501
555.500	348.530	80.011	19.995	100.325	19.972	10.615	0.529
556.000	348.784	80.013	19.994	100.326	19.970	10.682	0.516
556.500	349.052	80.018	19.992	100.327	19.972	10.592	0.511
557.000	349.276	80.015	19.994	100.331	19.975	10.391	0.507
557.500	349.558	80.007	19.996	100.332	19.971	10.654	0.499
558.000	349.781	80.002	19.996	100.331	19.974	10.466	0.506
558.500	350.044	80.007	19.994	100.329	19.970	10.730	0.496
559.000	350.304	80.010	19.996	100.328	19.968	10.860	0.504
559.500	350.544	80.006	19.997	100.324	19.971	10.621	0.511
560.000	350.784	80.013	19.994	100.322	19.966	10.992	0.490
560.500	351.040	80.008	19.996	100.323	19.967	10.871	0.488
561.000	351.280	80.017	19.993	100.323	19.968	10.836	0.496
561.500	351.542	80.005	19.995	100.325	19.968	10.860	0.500
562.000	351.790	80.016	19.995	100.323	19.966	10.991	0.506
562.500	352.069	80.007	19.995	100.325	19.968	10.835	0.518
563.000	352.303	80.009	19.995	100.326	19.967	10.882	0.520
563.500	352.513	80.006	19.996	100.327	19.969	10.765	0.478
564.000	352.796	80.017	19.993	100.325	19.968	10.850	0.468
564.500	353.072	80.009	19.995	100.328	19.969	10.796	0.526
565.000	353.345	80.019	19.995	100.327	19.966	10.990	0.554
565.500	353.601	80.006	19.996	100.329	19.966	10.936	0.539
566.000	353.830	80.011	19.996	100.327	19.968	10.853	0.507
566.500	354.090	80.019	19.994	100.328	19.966	10.943	0.487
567.000	354.363	80.012	19.995	100.327	19.968	10.856	0.511
567.500	354.608	80.003	19.995	100.326	19.967	10.901	0.526
568.000	354.846	80.001	19.996	100.323	19.966	10.969	0.501
568.500	355.116	80.003	19.996	100.324	19.964	11.083	0.496
569.000	355.314	80.017	19.995	100.323	19.963	11.154	0.489
569.500	355.601	80.008	19.995	100.324	19.969	10.784	0.476
570.000	355.854	80.013	19.995	100.326	19.965	11.023	0.512
570.500	356.100	80.012	19.995	100.327	19.967	10.906	0.519
571.000	356.338	80.000	19.996	100.329	19.964	11.075	0.491
571.500	356.596	80.010	19.993	100.329	19.966	10.968	0.490
572.000	356.860	80.002	19.998	100.328	19.967	10.929	0.509
572.500	357.148	80.008	19.993	100.324	19.970	10.725	0.537
573.000	357.363	80.012	19.995	100.323	19.969	10.803	0.528
573.500	357.658	80.006	19.995	100.322	19.964	11.104	0.506
574.000	357.876	80.009	19.995	100.323	19.962	11.220	0.511
574.500	358.133	80.014	19.994	100.322	19.963	11.151	0.494
575.000	358.348	79.999	19.995	100.327	19.964	11.075	0.474
575.500	358.648	79.994	19.995	100.327	19.964	11.088	0.493
576.000	358.874	80.012	19.995	100.327	19.961	11.308	0.520
576.500	359.141	80.006	19.995	100.325	19.964	11.093	0.509
577.000	359.380	80.010	19.995	100.326	19.961	11.295	0.499
577.500	359.641	80.010	19.995	100.324	19.965	11.028	0.503
578.000	359.891	80.012	19.994	100.324	19.959	11.432	0.506
578.500	360.143	80.013	19.996	100.324	19.961	11.272	0.506
579.000	360.373	80.015	19.994	100.327	19.961	11.251	0.492
579.500	360.631	80.009	19.995	100.329	19.960	11.321	0.485
580.000	360.888	80.013	19.995	100.328	19.956	11.587	0.502
580.500	361.150	79.996	19.997	100.329	19.957	11.527	0.517
581.000	361.425	80.013	19.992	100.328	19.958	11.444	0.528
581.500	361.677	80.005	19.994	100.331	19.959	11.429	0.532
582.000	361.886	80.015	19.995	100.329	19.956	11.607	0.494
582.500	362.159	80.004	19.996	100.328	19.959	11.422	0.472
583.000	362.419	80.007	19.995	100.326	19.957	11.538	0.507
583.500	362.699	80.008	19.995	100.327	19.958	11.495	0.536
584.000	362.940	80.020	19.994	100.324	19.956	11.582	0.530
584.500	363.194	80.011	19.997	100.326	19.955	11.644	0.508
585.000	363.439	80.015	19.994	100.328	19.953	11.784	0.497
585.500	363.707	80.009	19.997	100.328	19.957	11.553	0.506
586.000	363.949	80.013	19.994	100.326	19.955	11.645	0.512
586.500	364.197	80.006	19.995	100.327	19.957	11.531	0.500
587.000	364.463	80.007	19.995	100.322	19.953	11.766	0.502
587.500	364.742	79.995	19.994	100.320	19.953	11.768	0.530
588.000	364.965	80.005	19.997	100.323	19.950	11.953	0.524
588.501	365.205	79.996	19.995	100.324	19.951	11.928	0.482
589.000	365.492	80.014	19.994	100.321	19.952	11.826	0.495
589.500	365.702	80.014	19.994	100.326	19.951	11.911	0.512
590.000	365.984	80.011	19.993	100.330	19.951	11.888	0.495
590.500	366.207	80.013	19.996	100.332	19.957	11.549	0.498
591.000	366.454	80.026	19.994	100.333	19.954	11.711	0.487
591.500	366.682	80.005	19.994	100.337	19.952	11.865	0.472
592.000	366.952	79.996	19.997	100.333	19.954	11.711	0.487
592.500	367.214	80.006	19.995	100.330	19.951	11.908	0.516
593.000	367.453	80.008	19.995	100.327	19.955	11.654	0.517
593.500	367.691	80.008	19.997	100.327	19.952	11.872	0.489
594.000	367.978	80.012	19.996	100.328	19.954	11.733	0.501
594.500	368.228	80.003	19.996	100.329	19.952	11.877	0.531
595.000	368.499	80.011	19.997	100.330	19.951	11.926	0.529
595.500	368.734	79.997	19.996	100.329	19.950	11.984	0.513
596.000	368.981	79.998	19.997	100.327	19.952	11.848	0.494
596.500	369.244	80.004	19.996	100.326	19.953	11.794	0.497
597.000	369.469	80.001	19.996	100.325	19.955	11.690	0.499
597.500	369.670	79.995	19.998	100.326	19.952	11.856	0.457
598.000	369.967	80.023	19.994	100.323	19.952	11.880	0.462
598.500	370.215	80.016	19.995	100.327	19.950	11.980	0.521
599.000	370.482	80.007	19.995	100.329	19.953	11.791	0.530
599.500	370.716	80.010	19.995	100.332	19.945	12.286	0.508
600.000	370.949	80.013	19.996	100.333	19.949	12.030	0.484
600.500	371.192	80.006	19.996	100.337	19.948	12.105	0.471
601.000	371.503	80.000	19.998	100.335	19.946	12.245	0.514
601.500	371.706	80.012	19.996	100.332	19.948	12.097	0.534
602.000	371.978	80.004	19.997	100.330	19.942	12.515	0.495
602.500	372.205	80.013	19.996	100.328	19.945	12.291	0.487
603.000	372.477	80.011	19.996	100.327	19.941	12.543	0.499
603.500	372.740	80.012	19.994	100.324	19.943	12.438	0.517
604.000	372.986	80.004	19.997	100.327	19.944	12.332	0.522
604.500	373.258	80.012	19.996	100.326	19.943	12.424	0.513
605.000	373.539	80.017	19.995	100.325	19.942	12.502	0.535
605.500	373.754	80.004	19.997	100.328	19.944	12.339	0.524
606.000	374.041	80.014	19.998	100.330	19.943	12.403	0.499
606.500	374.275	80.001	19.997	100.329	19.943	12.408	0.512
607.000	374.517	80.017	19.996	100.330	19.945	12.310	0.499
607.500	374.798	80.004	19.994	100.330	19.941	12.539	0.499
608.000	375.014	80.018	19.995	100.328	19.943	12.439	0.510
608.500	375.276	80.003	19.996	100.328	19.942	12.487	0.488
609.000	375.534	80.008	19.996	100.324	19.941	12.527	0.499
609.500	375.778	80.006	19.996	100.320	19.941	12.557	0.511
610.000	376.072	80.005	19.994	100.318	19.942	12.510	0.520
610.500	376.314	80.012	19.995	100.319	19.940	12.634	0.537
611.000	376.535	80.016	19.996	100.318	19.937	12.825	0.500
611.501	376.765	80.026	19.993	100.321	19.941	12.521	0.457
612.000	377.053	80.007	19.995	100.326	19.938	12.745	0.485
612.500	377.309	80.001	19.996	100.327	19.938	12.754	0.531
613.000	377.539	80.001	19.997	100.323	19.936	12.861	0.515
613.500	377.770	80.003	19.996	100.319	19.939	12.646	0.473
614.000	378.035	80.012	19.994	100.317	19.934	12.976	0.478
614.500	378.272	80.014	19.995	100.316	19.934	12.969	0.499
615.001	378.562	80.012	19.994	100.317	19.933	13.057	0.515
615.500	378.773	80.013	19.995	100.317	19.936	12.832	0.514
616.000	379.018	80.009	19.995	100.317	19.932	13.097	0.478
616.500	379.280	80.012	19.995	100.317	19.935	12.915	0.482
617.000	379.546	80.005	19.995	100.315	19.936	12.839	0.518
617.500	379.777	80.014	19.994	100.312	19.933	13.033	0.513
618.000	380.080	80.010	19.995	100.316	19.935	12.938	0.515
618.500	380.300	80.013	19.995	100.321	19.931	13.171	0.528
619.000	380.565	80.001	19.998	100.323	19.932	13.126	0.504
619.500	380.804	80.018	19.996	100.320	19.934	13.003	0.494
620.000	381.038	80.006	19.996	100.322	19.930	13.236	0.489
620.500	381.302	80.011	19.995	100.314	19.929	13.320	0.486
621.000	381.566	80.016	19.997	100.310	19.930	13.249	0.513
621.501	381.818	80.019	19.994	100.311	19.934	13.000	0.522
622.000	382.047	80.001	19.997	100.319	19.931	13.161	0.498
622.500	382.320	80.021	19.997	100.318	19.934	13.009	0.492
623.000	382.540	80.020	19.998	100.325	19.931	13.189	0.498
623.500	382.801	80.002	19.996	100.328	19.927	13.426	0.487
624.001	383.076	80.002	19.996	100.324	19.930	13.254	0.508
624.500	383.291	80.006	19.996	100.320	19.930	13.265	0.513
625.000	383.567	79.999	19.996	100.322	19.928	13.342	0.491
625.500	383.798	80.012	19.995	100.319	19.925	13.586	0.499
626.000	384.033	80.009	19.997	100.316	19.926	13.467	0.487
626.500	384.295	80.001	19.999	100.313	19.928	13.381	0.481
627.000	384.588	80.001	19.996	100.305	19.925	13.568	0.526
627.500	384.790	80.027	19.994	100.304	19.922	13.782	0.525
628.000	385.092	79.997	19.997	100.306	19.921	13.838	0.500
628.500	385.339	80.001	19.997	100.305	19.926	13.502	0.527
629.000	385.548	80.011	19.996	100.308	19.923	13.664	0.502
629.500	385.809	80.010	19.996	100.315	19.924	13.611	0.463
630.000	386.059	79.999	19.997	100.316	19.921	13.801	0.491
630.500	386.303	80.005	19.998	100.314	19.925	13.560	0.503
631.000	386.592	80.006	19.996	100.314	19.925	13.578	0.513
631.500	386.803	80.002	19.996	100.317	19.923	13.712	0.516
632.000	387.073	80.000	19.997	100.317	19.922	13.750	0.491
632.500	387.329	79.997	19.996	100.317	19.919	13.923	0.504
633.000	387.545	80.026	19.995	100.319	19.923	13.661	0.499
633.500	387.789	80.013	19.996	100.323	19.925	13.578	0.466
634.000	388.114	80.012	19.995	100.322	19.923	13.681	0.515
634.500	388.335	80.006	19.995	100.321	19.920	13.887	0.558
635.000	388.631	79.983	19.997	100.321	19.917	14.039	0.532
635.500	388.850	80.015	19.996	100.318	19.919	13.915	0.516
636.000	389.077	80.022	19.995	100.316	19.917	14.093	0.480
636.500	389.361	80.012	19.995	100.316	19.919	13.946	0.478
637.000	389.584	80.004	19.996	100.320	19.920	13.851	0.509
637.500	389.830	80.006	19.995	100.320	19.919	13.939	0.488
638.000	390.049	80.015	19.994	100.322	19.918	14.019	0.467
638.500	390.345	80.016	19.994	100.322	19.919	13.932	0.490
639.000	390.581	80.014	19.996	100.324	19.920	13.897	0.524
639.500	390.887	80.012	19.995	100.319	19.916	14.149	0.537
640.000	391.143	80.002	19.995	100.320	19.916	14.140	0.552
640.500	391.353	80.015	19.994	100.320	19.916	14.114	0.514
641.000	391.611	80.013	19.995	100.320	19.917	14.059	0.467
641.500	391.801	80.028	19.993	100.315	19.914	14.277	0.458
642.000	392.072	80.014	19.996	100.319	19.913	14.312	0.454
642.500	392.336	80.005	19.995	100.318	19.911	14.451	0.498
643.000	392.602	80.005	19.993	100.318	19.914	14.282	0.533
643.500	392.858	80.006	19.995	100.319	19.912	14.354	0.526
644.000	393.121	80.009	19.994	100.323	19.911	14.428	0.520
644.500	393.362	80.011	19.995	100.321	19.912	14.379	0.511
645.000	393.626	80.014	19.995	100.317	19.912	14.393	0.504
645.500	393.915	80.014	19.995	100.317	19.912	14.406	0.529
646.000	394.147	80.009	19.995	100.317	19.910	14.509	0.537
646.500	394.419	80.017	19.995	100.318	19.905	14.797	0.513
647.000	394.632	80.002	19.996	100.318	19.909	14.585	0.495
647.500	394.930	80.004	19.995	100.322	19.905	14.827	0.498
648.000	395.153	80.004	19.996	100.321	19.906	14.747	0.516
648.500	395.438	80.009	19.995	100.320	19.905	14.799	0.514
649.000	395.635	80.012	19.996	100.319	19.905	14.844	0.494
649.500	395.909	80.005	19.997	100.320	19.904	14.908	0.476
650.000	396.212	80.010	19.995	100.318	19.904	14.918	0.524
650.501	396.414	80.005	19.995	100.316	19.905	14.854	0.541
651.000	396.674	80.013	19.995	100.309	19.899	15.202	0.484
651.500	396.936	80.011	19.995	100.307	19.902	15.046	0.492
652.000	397.164	80.012	19.994	100.302	19.900	15.150	0.506
652.500	397.401	80.015	19.994	100.302	19.904	14.892	0.477
653.000	397.712	80.017	19.995	100.304	19.901	15.076	0.506
653.500	397.919	79.993	19.998	100.306	19.902	15.005	0.533
654.000	398.195	80.013	19.995	100.302	19.899	15.215	0.501
654.500	398.456	79.997	19.996	100.304	19.901	15.082	0.510
655.000	398.641	80.004	19.997	100.301	19.898	15.272	0.492
655.500	398.946	80.010	19.995	100.301	19.903	14.930	0.468
656.001	399.192	80.000	19.997	100.304	19.900	15.150	0.520
656.501	399.443	80.005	19.996	100.305	19.897	15.302	0.523
657.000	399.761	80.012	19.997	100.306	19.897	15.345	0.533
657.500	399.957	80.005	19.996	100.309	19.895	15.470	0.542
658.000	400.224	80.015	19.995	100.312	19.895	15.467	0.489
658.500	400.472	80.005	19.995	100.314	19.895	15.445	0.489
659.000	400.723	80.006	19.995	100.314	19.897	15.328	0.507
659.500	400.951	80.002	19.996	100.313	19.891	15.702	0.489
660.000	401.219	80.012	19.995	100.312	19.892	15.680	0.487
660.500	401.467	80.008	19.995	100.310	19.890	15.783	0.506
661.000	401.733	79.995	19.995	100.307	19.892	15.654	0.515
661.500	401.990	80.024	19.994	100.310	19.890	15.803	0.518
662.000	402.231	80.003	19.996	100.311	19.890	15.766	0.511
662.500	402.469	79.997	19.995	100.310	19.891	15.702	0.488
663.000	402.671	80.004	19.997	100.309	19.887	15.990	0.459
663.500	402.957	80.003	19.996	100.311	19.888	15.892	0.464
664.000	403.205	80.011	19.995	100.305	19.890	15.809	0.511
664.500	403.453	80.008	19.995	100.304	19.884	16.128	0.515
665.000	403.732	80.012	19.994	100.306	19.886	16.006	0.512
665.500	403.975	80.010	19.996	100.309	19.887	15.990	0.525
666.000	404.228	80.004	19.995	100.307	19.887	15.974	0.509
666.500	404.469	80.008	19.994	100.310	19.886	16.035	0.495
667.000	404.775	80.008	19.995	100.311	19.883	16.222	0.520
667.500	404.998	80.008	19.996	100.312	19.884	16.153	0.538
668.000	405.237	80.019	19.995	100.310	19.883	16.203	0.496
668.500	405.513	80.011	19.994	100.312	19.881	16.332	0.489
669.000	405.751	79.996	19.995	100.317	19.882	16.302	0.515
669.500	405.984	80.012	19.994	100.319	19.881	16.338	0.492
670.000	406.240	80.019	19.994	100.321	19.885	16.090	0.480
670.500	406.480	80.027	19.992	100.324	19.879	16.448	0.493
671.000	406.709	80.006	19.995	100.326	19.881	16.374	0.483
671.500	407.024	80.005	19.995	100.321	19.874	16.773	0.506
672.000	407.267	80.012	19.995	100.320	19.873	16.822	0.551
672.500	407.483	80.006	19.995	100.317	19.876	16.643	0.508
673.000	407.751	80.022	19.996	100.316	19.873	16.874	0.472
673.500	407.998	80.004	19.996	100.316	19.872	16.948	0.500
674.000	408.229	80.012	19.995	100.321	19.875	16.732	0.497
674.500	408.486	79.995	19.996	100.324	19.877	16.591	0.483
675.000	408.745	80.007	19.995	100.321	19.872	16.888	0.502
675.500	409.024	79.997	19.995	100.320	19.873	16.833	0.526
676.000	409.234	80.012	19.994	100.312	19.869	17.083	0.514
676.500	409.500	80.016	19.994	100.308	19.870	17.039	0.483
677.000	409.769	80.020	19.993	100.305	19.868	17.172	0.505
677.500	410.062	80.008	19.995	100.310	19.867	17.204	0.548
678.000	410.255	80.006	19.995	100.309	19.863	17.467	0.524
678.500	410.482	80.009	19.994	100.310	19.862	17.564	0.453
679.000	410.779	80.009	19.995	100.310	19.865	17.368	0.472
679.500	411.025	80.005	19.995	100.307	19.862	17.537	0.533
680.000	411.287	80.019	19.992	100.302	19.863	17.458	0.525
680.500	411.534	80.013	19.994	100.305	19.863	17.490	0.509
681.000	411.774	80.004	19.996	100.305	19.865	17.361	0.499
681.500	412.014	80.006	19.995	100.308	19.862	17.546	0.484
682.000	412.224	80.006	19.995	100.308	19.859	17.721	0.465
682.500	412.519	79.999	19.995	100.309	19.863	17.509	0.477
683.000	412.761	80.009	19.995	100.304	19.860	17.671	0.521
683.500	413.005	80.009	19.995	100.304	19.859	17.705	0.512
684.000	413.229	79.999	19.995	100.305	19.860	17.651	0.477
684.500	413.477	80.014	19.994	100.309	19.860	17.669	0.470
685.000	413.746	80.003	19.995	100.313	19.860	17.652	0.494
685.500	413.991	80.011	19.994	100.316	19.855	17.986	0.516
686.000	414.227	80.004	19.996	100.315	19.853	18.091	0.498
686.500	414.478	80.007	19.995	100.314	19.854	18.050	0.484
687.000	414.715	80.005	19.993	100.313	19.853	18.146	0.487
687.500	414.990	79.999	19.996	100.309	19.853	18.120	0.500
688.000	415.252	80.004	19.995	100.305	19.851	18.258	0.525
688.500	415.465	80.006	19.996	100.303	19.851	18.250	0.506
689.000	415.726	80.009	19.997	100.303	19.850	18.338	0.474
689.500	415.972	79.999	19.996	100.301	19.848	18.407	0.490
690.000	416.233	80.009	19.996	100.297	19.847	18.507	0.507
690.500	416.485	80.014	19.995	100.299	19.846	18.564	0.510
691.000	416.713	80.012	19.995	100.301	19.846	18.538	0.497
691.500	416.975	80.014	19.996	100.302	19.841	18.880	0.485
692.000	417.197	80.009	19.996	100.300	19.846	18.589	0.487
692.500	417.496	80.007	19.996	100.297	19.844	18.676	0.503
693.000	417.683	80.027	19.994	100.294	19.843	18.771	0.504
693.501	417.976	80.008	19.997	100.293	19.843	18.776	0.483
694.000	418.235	79.999	19.998	100.289	19.840	18.971	0.516
694.500	418.487	80.005	19.996	100.288	19.842	18.787	0.531
695.000	418.735	80.022	19.994	100.294	19.840	18.926	0.506
695.500	419.001	80.014	19.994	100.298	19.836	19.200	0.507
696.000	419.232	80.015	19.994	100.299	19.836	19.212	0.506
696.500	419.482	80.010	19.996	100.306	19.831	19.527	0.489
697.000	419.744	80.007	19.997	100.312	19.836	19.163	0.496
697.500	420.024	80.013	19.995	100.313	19.834	19.345	0.527
698.000	420.256	80.007	19.995	100.312	19.836	19.212	0.527
698.500	420.520	80.007	19.996	100.311	19.835	19.269	0.505
699.000	420.783	80.011	19.995	100.305	19.833	19.394	0.512
699.500	421.046	80.019	19.995	100.300	19.837	19.129	0.526
700.000	421.279	80.008	19.995	100.298	19.832	19.445	0.511
700.500	421.512	79.997	19.997	100.297	19.831	19.543	0.481
701.000	421.786	80.013	19.996	100.295	19.833	19.392	0.486
701.500	422.036	80.012	19.996	100.296	19.830	19.588	0.515
702.000	422.279	80.008	19.996	100.297	19.825	19.892	0.509
702.500	422.573	80.020	19.993	100.296	19.827	19.743	0.515
703.000	422.764	80.018	19.994	100.300	19.829	19.668	0.511
703.500	423.013	80.016	19.994	100.305	19.827	19.772	0.463
704.000	423.282	80.012	19.995	100.306	19.827	19.755	0.479
704.500	423.521	80.016	19.995	100.304	19.825	19.873	0.513
705.000	423.792	80.008	19.995	100.303	19.819	20.248	0.509
705.500	424.035	80.001	19.996	100.298	19.821	20.171	0.512
706.000	424.287	80.008	19.995	100.291	19.825	19.925	0.505
706.500	424.563	80.003	19.997	100.290	19.821	20.117	0.512
707.000	424.785	80.010	19.994	100.288	19.820	20.193	0.513
707.500	425.014	80.014	19.993	100.288	19.821	20.136	0.475
708.000	425.311	80.009	19.995	100.293	19.821	20.157	0.489
708.500	425.585	79.991	19.996	100.297	19.823	20.042	0.548
709.001	425.825	80.013	19.995	100.295	19.821	20.113	0.543
709.500	426.071	80.012	19.996	100.296	19.817	20.368	0.500
710.000	426.292	80.008	19.997	100.299	19.817	20.394	0.476
710.500	426.552	80.010	19.995	100.298	19.817	20.371	0.474
711.000	426.773	80.021	19.993	100.296	19.816	20.476	0.481
711.500	427.087	80.009	19.994	100.302	19.815	20.509	0.508
712.000	427.273	80.024	19.994	100.306	19.815	20.540	0.518
712.501	427.578	80.009	19.996	100.309	19.810	20.839	0.495
713.000	427.863	80.018	19.994	100.309	19.814	20.615	0.540
713.500	428.092	80.007	19.996	100.312	19.808	20.952	0.552
714.000	428.382	79.993	19.997	100.309	19.812	20.706	0.517
714.500	428.644	80.020	19.994	100.306	19.810	20.859	0.535
715.000	428.853	80.011	19.997	100.305	19.807	21.037	0.511
715.501	429.102	80.015	19.993	100.305	19.806	21.089	0.464
716.001	429.369	80.017	19.994	100.307	19.807	21.062	0.487
716.500	429.613	80.013	19.996	100.310	19.803	21.278	0.513
717.000	429.833	80.007	19.996	100.308	19.798	21.589	0.488
717.500	430.108	80.012	19.995	100.301	19.799	21.514	0.480
718.000	430.364	80.011	19.996	100.298	19.801	21.386	0.513
718.500	430.575	80.008	19.996	100.292	19.800	21.488	0.499
719.000	430.861	80.017	19.995	100.286	19.800	21.463	0.482
719.500	431.105	80.006	19.997	100.289	19.798	21.605	0.514
720.000	431.374	80.016	19.995	100.291	19.800	21.477	0.522
720.500	431.622	80.007	19.996	100.291	19.798	21.622	0.515
721.000	431.865	80.011	19.996	100.291	19.794	21.856	0.504
721.500	432.145	80.018	19.997	100.290	19.798	21.614	0.507
722.000	432.355	80.015	19.996	100.288	19.797	21.684	0.507
722.500	432.649	80.016	19.996	100.288	19.796	21.725	0.497
723.000	432.897	80.006	19.996	100.287	19.794	21.874	0.523
723.500	433.123	80.012	19.995	100.287	19.792	21.983	0.508
724.000	433.355	80.022	19.996	100.291	19.791	22.063	0.466
724.500	433.631	80.007	19.996	100.293	19.792	22.010	0.483
725.000	433.875	79.996	19.997	100.296	19.792	21.958	0.514
725.500	434.171	80.015	19.994	100.295	19.787	22.278	0.530
726.000	434.404	80.010	19.995	100.302	19.790	22.120	0.534
726.500	434.631	80.006	19.996	100.301	19.788	22.203	0.494
727.000	434.931	80.016	19.996	100.298	19.788	22.208	0.494
727.500	435.155	80.001	19.997	100.296	19.792	22.007	0.525
728.000	435.420	80.015	19.995	100.296	19.790	22.098	0.506
728.500	435.636	80.015	19.996	100.292	19.787	22.304	0.485
729.000	435.927	80.012	19.995	100.291	19.787	22.302	0.494
729.500	436.190	80.011	19.995	100.293	19.787	22.278	0.530
730.000	436.422	80.003	19.997	100.294	19.787	22.301	0.525
730.500	436.658	80.006	19.996	100.291	19.782	22.619	0.482
731.000	436.957	80.005	19.995	100.287	19.784	22.509	0.502
731.500	437.172	80.015	19.996	100.289	19.783	22.585	0.524
732.000	437.452	80.004	19.995	100.290	19.781	22.688	0.504
732.500	437.673	80.019	19.993	100.289	19.781	22.678	0.497
733.000	437.921	80.015	19.994	100.296	19.777	22.913	0.485
733.500	438.166	79.988	19.996	100.299	19.780	22.764	0.481
734.000	438.457	80.014	19.993	100.295	19.780	22.773	0.515
734.500	438.677	80.001	19.996	100.296	19.778	22.847	0.523
735.000	438.910	80.008	19.994	100.295	19.779	22.813	0.482
735.500	439.183	80.017	19.995	100.292	19.777	22.911	0.480
736.000	439.419	80.001	19.995	100.292	19.774	23.123	0.508
736.501	439.679	80.014	19.994	100.291	19.775	23.031	0.503
737.000	439.902	79.998	19.996	100.289	19.774	23.118	0.489
737.500	440.140	80.002	19.996	100.288	19.777	22.955	0.472
738.000	440.414	80.021	19.994	100.286	19.774	23.098	0.487
738.500	440.662	80.016	19.994	100.288	19.774	23.108	0.517
739.000	440.927	80.017	19.993	100.291	19.775	23.087	0.518
739.500	441.175	80.003	19.996	100.292	19.773	23.191	0.513
740.000	441.430	79.999	19.996	100.291	19.773	23.184	0.508
740.500	441.660	80.017	19.994	100.293	19.776	22.978	0.494
741.000	441.954	80.009	19.994	100.292	19.775	23.089	0.504
741.500	442.214	80.008	19.996	100.293	19.775	23.055	0.539
742.000	442.430	80.011	19.995	100.295	19.773	23.169	0.515
742.500	442.682	80.004	19.996	100.302	19.771	23.281	0.472
743.000	442.954	80.013	19.995	100.303	19.770	23.395	0.496
743.500	443.198	80.018	19.995	100.304	19.773	23.215	0.520
744.000	443.492	80.012	19.993	100.304	19.772	23.243	0.527
744.500	443.656	80.020	19.994	100.303	19.769	23.411	0.498
745.000	443.981	80.006	19.994	100.300	19.772	23.231	0.473
745.500	444.184	80.002	19.995	100.300	19.771	23.321	0.508
746.000	444.405	80.009	19.994	100.297	19.771	23.319	0.476
746.500	444.675	79.990	19.996	100.295	19.772	23.271	0.458
747.000	444.903	80.009	19.994	100.292	19.772	23.238	0.495
747.500	445.198	80.009	19.996	100.291	19.773	23.171	0.510
748.000	445.425	80.009	19.995	100.289	19.772	23.261	0.522
748.500	445.680	80.017	19.993	100.290	19.773	23.191	0.502
749.000	445.933	80.010	19.995	100.292	19.769	23.421	0.495
749.500	446.160	80.006	19.995	100.293	19.770	23.365	0.494
750.000	446.400	80.014	19.994	100.292	19.770	23.396	0.473
750.500	446.665	80.016	19.994	100.294	19.772	23.244	0.486
751.000	446.897	80.016	19.994	100.292	19.771	23.322	0.501
751.500	447.178	80.012	19.995	100.292	19.770	23.368	0.505
752.000	447.409	80.010	19.994	100.294	19.770	23.358	0.512
752.500	447.696	80.007	19.994	100.295	19.768	23.525	0.515
753.000	447.917	80.009	19.995	100.294	19.771	23.297	0.513
753.500	448.167	80.006	19.996	100.293	19.772	23.275	0.490
754.000	448.412	80.019	19.993	100.291	19.768	23.473	0.483
754.500	448.661	80.014	19.994	100.292	19.771	23.333	0.494
755.000	448.904	80.020	19.993	100.292	19.770	23.391	0.493
755.500	449.180	80.009	19.995	100.294	19.770	23.382	0.506
756.000	449.422	80.013	19.994	100.294	19.766	23.617	0.519
756.500	449.689	80.002	19.996	100.295	19.770	23.385	0.514
757.000	449.940	80.003	19.995	100.293	19.768	23.513	0.513
757.500	450.177	80.012	19.995	100.293	19.772	23.247	0.503
758.000	450.450	80.012	19.995	100.293	19.771	23.302	0.499
758.500	450.695	80.017	19.995	100.295	19.768	23.482	0.514
759.000	450.995	80.003	19.996	100.295	19.769	23.453	0.531
759.500	451.239	80.008	19.995	100.293	19.769	23.421	0.545
760.000	451.414	80.012	19.995	100.292	19.769	23.413	0.481
760.500	451.691	80.009	19.995	100.291	19.772	23.273	0.435
761.000	451.940	80.008	19.995	100.290	19.774	23.104	0.489
761.500	452.213	80.007	19.995	100.289	19.774	23.128	0.524
762.000	452.446	80.010	19.995	100.290	19.773	23.213	0.514
762.500	452.713	80.009	19.995	100.289	19.775	23.034	0.503
763.000	452.970	80.003	19.994	100.289	19.778	22.866	0.512
763.500	453.220	80.011	19.995	100.288	19.776	22.966	0.516
764.000	453.498	80.009	19.995	100.290	19.780	22.769	0.518
764.500	453.742	80.010	19.995	100.291	19.778	22.845	0.525
765.000	453.964	80.014	19.995	100.292	19.776	22.964	0.494
765.500	454.199	80.004	19.997	100.293	19.779	22.793	0.461
766.000	454.469	80.007	19.995	100.293	19.779	22.794	0.481
766.500	454.725	80.008	19.995	100.290	19.778	22.858	0.516
767.000	454.990	80.008	19.995	100.289	19.781	22.703	0.524
767.500	455.249	80.011	19.994	100.289	19.783	22.547	0.523
768.000	455.500	80.011	19.994	100.288	19.783	22.540	0.517
768.500	455.758	80.004	19.995	100.289	19.786	22.329	0.510
769.001	455.991	80.011	19.995	100.289	19.785	22.405	0.500
769.500	456.278	80.007	19.995	100.288	19.785	22.412	0.505
770.000	456.481	80.003	19.995	100.288	19.789	22.187	0.505
770.500	456.704	80.011	19.994	100.287	19.791	22.016	0.458
771.000	456.993	80.005	19.995	100.288	19.787	22.290	0.469
771.500	457.208	80.010	19.995	100.289	19.789	22.150	0.508
772.000	457.480	80.006	19.995	100.289	19.793	21.904	0.495
772.500	457.703	80.008	19.995	100.289	19.791	22.027	0.491
773.000	457.986	80.011	19.995	100.291	19.792	21.975	0.500
773.500	458.241	80.012	19.994	100.293	19.795	21.800	0.522
774.000	458.482	80.010	19.995	100.293	19.795	21.785	0.517
774.500	458.736	80.012	19.995	100.293	19.799	21.529	0.496
775.000	459.011	80.009	19.995	100.294	19.802	21.342	0.512
775.500	459.261	80.011	19.994	100.291	19.801	21.407	0.527
776.000	459.507	80.010	19.994	100.289	19.802	21.340	0.511
776.500	459.750	80.011	19.994	100.289	19.802	21.361	0.493
777.000	460.030	80.012	19.995	100.289	19.802	21.326	0.506
777.500	460.266	80.015	19.995	100.289	19.803	21.262	0.519
778.001	460.525	80.009	19.994	100.289	19.808	20.993	0.506
778.500	460.786	80.012	19.994	100.288	19.807	21.012	0.507
779.000	461.025	80.010	19.994	100.288	19.808	20.955	0.510
779.500	461.280	80.010	19.995	100.287	19.813	20.644	0.497
780.000	461.554	80.010	19.994	100.286	19.813	20.679	0.512
780.500	461.804	80.007	19.995	100.287	19.815	20.551	0.526
781.000	462.073	80.008	19.994	100.289	19.814	20.583	0.521
781.500	462.304	80.018	19.994	100.289	19.815	20.501	0.510
782.000	462.572	80.009	19.994	100.291	19.822	20.101	0.499
782.500	462.818	80.013	19.994	100.292	19.821	20.121	0.507
783.000	463.037	80.013	19.996	100.291	19.825	19.875	0.490
783.500	463.322	80.015	19.994	100.289	19.824	19.971	0.484
784.000	463.586	80.011	19.995	100.290	19.825	19.871	0.526
784.500	463.812	80.009	19.995	100.288	19.829	19.635	0.519
785.000	464.066	80.011	19.995	100.288	19.833	19.389	0.485
785.500	464.298	80.010	19.997	100.288	19.833	19.371	0.483
786.000	464.540	80.009	19.995	100.287	19.836	19.207	0.480
786.500	464.807	80.011	19.995	100.286	19.835	19.247	0.492
787.000	465.054	80.010	19.996	100.286	19.842	18.795	0.511
787.500	465.334	80.009	19.995	100.286	19.843	18.754	0.520
788.000	465.567	80.011	19.995	100.286	19.843	18.733	0.520
788.500	465.823	80.014	19.995	100.286	19.846	18.553	0.501
789.000	466.091	80.016	19.995	100.288	19.846	18.534	0.507
789.500	466.342	80.008	19.995	100.290	19.849	18.387	0.521
790.000	466.573	80.006	19.995	100.290	19.852	18.200	0.501
790.500	466.830	80.008	19.995	100.292	19.852	18.164	0.485
791.000	467.104	80.009	19.995	100.293	19.856	17.934	0.509
791.500	467.326	80.001	19.996	100.292	19.859	17.734	0.513
792.000	467.572	80.013	19.995	100.289	19.860	17.677	0.482
792.500	467.813	79.999	19.996	100.292	19.861	17.590	0.478
793.000	468.078	80.020	19.993	100.290	19.866	17.307	0.497
793.500	468.341	80.008	19.995	100.292	19.868	17.148	0.517
794.000	468.548	80.016	19.994	100.293	19.872	16.942	0.499
794.500	468.819	79.999	19.997	100.295	19.874	16.817	0.474
795.000	469.043	80.009	19.995	100.289	19.877	16.579	0.486
795.500	469.322	80.015	19.995	100.291	19.882	16.263	0.499
796.000	469.553	80.005	19.995	100.290	19.884	16.135	0.506
796.500	469.826	80.010	19.996	100.288	19.883	16.217	0.506
797.000	470.072	80.006	19.997	100.288	19.886	16.021	0.512
797.500	470.373	80.010	19.995	100.291	19.893	15.613	0.533
798.000	470.599	80.015	19.995	100.293	19.892	15.663	0.537
798.500	470.854	80.012	19.994	100.294	19.896	15.419	0.504
799.000	471.148	80.011	19.995	100.296	19.899	15.221	0.515
799.500	471.340	80.009	19.995	100.295	19.898	15.273	0.517
800.000	471.616	80.007	19.995	100.296	19.904	14.914	0.477
800.500	471.856	80.012	19.995	100.294	19.903	14.928	0.492
801.000	472.148	80.012	19.994	100.293	19.908	14.627	0.524
801.500	472.372	80.010	19.995	100.293	19.911	14.473	0.524
802.000	472.601	80.011	19.994	100.294	19.915	14.205	0.484
802.500	472.876	80.011	19.994	100.296	19.917	14.049	0.479
803.000	473.154	80.012	19.995	100.297	19.920	13.863	0.529
803.500	473.377	80.010	19.996	100.296	19.919	13.944	0.527
804.000	473.639	80.013	19.995	100.296	19.922	13.742	0.493
804.500	473.871	80.012	19.995	100.296	19.925	13.533	0.489
805.000	474.153	80.012	19.994	100.294	19.930	13.244	0.503
805.500	474.419	80.008	19.994	100.293	19.932	13.095	0.531
806.000	474.672	80.011	19.994	100.297	19.934	13.000	0.533
806.500	474.949	80.011	19.995	100.297	19.934	12.955	0.524
807.000	475.193	80.010	19.995	100.298	19.938	12.729	0.526
807.501	475.407	80.009	19.994	100.300	19.944	12.340	0.490
808.001	475.684	80.012	19.994	100.299	19.945	12.322	0.475
808.500	475.946	80.011	19.994	100.296	19.945	12.270	0.515
809.000	476.199	80.011	19.995	100.296	19.949	12.031	0.527
809.500	476.458	80.009	19.996	100.293	19.950	11.988	0.514
810.000	476.722	80.010	19.994	100.292	19.954	11.700	0.518
810.500	476.948	80.009	19.995	100.293	19.959	11.396	0.507
811.000	477.183	80.009	19.995	100.292	19.959	11.374	0.475
811.500	477.455	80.010	19.995	100.292	19.962	11.194	0.484
812.000	477.742	80.011	19.995	100.292	19.965	11.045	0.533
812.500	477.969	80.007	19.994	100.291	19.967	10.878	0.537
813.000	478.214	80.005	19.996	100.290	19.966	10.943	0.493
813.500	478.473	80.006	19.995	100.292	19.969	10.742	0.488
814.000	478.756	80.012	19.995	100.292	19.973	10.545	0.523
814.500	479.003	80.008	19.996	100.295	19.975	10.402	0.535
815.000	479.210	80.008	19.996	100.295	19.979	10.121	0.492
815.500	479.497	80.009	19.995	100.295	19.979	10.162	0.475
816.000	479.763	80.008	19.996	100.295	19.981	10.031	0.523
816.500	479.981	80.006	19.995	100.294	19.980	10.055	0.518
817.000	480.213	80.003	19.995	100.293	19.987	9.605	0.467
817.500	480.512	80.008	19.996	100.292	19.990	9.458	0.490
818.000	480.745	80.009	19.996	100.295	19.992	9.318	0.532
818.500	481.001	80.006	19.995	100.297	19.994	9.182	0.511
819.000	481.272	80.008	19.995	100.299	19.994	9.170	0.508
819.500	481.521	80.009	19.996	100.299	19.997	8.998	0.523
820.000	481.756	80.007	19.997	100.299	19.997	8.974	0.502
820.500	482.010	80.005	19.996	100.298	20.001	8.715	0.487
821.000	482.237	80.010	19.996	100.295	20.001	8.752	0.485
821.500	482.506	80.004	19.996	100.296	20.003	8.590	0.488
822.000	482.754	80.011	19.995	100.297	20.008	8.292	0.506
822.500	483.008	80.003	19.997	100.298	20.007	8.349	0.510
823.000	483.250	80.012	19.995	100.296	20.008	8.303	0.499
823.500	483.501	80.010	19.998	100.298	20.012	8.076	0.494
824.000	483.741	80.009	19.997	100.294	20.015	7.877	0.492
824.500	484.017	80.012	19.997	100.291	20.016	7.807	0.503
825.000	484.257	80.009	19.996	100.292	20.019	7.635	0.516
825.500	484.499	80.005	19.996	100.296	20.020	7.557	0.499
826.001	484.745	80.008	19.997	100.298	20.024	7.310	0.486
826.500	485.004	80.012	19.996	100.301	20.022	7.410	0.497
827.000	485.241	80.002	19.996	100.304	20.026	7.161	0.500
827.500	485.469	80.008	19.996	100.304	20.029	6.948	0.480
828.000	485.758	80.008	19.996	100.308	20.031	6.839	0.491
828.500	486.008	80.009	19.996	100.310	20.031	6.841	0.528
829.000	486.262	80.012	19.995	100.315	20.036	6.552	0.522
829.500	486.503	80.008	19.995	100.318	20.034	6.648	0.499
830.000	486.788	80.011	19.996	100.316	20.035	6.568	0.510
830.500	487.016	80.010	19.994	100.314	20.036	6.516	0.520
831.000	487.261	80.006	19.995	100.315	20.039	6.324	0.493
831.500	487.483	80.009	19.996	100.313	20.041	6.210	0.470
832.000	487.752	80.008	19.996	100.309	20.041	6.206	0.479
832.500	488.021	80.007	19.995	100.313	20.044	6.034	0.515
833.000	488.258	80.010	19.995	100.311	20.045	5.928	0.522
833.500	488.497	80.009	19.995	100.309	20.047	5.831	0.491
834.000	488.746	80.008	19.995	100.310	20.048	5.741	0.482
834.500	488.983	80.010	19.995	100.312	20.052	5.485	0.487
835.000	489.275	80.009	19.995	100.308	20.049	5.732	0.507
835.500	489.489	80.007	19.995	100.309	20.053	5.418	0.517
836.000	489.769	80.007	19.995	100.305	20.053	5.445	0.500
836.500	489.969	80.008	19.994	100.303	20.052	5.525	0.487
837.000	490.256	80.009	19.995	100.300	20.054	5.366	0.484
837.500	490.490	80.005	19.995	100.303	20.057	5.226	0.504
838.000	490.750	80.009	19.994	100.300	20.054	5.376	0.507
838.500	490.979	80.007	19.995	100.301	20.059	5.048	0.491
839.000	491.224	80.007	19.995	100.302	20.058	5.141	0.482
839.501	491.510	80.005	19.996	100.302	20.062	4.896	0.503
840.001	491.720	80.009	19.994	100.301	20.063	4.787	0.513
840.500	491.980	80.008	19.995	100.301	20.065	4.692	0.483
841.000	492.235	80.008	19.994	100.298	20.066	4.628	0.492
841.500	492.478	80.008	19.995	100.296	20.068	4.529	0.506
842.000	492.747	80.009	19.994	100.297	20.067	4.583	0.505
842.500	493.007	80.008	19.995	100.296	20.068	4.528	0.521
843.000	493.221	80.010	19.996	100.297	20.071	4.324	0.502
843.500	493.485	80.009	19.995	100.297	20.069	4.431	0.475
844.000	493.721	80.009	19.996	100.296	20.074	4.094	0.488
844.500	493.977	80.006	19.996	100.292	20.071	4.322	0.496
845.000	494.231	80.009	19.996	100.290	20.072	4.261	0.501
845.500	494.458	80.008	19.995	100.288	20.073	4.154	0.496
846.000	494.743	80.010	19.996	100.288	20.079	3.803	0.496
846.500	494.969	80.009	19.995	100.288	20.075	4.073	0.512
847.000	495.209	80.014	19.995	100.289	20.075	4.025	0.489
847.500	495.469	80.006	19.996	100.290	20.080	3.767	0.483
848.000	495.694	80.007	19.996	100.289	20.080	3.710	0.493
848.500	495.960	80.008	19.996	100.289	20.082	3.613	0.488
849.000	496.201	80.009	19.995	100.288	20.081	3.700	0.499
849.500	496.398	80.008	19.996	100.291	20.083	3.539	0.472
850.000	496.633	80.010	19.995	100.295	20.081	3.648	0.435
850.500	496.909	80.010	19.995	100.297	20.084	3.495	0.472
851.000	497.121	80.008	19.996	100.298	20.084	3.492	0.500
851.500	497.373	80.012	19.995	100.298	20.083	3.546	0.476
852.000	497.609	80.012	19.995	100.297	20.086	3.345	0.476
852.500	497.868	80.010	19.995	100.295	20.088	3.240	0.491
853.000	498.103	80.009	19.995	100.296	20.086	3.387	0.494
853.500	498.353	80.010	19.994	100.295	20.087	3.290	0.490
854.000	498.603	80.010	19.995	100.296	20.089	3.197	0.493
854.500	498.836	80.012	19.995	100.294	20.087	3.311	0.492
855.000	499.045	80.011	19.995	100.293	20.088	3.249	0.462
855.500	499.296	80.009	19.996	100.291	20.089	3.169	0.451
856.000	499.522	80.009	19.995	100.293	20.089	3.180	0.468
856.500	499.767	80.009	19.996	100.293	20.092	2.967	0.474
857.000	500.007	80.009	19.995	100.294	20.092	2.970	0.478
857.500	500.249	80.007	19.996	100.293	20.092	2.986	0.484
858.000	500.478	80.010	19.996	100.296	20.092	2.967	0.476
858.500	500.725	80.009	19.995	100.295	20.094	2.853	0.474
859.001	500.986	80.008	19.995	100.297	20.093	2.912	0.492
859.501	501.196	80.009	19.994	100.296	20.097	2.676	0.489
860.001	501.458	80.011	19.994	100.296	20.096	2.713	0.472
860.500	501.680	80.009	19.995	100.294	20.093	2.908	0.478
861.000	501.917	80.010	19.995	100.294	20.094	2.863	0.471
861.500	502.172	80.008	19.994	100.292	20.098	2.589	0.475
862.000	502.400	80.011	19.995	100.291	20.097	2.691	0.488
862.500	502.639	80.010	19.994	100.293	20.098	2.618	0.475
863.000	502.889	80.008	19.995	100.297	20.095	2.765	0.478
863.500	503.112	80.010	19.994	100.299	20.096	2.699	0.481
864.000	503.326	80.012	19.994	100.302	20.096	2.754	0.455
864.500	503.600	80.011	19.995	100.302	20.102	2.320	0.463
865.000	503.836	80.010	19.994	100.302	20.099	2.516	0.499
865.500	504.069	80.007	19.995	100.304	20.100	2.488	0.489
866.000	504.311	80.008	19.995	100.305	20.102	2.321	0.472
866.500	504.565	80.009	19.994	100.306	20.103	2.274	0.485
867.000	504.767	80.010	19.994	100.308	20.101	2.403	0.476
867.500	505.007	80.011	19.994	100.308	20.103	2.272	0.449
868.001	505.248	80.009	19.995	100.306	20.101	2.417	0.462
868.500	505.506	80.010	19.994	100.303	20.100	2.469	0.490
869.000	505.719	80.010	19.995	100.302	20.101	2.438	0.485
869.500	505.997	80.008	19.995	100.302	20.103	2.310	0.481
870.000	506.242	80.009	19.995	100.305	20.101	2.416	0.507
870.500	506.460	80.010	19.995	100.307	20.101	2.381	0.493
871.000	506.700	80.008	19.994	100.313	20.104	2.236	0.461
871.500	506.948	80.010	19.995	100.315	20.105	2.128	0.474
872.000	507.173	80.007	19.994	100.315	20.105	2.180	0.480
872.500	507.413	80.007	19.995	100.316	20.107	2.028	0.468
873.000	507.665	80.010	19.994	100.316	20.104	2.243	0.478
873.500	507.935	80.010	19.995	100.315	20.109	1.899	0.507
874.000	508.138	80.010	19.994	100.311	20.105	2.148	0.498
874.500	508.356	80.010	19.995	100.311	20.105	2.129	0.447
875.000	508.627	80.009	19.995	100.306	20.106	2.122	0.455
875.500	508.862	80.011	19.996	100.309	20.107	2.028	0.497
876.000	509.114	80.011	19.995	100.310	20.106	2.061	0.496
876.500	509.302	80.011	19.994	100.315	20.106	2.101	0.463
877.000	509.538	80.008	19.995	100.317	20.106	2.092	0.432
877.500	509.798	80.010	19.994	100.317	20.106	2.099	0.461
878.000	510.095	80.009	19.995	100.314	20.108	1.981	0.527
878.500	510.337	80.010	19.994	100.313	20.108	1.992	0.547
879.000	510.557	80.009	19.995	100.314	20.106	2.111	0.500
879.500	510.775	80.008	19.995	100.311	20.109	1.919	0.450
880.000	511.038	80.009	19.995	100.313	20.107	2.006	0.460
880.500	511.304	80.010	19.995	100.314	20.111	1.790	0.505
881.000	511.532	80.010	19.995	100.313	20.108	1.968	0.511
881.500	511.776	80.008	19.995	100.311	20.110	1.826	0.483
882.000	512.040	80.012	19.995	100.312	20.108	1.950	0.490
882.500	512.219	80.010	19.994	100.311	20.111	1.786	0.475
883.000	512.458	80.008	19.995	100.310	20.110	1.859	0.431
883.500	512.697	80.009	19.995	100.311	20.112	1.722	0.448
884.000	512.956	80.011	19.996	100.313	20.111	1.745	0.488
884.500	513.222	80.009	19.995	100.316	20.112	1.743	0.512
885.000	513.483	80.009	19.995	100.317	20.112	1.724	0.526
885.500	513.747	80.010	19.995	100.316	20.116	1.471	0.526
886.000	513.949	80.010	19.995	100.315	20.113	1.648	0.496
886.500	514.212	80.012	19.995	100.312	20.115	1.549	0.465
887.000	514.446	80.010	19.996	100.307	20.113	1.679	0.481
887.500	514.703	80.013	19.994	100.302	20.113	1.634	0.494
888.000	514.950	80.010	19.995	100.303	20.115	1.499	0.497
888.500	515.203	80.010	19.995	100.305	20.113	1.665	0.501
889.000	515.464	80.010	19.995	100.306	20.114	1.579	0.506
889.500	515.682	80.010	19.996	100.311	20.116	1.484	0.496
890.000	515.913	80.011	19.995	100.312	20.113	1.650	0.464
890.500	516.189	80.009	19.994	100.313	20.113	1.670	0.479
891.000	516.435	80.010	19.995	100.313	20.114	1.565	0.515
891.500	516.683	80.011	19.996	100.312	20.112	1.706	0.508
892.000	516.920	80.007	19.996	100.310	20.114	1.594	0.489
892.500	517.155	80.010	19.994	100.312	20.115	1.511	0.478
893.000	517.409	80.009	19.995	100.313	20.117	1.386	0.481
893.500	517.658	80.008	19.995	100.309	20.112	1.725	0.496
894.000	517.943	80.009	19.996	100.308	20.111	1.796	0.518
894.500	518.143	80.010	19.995	100.308	20.116	1.456	0.509
895.000	518.433	80.007	19.995	100.308	20.115	1.509	0.488
895.500	518.680	80.008	19.995	100.308	20.117	1.369	0.514
896.000	518.920	80.009	19.995	100.308	20.114	1.584	0.512
896.500	519.148	80.009	19.995	100.306	20.115	1.501	0.477
897.000	519.397	80.010	19.995	100.307	20.118	1.349	0.472
897.500	519.664	80.009	19.996	100.307	20.114	1.561	0.497
898.000	519.931	80.007	19.995	100.306	20.115	1.551	0.525
898.500	520.196	80.007	19.995	100.307	20.117	1.371	0.533
899.000	520.447	80.009	19.995	100.313	20.116	1.435	0.524
899.500	520.656	80.006	19.997	100.312	20.118	1.342	0.488
900.000	520.928	80.009	19.995	100.315	20.118	1.340	0.471
900.500	521.195	80.007	19.995	100.318	20.118	1.361	0.510
901.000	521.408	80.007	19.996	100.314	20.118	1.362	0.510
901.500	521.684	80.008	19.995	100.309	20.115	1.518	0.485
902.000	521.912	80.008	19.995	100.304	20.118	1.352	0.496
902.500	522.134	80.009	19.995	100.299	20.117	1.375	0.477
903.000	522.419	80.006	19.996	100.292	20.118	1.357	0.478
903.500	522.673	80.008	19.996	100.292	20.115	1.490	0.523
904.000	522.912	80.008	19.996	100.294	20.116	1.445	0.516
904.500	523.186	80.010	19.996	100.300	20.120	1.226	0.503
905.000	523.470	80.008	19.995	100.304	20.118	1.335	0.535
905.500	523.686	80.009	19.995	100.308	20.119	1.290	0.529
906.000	523.947	80.007	19.996	100.309	20.118	1.312	0.488
906.500	524.172	80.009	19.995	100.312	20.117	1.423	0.481
907.000	524.421	80.008	19.996	100.309	20.118	1.312	0.480
907.500	524.647	80.006	19.996	100.306	20.121	1.132	0.475
908.000	524.944	80.009	19.996	100.306	20.116	1.476	0.499
908.500	525.172	80.008	19.995	100.307	20.118	1.333	0.524
909.000	525.433	80.009	19.995	100.304	20.118	1.329	0.507
909.500	525.701	80.008	19.996	100.304	20.120	1.234	0.509
910.000	525.937	80.004	19.995	100.307	20.118	1.326	0.517
910.500	526.177	80.008	19.995	100.305	20.118	1.333	0.490
911.000	526.417	80.009	19.996	100.304	20.117	1.399	0.477
911.500	526.681	80.008	19.996	100.308	20.117	1.381	0.492
912.000	526.935	80.009	19.996	100.312	20.119	1.290	0.511
912.500	527.227	80.009	19.996	100.312	20.117	1.390	0.532
913.000	527.444	80.009	19.996	100.312	20.120	1.234	0.528
913.500	527.710	80.008	19.996	100.313	20.120	1.179	0.496
914.000	527.959	80.010	19.996	100.311	20.116	1.437	0.499
914.500	528.191	80.007	19.996	100.307	20.117	1.368	0.498
915.000	528.441	80.009	19.997	100.304	20.114	1.613	0.482
915.500	528.718	80.006	19.996	100.305	20.115	1.513	0.505
916.000	528.928	80.008	19.995	100.303	20.119	1.274	0.507
916.500	529.197	80.009	19.997	100.306	20.119	1.293	0.483
917.000	529.470	80.008	19.996	100.309	20.115	1.551	0.511
917.500	529.654	80.007	19.996	100.307	20.115	1.513	0.499
918.000	529.919	80.008	19.997	100.303	20.113	1.627	0.453
918.500	530.184	80.008	19.996	100.299	20.116	1.475	0.489
919.000	530.425	80.009	19.996	100.293	20.115	1.492	0.518
919.500	530.685	80.008	19.996	100.288	20.113	1.630	0.503
920.000	530.938	80.009	19.996	100.289	20.111	1.777	0.507
920.500	531.198	80.005	19.997	100.293	20.111	1.767	0.513
921.000	531.424	80.007	19.996	100.296	20.111	1.783	0.500
921.500	531.713	80.009	19.996	100.299	20.112	1.712	0.500
922.000	531.934	80.007	19.996	100.299	20.112	1.724	0.512
922.500	532.167	80.007	19.996	100.298	20.109	1.900	0.482
923.000	532.424	80.007	19.997	100.296	20.106	2.062	0.473
923.500	532.683	80.009	19.995	100.296	20.107	2.031	0.503
924.000	532.936	80.010	19.996	100.297	20.107	2.009	0.514
924.500	533.184	80.008	19.996	100.302	20.110	1.865	0.506
925.000	533.434	80.007	19.995	100.301	20.114	1.613	0.500
925.500	533.715	80.008	19.996	100.301	20.111	1.756	0.515
926.000	533.947	80.002	19.995	100.299	20.111	1.779	0.522
926.500	534.186	80.009	19.995	100.300	20.107	2.054	0.492
927.000	534.434	80.008	19.996	100.297	20.107	2.040	0.479
927.500	534.696	80.007	19.995	100.297	20.109	1.921	0.499
928.000	534.952	80.008	19.995	100.299	20.110	1.843	0.514
928.500	535.184	80.008	19.995	100.299	20.108	1.952	0.503
929.000	535.428	80.008	19.994	100.297	20.110	1.865	0.482
929.500	535.677	80.008	19.995	100.302	20.107	2.014	0.484
930.000	535.941	80.008	19.995	100.307	20.109	1.872	0.503
930.500	536.183	80.009	19.995	100.310	20.112	1.703	0.510
931.000	536.420	80.009	19.996	100.312	20.108	1.940	0.493
931.500	536.647	80.007	19.995	100.311	20.109	1.892	0.472
932.000	536.912	80.009	19.994	100.307	20.107	2.040	0.478
932.500	537.164	80.008	19.995	100.303	20.107	2.004	0.504
933.000	537.401	80.007	19.995	100.302	20.111	1.792	0.503
933.500	537.603	80.008	19.995	100.299	20.108	1.970	0.464
934.000	537.877	80.009	19.996	100.297	20.110	1.847	0.458
934.500	538.122	80.010	19.996	100.295	20.107	2.060	0.498
935.000	538.381	80.010	19.995	100.295	20.105	2.129	0.511
935.500	538.607	80.010	19.995	100.293	20.105	2.165	0.494
936.000	538.899	80.008	19.994	100.294	20.106	2.118	0.501
936.500	539.114	80.007	19.996	100.296	20.102	2.347	0.513
937.000	539.380	80.008	19.995	100.302	20.109	1.932	0.495
937.500	539.596	80.007	19.995	100.308	20.107	2.056	0.481
938.000	539.892	80.008	19.996	100.315	20.107	2.042	0.497
938.500	540.136	80.009	19.995	100.317	20.107	2.023	0.526
939.000	540.419	80.010	19.995	100.315	20.108	1.978	0.534
939.500	540.631	80.008	19.995	100.308	20.107	2.028	0.511
940.000	540.882	80.008	19.995	100.300	20.106	2.065	0.479
940.500	541.185	80.008	19.995	100.297	20.104	2.208	0.509
941.000	541.421	80.010	19.996	100.294	20.108	1.958	0.547
941.500	541.647	80.007	19.996	100.304	20.109	1.902	0.501
942.000	541.902	80.010	19.994	100.310	20.107	2.004	0.472
942.500	542.159	80.010	19.995	100.318	20.108	1.985	0.496
943.000	542.421	80.007	19.996	100.320	20.108	1.956	0.515
943.500	542.707	80.009	19.996	100.327	20.110	1.830	0.533
944.000	542.967	80.013	19.995	100.326	20.110	1.840	0.547
944.500	543.217	80.010	19.995	100.326	20.109	1.933	0.528
945.000	543.484	80.009	19.996	100.323	20.111	1.798	0.514
945.500	543.707	80.011	19.994	100.322	20.111	1.807	0.504
946.000	543.957	80.010	19.995	100.323	20.113	1.677	0.481
946.500	544.208	80.013	19.994	100.322	20.108	1.944	0.487
947.000	544.475	80.010	19.996	100.323	20.110	1.843	0.510
947.500	544.723	80.010	19.994	100.324	20.109	1.871	0.517
948.000	544.999	80.009	19.996	100.326	20.111	1.774	0.520
948.500	545.254	80.009	19.994	100.324	20.109	1.913	0.528
949.000	545.513	80.010	19.995	100.322	20.111	1.802	0.522
949.500	545.763	80.009	19.995	100.321	20.108	1.935	0.511
950.000	545.977	80.008	19.995	100.324	20.112	1.726	0.487
950.501	546.247	80.010	19.994	100.323	20.113	1.629	0.474
951.001	546.550	80.007	19.994	100.326	20.112	1.709	0.529
951.501	546.796	80.009	19.995	100.329	20.113	1.650	0.561
952.001	547.056	80.009	19.994	100.329	20.111	1.766	0.527
952.500	547.336	80.010	19.994	100.329	20.113	1.651	0.523
953.000	547.608	80.009	19.995	100.328	20.114	1.615	0.546
953.500	547.850	80.010	19.995	100.326	20.112	1.743	0.533
954.000	548.117	80.009	19.995	100.323	20.110	1.814	0.512
954.500	548.382	80.010	19.995	100.323	20.113	1.653	0.521
955.000	548.653	80.010	19.996	100.319	20.112	1.726	0.534
955.500	548.879	80.010	19.995	100.320	20.115	1.523	0.516
956.000	549.128	80.011	19.995	100.320	20.115	1.544	0.486
956.500	549.390	80.012	19.995	100.321	20.114	1.598	0.493
957.000	549.657	80.011	19.995	100.320	20.114	1.593	0.520
957.500	549.951	80.013	19.995	100.324	20.116	1.487	0.545
958.000	550.180	80.009	19.995	100.323	20.113	1.662	0.542
958.500	550.471	80.011	19.995	100.323	20.114	1.606	0.521
959.000	550.733	80.011	19.995	100.325	20.113	1.634	0.537
959.500	550.995	80.011	19.995	100.324	20.114	1.562	0.538
960.000	551.235	80.010	19.995	100.322	20.113	1.638	0.513
960.500	551.480	80.007	19.995	100.322	20.115	1.492	0.494
961.000	551.749	80.010	19.995	100.322	20.115	1.527	0.499
961.500	551.985	80.011	19.995	100.322	20.113	1.669	0.509
962.000	552.267	80.011	19.995	100.323	20.116	1.453	0.512
962.500	552.539	80.011	19.995	100.324	20.117	1.396	0.537
963.000	552.798	80.012	19.995	100.321	20.116	1.446	0.542
963.500	553.050	80.012	19.995	100.321	20.117	1.371	0.521
964.000	553.331	80.012	19.995	100.321	20.117	1.371	0.522
964.500	553.597	80.013	19.994	100.321	20.116	1.475	0.540
965.000	553.829	80.013	19.995	100.321	20.114	1.600	0.522
965.500	554.125	80.012	19.994	100.322	20.117	1.416	0.513
966.000	554.384	80.011	19.994	100.321	20.115	1.525	0.541
966.500	554.619	80.011	19.994	100.321	20.116	1.432	0.524
967.000	554.920	80.013	19.994	100.321	20.119	1.252	0.515
967.500	555.161	80.013	19.994	100.320	20.117	1.382	0.539
968.000	555.398	80.013	19.994	100.322	20.118	1.332	0.510
968.500	555.649	80.013	19.994	100.323	20.118	1.337	0.483
969.000	555.933	80.013	19.995	100.323	20.118	1.344	0.511
969.500	556.140	80.013	19.995	100.324	20.118	1.354	0.513
970.000	556.414	80.012	19.994	100.325	20.117	1.378	0.486
970.500	556.684	80.013	19.994	100.323	20.118	1.335	0.513
971.000	556.940	80.012	19.994	100.324	20.120	1.212	0.535
971.500	557.176	80.012	19.994	100.324	20.118	1.314	0.509
972.000	557.429	80.013	19.995	100.323	20.116	1.435	0.491
972.500	557.684	80.012	19.994	100.323	20.117	1.411	0.498
973.000	557.948	80.012	19.993	100.325	20.115	1.492	0.513
973.500	558.172	80.012	19.994	100.324	20.117	1.380	0.504
974.000	558.483	80.011	19.994	100.324	20.120	1.183	0.512
974.500	558.738	80.012	19.994	100.325	20.114	1.567	0.550
975.000	558.954	80.011	19.994	100.325	20.118	1.347	0.518
975.500	559.265	80.011	19.995	100.325	20.119	1.278	0.499
976.000	559.481	80.010	19.994	100.325	20.118	1.319	0.527
976.500	559.787	80.010	19.994	100.325	20.116	1.442	0.525
977.000	560.017	80.009	19.995	100.325	20.119	1.264	0.529
977.500	560.294	80.011	19.995	100.324	20.118	1.313	0.522
978.000	560.546	80.010	19.995	100.324	20.115	1.536	0.518
978.500	560.770	80.008	19.995	100.324	20.115	1.491	0.502
979.000	561.036	80.009	19.996	100.325	20.117	1.389	0.483
979.500	561.313	80.009	19.995	100.325	20.119	1.290	0.517
980.000	561.540	80.009	19.996	100.325	20.119	1.257	0.524
980.500	561.826	80.007	19.996	100.324	20.116	1.472	0.509
981.000	562.048	80.010	19.995	100.323	20.120	1.216	0.510
981.500	562.326	80.009	19.996	100.322	20.120	1.236	0.504
982.000	562.610	80.011	19.996	100.322	20.119	1.294	0.531
982.500	562.890	80.009	19.996	100.323	20.119	1.242	0.563
983.000	563.174	80.009	19.996	100.322	20.117	1.423	0.564
983.500	563.389	80.009	19.996	100.323	20.117	1.375	0.532
984.000	563.699	80.009	19.995	100.323	20.118	1.347	0.512
984.500	563.926	80.009	19.996	100.324	20.116	1.454	0.531
985.000	564.178	80.008	19.995	100.323	20.116	1.475	0.508
985.500	564.457	80.010	19.995	100.323	20.116	1.449	0.505
986.000	564.736	80.009	19.995	100.323	20.118	1.359	0.544
986.500	564.987	80.008	19.996	100.323	20.118	1.359	0.544
987.000	565.241	80.008	19.997	100.323	20.116	1.456	0.518
987.500	565.487	80.010	19.996	100.324	20.118	1.325	0.503
988.000	565.759	80.008	19.996	100.324	20.116	1.444	0.508
988.501	566.035	80.009	19.995	100.324	20.118	1.352	0.533
989.000	566.331	80.010	19.996	100.325	20.118	1.300	0.560
989.500	566.558	80.009	19.996	100.325	20.117	1.378	0.548
990.000	566.864	80.009	19.994	100.325	20.115	1.506	0.529
990.500	567.142	80.009	19.995	100.325	20.119	1.267	0.559
991.000	567.388	80.008	19.995	100.325	20.120	1.197	0.554
991.500	567.654	80.009	19.995	100.325	20.119	1.252	0.518
992.000	567.905	80.009	19.995	100.326	20.118	1.323	0.514
992.500	568.172	80.009	19.995	100.326	20.119	1.281	0.518
993.000	568.422	80.008	19.995	100.325	20.118	1.335	0.518
993.500	568.709	80.009	19.995	100.326	20.119	1.288	0.527
994.000	568.976	80.009	19.995	100.326	20.118	1.325	0.545
994.500	569.248	80.008	19.996	100.326	20.120	1.181	0.547
995.000	569.514	80.009	19.996	100.326	20.120	1.212	0.539
995.500	569.780	80.010	19.995	100.328	20.120	1.228	0.535
996.000	570.058	80.010	19.995	100.329	20.119	1.255	0.538
996.500	570.344	80.010	19.995	100.328	20.125	0.918	0.554
997.000	570.610	80.008	19.996	100.327	20.118	1.340	0.558
997.500	570.856	80.010	19.995	100.325	20.119	1.242	0.532
998.000	571.135	80.008	19.995	100.323	20.119	1.271	0.519
998.500	571.400	80.008	19.995	100.320	20.119	1.275	0.534
999.000	571.636	80.010	19.995	100.315	20.121	1.136	0.522
999.500	571.922	80.006	19.996	100.310	20.118	1.302	0.511
1000.000	572.193	80.010	19.994	100.310	20.119	1.245	0.540
1000.500	572.457	80.009	19.995	100.312	20.120	1.221	0.546
1001.000	572.756	80.006	19.995	100.313	20.120	1.221	0.549
1001.500	572.995	80.006	19.995	100.318	20.122	1.079	0.550
1002.000	573.260	80.008	19.996	100.323	20.122	1.086	0.521
1002.500	573.528	80.011	19.994	100.326	20.123	0.996	0.518
1003.000	573.789	80.009	19.995	100.325	20.119	1.257	0.531
1003.500	574.070	80.009	19.996	100.326	20.122	1.105	0.536
1004.000	574.373	80.008	19.996	100.326	20.122	1.079	0.563
1004.500	574.624	80.008	19.996	100.326	20.119	1.266	0.569
1005.000	574.924	80.009	19.995	100.318	20.119	1.249	0.553
1005.500	575.183	80.007	19.996	100.312	20.120	1.233	0.555
1006.000	575.474	80.010	19.996	100.310	20.123	0.998	0.554
1006.500	575.684	80.009	19.996	100.311	20.120	1.188	0.526
1007.000	575.979	80.006	19.995	100.311	20.123	0.989	0.503
1007.500	576.233	80.007	19.996	100.319	20.120	1.176	0.527
1008.000	576.484	80.008	19.995	100.325	20.120	1.217	0.527
1008.500	576.767	80.007	19.996	100.328	20.120	1.216	0.520
1009.000	577.054	80.006	19.995	100.329	20.121	1.171	0.552
1009.500	577.291	80.008	19.996	100.328	20.122	1.107	0.547
1010.000	577.573	80.007	19.996	100.328	20.120	1.186	0.522
1010.500	577.871	80.007	19.995	100.328	20.120	1.207	0.550
1011.000	578.103	80.006	19.996	100.327	20.117	1.364	0.555
1011.500	578.376	80.005	19.997	100.326	20.121	1.128	0.517
1012.000	578.624	80.007	19.996	100.328	20.120	1.226	0.513
1012.500	578.904	80.006	19.996	100.328	20.123	1.015	0.524
1013.000	579.145	80.007	19.996	100.327	20.119	1.262	0.525
1013.500	579.403	80.006	19.996	100.323	20.120	1.204	0.510
1014.001	579.696	80.005	19.996	100.324	20.120	1.197	0.525
1014.500	579.953	80.008	19.997	100.324	20.120	1.183	0.551
1015.000	580.213	80.006	19.996	100.324	20.122	1.107	0.533
1015.500	580.459	80.007	19.997	100.325	20.121	1.155	0.511
1016.000	580.718	80.006	19.996	100.329	20.120	1.193	0.506
1016.500	581.016	80.008	19.996	100.328	20.122	1.074	0.531
1017.000	581.263	80.007	19.996	100.328	20.120	1.174	0.551
1017.500	581.528	80.009	19.996	100.328	20.120	1.233	0.528
1018.000	581.774	80.010	19.996	100.328	20.122	1.062	0.512
1018.500	582.044	80.008	19.996	100.328	20.122	1.108	0.514
1019.001	582.319	80.008	19.996	100.328	20.124	0.980	0.530
1019.501	582.582	80.006	19.995	100.327	20.123	1.046	0.541
1020.000	582.813	80.010	19.996	100.328	20.123	1.005	0.516
1020.500	583.113	80.007	19.995	100.328	20.126	0.801	0.513
1021.000	583.353	80.010	19.996	100.327	20.122	1.058	0.535
1021.500	583.605	80.009	19.995	100.327	20.123	1.029	0.516
1022.000	583.889	80.009	19.996	100.327	20.122	1.076	0.514
1022.500	584.127	80.010	19.995	100.327	20.122	1.069	0.529
1023.000	584.403	80.011	19.995	100.326	20.125	0.896	0.518
1023.500	584.645	80.009	19.995	100.326	20.126	0.794	0.516
1024.000	584.914	80.010	19.995	100.321	20.126	0.854	0.515
1024.500	585.198	80.010	19.994	100.321	20.124	0.927	0.532
1025.000	585.420	80.010	19.995	100.321	20.123	0.987	0.530
1025.500	585.674	80.011	19.995	100.319	20.122	1.108	0.491
1026.000	585.963	80.009	19.995	100.318	20.122	1.086	0.509
1026.500	586.176	80.011	19.995	100.320	20.125	0.863	0.522
1027.000	586.473	80.011	19.995	100.320	20.122	1.084	0.506
1027.500	586.704	80.011	19.995	100.320	20.123	1.006	0.519
1028.000	586.988	80.010	19.995	100.322	20.125	0.917	0.522
1028.500	587.237	80.011	19.995	100.323	20.127	0.752	0.524
1029.000	587.489	80.010	19.995	100.325	20.125	0.872	0.517
1029.500	587.772	80.010	19.995	100.324	20.123	1.020	0.518
1030.000	587.988	80.009	19.995	100.324	20.127	0.787	0.517
1030.500	588.231	80.011	19.996	100.324	20.126	0.828	0.479
1031.000	588.475	80.010	19.994	100.324	20.125	0.859	0.473
1031.500	588.779	80.011	19.994	100.323	20.124	0.949	0.517
1032.000	589.028	80.010	19.995	100.322	20.126	0.811	0.550
1032.500	589.280	80.011	19.994	100.322	20.125	0.899	0.527
1033.000	589.559	80.011	19.995	100.322	20.126	0.839	0.516
1033.500	589.813	80.011	19.995	100.319	20.126	0.849	0.532
1034.000	590.076	80.010	19.995	100.320	20.126	0.847	0.525
1034.500	590.358	80.009	19.995	100.322	20.123	0.987	0.531
1035.000	590.621	80.011	19.995	100.323	20.123	1.010	0.545
1035.500	590.836	80.010	19.995	100.323	20.123	1.025	0.511
1036.000	591.086	80.009	19.995	100.325	20.126	0.844	0.472
1036.500	591.385	80.011	19.995	100.326	20.128	0.724	0.507
1037.000	591.594	80.011	19.995	100.326	20.125	0.866	0.529
1037.500	591.898	80.010	19.996	100.326	20.127	0.747	0.511
1038.000	592.156	80.010	19.994	100.326	20.127	0.759	0.537
1038.500	592.401	80.009	19.997	100.327	20.124	0.965	0.532
1039.000	592.677	80.009	19.995	100.326	20.124	0.941	0.512
1039.500	592.879	80.009	19.995	100.325	20.126	0.808	0.499
1040.000	593.167	80.010	19.995	100.325	20.126	0.854	0.484
1040.500	593.415	80.009	19.994	100.325	20.124	0.951	0.513
1041.000	593.694	80.009	19.995	100.325	20.125	0.894	0.532
1041.500	593.934	80.011	19.995	100.325	20.123	1.046	0.523
1042.000	594.238	80.010	19.995	100.325	20.124	0.974	0.532
1042.500	594.486	80.009	19.995	100.326	20.126	0.844	0.548
1043.000	594.785	80.011	19.996	100.326	20.124	0.932	0.549
1043.500	595.016	80.011	19.994	100.326	20.122	1.093	0.538
1044.000	595.304	80.011	19.995	100.326	20.124	0.930	0.524
1044.500	595.514	80.010	19.995	100.327	20.124	0.946	0.509
1045.000	595.750	80.010	19.995	100.327	20.125	0.901	0.473
1045.500	596.042	80.010	19.994	100.325	20.126	0.846	0.487
1046.000	596.298	80.011	19.995	100.323	20.125	0.906	0.538
1046.500	596.517	80.010	19.994	100.317	20.126	0.828	0.511
1047.000	596.796	80.011	19.995	100.311	20.124	0.923	0.486
1047.500	597.015	80.010	19.995	100.309	20.127	0.754	0.498
1048.000	597.281	80.010	19.996	100.308	20.126	0.844	0.491
1048.500	597.554	80.011	19.995	100.309	20.124	0.958	0.512
1049.000	597.819	80.010	19.996	100.313	20.121	1.121	0.538
1049.500	598.041	80.012	19.995	100.314	20.125	0.896	0.513
1050.000	598.304	80.012	19.994	100.315	20.125	0.872	0.486
1050.500	598.552	80.012	19.995	100.316	20.124	0.956	0.498
1051.000	598.825	80.012	19.995	100.316	20.123	0.991	0.516
1051.500	599.112	80.011	19.995	100.316	20.124	0.946	0.541
1052.000	599.340	80.012	19.994	100.320	20.122	1.055	0.537
1052.500	599.583	80.011	19.994	100.322	20.120	1.186	0.492
1053.000	599.832	80.011	19.995	100.321	20.123	1.031	0.482
1053.500	600.073	80.011	19.993	100.322	20.124	0.927	0.491
1054.000	600.361	80.008	19.995	100.325	20.127	0.780	0.509
1054.500	600.556	80.011	19.994	100.325	20.124	0.961	0.506
1055.000	600.813	80.011	19.994	100.324	20.121	1.155	0.467
1055.500	601.092	80.011	19.995	100.324	20.120	1.200	0.494
1056.000	601.305	80.011	19.995	100.323	20.124	0.930	0.514
1056.501	601.621	80.011	19.996	100.322	20.122	1.098	0.511
1057.001	601.823	80.010	19.994	100.320	20.124	0.924	0.524
1057.500	602.078	80.009	19.994	100.318	20.121	1.124	0.488
1058.000	602.339	80.011	19.994	100.318	20.122	1.074	0.486
1058.501	602.594	80.010	19.994	100.320	20.126	0.823	0.516
1059.001	602.840	80.010	19.994	100.320	20.125	0.920	0.509
1059.501	603.091	80.009	19.995	100.324	20.124	0.929	0.499
1060.001	603.286	80.011	19.996	100.326	20.124	0.960	0.471
1060.500	603.580	80.008	19.994	100.326	20.124	0.955	0.467
1061.000	603.823	80.011	19.994	100.326	20.124	0.963	0.513
1061.501	604.048	80.008	19.995	100.325	20.126	0.818	0.503
1062.001	604.357	80.009	19.994	100.323	20.126	0.849	0.501
1062.501	604.556	80.008	19.994	100.323	20.125	0.910	0.521
1063.000	604.842	80.009	19.994	100.321	20.123	1.015	0.496
1063.500	605.079	80.008	19.995	100.321	20.123	1.045	0.503
1064.000	605.332	80.009	19.995	100.323	20.122	1.072	0.506
1064.501	605.561	80.009	19.994	100.319	20.122	1.103	0.486
1065.001	605.810	80.008	19.995	100.314	20.126	0.849	0.480
1065.501	606.102	80.007	19.994	100.317	20.122	1.067	0.510
1066.000	606.318	80.009	19.995	100.316	20.125	0.897	0.524
1066.500	606.552	80.008	19.994	100.316	20.125	0.901	0.479
1067.000	606.796	80.008	19.995	100.323	20.122	1.053	0.464
1067.501	607.061	80.008	19.995	100.332	20.122	1.084	0.493
1068.001	607.275	80.008	19.996	100.333	20.123	1.015	0.494
1068.501	607.563	80.006	19.994	100.330	20.123	1.034	0.491
1069.001	607.801	80.010	19.995	100.327	20.124	0.960	0.514
1069.500	608.010	80.009	19.995	100.320	20.121	1.145	0.486
1070.001	608.306	80.008	19.995	100.317	20.124	0.977	0.476
1070.501	608.527	80.009	19.995	100.316	20.122	1.048	0.511
1071.000	608.784	80.008	19.995	100.321	20.122	1.064	0.498
1071.500	609.047	80.008	19.995	100.324	20.123	1.043	0.499
1072.000	609.292	80.009	19.995	100.329	20.124	0.970	0.514
1072.500	609.543	80.009	19.995	100.329	20.120	1.221	0.501
1073.000	609.806	80.008	19.996	100.328	20.123	1.000	0.505
1073.500	610.047	80.009	19.995	100.326	20.121	1.140	0.509
1074.000	610.294	80.008	19.995	100.326	20.123	0.984	0.496
1074.501	610.527	80.009	19.995	100.326	20.121	1.119	0.484
1075.001	610.778	80.009	19.996	100.324	20.123	1.000	0.483
1075.501	611.082	80.008	19.996	100.321	20.123	1.005	0.519
1076.001	611.289	80.008	19.995	100.320	20.120	1.176	0.532
1076.501	611.541	80.008	19.995	100.318	20.123	0.986	0.485
1077.000	611.783	80.010	19.995	100.318	20.125	0.865	0.477
1077.500	612.012	80.010	19.995	100.320	20.125	0.894	0.483
1078.000	612.296	80.008	19.995	100.323	20.123	0.998	0.492
1078.500	612.524	80.008	19.996	100.326	20.125	0.898	0.512
1079.000	612.777	80.010	19.996	100.329	20.127	0.744	0.496
1079.500	613.018	80.003	19.995	100.329	20.125	0.870	0.488
1080.000	613.263	80.009	19.996	100.329	20.127	0.747	0.490
1080.500	613.517	80.008	19.996	100.329	20.128	0.713	0.492
1081.000	613.794	80.010	19.995	100.329	20.124	0.948	0.515
1081.500	614.004	80.008	19.995	100.329	20.125	0.880	0.509
1082.000	614.296	80.009	19.996	100.328	20.126	0.818	0.494
1082.500	614.526	80.009	19.996	100.329	20.123	1.000	0.512
1083.000	614.792	80.010	19.995	100.329	20.124	0.963	0.509
1083.501	615.050	80.008	19.995	100.329	20.122	1.048	0.510
1084.001	615.274	80.006	19.995	100.328	20.121	1.134	0.503
1084.500	615.537	80.010	19.994	100.328	20.126	0.854	0.484
1085.000	615.807	80.006	19.995	100.329	20.125	0.887	0.510
1085.500	616.037	80.009	19.995	100.328	20.124	0.946	0.517
1086.000	616.274	80.010	19.995	100.328	20.123	0.998	0.484
1086.501	616.510	80.010	19.994	100.327	20.124	0.930	0.470
1087.001	616.805	80.006	19.996	100.328	20.123	1.013	0.502
1087.501	617.018	80.007	19.995	100.327	20.124	0.968	0.519
1088.001	617.275	80.009	19.996	100.327	20.124	0.923	0.489
1088.501	617.510	80.009	19.995	100.327	20.127	0.747	0.481
1089.001	617.774	80.007	19.995	100.328	20.127	0.763	0.496
1089.500	618.018	80.007	19.996	100.328	20.125	0.894	0.504
1090.000	618.232	80.009	19.996	100.330	20.125	0.858	0.483
1090.500	618.525	80.009	19.995	100.331	20.126	0.828	0.482
1091.000	618.768	80.009	19.995	100.333	20.123	1.010	0.521
1091.500	619.035	80.009	19.995	100.333	20.124	0.956	0.523
1092.000	619.285	80.009	19.996	100.332	20.124	0.948	0.514
1092.500	619.564	80.008	19.996	100.332	20.123	0.987	0.523
1093.000	619.798	80.007	19.996	100.331	20.124	0.930	0.521
1093.500	620.070	80.009	19.995	100.329	20.123	0.991	0.509
1094.000	620.323	80.009	19.996	100.328	20.122	1.083	0.515
1094.500	620.572	80.008	19.995	100.328	20.125	0.899	0.514
1095.000	620.834	80.005	19.996	100.329	20.122	1.081	0.506
1095.500	621.060	80.010	19.995	100.328	20.123	1.000	0.499
1096.000	621.304	80.007	19.996	100.329	20.123	1.029	0.479
1096.501	621.556	80.008	19.996	100.329	20.123	1.001	0.483
1097.001	621.806	80.008	19.995	100.328	20.125	0.861	0.499
1097.500	622.037	80.008	19.995	100.328	20.124	0.932	0.492
1098.000	622.305	80.008	19.996	100.329	20.121	1.150	0.490
1098.500	622.558	80.008	19.995	100.329	20.122	1.091	0.510
1099.000	622.807	80.007	19.995	100.331	20.127	0.777	0.511
1099.500	623.071	80.009	19.995	100.331	20.124	0.962	0.507
1100.000	623.271	80.008	19.995	100.335	20.123	1.029	0.489
1100.500	623.569	80.009	19.996	100.334	20.122	1.070	0.481
1101.000	623.806	80.008	19.996	100.337	20.120	1.198	0.517
1101.500	624.051	80.008	19.996	100.335	20.123	1.036	0.509
1102.000	624.307	80.009	19.996	100.335	20.122	1.095	0.491
1102.500	624.593	80.010	19.996	100.331	20.123	0.998	0.521
1103.000	624.838	80.008	19.995	100.330	20.122	1.060	0.536
1103.500	625.078	80.009	19.996	100.326	20.122	1.060	0.508
1104.000	625.306	80.008	19.996	100.329	20.123	1.045	0.477
1104.501	625.567	80.008	19.995	100.334	20.123	0.984	0.479
1105.001	625.804	80.010	19.995	100.342	20.121	1.119	0.493
1105.500	626.069	80.009	19.997	100.342	20.122	1.105	0.500
1106.000	626.308	80.008	19.997	100.342	20.124	0.944	0.504
1106.500	626.514	80.009	19.997	100.338	20.120	1.214	0.475
1107.000	626.781	80.009	19.997	100.333	20.123	1.003	0.459
1107.501	627.038	80.011	19.996	100.325	20.121	1.136	0.498
1108.001	627.318	80.010	19.997	100.331	20.121	1.148	0.531
1108.500	627.577	80.009	19.995	100.337	20.120	1.185	0.538
1109.000	627.781	80.010	19.996	100.342	20.122	1.110	0.501
1109.500	628.052	80.011	19.996	100.344	20.122	1.109	0.469
1110.000	628.315	80.011	19.996	100.344	20.122	1.098	0.504
1110.501	628.555	80.010	19.996	100.338	20.124	0.974	0.519
1111.001	628.776	80.010	19.997	100.332	20.123	1.026	0.482
1111.501	629.025	80.010	19.996	100.330	20.121	1.115	0.466
1112.000	629.243	80.011	19.997	100.329	20.123	1.024	0.468
1112.500	629.491	80.011	19.997	100.331	20.123	1.026	0.466
1113.000	629.827	80.012	19.996	100.333	20.123	1.041	0.525
1113.500	630.026	80.011	19.995	100.337	20.121	1.131	0.560
1114.000	630.259	80.010	19.995	100.336	20.120	1.202	0.484
1114.500	630.530	80.011	19.995	100.338	20.123	1.007	0.468
1115.000	630.787	80.009	19.996	100.337	20.123	1.031	0.516
1115.500	631.031	80.010	19.996	100.339	20.122	1.091	0.514
1116.000	631.285	80.011	19.996	100.340	20.124	0.948	0.499
1116.500	631.563	80.009	19.996	100.345	20.122	1.098	0.515
1117.000	631.762	80.011	19.996	100.343	20.123	0.989	0.505
1117.500	632.037	80.010	19.996	100.343	20.120	1.202	0.476
1118.000	632.282	80.009	19.995	100.343	20.121	1.117	0.497
1118.500	632.539	80.011	19.996	100.342	20.123	0.984	0.511
1119.000	632.799	80.010	19.995	100.337	20.121	1.150	0.509
1119.500	633.032	80.010	19.996	100.340	20.123	0.998	0.505
1120.000	633.302	80.010	19.995	100.343	20.125	0.917	0.498
1120.501	633.553	80.009	19.995	100.344	20.120	1.235	0.512
1121.001	633.797	80.011	19.995	100.343	20.123	1.022	0.508
1121.501	634.025	80.009	19.995	100.342	20.120	1.226	0.484
1122.000	634.301	80.009	19.995	100.339	20.124	0.951	0.488
1122.500	634.526	80.009	19.996	100.334	20.123	1.021	0.503
1123.000	634.779	80.010	19.994	100.332	20.124	0.927	0.490
1123.500	635.056	80.010	19.995	100.334	20.124	0.951	0.504
1124.000	635.319	80.009	19.994	100.340	20.124	0.950	0.535
1124.500	635.578	80.009	19.994	100.345	20.121	1.169	0.531
1125.000	635.850	80.010	19.995	100.352	20.125	0.903	0.527
1125.500	636.097	80.011	19.994	100.356	20.121	1.112	0.525
1126.000	636.374	80.010	19.994	100.352	20.122	1.093	0.522
1126.500	636.579	80.011	19.994	100.346	20.120	1.195	0.503
1127.000	636.839	80.009	19.995	100.343	20.123	1.029	0.473
1127.500	637.122	80.009	19.994	100.338	20.122	1.088	0.504
1128.000	637.361	80.011	19.994	100.334	20.121	1.138	0.533
1128.500	637.568	80.010	19.994	100.333	20.120	1.188	0.484
1129.000	637.840	80.011	19.993	100.334	20.123	1.045	0.462
1129.500	638.133	80.012	19.994	100.333	20.118	1.301	0.522
1130.000	638.372	80.012	19.995	100.336	20.123	1.031	0.549
1130.500	638.634	80.010	19.995	100.335	20.120	1.216	0.517
1131.001	638.902	80.011	19.995	100.340	20.122	1.099	0.516
1131.501	639.116	80.012	19.995	100.345	20.120	1.194	0.506
1132.000	639.388	80.011	19.994	100.346	20.123	0.986	0.484
1132.500	639.661	80.010	19.995	100.348	20.119	1.240	0.516
1133.000	639.885	80.011	19.994	100.355	20.123	1.033	0.521
1133.500	640.181	80.013	19.993	100.356	20.120	1.176	0.508
1134.000	640.399	80.012	19.994	100.356	20.121	1.149	0.517
1134.500	640.658	80.012	19.995	100.356	20.121	1.136	0.496
1135.000	640.892	80.013	19.995	100.355	20.122	1.074	0.485
1135.500	641.136	80.013	19.995	100.348	20.121	1.147	0.486
1136.001	641.398	80.012	19.995	100.342	20.120	1.200	0.492
1136.501	641.660	80.012	19.995	100.341	20.120	1.221	0.515
1137.000	641.940	80.012	19.996	100.345	20.122	1.083	0.533
1137.500	642.192	80.012	19.995	100.348	20.123	1.035	0.537
1138.000	642.424	80.011	19.995	100.355	20.123	1.029	0.508
1138.500	642.685	80.012	19.994	100.360	20.119	1.275	0.489
1139.000	642.962	80.012	19.994	100.362	20.120	1.218	0.515
1139.500	643.176	80.011	19.995	100.361	20.120	1.213	0.514
1140.000	643.449	80.011	19.994	100.361	20.120	1.228	0.489
1140.500	643.710	80.012	19.994	100.360	20.119	1.291	0.511
1141.000	643.933	80.010	19.995	100.361	20.121	1.149	0.509
1141.500	644.198	80.010	19.995	100.363	20.121	1.159	0.486
1142.001	644.417	80.010	19.994	100.364	20.121	1.161	0.486
1142.501	644.702	80.009	19.995	100.362	20.119	1.277	0.495
1143.000	644.937	80.010	19.994	100.359	20.120	1.230	0.512
1143.500	645.235	80.010	19.995	100.357	20.116	1.476	0.526
1144.000	645.472	80.009	19.995	100.354	20.118	1.308	0.534
1144.501	645.696	80.010	19.995	100.353	20.117	1.417	0.498
1145.001	645.957	80.010	19.995	100.354	20.115	1.541	0.473
1145.501	646.218	80.008	19.994	100.350	20.120	1.204	0.503
1146.001	646.471	80.008	19.995	100.347	20.116	1.441	0.518
1146.500	646.746	80.009	19.995	100.348	20.118	1.322	0.522
1147.000	647.000	80.010	19.995	100.349	20.120	1.183	0.529
1147.500	647.218	80.008	19.995	100.351	20.120	1.213	0.500
1148.000	647.470	80.009	19.996	100.358	20.119	1.242	0.471
1148.500	647.775	80.009	19.994	100.365	20.118	1.339	0.514
1149.000	648.003	80.010	19.994	100.366	20.119	1.292	0.545
1149.500	648.263	80.009	19.995	100.366	20.116	1.434	0.510
1150.000	648.497	80.010	19.995	100.366	20.117	1.420	0.491
1150.500	648.783	80.010	19.994	100.367	20.116	1.488	0.507
1151.000	648.999	80.010	19.994	100.365	20.116	1.486	0.511
1151.500	649.305	80.011	19.994	100.363	20.118	1.361	0.512
1152.000	649.537	80.010	19.995	100.357	20.116	1.450	0.531
1152.500	649.798	80.010	19.995	100.356	20.115	1.505	0.516
1153.001	650.036	80.010	19.994	100.357	20.114	1.618	0.496
1153.501	650.280	80.009	19.994	100.365	20.116	1.450	0.490
1154.001	650.586	80.010	19.995	100.361	20.117	1.417	0.516
1154.501	650.814	80.010	19.995	100.362	20.114	1.593	0.542
1155.000	651.086	80.010	19.994	100.362	20.118	1.334	0.517
1155.500	651.335	80.010	19.994	100.361	20.118	1.358	0.511
1156.000	651.571	80.009	19.995	100.352	20.113	1.668	0.503
1156.500	651.877	80.011	19.995	100.357	20.116	1.464	0.513
1157.000	652.083	80.009	19.994	100.361	20.115	1.536	0.526
1157.500	652.345	80.010	19.995	100.361	20.117	1.375	0.490
1158.000	652.630	80.009	19.994	100.362	20.114	1.595	0.508
1158.500	652.848	80.009	19.995	100.363	20.114	1.618	0.525
1159.000	653.109	80.009	19.995	100.364	20.114	1.605	0.491
1159.500	653.391	80.010	19.994	100.364	20.113	1.626	0.511
1160.001	653.660	80.009	19.995	100.365	20.118	1.346	0.547
1160.501	653.927	80.009	19.994	100.365	20.114	1.569	0.543
1161.000	654.129	80.010	19.994	100.365	20.116	1.469	0.502
1161.500	654.412	80.011	19.995	100.365	20.114	1.557	0.477
1162.000	654.704	80.011	19.996	100.366	20.115	1.545	0.530
1162.500	654.936	80.010	19.995	100.365	20.113	1.633	0.550
1163.000	655.204	80.009	19.994	100.365	20.115	1.545	0.512
1163.500	655.420	80.010	19.995	100.365	20.111	1.772	0.492
1164.000	655.664	80.010	19.995	100.365	20.113	1.619	0.472
1164.500	655.942	80.010	19.995	100.366	20.117	1.424	0.491
1165.000	656.185	80.010	19.994	100.368	20.115	1.519	0.522
1165.500	656.470	80.009	19.995	100.368	20.113	1.664	0.525
1166.001	656.734	80.010	19.996	100.368	20.115	1.538	0.539
1166.501	656.984	80.010	19.995	100.368	20.115	1.529	0.532
1167.000	657.230	80.010	19.995	100.367	20.116	1.459	0.505
1167.500	657.478	80.010	19.996	100.366	20.115	1.493	0.495
1168.000	657.718	80.011	19.995	100.365	20.115	1.495	0.490
1168.500	657.982	80.009	19.995	100.366	20.113	1.630	0.495
1169.000	658.223	80.012	19.995	100.365	20.116	1.443	0.504
1169.500	658.505	80.008	19.995	100.365	20.115	1.552	0.514
1170.000	658.739	80.012	19.995	100.365	20.113	1.675	0.520
1170.500	658.996	80.009	19.995	100.365	20.111	1.761	0.504
1171.000	659.223	80.010	19.995	100.365	20.115	1.535	0.487
1171.500	659.471	80.010	19.995	100.365	20.113	1.658	0.480
1172.000	659.750	80.010	19.995	100.366	20.115	1.495	0.501
1172.501	659.973	80.008	19.995	100.366	20.114	1.618	0.514
1173.001	660.229	80.009	19.995	100.367	20.113	1.661	0.490
1173.501	660.497	80.009	19.996	100.367	20.111	1.753	0.502
1174.001	660.773	80.008	19.995	100.366	20.113	1.680	0.534
1174.500	661.012	80.009	19.995	100.366	20.112	1.697	0.530
1175.000	661.252	80.008	19.996	100.367	20.114	1.593	0.497
1175.500	661.527	80.009	19.996	100.366	20.113	1.680	0.497
1176.000	661.769	80.010	19.996	100.366	20.110	1.822	0.516
1176.500	662.020	80.008	19.996	100.368	20.111	1.796	0.505
1177.000	662.250	80.008	19.995	100.372	20.112	1.694	0.487
1177.501	662.508	80.008	19.996	100.374	20.112	1.730	0.485
1178.001	662.793	80.009	19.996	100.375	20.111	1.767	0.516
1178.500	663.035	80.008	19.996	100.377	20.111	1.782	0.535
1179.000	663.281	80.007	19.996	100.381	20.112	1.715	0.507
1179.500	663.515	80.008	19.996	100.379	20.111	1.756	0.484
1180.000	663.762	80.007	19.996	100.377	20.111	1.772	0.481
1180.500	664.032	80.009	19.995	100.378	20.114	1.597	0.499
1181.000	664.290	80.007	19.997	100.378	20.112	1.706	0.523
1181.500	664.495	80.009	19.996	100.374	20.114	1.608	0.496
1182.000	664.765	80.008	19.996	100.374	20.115	1.551	0.469
1182.500	664.989	80.008	19.995	100.380	20.115	1.518	0.484
1183.000	665.263	80.008	19.996	100.384	20.114	1.588	0.496
1183.500	665.523	80.008	19.996	100.382	20.111	1.761	0.516
1184.000	665.666	80.007	19.996	100.384	20.112	1.730	0.468
1184.500	665.956	80.009	19.996	100.385	20.112	1.696	0.418
1185.000	666.255	80.009	19.995	100.381	20.113	1.634	0.511
1185.500	666.523	80.009	19.995	100.377	20.112	1.682	0.578
1186.001	666.754	80.008	19.996	100.376	20.115	1.506	0.533
1186.501	667.026	80.010	19.996	100.375	20.114	1.561	0.501
1187.000	667.298	80.009	19.995	100.375	20.114	1.556	0.523
1187.500	667.505	80.010	19.996	100.376	20.113	1.658	0.511
1188.000	667.786	80.010	19.995	100.376	20.114	1.595	0.484
1188.501	668.017	80.009	19.995	100.378	20.111	1.798	0.500
1189.001	668.296	80.009	19.996	100.378	20.113	1.667	0.511
1189.501	668.513	80.010	19.996	100.378	20.113	1.675	0.503
1190.000	668.771	80.011	19.995	100.377	20.112	1.720	0.486
1190.500	668.994	80.010	19.995	100.383	20.113	1.635	0.478
1191.001	669.300	80.011	19.995	100.389	20.109	1.897	0.505
1191.501	669.537	80.010	19.995	100.396	20.112	1.743	0.536
1192.001	669.811	80.011	19.995	100.399	20.109	1.912	0.527
1192.500	670.067	80.010	19.995	100.405	20.107	2.014	0.520
1193.000	670.328	80.011	19.996	100.401	20.113	1.670	0.524
1193.500	670.598	80.011	19.996	100.389	20.109	1.892	0.524
1194.000	670.818	80.011	19.996	100.381	20.110	1.847	0.510
1194.500	671.092	80.011	19.996	100.380	20.108	1.964	0.492
1195.000	671.366	80.010	19.996	100.385	20.109	1.907	0.521
1195.500	671.577	80.010	19.995	100.389	20.110	1.850	0.517
1196.000	671.909	80.010	19.995	100.401	20.109	1.897	0.514
1196.500	672.147	80.009	19.995	100.411	20.110	1.850	0.557
1197.000	672.385	80.011	19.996	100.406	20.106	2.094	0.523
1197.500	672.632	80.010	19.996	100.397	20.109	1.907	0.480
1198.000	672.894	80.010	19.995	100.395	20.109	1.909	0.497
1198.500	673.159	80.009	19.994	100.394	20.109	1.923	0.518
1199.000	673.414	80.010	19.996	100.392	20.107	2.002	0.523
1199.500	673.701	80.010	19.995	100.399	20.107	2.053	0.531
1200.000	674.019	80.009	19.996	100.404	20.107	2.011	0.573
1200.500	674.264	80.008	19.996	100.405	20.109	1.914	0.584
1201.000	674.474	80.009	19.996	100.405	20.109	1.912	0.509
1201.500	674.768	80.009	19.996	100.405	20.111	1.788	0.480
1202.000	675.046	80.008	19.996	100.404	20.110	1.854	0.538
1202.500	675.260	80.009	19.997	100.404	20.110	1.859	0.532
1203.000	675.535	80.009	19.997	100.404	20.106	2.070	0.490
1203.500	675.797	80.010	19.996	100.404	20.107	2.021	0.513
1204.001	676.066	80.009	19.997	100.403	20.104	2.189	0.534
1204.501	676.323	80.008	19.997	100.403	20.104	2.227	0.529
1205.000	676.593	80.009	19.996	100.403	20.106	2.077	0.527
1205.501	676.853	80.010	19.996	100.403	20.106	2.099	0.529
1206.001	677.113	80.009	19.996	100.403	20.109	1.926	0.525
1206.500	677.376	80.010	19.996	100.404	20.107	2.027	0.521
1207.001	677.605	80.007	19.996	100.404	20.106	2.089	0.507
1207.501	677.895	80.009	19.995	100.404	20.107	2.028	0.506
1208.000	678.178	80.008	19.996	100.404	20.109	1.906	0.546
1208.500	678.434	80.008	19.997	100.404	20.105	2.165	0.556
1209.000	678.702	80.007	19.996	100.404	20.107	2.001	0.531
1209.500	678.957	80.009	19.996	100.404	20.107	2.029	0.524
1210.000	679.222	80.009	19.996	100.405	20.110	1.811	0.522
1210.500	679.445	80.010	19.996	100.405	20.107	2.032	0.504
1211.001	679.689	80.010	19.995	100.406	20.107	2.032	0.477
1211.501	679.968	80.009	19.995	100.408	20.109	1.934	0.495
1212.001	680.230	80.009	19.996	100.409	20.107	2.003	0.532
1212.501	680.474	80.008	19.996	100.408	20.106	2.072	0.523
1213.000	680.729	80.009	19.995	100.409	20.109	1.878	0.503
1213.500	680.998	80.009	19.996	100.409	20.109	1.908	0.512
1214.000	681.249	80.011	19.996	100.408	20.109	1.925	0.522
1214.500	681.506	80.010	19.994	100.409	20.111	1.804	0.514
1215.000	681.777	80.010	19.995	100.409	20.109	1.873	0.517
1215.500	682.027	80.011	19.995	100.408	20.109	1.901	0.525
1216.000	682.248	80.012	19.995	100.409	20.105	2.135	0.497
1216.501	682.503	80.011	19.994	100.410	20.109	1.911	0.474
1217.001	682.757	80.012	19.994	100.410	20.109	1.884	0.492
1217.500	683.023	80.011	19.995	100.410	20.108	1.958	0.514
1218.000	683.250	80.010	19.994	100.411	20.109	1.930	0.506
1218.500	683.486	80.013	19.994	100.411	20.110	1.826	0.477
1219.001	683.749	80.012	19.995	100.413	20.110	1.825	0.481
1219.501	684.002	80.012	19.995	100.417	20.111	1.766	0.508
1220.001	684.258	80.012	19.994	100.424	20.109	1.880	0.512
1220.501	684.514	80.013	19.994	100.429	20.110	1.823	0.510
1221.000	684.740	80.012	19.994	100.433	20.109	1.915	0.497
1221.500	685.012	80.011	19.994	100.434	20.110	1.871	0.490
1222.000	685.202	80.012	19.995	100.435	20.105	2.164	0.480
1222.500	685.444	80.011	19.995	100.435	20.107	2.003	0.447
1223.000	685.711	80.011	19.995	100.435	20.108	1.998	0.471
1223.500	685.934	80.010	19.996	100.435	20.107	2.001	0.500
1224.001	686.221	80.010	19.994	100.431	20.107	2.046	0.501
1224.501	686.430	80.011	19.995	100.426	20.107	2.026	0.503
1225.000	686.693	80.010	19.994	100.425	20.105	2.142	0.484
1225.500	686.981	80.010	19.995	100.426	20.106	2.119	0.511
1226.000	687.196	80.011	19.995	100.428	20.105	2.157	0.527
1226.500	687.438	80.010	19.995	100.434	20.105	2.147	0.480
1227.000	687.670	80.010	19.995	100.439	20.107	2.022	0.466
1227.500	687.919	80.011	19.995	100.441	20.104	2.253	0.478
1228.001	688.197	80.009	19.996	100.440	20.105	2.145	0.504
1228.501	688.404	80.011	19.995	100.439	20.105	2.182	0.506
1229.001	688.669	80.008	19.995	100.436	20.103	2.298	0.478
1229.501	688.874	80.008	19.995	100.435	20.102	2.353	0.471
1230.001	689.106	80.010	19.995	100.435	20.102	2.341	0.454
1230.500	689.415	80.009	19.995	100.436	20.103	2.267	0.489
1231.000	689.639	80.009	19.995	100.434	20.104	2.244	0.537
1231.500	689.908	80.009	19.995	100.437	20.101	2.403	0.513
1232.000	690.119	80.009	19.995	100.436	20.100	2.504	0.486
1232.500	690.389	80.008	19.996	100.435	20.101	2.393	0.481
1233.000	690.620	80.009	19.995	100.435	20.100	2.473	0.491
1233.500	690.886	80.010	19.995	100.439	20.100	2.476	0.499
1234.000	691.081	80.009	19.995	100.438	20.100	2.490	0.479
1234.500	691.317	80.009	19.996	100.440	20.104	2.218	0.446
1235.000	691.593	80.010	19.995	100.440	20.100	2.497	0.472
1235.500	691.824	80.010	19.995	100.440	20.101	2.428	0.510
1236.000	692.076	80.009	19.995	100.440	20.098	2.575	0.495
1236.500	692.306	80.009	19.995	100.441	20.098	2.592	0.483
1237.000	692.581	80.010	19.995	100.442	20.101	2.421	0.493
1237.500	692.770	80.009	19.995	100.444	20.099	2.558	0.484
1238.000	693.065	80.010	19.994	100.447	20.099	2.532	0.474
1238.500	693.311	80.011	19.994	100.449	20.099	2.542	0.513
1239.000	693.567	80.010	19.995	100.450	20.100	2.459	0.522
1239.500	693.820	80.009	19.995	100.452	20.101	2.419	0.506
1240.000	694.066	80.009	19.995	100.452	20.102	2.366	0.504
1240.500	694.334	80.010	19.996	100.453	20.100	2.487	0.507
1241.000	694.589	80.010	19.995	100.454	20.100	2.504	0.518
1241.500	694.789	80.010	19.995	100.455	20.097	2.639	0.489
1242.000	695.031	80.010	19.995	100.455	20.099	2.568	0.448
1242.500	695.272	80.010	19.995	100.458	20.102	2.369	0.463
1243.000	695.575	80.009	19.996	100.460	20.102	2.373	0.513
1243.500	695.781	80.009	19.994	100.461	20.100	2.472	0.526
1244.001	696.062	80.009	19.996	100.463	20.100	2.508	0.498
1244.501	696.321	80.009	19.995	100.467	20.100	2.471	0.514
1245.000	696.578	80.009	19.996	100.466	20.099	2.523	0.528
1245.500	696.835	80.011	19.995	100.466	20.097	2.672	0.515
1246.000	697.053	80.009	19.995	100.467	20.099	2.540	0.495
1246.501	697.324	80.010	19.995	100.465	20.099	2.547	0.482
1247.001	697.553	80.010	19.995	100.461	20.096	2.755	0.495
1247.500	697.826	80.010	19.995	100.462	20.099	2.541	0.501
1248.000	698.069	80.009	19.996	100.462	20.098	2.572	0.509
1248.500	698.333	80.010	19.994	100.465	20.097	2.683	0.511
1249.000	698.558	80.009	19.994	100.469	20.096	2.723	0.498
1249.500	698.808	80.009	19.995	100.475	20.096	2.705	0.482
1250.000	699.043	80.009	19.995	100.477	20.096	2.702	0.480
1250.500	699.273	80.010	19.996	100.472	20.100	2.477	0.475
1251.000	699.574	80.010	19.995	100.465	20.098	2.609	0.498
1251.500	699.821	80.009	19.995	100.465	20.100	2.499	0.539
1252.000	700.099	80.009	19.995	100.466	20.098	2.608	0.536
1252.500	700.329	80.010	19.995	100.467	20.096	2.752	0.517
1253.000	700.564	80.009	19.995	100.475	20.095	2.764	0.487
1253.500	700.858	80.010	19.995	100.486	20.093	2.911	0.497
1254.000	701.082	80.009	19.995	100.484	20.094	2.858	0.524
1254.500	701.333	80.010	19.997	100.480	20.096	2.723	0.496
1255.000	701.570	80.009	19.995	100.475	20.093	2.906	0.482
1255.500	701.833	80.008	19.995	100.472	20.096	2.745	0.494
1256.000	702.078	80.009	19.994	100.465	20.094	2.853	0.504
1256.501	702.358	80.010	19.996	100.464	20.095	2.794	0.516
1257.001	702.539	80.009	19.995	100.466	20.096	2.721	0.493
1257.500	702.828	80.009	19.995	100.471	20.094	2.884	0.466
1258.000	703.076	80.008	19.996	100.474	20.096	2.707	0.503
1258.500	703.361	80.008	19.995	100.478	20.095	2.783	0.535
1259.000	703.598	80.010	19.997	100.482	20.096	2.759	0.528
1259.500	703.858	80.009	19.995	100.484	20.095	2.811	0.509
1260.000	704.073	80.007	19.995	100.484	20.095	2.794	0.486
1260.500	704.312	80.010	19.995	100.485	20.094	2.841	0.465
1261.000	704.552	80.007	19.994	100.486	20.095	2.822	0.467
1261.500	704.842	80.009	19.995	100.486	20.096	2.723	0.504
1262.000	705.032	80.008	19.995	100.487	20.095	2.796	0.505
1262.501	705.288	80.009	19.995	100.486	20.097	2.666	0.463
1263.001	705.535	80.008	19.994	100.485	20.096	2.725	0.475
1263.500	705.800	80.007	19.995	100.483	20.095	2.820	0.507
1264.000	706.019	80.008	19.994	100.483	20.097	2.682	0.498
1264.500	706.313	80.009	19.994	100.482	20.093	2.937	0.499
1265.001	706.539	80.008	19.996	100.482	20.093	2.930	0.516
1265.501	706.796	80.008	19.995	100.482	20.093	2.932	0.501
1266.001	707.062	80.008	19.995	100.483	20.094	2.857	0.503
1266.500	707.248	80.009	19.996	100.483	20.093	2.892	0.488
1267.000	707.511	80.009	19.994	100.483	20.094	2.883	0.450
1267.500	707.762	80.008	19.995	100.483	20.091	3.032	0.481
1268.000	707.997	80.008	19.995	100.483	20.093	2.892	0.500
1268.500	708.245	80.009	19.996	100.483	20.089	3.190	0.485
1269.000	708.458	80.008	19.996	100.483	20.094	2.862	0.472
1269.501	708.730	80.009	19.996	100.484	20.091	3.032	0.473
1270.001	708.996	80.008	19.996	100.484	20.090	3.112	0.512
1270.500	709.226	80.009	19.995	100.484	20.090	3.115	0.517
1271.000	709.475	80.009	19.996	100.485	20.093	2.951	0.487
1271.500	709.679	80.009	19.995	100.485	20.093	2.916	0.466
1272.000	709.972	80.011	19.995	100.486	20.091	3.074	0.475
1272.500	710.236	80.009	19.995	100.486	20.092	2.977	0.527
1273.000	710.464	80.011	19.996	100.489	20.093	2.944	0.525
1273.500	710.750	80.011	19.995	100.494	20.091	3.031	0.503
1274.000	710.959	80.010	19.995	100.498	20.088	3.256	0.505
1274.500	711.254	80.010	19.995	100.503	20.095	2.805	0.499
1275.001	711.421	80.011	19.995	100.508	20.089	3.190	0.483
1275.501	711.720	80.009	19.995	100.514	20.087	3.284	0.464
1276.000	711.977	80.011	19.995	100.515	20.092	2.977	0.511
1276.500	712.183	80.010	19.995	100.518	20.090	3.107	0.509
1277.000	712.506	80.010	19.995	100.520	20.094	2.831	0.496
1277.500	712.691	80.009	19.995	100.522	20.092	2.996	0.519
1278.000	712.966	80.010	19.995	100.522	20.091	3.055	0.484
1278.501	713.183	80.009	19.995	100.522	20.091	3.037	0.476
1279.001	713.436	80.008	19.995	100.523	20.093	2.926	0.481
1279.501	713.710	80.010	19.994	100.523	20.090	3.098	0.499
1280.000	713.963	80.009	19.995	100.523	20.091	3.065	0.527
1280.500	714.212	80.009	19.995	100.521	20.092	3.003	0.514
1281.000	714.445	80.008	19.995	100.520	20.089	3.186	0.492
1281.500	714.765	80.009	19.994	100.520	20.090	3.122	0.518
1282.000	714.988	80.008	19.995	100.520	20.090	3.081	0.548
1282.500	715.243	80.009	19.995	100.521	20.089	3.207	0.510
1283.001	715.531	80.009	19.995	100.523	20.088	3.216	0.510
1283.501	715.715	80.010	19.995	100.523	20.086	3.337	0.507
1284.000	716.021	80.009	19.995	100.523	20.087	3.310	0.481
1284.500	716.329	80.009	19.994	100.523	20.088	3.225	0.552
1285.000	716.579	80.008	19.995	100.523	20.090	3.085	0.586
1285.501	716.841	80.009	19.995	100.524	20.093	2.927	0.535
1286.001	717.058	80.009	19.995	100.524	20.089	3.152	0.496
1286.500	717.316	80.008	19.995	100.524	20.088	3.253	0.477
1287.000	717.591	80.009	19.995	100.523	20.085	3.408	0.504
1287.500	717.863	80.010	19.996	100.523	20.087	3.275	0.540
1288.000	718.059	80.009	19.995	100.520	20.087	3.301	0.508
1288.500	718.294	80.009	19.996	100.519	20.086	3.367	0.450
1289.000	718.626	80.009	19.997	100.519	20.085	3.412	0.499
1289.500	718.820	80.009	19.995	100.518	20.090	3.103	0.546
1290.000	719.117	80.010	19.995	100.518	20.089	3.204	0.508
1290.501	719.399	80.009	19.994	100.520	20.086	3.393	0.535
1291.001	719.616	80.008	19.996	100.520	20.086	3.381	0.539
1291.501	719.876	80.009	19.996	100.520	20.087	3.280	0.488
1292.000	720.179	80.010	19.996	100.520	20.089	3.161	0.520
1292.500	720.449	80.009	19.996	100.523	20.089	3.192	0.568
1293.000	720.663	80.009	19.996	100.524	20.089	3.208	0.529
1293.500	720.941	80.009	19.995	100.528	20.085	3.400	0.488
1294.000	721.162	80.009	19.995	100.529	20.087	3.300	0.495
1294.500	721.467	80.009	19.995	100.531	20.090	3.132	0.512
1295.000	721.717	80.011	19.996	100.533	20.088	3.248	0.541
1295.500	722.036	80.009	19.996	100.535	20.085	3.437	0.562
1296.000	722.193	80.009	19.995	100.532	20.087	3.307	0.522
1296.500	722.586	80.010	19.996	100.536	20.089	3.196	0.512
1297.000	722.769	80.011	19.995	100.535	20.087	3.279	0.563
1297.501	722.995	80.009	19.996	100.531	20.088	3.233	0.492
1298.001	723.256	80.009	19.995	100.528	20.086	3.348	0.448
1298.500	723.598	80.011	19.994	100.528	20.085	3.445	0.545
1299.000	723.792	80.009	19.995	100.524	20.087	3.332	0.570
1299.500	724.159	80.010	19.995	100.522	20.086	3.393	0.548
1300.000	724.372	80.009	19.996	100.524	20.084	3.485	0.570
1300.501	724.646	80.010	19.995	100.525	20.080	3.735	0.534
1301.001	724.835	80.012	19.995	100.524	20.086	3.399	0.476
1301.500	725.201	80.011	19.996	100.528	20.064	4.742	0.509
1302.000	725.362	80.010	19.995	100.533	20.083	3.581	0.541
1302.500	725.698	80.009	19.996	100.535	20.087	3.298	0.512
1303.000	725.895	80.010	19.995	100.537	20.069	4.426	0.515
1303.500	726.088	80.011	19.996	100.539	20.070	4.374	0.461
1304.000	726.522	80.010	19.996	100.541	20.098	2.582	0.509
1304.500	726.727	80.011	19.995	100.541	20.106	2.093	0.633
1305.001	726.920	80.010	19.996	100.540	20.069	4.474	0.518
1305.501	727.256	80.010	19.996	100.543	20.092	3.015	0.463
1306.000	727.569	80.009	19.996	100.546	20.090	3.124	0.589
1306.500	727.743	80.010	19.996	100.544	20.080	3.754	0.568
1307.000	728.134	80.010	19.996	100.540	20.081	3.679	0.526
1307.500	728.226	80.011	19.996	100.539	20.088	3.261	0.524
1308.000	728.663	80.011	19.995	100.535	20.079	3.813	0.506
1308.500	728.934	80.010	19.996	100.530	20.084	3.502	0.619
1309.000	729.082	80.009	19.997	100.527	20.079	3.795	0.563
1309.501	729.422	80.008	19.995	100.530	20.084	3.523	0.453
1310.001	729.660	80.008	19.996	100.535	20.078	3.873	0.533
1310.500	730.048	80.009	19.995	100.541	20.087	3.320	0.602
1311.000	730.090	80.009	19.996	100.547	20.082	3.646	0.528
1311.500	730.647	80.009	19.996	100.550	20.083	3.568	0.515
1312.001	730.763	80.010	19.995	100.548	20.084	3.467	0.635
1312.501	730.819	80.009	19.995	100.547	20.080	3.734	0.423
1313.000	731.185	80.009	19.995	100.544	20.082	3.592	0.297
1313.500	731.785	80.009	19.995	100.539	20.080	3.743	0.694
1314.000	731.546	80.009	19.994	100.536	20.081	3.670	0.663
1314.501	731.982	80.009	19.994	100.534	20.082	3.647	0.278
1315.001	732.284	80.010	19.994	100.532	20.080	3.772	0.467
1315.500	732.933	80.007	19.994	100.529	20.082	3.625	0.845
1316.001	733.768	80.010	19.994	100.532	20.080	3.729	1.218
1316.501	732.321	80.007	19.995	100.533	20.077	3.926	0.436
1317.000	732.847	80.011	19.993	100.537	20.083	3.580	-0.767
1317.500	733.001	80.012	19.994	100.537	20.082	3.625	-0.121
1318.000	733.386	80.006	19.995	100.537	20.081	3.661	0.610
1318.500	734.846	80.011	19.994	100.539	20.085	3.425	1.192
1319.001	734.356	80.011	19.994	100.541	20.085	3.436	1.407
1319.501	734.892	80.007	19.996	100.539	20.084	3.494	0.508
1320.000	734.952	80.009	19.995	100.538	20.082	3.595	0.321
1320.500	735.327	80.010	19.995	100.537	20.081	3.657	0.515
1321.001	735.390	80.009	19.995	100.532	20.080	3.726	0.436
1321.501	735.600	80.009	19.995	100.531	20.083	3.574	0.356
1322.000	736.190	80.009	19.995	100.532	20.080	3.719	0.537
1322.500	736.203	80.009	19.995	100.529	20.079	3.781	0.701
1323.000	736.423	80.008	19.995	100.528	20.082	3.617	0.418
1323.501	736.902	80.011	19.994	100.527	20.081	3.656	0.466
1324.001	737.038	80.009	19.995	100.525	20.081	3.651	0.657
1324.501	737.232	80.007	19.995	100.523	20.082	3.616	0.473
1325.001	737.523	80.009	19.995	100.522	20.080	3.750	0.408
1325.501	737.956	80.009	19.995	100.522	20.083	3.545	0.604
1326.001	738.140	80.008	19.994	100.522	20.082	3.592	0.670
1326.501	738.232	80.010	19.995	100.523	20.082	3.607	0.447
1327.001	738.642	80.009	19.995	100.523	20.085	3.455	0.389
1327.500	738.928	80.009	19.995	100.523	20.084	3.520	0.599
1328.000	739.103	80.009	19.995	100.523	20.084	3.463	0.578
1328.500	739.334	80.009	19.995	100.521	20.082	3.589	0.433
1329.000	739.707	80.009	19.995	100.519	20.086	3.373	0.506
1329.500	739.873	80.009	19.994	100.517	20.085	3.440	0.571
1330.000	740.126	80.009	19.995	100.517	20.085	3.421	0.478
1330.500	740.431	80.008	19.995	100.512	20.085	3.417	0.488
1331.000	740.663	80.009	19.994	100.509	20.084	3.458	0.548
1331.500	740.876	80.008	19.995	100.505	20.083	3.536	0.491
1332.000	741.205	80.009	19.995	100.504	20.083	3.562	0.493
1332.500	741.519	80.008	19.995	100.498	20.083	3.575	0.592
1333.000	741.714	80.009	19.994	100.496	20.084	3.484	0.576
1333.500	741.902	80.009	19.995	100.494	20.085	3.404	0.446
1334.000	742.215	80.008	19.995	100.492	20.086	3.348	0.442
1334.500	742.393	80.008	19.995	100.488	20.089	3.180	0.496
1335.000	742.701	80.008	19.995	100.484	20.090	3.113	0.488
1335.500	742.969	80.008	19.996	100.478	20.086	3.343	0.530
1336.000	743.179	80.009	19.995	100.476	20.087	3.285	0.527
1336.500	743.397	80.010	19.995	100.473	20.089	3.154	0.453
