Sample ID:	C:\MCC\MCC Cal\Test\Asphalt_Shingle\Asphalt_Shingle_MCC_30K_min_210928_R3.txt
Sample Weight (mg):	4.13
Heating Rate (C/s):	0.5
Combustor Temp (C):	900
N2 Flow Rate (cc/min):	80
O2 Flow Rate (cc/min):	20
Calibration File:	C:\MCC\MCC Cal\Coeff1 JN10440_30_210304.txt.txt
T Correction Coefficients:	0	1.024463	0
Time Shift (s):	14
*
Time (s)	Temperature (C)	N2 flow rate (cc/min)	O2 flow rate (cc/min)	Flow Rate (cc/min)	Oxygen (%)	HRR (W/g)	Heating rate (C/s)
0.000	110.318	80.012	19.994	100.245	20.241	0.012	0.006
0.500	110.316	80.009	19.994	100.242	20.241	-0.004	0.015
1.000	110.315	80.010	19.995	100.240	20.238	0.211	0.005
1.500	110.277	80.010	19.996	100.240	20.239	0.145	-0.021
2.000	110.332	80.010	19.995	100.242	20.238	0.275	-0.011
2.500	110.282	80.010	19.995	100.243	20.239	0.198	0.011
3.000	110.287	80.008	19.995	100.246	20.240	0.122	-0.020
3.500	110.295	80.011	19.995	100.247	20.240	0.099	-0.016
4.000	110.297	80.010	19.995	100.246	20.238	0.258	0.012
4.500	110.288	80.012	19.995	100.242	20.239	0.174	0.001
5.000	110.328	80.011	19.995	100.243	20.241	0.037	0.011
5.500	110.311	80.011	19.996	100.243	20.240	0.076	0.027
6.000	110.264	80.008	19.996	100.244	20.239	0.205	-0.020
6.500	110.308	80.009	19.995	100.245	20.241	0.043	-0.034
7.000	110.306	80.008	19.995	100.249	20.240	0.064	0.019
7.500	110.308	80.010	19.994	100.248	20.238	0.211	0.021
8.000	110.318	80.011	19.994	100.247	20.240	0.112	0.006
8.500	110.277	80.008	19.995	100.246	20.236	0.385	-0.009
9.001	110.294	80.008	19.995	100.244	20.238	0.273	-0.027
9.501	110.310	80.010	19.995	100.241	20.237	0.350	0.005
10.000	110.327	80.009	19.995	100.241	20.238	0.257	0.033
10.500	110.288	80.011	19.995	100.242	20.238	0.257	0.005
11.001	110.287	80.012	19.995	100.243	20.236	0.401	-0.031
11.501	110.263	80.011	19.995	100.245	20.238	0.255	-0.032
12.001	110.256	80.009	19.995	100.248	20.238	0.223	-0.028
12.501	110.242	80.009	19.995	100.248	20.234	0.515	-0.026
13.000	110.268	80.009	19.996	100.250	20.238	0.259	-0.005
13.501	110.274	80.010	19.995	100.256	20.231	0.753	0.022
14.001	110.272	80.011	19.995	100.263	20.237	0.313	0.018
14.500	110.276	80.009	19.996	100.271	20.236	0.426	0.003
15.000	110.263	80.008	19.995	100.278	20.235	0.468	-0.004
15.500	110.292	80.011	19.995	100.282	20.235	0.470	0.004
16.000	110.236	80.009	19.995	100.281	20.235	0.464	-0.005
16.500	110.288	80.011	19.996	100.281	20.234	0.586	-0.016
17.000	110.243	80.010	19.996	100.280	20.233	0.644	0.002
17.500	110.277	80.010	19.996	100.283	20.231	0.778	-0.002
18.000	110.264	80.008	19.994	100.293	20.232	0.685	0.005
18.500	110.255	80.006	19.996	100.303	20.227	1.099	-0.000
19.000	110.307	80.009	19.995	100.312	20.229	0.932	0.011
19.500	110.302	80.009	19.996	100.323	20.227	1.089	0.045
20.000	110.362	80.008	19.995	100.336	20.228	1.012	0.051
20.500	110.368	80.008	19.996	100.345	20.224	1.319	0.061
21.000	110.349	80.008	19.996	100.352	20.222	1.474	0.026
21.500	110.382	80.010	19.995	100.360	20.225	1.258	0.000
22.000	110.408	80.009	19.996	100.364	20.223	1.393	0.036
22.500	110.398	80.010	19.997	100.364	20.222	1.428	0.038
23.000	110.457	80.010	19.995	100.364	20.218	1.724	0.033
23.500	110.443	80.011	19.994	100.368	20.220	1.602	0.047
24.000	110.491	80.012	19.995	100.373	20.214	2.051	0.040
24.500	110.471	80.008	19.996	100.379	20.217	1.822	0.031
25.000	110.506	80.012	19.995	100.381	20.212	2.221	0.021
25.500	110.537	80.011	19.995	100.383	20.213	2.132	0.041
26.000	110.608	80.010	19.997	100.384	20.212	2.234	0.085
26.500	110.610	80.011	19.997	100.385	20.212	2.211	0.088
27.000	110.647	80.011	19.996	100.386	20.210	2.399	0.056
27.500	110.716	80.010	19.995	100.392	20.211	2.306	0.072
28.000	110.798	80.010	19.996	100.398	20.210	2.393	0.129
28.500	110.851	80.012	19.996	100.400	20.213	2.168	0.143
29.000	110.889	80.011	19.996	100.402	20.209	2.420	0.113
29.500	110.937	80.012	19.997	100.401	20.211	2.292	0.089
30.000	110.995	80.012	19.996	100.402	20.212	2.222	0.096
30.500	111.029	80.012	19.996	100.399	20.211	2.304	0.099
31.000	111.078	80.010	19.996	100.395	20.206	2.665	0.087
31.500	111.107	80.010	19.996	100.394	20.207	2.578	0.080
32.001	111.143	80.012	19.995	100.395	20.207	2.609	0.072
32.501	111.237	80.011	19.996	100.395	20.207	2.570	0.098
33.000	111.301	80.009	19.997	100.397	20.204	2.804	0.144
33.500	111.331	80.011	19.995	100.400	20.208	2.489	0.126
34.000	111.401	80.011	19.995	100.403	20.207	2.591	0.097
34.500	111.474	80.009	19.996	100.403	20.209	2.479	0.122
35.000	111.523	80.011	19.996	100.403	20.209	2.425	0.133
35.500	111.621	80.010	19.996	100.403	20.212	2.251	0.135
36.001	111.634	80.009	19.996	100.405	20.208	2.539	0.129
36.501	111.703	80.011	19.997	100.403	20.211	2.299	0.097
37.001	111.776	80.009	19.996	100.403	20.209	2.462	0.112
37.500	111.829	80.009	19.995	100.404	20.207	2.603	0.134
38.000	111.916	80.008	19.997	100.410	20.206	2.707	0.133
38.500	112.012	80.011	19.995	100.411	20.206	2.672	0.162
39.000	112.071	80.010	19.996	100.416	20.207	2.622	0.169
39.500	112.112	80.011	19.995	100.418	20.206	2.668	0.127
40.000	112.223	80.007	19.997	100.421	20.207	2.564	0.126
40.500	112.300	80.010	19.995	100.420	20.205	2.763	0.169
41.000	112.347	80.010	19.995	100.419	20.203	2.889	0.156
41.500	112.456	80.010	19.996	100.416	20.204	2.814	0.141
42.000	112.580	80.009	19.996	100.418	20.201	3.040	0.194
42.500	112.619	80.009	19.995	100.420	20.201	3.044	0.197
43.000	112.701	80.012	19.996	100.425	20.202	3.013	0.142
43.500	112.750	80.010	19.997	100.430	20.201	3.086	0.126
44.000	112.895	80.010	19.996	100.435	20.199	3.196	0.163
44.500	113.007	80.010	19.996	100.440	20.203	2.937	0.226
45.000	113.103	80.008	19.995	100.442	20.201	3.070	0.233
45.500	113.166	80.009	19.997	100.442	20.200	3.126	0.183
46.000	113.265	80.011	19.996	100.442	20.203	2.912	0.160
46.500	113.383	80.009	19.996	100.443	20.199	3.173	0.189
47.000	113.482	80.010	19.996	100.443	20.200	3.140	0.217
47.501	113.579	80.011	19.995	100.443	20.202	2.985	0.207
48.001	113.711	80.009	19.996	100.443	20.201	3.016	0.213
48.501	113.771	80.009	19.996	100.444	20.201	3.066	0.210
49.001	113.938	80.012	19.995	100.444	20.202	3.001	0.209
49.501	114.076	80.011	19.996	100.448	20.203	2.896	0.266
50.000	114.160	80.012	19.996	100.453	20.204	2.838	0.264
50.501	114.290	80.011	19.995	100.458	20.198	3.246	0.218
51.001	114.408	80.010	19.996	100.458	20.200	3.122	0.230
51.500	114.488	80.010	19.995	100.456	20.197	3.378	0.223
52.000	114.595	80.012	19.996	100.451	20.202	2.948	0.192
52.500	114.730	80.011	19.995	100.444	20.195	3.484	0.214
53.000	114.858	80.011	19.996	100.439	20.200	3.140	0.253
53.500	114.937	80.009	19.996	100.439	20.194	3.614	0.235
54.000	115.047	80.010	19.996	100.446	20.197	3.360	0.198
54.501	115.190	80.012	19.996	100.456	20.199	3.180	0.221
55.001	115.291	80.009	19.996	100.464	20.197	3.360	0.249
55.500	115.415	80.010	19.995	100.471	20.199	3.236	0.235
56.000	115.538	80.010	19.997	100.474	20.197	3.344	0.236
56.500	115.695	80.011	19.996	100.472	20.198	3.319	0.263
57.000	115.799	80.011	19.996	100.465	20.195	3.491	0.270
57.500	115.915	80.009	19.995	100.462	20.197	3.362	0.241
58.000	116.061	80.011	19.995	100.462	20.194	3.561	0.241
58.501	116.203	80.010	19.995	100.463	20.197	3.391	0.274
59.001	116.320	80.011	19.995	100.460	20.195	3.489	0.273
59.500	116.470	80.010	19.996	100.463	20.197	3.370	0.263
60.000	116.615	80.009	19.995	100.460	20.200	3.145	0.281
60.500	116.785	80.011	19.996	100.458	20.197	3.331	0.305
61.000	116.932	80.009	19.997	100.460	20.199	3.172	0.316
61.500	117.050	80.009	19.996	100.465	20.198	3.298	0.291
62.000	117.196	80.008	19.995	100.467	20.196	3.433	0.264
62.500	117.370	80.009	19.996	100.469	20.196	3.401	0.292
63.000	117.490	80.010	19.996	100.467	20.196	3.395	0.307
63.500	117.618	80.009	19.996	100.464	20.195	3.534	0.271
64.000	117.780	80.009	19.996	100.464	20.196	3.397	0.269
64.500	117.905	80.007	19.995	100.465	20.195	3.515	0.288
65.000	118.072	80.008	19.995	100.469	20.195	3.484	0.290
65.500	118.249	80.010	19.995	100.475	20.194	3.600	0.318
66.000	118.378	80.007	19.996	100.478	20.197	3.324	0.325
66.500	118.514	80.008	19.996	100.477	20.194	3.585	0.286
67.000	118.691	80.008	19.995	100.477	20.197	3.320	0.289
67.500	118.804	80.009	19.996	100.477	20.193	3.674	0.301
68.000	118.971	80.008	19.995	100.476	20.194	3.596	0.285
68.500	119.133	80.009	19.995	100.476	20.194	3.620	0.305
69.000	119.266	80.009	19.995	100.478	20.194	3.552	0.313
69.500	119.488	80.011	19.996	100.477	20.196	3.449	0.325
70.000	119.594	80.011	19.996	100.477	20.196	3.432	0.341
70.500	119.782	80.008	19.995	100.477	20.194	3.604	0.311
71.000	119.966	80.009	19.994	100.479	20.196	3.438	0.333
71.500	120.076	80.010	19.994	100.479	20.197	3.343	0.333
72.000	120.244	80.008	19.995	100.478	20.196	3.461	0.286
72.500	120.431	80.010	19.996	100.478	20.197	3.345	0.316
73.000	120.620	80.009	19.995	100.477	20.193	3.675	0.365
73.500	120.802	80.009	19.995	100.474	20.193	3.671	0.374
74.000	120.943	80.011	19.994	100.474	20.197	3.362	0.347
74.500	121.143	80.009	19.995	100.474	20.194	3.588	0.332
75.000	121.329	80.010	19.995	100.471	20.196	3.469	0.364
75.500	121.475	80.009	19.994	100.468	20.197	3.351	0.359
76.001	121.670	80.009	19.995	100.466	20.199	3.206	0.337
76.501	121.786	80.009	19.995	100.463	20.198	3.269	0.326
77.001	121.971	80.010	19.995	100.458	20.197	3.347	0.306
77.501	122.148	80.008	19.995	100.456	20.198	3.312	0.332
78.000	122.347	80.008	19.995	100.456	20.199	3.215	0.369
78.500	122.515	80.009	19.995	100.457	20.196	3.426	0.371
79.000	122.698	80.010	19.994	100.457	20.197	3.348	0.358
79.500	122.847	80.008	19.995	100.460	20.196	3.445	0.341
80.000	123.033	80.009	19.995	100.461	20.194	3.598	0.334
80.500	123.224	80.009	19.995	100.460	20.199	3.178	0.357
81.000	123.393	80.009	19.995	100.459	20.201	3.027	0.369
81.500	123.564	80.009	19.995	100.461	20.200	3.149	0.350
82.000	123.766	80.010	19.997	100.464	20.199	3.234	0.357
82.500	123.950	80.008	19.995	100.467	20.199	3.230	0.380
83.000	124.113	80.010	19.994	100.471	20.197	3.362	0.367
83.500	124.273	80.009	19.995	100.472	20.197	3.360	0.335
84.000	124.503	80.010	19.995	100.471	20.197	3.389	0.356
84.500	124.706	80.008	19.994	100.469	20.196	3.414	0.412
85.000	124.837	80.008	19.995	100.468	20.197	3.348	0.384
85.500	125.039	80.009	19.995	100.467	20.196	3.468	0.333
86.000	125.232	80.009	19.995	100.464	20.199	3.221	0.364
86.500	125.384	80.008	19.996	100.465	20.196	3.398	0.370
87.000	125.595	80.010	19.995	100.466	20.197	3.379	0.354
87.500	125.763	80.009	19.995	100.468	20.199	3.209	0.371
88.001	125.978	80.009	19.995	100.471	20.194	3.549	0.381
88.501	126.162	80.008	19.995	100.475	20.197	3.325	0.391
89.000	126.375	80.008	19.995	100.477	20.195	3.472	0.398
89.500	126.554	80.008	19.995	100.477	20.197	3.321	0.395
90.000	126.760	80.008	19.995	100.477	20.197	3.373	0.389
90.500	126.951	80.010	19.995	100.476	20.197	3.346	0.391
91.000	127.113	80.008	19.995	100.477	20.193	3.677	0.375
91.500	127.292	80.010	19.994	100.477	20.194	3.570	0.347
92.000	127.510	80.011	19.996	100.479	20.197	3.366	0.369
92.500	127.736	80.009	19.996	100.479	20.196	3.398	0.420
93.000	127.888	80.010	19.996	100.479	20.196	3.422	0.410
93.500	128.073	80.010	19.996	100.479	20.197	3.352	0.358
94.000	128.300	80.010	19.996	100.479	20.196	3.412	0.375
94.500	128.500	80.009	19.996	100.479	20.194	3.603	0.420
95.000	128.699	80.010	19.995	100.478	20.195	3.476	0.413
95.501	128.925	80.009	19.994	100.478	20.194	3.574	0.412
96.001	129.101	80.009	19.996	100.479	20.195	3.472	0.413
96.501	129.317	80.010	19.996	100.479	20.198	3.319	0.397
97.001	129.512	80.008	19.996	100.479	20.196	3.400	0.402
97.501	129.688	80.009	19.995	100.480	20.195	3.507	0.391
98.000	129.877	80.007	19.995	100.481	20.198	3.255	0.368
98.500	130.113	80.009	19.996	100.481	20.195	3.482	0.395
99.000	130.292	80.011	19.995	100.481	20.196	3.435	0.420
99.500	130.476	80.009	19.996	100.481	20.193	3.667	0.389
100.000	130.633	80.008	19.995	100.482	20.193	3.650	0.352
100.500	130.859	80.010	19.995	100.482	20.194	3.617	0.362
101.000	131.103	80.010	19.995	100.482	20.196	3.443	0.426
101.500	131.285	80.008	19.996	100.482	20.194	3.611	0.448
102.000	131.498	80.011	19.995	100.482	20.196	3.426	0.411
102.500	131.716	80.009	19.996	100.482	20.195	3.505	0.413
103.000	131.911	80.010	19.995	100.481	20.196	3.425	0.422
103.501	132.162	80.009	19.995	100.481	20.194	3.557	0.429
104.001	132.317	80.010	19.995	100.480	20.193	3.686	0.426
104.501	132.534	80.009	19.996	100.481	20.191	3.818	0.389
105.000	132.750	80.007	19.995	100.481	20.197	3.340	0.403
105.500	132.934	80.009	19.996	100.481	20.195	3.483	0.416
106.000	133.150	80.009	19.995	100.482	20.194	3.603	0.400
106.500	133.353	80.008	19.995	100.483	20.192	3.746	0.409
107.001	133.562	80.010	19.994	100.483	20.193	3.683	0.416
107.501	133.827	80.011	19.995	100.483	20.193	3.663	0.443
108.000	134.012	80.010	19.995	100.482	20.196	3.418	0.462
108.500	134.243	80.009	19.995	100.482	20.191	3.787	0.433
109.000	134.463	80.011	19.995	100.482	20.192	3.717	0.433
109.500	134.673	80.012	19.995	100.482	20.198	3.304	0.441
110.000	134.887	80.010	19.995	100.482	20.195	3.518	0.427
110.500	135.110	80.011	19.995	100.483	20.196	3.441	0.430
111.000	135.323	80.010	19.995	100.481	20.194	3.576	0.437
111.500	135.544	80.010	19.994	100.481	20.195	3.541	0.435
112.000	135.741	80.012	19.995	100.480	20.196	3.443	0.426
112.500	135.980	80.012	19.994	100.481	20.194	3.559	0.427
113.000	136.168	80.012	19.995	100.480	20.194	3.559	0.431
113.500	136.397	80.011	19.995	100.482	20.195	3.499	0.422
114.000	136.575	80.013	19.994	100.482	20.196	3.466	0.412
114.500	136.845	80.010	19.994	100.483	20.196	3.396	0.428
115.000	137.061	80.011	19.994	100.482	20.193	3.694	0.467
115.500	137.251	80.010	19.995	100.483	20.192	3.706	0.446
116.000	137.504	80.011	19.995	100.483	20.194	3.594	0.425
116.500	137.730	80.012	19.995	100.482	20.192	3.712	0.461
117.000	137.904	80.011	19.994	100.482	20.196	3.447	0.439
117.500	138.174	80.011	19.993	100.482	20.193	3.646	0.422
118.000	138.408	80.011	19.995	100.482	20.196	3.420	0.474
118.500	138.625	80.011	19.995	100.482	20.194	3.570	0.478
119.000	138.817	80.010	19.995	100.483	20.194	3.549	0.430
119.500	139.056	80.011	19.994	100.483	20.195	3.526	0.420
120.000	139.269	80.009	19.996	100.483	20.195	3.547	0.441
120.500	139.520	80.010	19.996	100.483	20.197	3.354	0.457
121.000	139.750	80.009	19.995	100.482	20.194	3.607	0.472
121.500	139.965	80.010	19.997	100.482	20.196	3.433	0.463
122.000	140.131	80.010	19.995	100.482	20.195	3.505	0.413
122.500	140.384	80.009	19.995	100.483	20.193	3.669	0.400
123.000	140.600	80.009	19.995	100.482	20.191	3.804	0.444
123.500	140.861	80.010	19.997	100.482	20.192	3.744	0.473
124.000	141.121	80.008	19.995	100.482	20.195	3.518	0.499
124.500	141.318	80.010	19.995	100.482	20.196	3.408	0.489
125.000	141.520	80.011	19.996	100.482	20.193	3.642	0.427
125.500	141.713	80.009	19.997	100.483	20.196	3.443	0.397
126.000	141.967	80.009	19.996	100.483	20.196	3.428	0.422
126.500	142.217	80.009	19.996	100.483	20.197	3.393	0.475
127.000	142.460	80.010	19.996	100.483	20.195	3.492	0.499
127.500	142.637	80.009	19.996	100.483	20.196	3.455	0.457
128.000	142.921	80.009	19.996	100.483	20.195	3.480	0.440
128.500	143.113	80.011	19.996	100.483	20.194	3.586	0.468
129.000	143.349	80.010	19.995	100.483	20.196	3.397	0.452
129.500	143.576	80.010	19.995	100.483	20.195	3.513	0.446
130.000	143.817	80.011	19.996	100.483	20.194	3.575	0.465
130.500	144.062	80.009	19.995	100.484	20.194	3.573	0.477
131.000	144.364	80.010	19.996	100.484	20.197	3.341	0.517
131.500	144.554	80.010	19.995	100.484	20.196	3.399	0.519
132.000	144.815	80.013	19.995	100.484	20.195	3.501	0.472
132.500	145.028	80.011	19.995	100.484	20.194	3.553	0.462
133.000	145.231	80.011	19.996	100.483	20.196	3.463	0.445
133.500	145.508	80.011	19.995	100.483	20.196	3.401	0.448
134.000	145.734	80.012	19.995	100.483	20.191	3.805	0.492
134.500	145.984	80.011	19.996	100.484	20.194	3.551	0.490
135.000	146.182	80.012	19.996	100.483	20.199	3.215	0.462
135.500	146.419	80.012	19.995	100.483	20.196	3.453	0.441
136.000	146.694	80.013	19.995	100.483	20.196	3.420	0.474
136.500	146.923	80.012	19.995	100.481	20.199	3.204	0.508
137.000	147.133	80.013	19.995	100.478	20.196	3.467	0.471
137.500	147.366	80.013	19.995	100.475	20.196	3.463	0.441
138.000	147.577	80.013	19.996	100.471	20.197	3.378	0.444
138.500	147.832	80.013	19.994	100.467	20.193	3.649	0.455
139.000	148.077	80.012	19.995	100.465	20.196	3.469	0.483
139.500	148.338	80.012	19.995	100.466	20.195	3.488	0.503
140.000	148.517	80.013	19.996	100.468	20.195	3.531	0.473
140.500	148.779	80.012	19.995	100.469	20.196	3.459	0.440
141.000	149.038	80.013	19.996	100.471	20.195	3.503	0.481
141.500	149.307	80.011	19.996	100.474	20.194	3.561	0.525
142.000	149.527	80.011	19.996	100.474	20.199	3.240	0.509
142.500	149.743	80.012	19.995	100.471	20.194	3.602	0.462
143.000	149.987	80.012	19.996	100.472	20.196	3.441	0.448
143.500	150.218	80.011	19.996	100.471	20.195	3.505	0.468
144.000	150.494	80.010	19.996	100.470	20.197	3.393	0.491
144.500	150.708	80.011	19.995	100.470	20.195	3.542	0.498
145.000	150.945	80.010	19.995	100.473	20.197	3.376	0.470
145.500	151.159	80.009	19.996	100.474	20.197	3.384	0.451
146.000	151.419	80.011	19.996	100.474	20.196	3.417	0.463
146.500	151.667	80.009	19.995	100.472	20.195	3.477	0.491
147.000	151.861	80.008	19.996	100.466	20.199	3.187	0.475
147.500	152.139	80.009	19.996	100.460	20.195	3.521	0.457
148.000	152.401	80.008	19.996	100.454	20.196	3.467	0.506
148.500	152.632	80.011	19.996	100.450	20.198	3.316	0.517
149.000	152.821	80.009	19.996	100.448	20.194	3.566	0.456
149.500	153.098	80.010	19.996	100.451	20.197	3.382	0.443
150.000	153.361	80.008	19.996	100.452	20.196	3.432	0.503
150.500	153.564	80.010	19.996	100.456	20.194	3.599	0.503
151.000	153.820	80.009	19.996	100.459	20.194	3.604	0.462
151.500	154.042	80.008	19.996	100.463	20.193	3.645	0.468
152.000	154.286	80.007	19.996	100.464	20.195	3.510	0.472
152.500	154.502	80.008	19.995	100.470	20.198	3.297	0.464
153.000	154.779	80.008	19.996	100.471	20.197	3.372	0.477
153.500	154.991	80.009	19.995	100.473	20.196	3.438	0.491
154.000	155.281	80.010	19.996	100.473	20.193	3.630	0.495
154.501	155.529	80.009	19.997	100.470	20.195	3.543	0.520
155.000	155.705	80.009	19.996	100.467	20.196	3.425	0.481
155.500	155.973	80.008	19.996	100.466	20.195	3.491	0.434
156.000	156.246	80.008	19.996	100.465	20.196	3.465	0.493
156.500	156.446	80.010	19.997	100.459	20.197	3.372	0.507
157.000	156.701	80.009	19.997	100.459	20.194	3.604	0.464
157.500	156.941	80.010	19.997	100.455	20.195	3.477	0.475
158.000	157.206	80.008	19.997	100.451	20.200	3.111	0.501
158.500	157.404	80.008	19.997	100.449	20.196	3.446	0.484
159.000	157.678	80.010	19.997	100.450	20.197	3.349	0.467
159.500	157.944	80.009	19.997	100.453	20.198	3.287	0.506
160.000	158.192	80.009	19.997	100.453	20.201	3.067	0.527
160.500	158.424	80.009	19.996	100.453	20.200	3.160	0.497
161.000	158.708	80.009	19.996	100.449	20.202	2.963	0.498
161.500	158.883	80.008	19.997	100.450	20.197	3.349	0.488
162.000	159.119	80.009	19.997	100.448	20.198	3.286	0.436
162.500	159.388	80.010	19.997	100.449	20.201	3.028	0.458
163.000	159.638	80.009	19.996	100.453	20.198	3.284	0.511
163.500	159.896	80.008	19.996	100.453	20.198	3.253	0.513
164.000	160.117	80.010	19.996	100.452	20.198	3.303	0.494
164.500	160.375	80.009	19.995	100.449	20.200	3.166	0.479
165.000	160.636	80.009	19.996	100.448	20.199	3.175	0.499
165.500	160.884	80.009	19.996	100.443	20.199	3.187	0.514
166.000	161.109	80.011	19.995	100.443	20.199	3.175	0.491
166.500	161.357	80.010	19.997	100.442	20.200	3.125	0.473
167.000	161.627	80.009	19.996	100.446	20.198	3.253	0.496
167.500	161.849	80.012	19.995	100.449	20.196	3.415	0.505
168.000	162.111	80.010	19.995	100.451	20.201	3.082	0.488
168.500	162.328	80.011	19.995	100.452	20.201	3.065	0.481
169.000	162.575	80.010	19.995	100.453	20.196	3.405	0.472
169.500	162.833	80.012	19.996	100.449	20.200	3.140	0.484
170.000	163.060	80.010	19.995	100.446	20.199	3.198	0.495
170.500	163.347	80.010	19.996	100.444	20.200	3.102	0.500
171.000	163.556	80.011	19.995	100.443	20.199	3.191	0.505
171.500	163.845	80.011	19.995	100.443	20.199	3.239	0.497
172.000	164.042	80.010	19.995	100.443	20.200	3.150	0.492
172.500	164.317	80.010	19.996	100.443	20.200	3.137	0.479
173.000	164.546	80.010	19.995	100.443	20.200	3.166	0.488
173.500	164.860	80.010	19.995	100.443	20.198	3.243	0.523
174.000	165.105	80.009	19.996	100.443	20.201	3.046	0.551
174.500	165.351	80.010	19.995	100.444	20.199	3.175	0.525
175.000	165.619	80.011	19.996	100.443	20.199	3.212	0.502
175.500	165.873	80.009	19.996	100.444	20.198	3.305	0.518
176.000	166.126	80.009	19.995	100.444	20.200	3.166	0.515
176.500	166.352	80.010	19.995	100.444	20.202	3.007	0.493
177.000	166.609	80.010	19.996	100.444	20.199	3.189	0.481
177.500	166.850	80.009	19.995	100.444	20.200	3.133	0.490
178.000	167.125	80.010	19.995	100.444	20.198	3.253	0.507
178.500	167.355	80.009	19.995	100.444	20.197	3.388	0.511
179.000	167.618	80.009	19.996	100.445	20.198	3.284	0.499
179.500	167.828	80.010	19.996	100.445	20.196	3.427	0.483
180.000	168.093	80.009	19.995	100.444	20.199	3.226	0.474
180.500	168.335	80.009	19.995	100.444	20.199	3.202	0.491
181.000	168.572	80.009	19.996	100.445	20.202	2.963	0.492
181.500	168.825	80.010	19.995	100.444	20.198	3.289	0.485
182.000	169.082	80.008	19.995	100.444	20.200	3.092	0.501
182.501	169.347	80.008	19.995	100.444	20.203	2.934	0.516
183.000	169.552	80.009	19.995	100.445	20.203	2.883	0.496
183.500	169.797	80.009	19.996	100.444	20.201	3.019	0.460
184.000	170.067	80.009	19.996	100.446	20.200	3.123	0.483
184.500	170.299	80.008	19.995	100.445	20.199	3.233	0.509
185.000	170.526	80.010	19.996	100.446	20.198	3.307	0.480
185.500	170.812	80.008	19.997	100.445	20.198	3.276	0.486
186.000	171.037	80.009	19.996	100.445	20.201	3.086	0.512
186.500	171.278	80.010	19.996	100.443	20.201	3.086	0.488
187.000	171.542	80.011	19.996	100.444	20.202	2.974	0.486
187.500	171.793	80.009	19.996	100.444	20.204	2.810	0.510
188.000	172.032	80.010	19.996	100.444	20.202	2.949	0.502
188.500	172.287	80.009	19.996	100.444	20.202	2.953	0.492
189.000	172.496	80.009	19.995	100.445	20.202	3.007	0.480
189.500	172.731	80.010	19.996	100.444	20.203	2.936	0.454
190.000	172.991	80.009	19.995	100.443	20.200	3.123	0.469
190.500	173.241	80.011	19.996	100.442	20.199	3.172	0.502
191.000	173.492	80.010	19.995	100.441	20.201	3.083	0.506
191.500	173.762	80.010	19.996	100.440	20.200	3.098	0.511
192.001	173.940	80.010	19.996	100.441	20.198	3.307	0.485
192.500	174.196	80.010	19.995	100.441	20.197	3.358	0.441
193.000	174.447	80.010	19.996	100.442	20.200	3.116	0.470
193.500	174.702	80.009	19.995	100.443	20.200	3.149	0.507
194.000	174.922	80.009	19.995	100.443	20.199	3.222	0.491
194.500	175.214	80.010	19.995	100.443	20.200	3.139	0.494
195.000	175.475	80.010	19.996	100.444	20.201	3.023	0.532
195.500	175.704	80.010	19.996	100.445	20.200	3.122	0.521
196.000	175.953	80.012	19.995	100.444	20.200	3.120	0.484
196.500	176.214	80.012	19.995	100.444	20.201	3.067	0.493
197.000	176.479	80.012	19.995	100.443	20.201	3.067	0.518
197.500	176.695	80.012	19.995	100.442	20.199	3.185	0.504
198.000	176.972	80.011	19.995	100.443	20.203	2.911	0.487
198.501	177.178	80.011	19.995	100.443	20.198	3.307	0.488
199.000	177.427	80.009	19.994	100.444	20.198	3.249	0.469
199.500	177.661	80.010	19.995	100.444	20.199	3.207	0.469
200.000	177.935	80.012	19.996	100.442	20.199	3.205	0.496
200.500	178.155	80.010	19.995	100.441	20.200	3.135	0.501
201.000	178.428	80.011	19.995	100.440	20.201	3.046	0.493
201.500	178.668	80.010	19.995	100.437	20.202	2.955	0.503
202.000	178.929	80.010	19.995	100.434	20.200	3.093	0.507
202.500	179.178	80.010	19.995	100.431	20.202	2.940	0.505
203.000	179.409	80.010	19.996	100.431	20.201	3.046	0.495
203.500	179.632	80.011	19.995	100.428	20.199	3.180	0.468
204.000	179.901	80.011	19.995	100.429	20.198	3.265	0.473
204.500	180.110	80.011	19.995	100.430	20.201	3.062	0.485
205.000	180.355	80.010	19.995	100.428	20.201	3.038	0.466
205.500	180.595	80.010	19.995	100.425	20.197	3.325	0.470
206.000	180.886	80.010	19.995	100.427	20.198	3.278	0.508
206.500	181.096	80.011	19.994	100.428	20.202	2.951	0.516
207.000	181.311	80.009	19.995	100.430	20.200	3.118	0.462
207.500	181.608	80.010	19.994	100.434	20.198	3.290	0.468
208.000	181.865	80.011	19.996	100.435	20.199	3.214	0.533
208.500	182.104	80.011	19.996	100.432	20.196	3.417	0.526
209.000	182.353	80.010	19.995	100.431	20.200	3.100	0.492
209.500	182.628	80.011	19.996	100.426	20.199	3.220	0.506
210.000	182.843	80.010	19.995	100.424	20.198	3.276	0.507
210.500	183.060	80.010	19.996	100.422	20.199	3.197	0.461
211.000	183.326	80.011	19.995	100.424	20.198	3.271	0.458
211.500	183.565	80.011	19.995	100.423	20.197	3.323	0.494
212.000	183.819	80.011	19.995	100.423	20.201	3.058	0.499
212.500	184.054	80.011	19.995	100.427	20.197	3.323	0.491
213.000	184.313	80.012	19.996	100.430	20.200	3.143	0.491
213.500	184.509	80.009	19.995	100.425	20.197	3.370	0.474
214.000	184.803	80.011	19.995	100.426	20.197	3.354	0.473
214.500	185.054	80.011	19.995	100.430	20.200	3.162	0.518
215.000	185.294	80.011	19.995	100.430	20.197	3.321	0.518
215.500	185.551	80.011	19.995	100.430	20.199	3.209	0.494
216.000	185.789	80.011	19.996	100.435	20.195	3.514	0.496
216.500	186.052	80.012	19.995	100.432	20.200	3.145	0.498
217.000	186.314	80.011	19.996	100.431	20.199	3.168	0.513
217.500	186.550	80.011	19.996	100.430	20.197	3.358	0.512
218.000	186.827	80.011	19.996	100.430	20.194	3.596	0.505
218.500	187.049	80.011	19.996	100.430	20.195	3.486	0.506
219.000	187.311	80.012	19.995	100.434	20.196	3.405	0.492
219.500	187.517	80.011	19.995	100.435	20.198	3.283	0.477
220.000	187.769	80.011	19.995	100.432	20.198	3.254	0.463
220.500	188.040	80.011	19.996	100.431	20.197	3.391	0.490
221.000	188.226	80.012	19.996	100.429	20.196	3.416	0.490
221.500	188.540	80.011	19.996	100.428	20.197	3.391	0.478
222.000	188.780	80.011	19.995	100.428	20.195	3.524	0.526
222.500	188.977	80.011	19.995	100.426	20.195	3.505	0.495
223.000	189.213	80.011	19.995	100.424	20.193	3.665	0.435
223.500	189.480	80.012	19.996	100.423	20.193	3.625	0.468
224.000	189.720	80.012	19.995	100.420	20.196	3.445	0.505
224.500	189.969	80.012	19.996	100.414	20.196	3.464	0.498
225.000	190.219	80.011	19.996	100.419	20.193	3.652	0.494
225.500	190.455	80.011	19.996	100.420	20.196	3.404	0.493
226.000	190.743	80.010	19.997	100.420	20.195	3.522	0.505
226.500	190.984	80.011	19.996	100.424	20.194	3.596	0.527
227.000	191.194	80.011	19.995	100.424	20.197	3.389	0.490
227.500	191.441	80.011	19.995	100.421	20.197	3.373	0.454
228.000	191.697	80.010	19.996	100.420	20.195	3.540	0.480
228.500	191.969	80.010	19.996	100.415	20.197	3.354	0.515
229.000	192.170	80.010	19.996	100.408	20.197	3.339	0.500
229.500	192.409	80.011	19.996	100.407	20.196	3.445	0.456
230.000	192.629	80.009	19.996	100.403	20.195	3.534	0.450
230.500	192.895	80.008	19.996	100.402	20.194	3.594	0.473
231.000	193.170	80.009	19.996	100.405	20.195	3.490	0.513
231.500	193.380	80.010	19.995	100.407	20.193	3.654	0.513
232.000	193.622	80.009	19.995	100.414	20.197	3.360	0.469
232.500	193.878	80.008	19.995	100.420	20.194	3.554	0.475
233.000	194.147	80.009	19.996	100.425	20.195	3.532	0.512
233.500	194.364	80.009	19.995	100.427	20.194	3.590	0.505
234.000	194.619	80.008	19.995	100.425	20.193	3.681	0.479
234.500	194.852	80.009	19.996	100.423	20.193	3.646	0.480
235.000	195.104	80.009	19.996	100.423	20.197	3.385	0.487
235.500	195.314	80.008	19.996	100.423	20.193	3.670	0.474
236.000	195.577	80.009	19.995	100.424	20.195	3.523	0.468
236.500	195.831	80.007	19.995	100.427	20.194	3.567	0.495
237.000	196.059	80.008	19.996	100.429	20.196	3.430	0.500
237.500	196.286	80.008	19.995	100.425	20.193	3.691	0.468
238.000	196.590	80.008	19.996	100.422	20.196	3.449	0.493
238.500	196.808	80.007	19.997	100.417	20.197	3.366	0.527
239.000	197.080	80.008	19.997	100.414	20.195	3.486	0.506
239.500	197.290	80.008	19.996	100.410	20.195	3.513	0.486
240.000	197.550	80.008	19.997	100.410	20.199	3.203	0.476
240.500	197.785	80.008	19.995	100.410	20.194	3.573	0.482
241.000	198.048	80.009	19.996	100.410	20.194	3.602	0.497
241.500	198.249	80.009	19.996	100.409	20.194	3.577	0.481
242.000	198.527	80.010	19.996	100.410	20.195	3.540	0.471
242.500	198.778	80.008	19.996	100.408	20.194	3.596	0.504
243.000	199.026	80.009	19.996	100.407	20.194	3.546	0.514
243.500	199.294	80.007	19.997	100.407	20.193	3.656	0.508
244.000	199.502	80.009	19.997	100.407	20.192	3.751	0.496
244.500	199.775	80.009	19.995	100.406	20.193	3.643	0.478
245.000	200.010	80.008	19.997	100.407	20.194	3.617	0.494
245.500	200.220	80.009	19.996	100.407	20.191	3.819	0.476
246.000	200.472	80.008	19.996	100.408	20.192	3.743	0.454
246.500	200.744	80.009	19.995	100.407	20.196	3.416	0.493
247.000	200.979	80.008	19.996	100.406	20.196	3.451	0.515
247.500	201.232	80.009	19.996	100.405	20.197	3.354	0.497
248.000	201.520	80.008	19.996	100.406	20.194	3.557	0.514
248.500	201.719	80.009	19.996	100.406	20.194	3.604	0.514
249.000	201.980	80.009	19.997	100.408	20.195	3.507	0.474
249.500	202.203	80.007	19.996	100.409	20.193	3.637	0.472
250.000	202.493	80.008	19.997	100.410	20.193	3.656	0.498
250.500	202.721	80.008	19.996	100.409	20.195	3.499	0.515
251.000	202.968	80.008	19.997	100.412	20.196	3.455	0.497
251.500	203.187	80.009	19.997	100.411	20.190	3.873	0.470
252.000	203.442	80.009	19.997	100.410	20.190	3.892	0.470
252.500	203.667	80.008	19.997	100.409	20.192	3.722	0.477
253.000	203.947	80.008	19.996	100.408	20.194	3.561	0.492
253.500	204.222	80.008	19.996	100.403	20.193	3.670	0.530
254.000	204.437	80.008	19.997	100.403	20.193	3.644	0.523
254.500	204.661	80.008	19.996	100.403	20.193	3.666	0.464
255.000	204.924	80.007	19.996	100.403	20.193	3.679	0.463
255.500	205.208	80.008	19.996	100.404	20.193	3.629	0.517
256.000	205.433	80.008	19.996	100.406	20.190	3.890	0.528
256.500	205.633	80.006	19.996	100.406	20.193	3.664	0.467
257.000	205.898	80.007	19.997	100.407	20.195	3.476	0.445
257.500	206.163	80.007	19.996	100.408	20.191	3.801	0.498
258.001	206.382	80.008	19.996	100.411	20.192	3.735	0.507
258.500	206.605	80.007	19.997	100.411	20.192	3.743	0.463
259.000	206.882	80.007	19.995	100.413	20.192	3.718	0.471
259.500	207.089	80.006	19.996	100.413	20.193	3.621	0.492
260.000	207.379	80.008	19.996	100.414	20.192	3.718	0.490
260.500	207.651	80.007	19.996	100.412	20.191	3.822	0.530
261.000	207.916	80.007	19.996	100.413	20.191	3.795	0.550
261.500	208.150	80.008	19.995	100.413	20.190	3.884	0.518
262.000	208.425	80.008	19.996	100.412	20.192	3.745	0.503
262.500	208.651	80.009	19.996	100.413	20.189	3.991	0.505
263.000	208.885	80.009	19.996	100.413	20.190	3.883	0.481
263.500	209.150	80.008	19.996	100.411	20.193	3.666	0.480
264.000	209.372	80.008	19.995	100.411	20.192	3.768	0.493
264.500	209.618	80.009	19.995	100.411	20.192	3.724	0.477
265.000	209.909	80.009	19.995	100.410	20.192	3.753	0.503
265.500	210.145	80.008	19.996	100.409	20.191	3.796	0.532
266.000	210.382	80.008	19.995	100.409	20.191	3.801	0.500
266.500	210.668	80.008	19.995	100.407	20.194	3.604	0.498
267.000	210.907	80.009	19.995	100.409	20.192	3.718	0.524
267.500	211.139	80.009	19.994	100.408	20.192	3.738	0.498
268.000	211.377	80.008	19.995	100.409	20.192	3.734	0.471
268.500	211.611	80.009	19.995	100.407	20.189	3.929	0.471
269.000	211.872	80.009	19.994	100.409	20.190	3.896	0.483
269.500	212.135	80.009	19.996	100.407	20.190	3.869	0.510
270.000	212.365	80.009	19.995	100.408	20.188	4.006	0.509
270.500	212.604	80.009	19.995	100.408	20.188	4.006	0.481
271.000	212.864	80.009	19.995	100.408	20.194	3.612	0.484
271.500	213.106	80.009	19.994	100.408	20.191	3.809	0.501
272.000	213.366	80.009	19.996	100.407	20.186	4.188	0.502
272.500	213.626	80.009	19.995	100.405	20.188	4.074	0.511
273.000	213.838	80.010	19.995	100.405	20.187	4.142	0.495
273.500	214.120	80.009	19.996	100.405	20.189	3.997	0.483
274.000	214.363	80.010	19.994	100.403	20.189	3.931	0.510
274.500	214.621	80.010	19.995	100.403	20.185	4.295	0.513
275.000	214.859	80.009	19.995	100.403	20.187	4.113	0.498
275.500	215.104	80.011	19.995	100.403	20.188	4.055	0.489
276.000	215.363	80.012	19.994	100.402	20.183	4.440	0.494
276.500	215.585	80.011	19.996	100.402	20.184	4.308	0.493
277.000	215.858	80.010	19.996	100.402	20.185	4.273	0.488
277.500	216.091	80.008	19.995	100.402	20.184	4.322	0.500
278.000	216.374	80.010	19.995	100.401	20.186	4.190	0.511
278.500	216.619	80.010	19.995	100.402	20.187	4.090	0.522
279.000	216.881	80.011	19.994	100.402	20.185	4.270	0.517
279.500	217.100	80.010	19.995	100.402	20.186	4.165	0.494
280.000	217.356	80.011	19.995	100.402	20.185	4.241	0.478
280.500	217.618	80.011	19.995	100.402	20.188	4.041	0.497
281.000	217.850	80.011	19.995	100.402	20.188	4.030	0.506
281.500	218.127	80.010	19.995	100.402	20.186	4.219	0.502
282.000	218.365	80.009	19.996	100.401	20.189	3.989	0.512
282.500	218.571	80.010	19.995	100.401	20.185	4.268	0.480
283.000	218.853	80.009	19.995	100.402	20.186	4.196	0.465
283.500	219.083	80.010	19.995	100.403	20.188	4.016	0.500
284.000	219.305	80.011	19.995	100.405	20.186	4.215	0.482
284.500	219.544	80.010	19.995	100.405	20.185	4.295	0.457
285.000	219.825	80.012	19.996	100.405	20.186	4.192	0.491
285.500	220.079	80.011	19.995	100.405	20.181	4.546	0.527
286.000	220.353	80.010	19.995	100.404	20.187	4.090	0.531
286.500	220.564	80.011	19.996	100.403	20.186	4.154	0.506
287.000	220.819	80.010	19.996	100.404	20.187	4.111	0.476
287.500	221.067	80.010	19.995	100.404	20.187	4.144	0.485
288.000	221.332	80.010	19.995	100.404	20.184	4.341	0.508
288.500	221.537	80.010	19.996	100.403	20.185	4.277	0.491
289.000	221.798	80.010	19.996	100.402	20.185	4.279	0.467
289.500	222.046	80.010	19.995	100.401	20.183	4.382	0.487
290.000	222.302	80.010	19.995	100.401	20.182	4.511	0.507
290.500	222.557	80.011	19.996	100.400	20.184	4.372	0.508
291.000	222.764	80.011	19.995	100.399	20.183	4.382	0.487
291.500	223.034	80.010	19.996	100.398	20.183	4.388	0.469
292.000	223.326	80.010	19.996	100.398	20.182	4.473	0.519
292.500	223.549	80.011	19.995	100.399	20.184	4.339	0.538
293.000	223.807	80.010	19.996	100.400	20.187	4.130	0.498
293.500	224.097	80.011	19.995	100.401	20.183	4.415	0.515
294.000	224.300	80.011	19.996	100.402	20.183	4.453	0.521
294.500	224.545	80.011	19.994	100.401	20.182	4.496	0.471
295.000	224.825	80.010	19.995	100.401	20.181	4.537	0.487
295.500	225.071	80.011	19.995	100.400	20.182	4.479	0.526
296.000	225.350	80.011	19.994	100.400	20.182	4.502	0.525
296.500	225.587	80.011	19.994	100.399	20.181	4.589	0.520
297.000	225.812	80.009	19.994	100.400	20.182	4.461	0.489
297.501	226.058	80.012	19.995	100.399	20.183	4.436	0.467
298.000	226.336	80.012	19.995	100.399	20.185	4.291	0.497
298.500	226.574	80.011	19.994	100.400	20.180	4.616	0.519
299.000	226.792	80.011	19.994	100.400	20.182	4.480	0.486
299.500	227.028	80.010	19.995	100.400	20.182	4.469	0.455
300.000	227.287	80.012	19.994	100.401	20.180	4.639	0.474
300.500	227.521	80.011	19.994	100.401	20.183	4.444	0.494
301.000	227.820	80.012	19.994	100.400	20.181	4.535	0.513
301.500	228.044	80.013	19.994	100.400	20.179	4.697	0.528
302.000	228.327	80.013	19.994	100.400	20.180	4.627	0.515
302.500	228.562	80.012	19.994	100.401	20.180	4.680	0.512
303.000	228.827	80.012	19.995	100.401	20.180	4.633	0.509
303.500	229.063	80.012	19.995	100.402	20.180	4.672	0.501
304.000	229.326	80.012	19.995	100.402	20.179	4.728	0.500
304.500	229.548	80.010	19.994	100.402	20.179	4.693	0.492
305.000	229.817	80.013	19.994	100.402	20.178	4.780	0.488
305.500	230.079	80.012	19.994	100.401	20.180	4.672	0.511
306.000	230.335	80.010	19.995	100.400	20.180	4.645	0.525
306.500	230.601	80.012	19.994	100.400	20.182	4.515	0.520
307.000	230.858	80.011	19.994	100.401	20.180	4.620	0.522
307.500	231.085	80.012	19.994	100.400	20.180	4.662	0.503
308.000	231.329	80.010	19.995	100.400	20.180	4.674	0.478
308.500	231.576	80.010	19.995	100.402	20.179	4.717	0.481
309.000	231.829	80.011	19.994	100.403	20.177	4.891	0.495
309.500	232.073	80.011	19.995	100.403	20.178	4.816	0.499
310.000	232.318	80.010	19.995	100.404	20.179	4.723	0.493
310.500	232.562	80.011	19.994	100.404	20.179	4.756	0.489
311.000	232.807	80.009	19.994	100.404	20.176	4.922	0.489
311.500	233.070	80.010	19.997	100.401	20.176	4.935	0.498
312.000	233.356	80.010	19.995	100.401	20.176	4.956	0.529
312.500	233.592	80.010	19.996	100.401	20.179	4.718	0.536
313.000	233.826	80.009	19.996	100.402	20.178	4.813	0.496
313.500	234.082	80.009	19.995	100.402	20.178	4.823	0.480
314.000	234.319	80.008	19.996	100.404	20.178	4.817	0.492
314.500	234.583	80.009	19.996	100.405	20.176	4.929	0.497
315.000	234.812	80.009	19.996	100.404	20.178	4.834	0.497
315.500	235.074	80.010	19.996	100.402	20.176	4.939	0.492
316.000	235.285	80.007	19.996	100.402	20.176	4.952	0.482
316.501	235.586	80.011	19.995	100.400	20.174	5.101	0.493
317.001	235.794	80.010	19.996	100.399	20.176	4.939	0.510
317.500	236.021	80.009	19.997	100.400	20.175	5.051	0.472
318.000	236.301	80.008	19.996	100.400	20.177	4.891	0.471
318.500	236.528	80.009	19.995	100.399	20.176	4.922	0.507
319.000	236.823	80.009	19.995	100.396	20.177	4.839	0.515
319.500	237.086	80.009	19.996	100.391	20.177	4.887	0.540
320.000	237.287	80.007	19.996	100.388	20.175	4.991	0.511
320.500	237.567	80.008	19.995	100.388	20.176	4.912	0.472
321.000	237.795	80.008	19.996	100.388	20.174	5.113	0.494
321.500	238.074	80.009	19.996	100.390	20.174	5.123	0.508
322.000	238.304	80.008	19.996	100.396	20.175	4.999	0.508
322.500	238.562	80.009	19.997	100.399	20.176	4.960	0.498
323.000	238.791	80.007	19.996	100.400	20.175	4.987	0.488
323.500	239.064	80.009	19.996	100.402	20.175	5.053	0.495
324.000	239.301	80.009	19.996	100.404	20.178	4.794	0.506
324.500	239.528	80.009	19.995	100.404	20.174	5.111	0.487
325.000	239.822	80.008	19.996	100.404	20.175	5.034	0.493
325.500	240.051	80.009	19.995	100.403	20.176	4.916	0.522
326.000	240.255	80.008	19.996	100.403	20.174	5.067	0.478
326.500	240.532	80.009	19.996	100.403	20.176	4.958	0.457
327.000	240.823	80.008	19.996	100.404	20.175	4.995	0.524
327.500	241.045	80.009	19.996	100.402	20.175	5.057	0.541
328.000	241.318	80.010	19.995	100.402	20.176	4.968	0.504
328.500	241.538	80.009	19.996	100.402	20.174	5.090	0.494
329.000	241.806	80.008	19.995	100.400	20.173	5.146	0.490
329.500	242.077	80.008	19.995	100.395	20.173	5.175	0.513
330.000	242.295	80.009	19.995	100.395	20.173	5.181	0.514
330.500	242.553	80.009	19.996	100.395	20.173	5.144	0.483
331.000	242.790	80.008	19.996	100.395	20.174	5.071	0.485
331.500	243.044	80.008	19.996	100.397	20.174	5.065	0.493
332.000	243.313	80.008	19.995	100.401	20.173	5.179	0.507
332.501	243.557	80.009	19.995	100.402	20.175	5.028	0.518
333.000	243.815	80.008	19.995	100.403	20.174	5.090	0.508
333.500	244.077	80.009	19.995	100.404	20.174	5.119	0.511
334.000	244.311	80.009	19.995	100.402	20.174	5.115	0.508
334.500	244.548	80.009	19.996	100.396	20.174	5.071	0.483
335.000	244.823	80.008	19.995	100.396	20.172	5.272	0.491
335.500	245.037	80.009	19.995	100.394	20.171	5.330	0.501
336.000	245.264	80.008	19.995	100.393	20.172	5.227	0.466
336.500	245.533	80.008	19.997	100.394	20.170	5.405	0.468
337.000	245.793	80.009	19.996	100.399	20.171	5.315	0.512
337.500	246.043	80.010	19.995	100.401	20.171	5.336	0.520
338.000	246.332	80.008	19.995	100.401	20.170	5.369	0.525
338.500	246.563	80.008	19.996	100.400	20.174	5.085	0.529
339.000	246.803	80.009	19.996	100.400	20.171	5.329	0.495
339.500	247.054	80.007	19.996	100.400	20.171	5.294	0.481
340.000	247.297	80.008	19.995	100.400	20.169	5.445	0.493
340.500	247.561	80.008	19.996	100.400	20.170	5.390	0.500
341.000	247.790	80.010	19.996	100.400	20.171	5.355	0.500
341.500	248.000	80.009	19.996	100.399	20.170	5.384	0.466
342.000	248.314	80.009	19.996	100.399	20.171	5.326	0.481
342.500	248.542	80.008	19.996	100.399	20.171	5.357	0.533
343.000	248.795	80.009	19.996	100.393	20.170	5.429	0.512
343.500	249.054	80.008	19.996	100.394	20.170	5.388	0.497
344.000	249.302	80.007	19.997	100.395	20.168	5.537	0.509
344.500	249.562	80.009	19.996	100.394	20.170	5.408	0.507
345.000	249.831	80.008	19.997	100.395	20.170	5.439	0.519
345.500	250.106	80.007	19.997	100.399	20.168	5.530	0.537
346.000	250.343	80.007	19.997	100.397	20.169	5.474	0.528
346.500	250.592	80.008	19.996	100.396	20.169	5.455	0.499
347.000	250.833	80.008	19.998	100.396	20.167	5.652	0.488
347.500	251.055	80.008	19.997	100.395	20.169	5.493	0.477
348.000	251.337	80.008	19.996	100.395	20.165	5.793	0.483
348.500	251.608	80.009	19.997	100.397	20.168	5.524	0.528
349.000	251.846	80.008	19.997	100.392	20.166	5.709	0.531
349.500	252.094	80.009	19.996	100.387	20.168	5.560	0.497
350.000	252.332	80.009	19.997	100.384	20.164	5.881	0.486
350.500	252.580	80.008	19.997	100.384	20.165	5.775	0.486
351.000	252.808	80.009	19.997	100.383	20.163	5.922	0.481
351.500	253.069	80.009	19.997	100.387	20.164	5.895	0.482
352.000	253.282	80.008	19.996	100.393	20.166	5.671	0.481
352.500	253.536	80.008	19.997	100.396	20.165	5.801	0.471
353.000	253.820	80.009	19.997	100.393	20.162	6.039	0.503
353.500	254.048	80.010	19.996	100.392	20.162	6.035	0.525
354.000	254.293	80.009	19.997	100.392	20.163	5.961	0.492
354.500	254.568	80.010	19.997	100.390	20.162	6.038	0.496
355.000	254.807	80.009	19.997	100.388	20.163	5.930	0.517
355.500	255.078	80.009	19.996	100.387	20.164	5.880	0.512
356.000	255.320	80.010	19.997	100.387	20.163	5.924	0.512
356.500	255.555	80.010	19.996	100.384	20.164	5.864	0.495
357.000	255.792	80.010	19.996	100.384	20.164	5.839	0.475
357.500	256.027	80.010	19.996	100.381	20.164	5.821	0.472
358.000	256.309	80.011	19.996	100.383	20.165	5.796	0.494
358.500	256.536	80.010	19.995	100.385	20.163	5.941	0.513
359.000	256.805	80.010	19.995	100.387	20.165	5.810	0.502
359.500	257.011	80.010	19.996	100.390	20.163	5.916	0.486
360.000	257.285	80.011	19.996	100.392	20.166	5.705	0.478
360.500	257.529	80.010	19.996	100.393	20.165	5.768	0.499
361.000	257.788	80.011	19.996	100.395	20.163	5.940	0.511
361.500	258.013	80.011	19.996	100.394	20.162	5.975	0.494
362.000	258.237	80.013	19.995	100.392	20.160	6.130	0.466
362.500	258.496	80.009	19.996	100.391	20.162	6.012	0.465
363.000	258.759	80.012	19.996	100.386	20.162	5.979	0.502
363.500	259.002	80.010	19.995	100.383	20.160	6.159	0.514
364.000	259.248	80.011	19.995	100.384	20.160	6.128	0.498
364.500	259.503	80.010	19.995	100.386	20.162	6.041	0.496
365.000	259.708	80.011	19.995	100.387	20.159	6.217	0.481
365.500	259.993	80.010	19.995	100.393	20.161	6.082	0.475
366.000	260.193	80.010	19.995	100.392	20.158	6.290	0.487
366.500	260.472	80.011	19.995	100.392	20.159	6.224	0.482
367.000	260.686	80.010	19.996	100.391	20.155	6.572	0.486
367.500	260.923	80.008	19.995	100.393	20.159	6.266	0.472
368.000	261.176	80.010	19.995	100.393	20.157	6.413	0.470
368.500	261.459	80.010	19.995	100.395	20.159	6.201	0.513
369.000	261.677	80.010	19.996	100.396	20.159	6.236	0.519
369.500	261.951	80.009	19.996	100.397	20.158	6.348	0.497
370.000	262.156	80.010	19.995	100.396	20.159	6.255	0.486
370.500	262.416	80.009	19.995	100.395	20.161	6.101	0.472
371.000	262.683	80.009	19.995	100.393	20.158	6.335	0.496
371.500	262.946	80.011	19.995	100.388	20.160	6.170	0.528
372.000	263.193	80.010	19.995	100.386	20.155	6.515	0.520
372.500	263.405	80.009	19.995	100.384	20.159	6.240	0.485
373.000	263.661	80.009	19.995	100.382	20.157	6.406	0.463
373.500	263.895	80.010	19.995	100.384	20.154	6.603	0.479
374.000	264.173	80.007	19.996	100.384	20.160	6.162	0.501
374.500	264.409	80.008	19.995	100.383	20.155	6.572	0.513
375.000	264.654	80.009	19.995	100.380	20.157	6.365	0.498
375.500	264.903	80.010	19.994	100.377	20.156	6.451	0.488
376.000	265.155	80.009	19.996	100.376	20.156	6.426	0.497
376.500	265.380	80.010	19.996	100.379	20.157	6.420	0.488
377.000	265.647	80.009	19.996	100.382	20.156	6.447	0.484
377.500	265.888	80.010	19.995	100.388	20.154	6.644	0.500
378.001	266.153	80.010	19.995	100.393	20.156	6.478	0.507
378.500	266.396	80.008	19.996	100.398	20.152	6.756	0.507
379.000	266.640	80.009	19.995	100.396	20.155	6.559	0.497
379.500	266.880	80.010	19.995	100.395	20.153	6.665	0.485
380.001	267.153	80.011	19.995	100.392	20.155	6.511	0.498
380.500	267.348	80.008	19.994	100.390	20.154	6.606	0.491
381.000	267.606	80.011	19.994	100.385	20.154	6.613	0.460
381.500	267.841	80.011	19.994	100.383	20.152	6.795	0.473
382.000	268.116	80.011	19.994	100.384	20.153	6.726	0.502
382.500	268.405	80.011	19.995	100.383	20.151	6.861	0.537
383.000	268.604	80.010	19.995	100.383	20.153	6.722	0.526
383.500	268.864	80.010	19.995	100.388	20.149	7.014	0.474
384.000	269.122	80.011	19.995	100.392	20.150	6.919	0.488
384.500	269.365	80.011	19.995	100.392	20.151	6.836	0.509
385.000	269.650	80.012	19.995	100.391	20.148	7.078	0.515
385.500	269.892	80.011	19.994	100.391	20.149	7.014	0.527
386.000	270.110	80.011	19.994	100.389	20.149	6.967	0.493
386.500	270.388	80.010	19.996	100.388	20.152	6.741	0.478
387.000	270.608	80.010	19.994	100.387	20.148	7.048	0.497
387.500	270.872	80.011	19.995	100.387	20.151	6.820	0.492
388.000	271.145	80.011	19.994	100.384	20.150	6.940	0.510
388.500	271.418	80.012	19.994	100.386	20.146	7.195	0.541
389.000	271.645	80.011	19.994	100.388	20.144	7.367	0.523
389.500	271.900	80.010	19.993	100.391	20.148	7.048	0.491
390.000	272.140	80.011	19.993	100.390	20.146	7.234	0.488
390.500	272.463	80.010	19.995	100.390	20.145	7.286	0.529
391.000	272.624	80.008	19.995	100.386	20.144	7.406	0.523
391.500	272.866	80.010	19.994	100.386	20.147	7.129	0.444
392.000	273.092	80.009	19.994	100.383	20.148	7.033	0.436
392.500	273.395	80.010	19.995	100.383	20.147	7.164	0.499
393.000	273.631	80.008	19.994	100.384	20.147	7.128	0.534
393.500	273.919	80.009	19.994	100.382	20.148	7.095	0.531
394.000	274.194	80.008	19.994	100.376	20.146	7.239	0.543
394.500	274.441	80.008	19.994	100.376	20.147	7.164	0.542
395.000	274.644	80.008	19.994	100.381	20.147	7.138	0.486
395.500	274.879	80.008	19.995	100.382	20.148	7.107	0.444
396.000	275.160	80.008	19.995	100.387	20.143	7.484	0.477
396.500	275.406	80.009	19.994	100.389	20.147	7.113	0.521
397.000	275.656	80.008	19.995	100.389	20.146	7.206	0.512
397.500	275.888	80.009	19.994	100.388	20.147	7.132	0.489
398.000	276.134	80.008	19.995	100.391	20.148	7.069	0.480
398.500	276.401	80.009	19.994	100.387	20.146	7.185	0.496
399.000	276.633	80.009	19.995	100.390	20.146	7.208	0.506
399.500	276.903	80.009	19.995	100.393	20.143	7.475	0.500
400.000	277.114	80.009	19.994	100.393	20.145	7.270	0.492
400.500	277.393	80.009	19.994	100.395	20.147	7.164	0.486
401.000	277.698	80.009	19.994	100.396	20.143	7.439	0.537
401.500	277.906	80.009	19.995	100.394	20.145	7.261	0.549
402.000	278.192	80.009	19.994	100.395	20.144	7.400	0.503
402.500	278.387	80.009	19.994	100.395	20.144	7.373	0.487
403.000	278.668	80.009	19.995	100.393	20.144	7.340	0.478
403.500	278.911	80.010	19.994	100.391	20.144	7.344	0.500
404.000	279.216	80.010	19.996	100.387	20.142	7.499	0.536
404.500	279.429	80.009	19.995	100.381	20.142	7.524	0.533
405.000	279.679	80.009	19.995	100.375	20.141	7.627	0.490
405.500	279.947	80.009	19.995	100.372	20.140	7.689	0.490
406.000	280.216	80.009	19.995	100.374	20.144	7.394	0.528
406.500	280.490	80.009	19.995	100.378	20.140	7.704	0.540
407.000	280.708	80.009	19.995	100.380	20.142	7.537	0.517
407.500	281.011	80.009	19.995	100.380	20.139	7.772	0.506
408.000	281.232	80.009	19.996	100.381	20.140	7.648	0.523
408.500	281.496	80.010	19.994	100.378	20.140	7.648	0.505
409.000	281.775	80.008	19.995	100.374	20.138	7.793	0.514
409.500	281.986	80.009	19.995	100.377	20.137	7.921	0.516
410.000	282.234	80.009	19.996	100.379	20.137	7.866	0.475
410.500	282.529	80.010	19.995	100.376	20.143	7.442	0.501
411.000	282.764	80.009	19.995	100.374	20.140	7.661	0.536
411.500	283.019	80.009	19.996	100.374	20.140	7.653	0.510
412.000	283.257	80.009	19.995	100.367	20.141	7.566	0.492
412.500	283.544	80.010	19.995	100.365	20.141	7.621	0.509
413.000	283.760	80.010	19.996	100.365	20.140	7.642	0.514
413.500	284.039	80.009	19.995	100.365	20.142	7.540	0.499
414.000	284.289	80.009	19.995	100.364	20.139	7.737	0.512
414.500	284.547	80.009	19.995	100.364	20.142	7.547	0.519
415.000	284.784	80.009	19.995	100.362	20.140	7.657	0.502
415.500	285.041	80.010	19.996	100.362	20.137	7.889	0.494
416.000	285.298	80.009	19.996	100.362	20.140	7.668	0.504
416.500	285.573	80.010	19.996	100.364	20.138	7.804	0.523
417.000	285.798	80.009	19.996	100.366	20.139	7.732	0.516
417.500	286.081	80.011	19.996	100.368	20.134	8.104	0.504
418.000	286.340	80.011	19.995	100.368	20.136	7.975	0.525
418.500	286.594	80.010	19.995	100.368	20.135	8.033	0.528
419.000	286.828	80.009	19.995	100.368	20.136	7.942	0.501
419.500	287.092	80.010	19.996	100.366	20.136	7.946	0.493
420.000	287.340	80.010	19.995	100.364	20.137	7.926	0.505
420.500	287.614	80.009	19.995	100.365	20.137	7.930	0.517
421.000	287.852	80.010	19.996	100.368	20.137	7.893	0.517
421.500	288.089	80.008	19.996	100.370	20.135	8.085	0.494
422.000	288.361	80.009	19.996	100.373	20.135	8.021	0.492
422.500	288.620	80.009	19.995	100.374	20.134	8.105	0.520
423.000	288.869	80.011	19.996	100.372	20.136	7.992	0.520
423.500	289.127	80.009	19.995	100.368	20.135	8.074	0.508
424.000	289.352	80.009	19.996	100.365	20.134	8.122	0.495
424.500	289.601	80.008	19.994	100.363	20.134	8.165	0.478
425.000	289.872	80.010	19.996	100.363	20.134	8.147	0.497
425.500	290.146	80.009	19.996	100.367	20.133	8.184	0.533
426.000	290.419	80.009	19.996	100.374	20.133	8.182	0.546
426.500	290.694	80.010	19.995	100.378	20.131	8.356	0.548
427.000	290.897	80.008	19.996	100.378	20.133	8.196	0.513
427.500	291.125	80.009	19.995	100.377	20.130	8.411	0.455
428.000	291.389	80.008	19.996	100.374	20.129	8.540	0.461
428.500	291.674	80.010	19.996	100.368	20.131	8.339	0.520
429.000	291.922	80.008	19.996	100.364	20.130	8.443	0.541
429.500	292.178	80.008	19.996	100.364	20.131	8.325	0.518
430.000	292.447	80.010	19.996	100.367	20.130	8.434	0.514
430.500	292.663	80.008	19.996	100.368	20.129	8.517	0.506
431.000	292.905	80.008	19.997	100.369	20.128	8.573	0.472
431.500	293.180	80.010	19.996	100.369	20.130	8.405	0.487
432.000	293.412	80.009	19.996	100.370	20.129	8.498	0.512
432.500	293.658	80.010	19.996	100.368	20.129	8.488	0.493
433.000	293.936	80.008	19.996	100.366	20.128	8.610	0.501
433.500	294.207	80.010	19.995	100.365	20.130	8.465	0.536
434.000	294.419	80.009	19.996	100.365	20.128	8.585	0.516
434.500	294.660	80.009	19.997	100.364	20.128	8.583	0.468
435.000	294.909	80.009	19.996	100.363	20.126	8.726	0.472
435.500	295.152	80.009	19.996	100.363	20.126	8.732	0.491
436.000	295.421	80.010	19.996	100.363	20.128	8.555	0.502
436.500	295.688	80.010	19.996	100.363	20.127	8.679	0.524
437.000	295.921	80.010	19.996	100.362	20.126	8.704	0.518
437.500	296.181	80.010	19.995	100.363	20.127	8.665	0.497
438.000	296.427	80.010	19.996	100.363	20.129	8.540	0.499
438.500	296.676	80.008	19.995	100.363	20.126	8.716	0.500
439.000	296.914	80.011	19.996	100.364	20.127	8.671	0.491
439.500	297.185	80.010	19.996	100.365	20.125	8.805	0.497
440.000	297.454	80.010	19.996	100.365	20.127	8.629	0.524
440.500	297.673	80.010	19.995	100.366	20.125	8.809	0.514
441.000	297.925	80.011	19.996	100.366	20.124	8.900	0.480
441.500	298.178	80.010	19.995	100.366	20.127	8.625	0.488
442.000	298.388	80.008	19.995	100.365	20.126	8.705	0.484
442.500	298.675	80.010	19.997	100.365	20.129	8.532	0.479
443.000	298.912	80.011	19.995	100.364	20.125	8.846	0.510
443.500	299.132	80.010	19.997	100.364	20.126	8.730	0.491
444.000	299.377	80.010	19.997	100.364	20.128	8.606	0.461
444.501	299.628	80.010	19.996	100.365	20.128	8.608	0.481
445.000	299.890	80.009	19.996	100.365	20.130	8.469	0.505
445.500	300.129	80.011	19.997	100.365	20.127	8.631	0.507
446.000	300.397	80.010	19.996	100.366	20.127	8.672	0.504
446.500	300.607	80.009	19.996	100.365	20.126	8.712	0.492
447.000	300.888	80.009	19.996	100.367	20.127	8.627	0.484
447.500	301.142	80.011	19.996	100.368	20.125	8.811	0.513
448.000	301.404	80.009	19.996	100.370	20.125	8.834	0.525
448.500	301.606	80.009	19.996	100.371	20.123	8.972	0.490
449.000	301.871	80.009	19.997	100.372	20.121	9.101	0.465
449.500	302.103	80.010	19.996	100.371	20.123	8.935	0.482
450.000	302.387	80.009	19.996	100.371	20.124	8.886	0.507
450.500	302.639	80.010	19.996	100.368	20.121	9.090	0.526
451.000	302.845	80.007	19.995	100.367	20.124	8.925	0.497
451.500	303.149	80.010	19.996	100.368	20.124	8.888	0.484
452.000	303.384	80.009	19.996	100.365	20.123	8.983	0.525
452.500	303.637	80.010	19.996	100.366	20.123	8.943	0.513
453.000	303.878	80.009	19.997	100.365	20.123	8.941	0.491
453.500	304.110	80.010	19.996	100.365	20.124	8.919	0.484
454.000	304.379	80.010	19.996	100.364	20.121	9.101	0.487
454.500	304.629	80.010	19.995	100.364	20.122	9.037	0.510
455.000	304.871	80.010	19.995	100.364	20.122	9.026	0.506
455.500	305.109	80.010	19.996	100.364	20.122	9.008	0.486
456.000	305.382	80.009	19.996	100.364	20.122	9.016	0.496
456.500	305.636	80.009	19.996	100.364	20.121	9.138	0.520
457.000	305.876	80.008	19.995	100.365	20.121	9.138	0.510
457.500	306.144	80.009	19.994	100.365	20.120	9.157	0.500
458.000	306.407	80.011	19.995	100.364	20.121	9.099	0.519
458.500	306.638	80.010	19.995	100.364	20.123	8.929	0.512
459.000	306.928	80.009	19.996	100.364	20.125	8.834	0.508
459.500	307.162	80.010	19.995	100.364	20.121	9.142	0.523
460.000	307.388	80.011	19.995	100.365	20.118	9.332	0.492
460.500	307.642	80.010	19.996	100.365	20.121	9.127	0.470
461.000	307.872	80.010	19.995	100.366	20.120	9.187	0.482
461.500	308.143	80.011	19.994	100.366	20.117	9.450	0.493
462.000	308.400	80.011	19.995	100.366	20.120	9.210	0.514
462.500	308.656	80.009	19.996	100.365	20.118	9.348	0.520
463.000	308.850	80.010	19.995	100.366	20.119	9.276	0.482
463.501	309.107	80.010	19.995	100.365	20.118	9.324	0.451
464.000	309.377	80.010	19.995	100.365	20.115	9.535	0.489
464.500	309.668	80.011	19.996	100.365	20.118	9.353	0.544
465.000	309.931	80.011	19.995	100.366	20.118	9.332	0.557
465.500	310.148	80.011	19.994	100.367	20.119	9.255	0.517
466.000	310.392	80.011	19.995	100.367	20.117	9.444	0.471
466.500	310.662	80.011	19.994	100.367	20.117	9.407	0.488
467.000	310.959	80.011	19.994	100.368	20.117	9.404	0.541
467.500	311.158	80.012	19.995	100.367	20.117	9.392	0.531
468.000	311.437	80.011	19.995	100.365	20.115	9.545	0.486
468.500	311.730	80.012	19.995	100.365	20.116	9.520	0.525
469.000	311.917	80.012	19.995	100.365	20.117	9.382	0.526
469.500	312.195	80.011	19.994	100.365	20.116	9.469	0.472
470.000	312.472	80.012	19.995	100.365	20.113	9.717	0.510
470.500	312.715	80.011	19.994	100.365	20.116	9.479	0.537
471.000	312.954	80.012	19.994	100.364	20.118	9.357	0.501
471.500	313.212	80.011	19.996	100.362	20.115	9.578	0.490
472.000	313.482	80.012	19.995	100.361	20.115	9.605	0.513
472.500	313.724	80.012	19.995	100.360	20.114	9.647	0.520
473.000	313.985	80.010	19.996	100.359	20.118	9.365	0.508
473.500	314.243	80.010	19.995	100.359	20.115	9.603	0.511
474.000	314.465	80.011	19.994	100.359	20.114	9.638	0.499
474.500	314.746	80.011	19.996	100.359	20.115	9.603	0.492
475.000	314.987	80.011	19.995	100.358	20.114	9.624	0.513
475.500	315.186	80.010	19.996	100.358	20.113	9.727	0.481
476.000	315.455	80.009	19.995	100.359	20.112	9.771	0.454
476.500	315.710	80.008	19.996	100.360	20.115	9.583	0.496
477.000	315.932	80.007	19.996	100.360	20.110	9.947	0.500
477.500	316.221	80.009	19.995	100.361	20.113	9.734	0.495
478.000	316.474	80.009	19.995	100.361	20.114	9.609	0.527
478.500	316.701	80.008	19.995	100.361	20.113	9.698	0.511
479.000	316.950	80.009	19.996	100.360	20.112	9.771	0.477
479.500	317.219	80.009	19.996	100.361	20.112	9.781	0.497
480.000	317.451	80.009	19.996	100.360	20.111	9.905	0.510
480.501	317.723	80.008	19.996	100.360	20.111	9.872	0.503
481.000	317.974	80.008	19.995	100.361	20.110	9.963	0.514
481.500	318.222	80.008	19.995	100.361	20.112	9.765	0.511
482.000	318.455	80.008	19.995	100.361	20.109	10.048	0.489
482.500	318.726	80.009	19.996	100.362	20.112	9.789	0.492
483.000	318.998	80.008	19.995	100.362	20.112	9.820	0.524
483.500	319.229	80.008	19.995	100.362	20.113	9.740	0.523
484.000	319.466	80.008	19.995	100.362	20.112	9.804	0.485
484.500	319.701	80.008	19.995	100.362	20.108	10.092	0.470
485.000	319.962	80.008	19.995	100.362	20.112	9.823	0.484
485.500	320.240	80.009	19.995	100.361	20.110	9.974	0.517
486.000	320.497	80.008	19.996	100.362	20.111	9.889	0.537
486.500	320.674	80.009	19.995	100.362	20.109	10.003	0.485
487.000	320.950	80.010	19.996	100.362	20.111	9.907	0.444
487.500	321.227	80.008	19.995	100.362	20.111	9.852	0.503
488.000	321.468	80.007	19.996	100.362	20.110	9.959	0.535
488.500	321.756	80.010	19.995	100.362	20.108	10.077	0.523
489.000	321.987	80.009	19.996	100.362	20.111	9.893	0.524
489.500	322.222	80.011	19.996	100.362	20.111	9.885	0.492
490.000	322.455	80.010	19.995	100.361	20.110	9.914	0.467
490.500	322.715	80.009	19.996	100.361	20.108	10.067	0.480
491.000	322.978	80.010	19.995	100.361	20.109	10.019	0.508
491.500	323.211	80.008	19.995	100.361	20.109	10.048	0.510
492.000	323.478	80.010	19.995	100.361	20.108	10.088	0.498
492.500	323.749	80.009	19.995	100.363	20.110	9.947	0.519
493.000	323.983	80.010	19.995	100.362	20.109	10.015	0.521
493.500	324.190	80.010	19.996	100.362	20.108	10.114	0.473
494.000	324.446	80.010	19.995	100.362	20.108	10.129	0.452
494.500	324.698	80.010	19.994	100.362	20.109	10.011	0.485
495.000	324.962	80.010	19.995	100.362	20.107	10.158	0.512
495.500	325.222	80.010	19.994	100.363	20.109	10.060	0.520
496.000	325.463	80.011	19.996	100.362	20.109	10.060	0.513
496.500	325.742	80.011	19.995	100.362	20.107	10.176	0.510
497.000	325.951	80.009	19.996	100.362	20.106	10.232	0.504
497.500	326.249	80.011	19.995	100.362	20.107	10.156	0.498
498.000	326.497	80.010	19.996	100.362	20.106	10.263	0.527
498.500	326.734	80.010	19.995	100.363	20.106	10.218	0.515
499.000	326.987	80.010	19.997	100.363	20.106	10.253	0.487
499.500	327.215	80.010	19.995	100.362	20.106	10.222	0.486
500.000	327.448	80.009	19.996	100.362	20.105	10.317	0.471
500.500	327.721	80.011	19.995	100.362	20.108	10.096	0.483
501.000	327.955	80.010	19.995	100.362	20.107	10.206	0.507
501.500	328.239	80.010	19.995	100.362	20.107	10.179	0.513
502.000	328.450	80.010	19.995	100.363	20.101	10.630	0.507
502.500	328.722	80.010	19.996	100.363	20.104	10.371	0.489
503.000	328.995	80.010	19.996	100.363	20.104	10.398	0.514
503.500	329.229	80.009	19.996	100.362	20.106	10.267	0.526
504.000	329.473	80.009	19.995	100.362	20.101	10.605	0.492
504.500	329.706	80.009	19.995	100.362	20.102	10.532	0.477
505.000	329.996	80.009	19.996	100.362	20.104	10.410	0.500
505.500	330.199	80.008	19.995	100.360	20.101	10.653	0.508
506.000	330.457	80.007	19.995	100.362	20.106	10.276	0.477
506.500	330.738	80.009	19.995	100.362	20.104	10.384	0.500
507.000	330.974	80.008	19.996	100.361	20.103	10.474	0.528
507.500	331.237	80.009	19.995	100.361	20.102	10.590	0.508
508.000	331.433	80.007	19.996	100.363	20.100	10.687	0.479
508.500	331.731	80.009	19.996	100.362	20.102	10.532	0.477
509.000	331.981	80.008	19.996	100.362	20.102	10.584	0.521
509.500	332.234	80.007	19.996	100.363	20.103	10.458	0.525
510.000	332.443	80.008	19.995	100.363	20.101	10.603	0.482
510.500	332.734	80.008	19.995	100.363	20.101	10.640	0.481
511.001	332.982	80.008	19.996	100.365	20.105	10.334	0.520
511.500	333.231	80.008	19.997	100.364	20.103	10.516	0.519
512.000	333.449	80.008	19.996	100.364	20.104	10.423	0.482
512.500	333.741	80.007	19.997	100.365	20.103	10.443	0.488
513.000	333.967	80.009	19.996	100.365	20.104	10.392	0.514
513.500	334.232	80.007	19.996	100.364	20.102	10.582	0.504
514.000	334.477	80.009	19.996	100.362	20.102	10.538	0.501
514.500	334.732	80.008	19.996	100.362	20.101	10.629	0.505
515.000	334.977	80.009	19.996	100.362	20.100	10.718	0.500
515.500	335.215	80.007	19.996	100.362	20.103	10.507	0.492
516.000	335.442	80.009	19.996	100.363	20.100	10.725	0.474
516.500	335.721	80.008	19.996	100.365	20.103	10.518	0.485
517.000	335.938	80.007	19.996	100.365	20.100	10.702	0.501
517.500	336.227	80.008	19.995	100.365	20.100	10.719	0.501
518.000	336.412	80.008	19.996	100.362	20.100	10.694	0.490
518.500	336.677	80.008	19.996	100.361	20.098	10.829	0.462
519.000	336.925	80.008	19.996	100.361	20.103	10.497	0.482
519.500	337.200	80.009	19.995	100.362	20.099	10.793	0.518
520.000	337.445	80.010	19.996	100.362	20.100	10.743	0.521
520.500	337.734	80.011	19.996	100.364	20.099	10.772	0.527
521.001	337.941	80.011	19.996	100.367	20.101	10.607	0.515
521.500	338.224	80.009	19.995	100.366	20.099	10.760	0.493
522.000	338.448	80.010	19.996	100.365	20.099	10.766	0.499
522.500	338.691	80.010	19.995	100.365	20.098	10.834	0.487
523.000	338.918	80.010	19.995	100.365	20.098	10.859	0.469
523.500	339.241	80.010	19.996	100.363	20.098	10.838	0.510
524.000	339.479	80.010	19.995	100.363	20.099	10.764	0.555
524.500	339.721	80.010	19.996	100.363	20.097	10.903	0.520
525.000	339.972	80.011	19.995	100.361	20.098	10.872	0.486
525.500	340.220	80.009	19.996	100.360	20.097	10.905	0.496
526.000	340.483	80.011	19.995	100.361	20.095	11.122	0.505
526.500	340.737	80.009	19.996	100.361	20.096	11.047	0.514
527.000	340.999	80.010	19.995	100.362	20.097	10.966	0.517
527.500	341.198	80.010	19.996	100.364	20.094	11.194	0.489
528.000	341.520	80.010	19.995	100.364	20.097	10.900	0.491
528.500	341.756	80.009	19.995	100.365	20.097	10.952	0.539
529.000	341.959	80.009	19.995	100.365	20.096	10.998	0.498
529.500	342.244	80.010	19.995	100.366	20.098	10.867	0.463
530.000	342.484	80.009	19.995	100.362	20.095	11.093	0.506
530.500	342.723	80.012	19.996	100.361	20.096	11.018	0.502
531.000	342.949	80.009	19.996	100.361	20.094	11.151	0.472
531.500	343.215	80.008	19.996	100.361	20.093	11.219	0.479
532.000	343.472	80.010	19.996	100.360	20.091	11.361	0.508
532.500	343.747	80.009	19.997	100.363	20.093	11.262	0.528
533.000	343.965	80.011	19.996	100.362	20.095	11.103	0.512
533.500	344.202	80.010	19.996	100.361	20.093	11.272	0.474
534.000	344.469	80.009	19.996	100.361	20.091	11.409	0.479
534.500	344.695	80.009	19.995	100.361	20.094	11.173	0.498
535.000	344.979	80.009	19.995	100.362	20.089	11.527	0.501
535.500	345.217	80.009	19.996	100.363	20.094	11.175	0.516
536.000	345.490	80.009	19.997	100.362	20.093	11.223	0.517
536.500	345.743	80.009	19.996	100.360	20.093	11.211	0.519
537.000	346.008	80.009	19.996	100.357	20.092	11.331	0.522
537.500	346.224	80.009	19.996	100.357	20.092	11.326	0.499
538.000	346.514	80.009	19.997	100.358	20.094	11.150	0.493
538.500	346.727	80.010	19.997	100.357	20.090	11.446	0.505
539.000	346.966	80.010	19.997	100.359	20.090	11.482	0.477
539.500	347.180	80.010	19.997	100.361	20.091	11.353	0.453
540.000	347.453	80.009	19.997	100.361	20.092	11.324	0.471
540.500	347.736	80.010	19.996	100.361	20.092	11.295	0.522
541.000	347.975	80.009	19.997	100.361	20.089	11.525	0.539
541.500	348.228	80.010	19.996	100.360	20.090	11.481	0.507
542.000	348.492	80.011	19.996	100.360	20.093	11.260	0.504
542.500	348.756	80.010	19.996	100.359	20.090	11.438	0.522
543.000	348.996	80.009	19.997	100.357	20.090	11.466	0.516
543.500	349.244	80.010	19.997	100.356	20.087	11.698	0.496
544.000	349.520	80.010	19.996	100.357	20.091	11.390	0.506
544.500	349.724	80.010	19.996	100.356	20.089	11.545	0.502
545.000	350.006	80.011	19.996	100.356	20.088	11.583	0.483
545.500	350.277	80.011	19.997	100.358	20.088	11.587	0.519
546.000	350.516	80.011	19.996	100.358	20.089	11.511	0.531
546.500	350.743	80.012	19.996	100.358	20.089	11.569	0.488
547.000	351.014	80.012	19.996	100.358	20.088	11.606	0.482
547.500	351.263	80.010	19.996	100.359	20.087	11.668	0.509
548.000	351.527	80.011	19.995	100.359	20.086	11.754	0.516
548.500	351.753	80.012	19.995	100.359	20.086	11.771	0.502
549.000	352.024	80.011	19.995	100.358	20.089	11.514	0.494
549.500	352.290	80.011	19.996	100.358	20.088	11.603	0.517
550.000	352.564	80.012	19.996	100.358	20.089	11.552	0.539
550.500	352.792	80.012	19.995	100.358	20.088	11.583	0.521
551.001	353.055	80.011	19.995	100.358	20.089	11.569	0.496
551.501	353.332	80.012	19.995	100.358	20.084	11.887	0.515
552.001	353.614	80.013	19.995	100.356	20.086	11.749	0.550
552.500	353.825	80.012	19.995	100.354	20.086	11.745	0.526
553.000	354.085	80.013	19.995	100.354	20.087	11.685	0.482
553.500	354.317	80.012	19.995	100.352	20.084	11.927	0.481
554.000	354.559	80.012	19.994	100.347	20.083	11.982	0.484
554.500	354.849	80.011	19.994	100.349	20.087	11.728	0.503
555.000	355.087	80.010	19.995	100.351	20.085	11.839	0.530
555.500	355.306	80.012	19.994	100.351	20.087	11.657	0.492
556.001	355.566	80.012	19.995	100.354	20.083	11.995	0.468
556.500	355.821	80.011	19.995	100.359	20.086	11.744	0.497
557.000	356.068	80.010	19.995	100.359	20.086	11.786	0.509
557.500	356.352	80.009	19.996	100.359	20.087	11.705	0.517
558.000	356.561	80.009	19.995	100.358	20.084	11.957	0.512
558.500	356.831	80.010	19.995	100.356	20.084	11.941	0.486
559.000	357.078	80.009	19.994	100.353	20.085	11.819	0.498
559.500	357.341	80.010	19.995	100.352	20.081	12.171	0.513
560.000	357.557	80.009	19.995	100.352	20.083	11.960	0.494
560.500	357.866	80.009	19.995	100.355	20.083	11.959	0.502
561.000	358.084	80.009	19.996	100.356	20.082	12.106	0.526
561.500	358.337	80.009	19.995	100.359	20.084	11.930	0.499
562.000	358.574	80.009	19.994	100.359	20.082	12.070	0.481
562.500	358.847	80.009	19.995	100.360	20.080	12.215	0.500
563.000	359.074	80.010	19.995	100.360	20.080	12.200	0.505
563.500	359.364	80.009	19.995	100.360	20.080	12.218	0.508
564.000	359.572	80.009	19.996	100.360	20.083	12.016	0.507
564.500	359.828	80.009	19.995	100.359	20.079	12.291	0.481
565.000	360.093	80.010	19.996	100.358	20.082	12.105	0.493
565.501	360.302	80.009	19.995	100.357	20.082	12.063	0.497
566.000	360.569	80.010	19.996	100.355	20.081	12.119	0.475
566.500	360.844	80.009	19.995	100.355	20.083	12.005	0.509
567.000	361.095	80.008	19.995	100.358	20.079	12.274	0.534
567.500	361.308	80.007	19.995	100.359	20.079	12.268	0.495
568.000	361.590	80.008	19.995	100.357	20.080	12.229	0.479
568.500	361.843	80.008	19.996	100.355	20.079	12.332	0.515
569.000	362.110	80.009	19.995	100.355	20.079	12.292	0.528
569.500	362.349	80.009	19.994	100.355	20.079	12.288	0.513
570.000	362.563	80.009	19.995	100.355	20.076	12.523	0.479
570.500	362.879	80.008	19.996	100.358	20.077	12.473	0.492
571.000	363.121	80.009	19.995	100.359	20.076	12.513	0.544
571.500	363.368	80.008	19.996	100.355	20.077	12.425	0.523
572.000	363.570	80.009	19.996	100.353	20.077	12.424	0.469
572.500	363.846	80.007	19.996	100.352	20.077	12.422	0.464
573.000	364.067	80.009	19.995	100.350	20.075	12.567	0.488
573.500	364.340	80.008	19.995	100.353	20.077	12.434	0.496
574.000	364.585	80.009	19.996	100.357	20.074	12.691	0.506
574.500	364.848	80.008	19.995	100.360	20.077	12.447	0.513
575.000	365.110	80.008	19.995	100.361	20.079	12.310	0.516
575.500	365.349	80.010	19.995	100.362	20.076	12.537	0.513
576.000	365.579	80.009	19.996	100.360	20.075	12.627	0.485
576.500	365.837	80.010	19.996	100.359	20.075	12.615	0.478
577.000	366.100	80.008	19.995	100.359	20.075	12.588	0.505
577.500	366.363	80.009	19.995	100.358	20.075	12.636	0.524
578.000	366.608	80.009	19.996	100.355	20.076	12.489	0.517
578.500	366.863	80.010	19.995	100.358	20.076	12.489	0.504
579.000	367.117	80.010	19.994	100.358	20.076	12.561	0.504
579.500	367.364	80.010	19.996	100.357	20.075	12.630	0.505
580.000	367.670	80.009	19.995	100.354	20.074	12.690	0.527
580.500	367.852	80.008	19.996	100.352	20.076	12.518	0.521
581.000	368.132	80.009	19.995	100.348	20.072	12.797	0.475
581.500	368.348	80.009	19.995	100.346	20.071	12.869	0.479
582.000	368.636	80.008	19.995	100.346	20.073	12.718	0.500
582.500	368.872	80.008	19.996	100.344	20.073	12.774	0.514
583.000	369.125	80.009	19.995	100.346	20.072	12.805	0.507
583.500	369.381	80.009	19.995	100.348	20.073	12.759	0.499
584.000	369.615	80.008	19.995	100.347	20.073	12.745	0.499
584.500	369.877	80.009	19.996	100.343	20.072	12.801	0.493
585.000	370.129	80.008	19.996	100.346	20.070	12.968	0.505
585.500	370.354	80.008	19.995	100.347	20.072	12.854	0.495
586.000	370.633	80.009	19.995	100.346	20.071	12.879	0.490
586.500	370.872	80.009	19.994	100.346	20.069	13.084	0.511
587.000	371.095	80.009	19.994	100.350	20.070	12.988	0.490
587.500	371.400	80.008	19.995	100.353	20.073	12.742	0.495
588.000	371.620	80.008	19.994	100.354	20.071	12.924	0.527
588.500	371.885	80.009	19.995	100.354	20.072	12.811	0.505
589.000	372.161	80.010	19.995	100.355	20.068	13.130	0.513
589.500	372.388	80.008	19.995	100.356	20.069	13.089	0.522
590.000	372.657	80.009	19.995	100.355	20.069	13.050	0.499
590.500	372.940	80.009	19.995	100.357	20.069	13.020	0.524
591.000	373.140	80.009	19.995	100.357	20.070	12.959	0.518
591.500	373.411	80.009	19.995	100.356	20.068	13.126	0.477
592.000	373.722	80.009	19.995	100.355	20.067	13.188	0.527
592.500	373.912	80.008	19.995	100.351	20.071	12.923	0.541
593.000	374.174	80.009	19.994	100.349	20.068	13.107	0.476
593.500	374.448	80.009	19.995	100.348	20.067	13.234	0.494
594.000	374.709	80.010	19.994	100.349	20.067	13.198	0.535
594.500	374.919	80.008	19.995	100.347	20.066	13.302	0.503
595.000	375.197	80.009	19.995	100.350	20.065	13.335	0.480
595.500	375.446	80.009	19.996	100.350	20.069	13.044	0.508
596.000	375.684	80.009	19.995	100.350	20.069	13.079	0.507
596.500	375.920	80.009	19.995	100.349	20.065	13.376	0.480
597.000	376.155	80.008	19.995	100.350	20.063	13.525	0.472
597.500	376.439	80.010	19.995	100.347	20.066	13.301	0.495
598.000	376.647	80.009	19.995	100.344	20.066	13.295	0.506
598.500	376.932	80.009	19.995	100.342	20.068	13.131	0.493
599.000	377.186	80.009	19.995	100.346	20.066	13.311	0.516
599.500	377.437	80.010	19.995	100.348	20.065	13.365	0.522
600.000	377.655	80.010	19.995	100.352	20.065	13.368	0.487
600.500	377.894	80.010	19.995	100.355	20.063	13.508	0.463
601.000	378.200	80.011	19.995	100.356	20.067	13.179	0.501
601.500	378.404	80.010	19.995	100.351	20.061	13.630	0.527
602.000	378.700	80.010	19.995	100.346	20.061	13.696	0.505
602.500	378.946	80.010	19.995	100.341	20.062	13.590	0.521
603.000	379.159	80.010	19.996	100.338	20.066	13.311	0.501
603.500	379.439	80.010	19.996	100.336	20.064	13.406	0.476
604.000	379.704	80.009	19.995	100.337	20.063	13.515	0.519
604.500	379.953	80.009	19.995	100.339	20.062	13.565	0.530
605.000	380.185	80.011	19.996	100.338	20.061	13.650	0.498
605.500	380.475	80.009	19.996	100.337	20.062	13.570	0.501
606.000	380.695	80.009	19.997	100.341	20.062	13.585	0.516
606.500	380.967	80.010	19.996	100.343	20.061	13.683	0.501
607.000	381.179	80.011	19.995	100.346	20.060	13.709	0.488
607.500	381.452	80.011	19.996	100.350	20.057	13.930	0.484
608.000	381.648	80.011	19.996	100.350	20.060	13.710	0.477
608.501	381.915	80.011	19.998	100.348	20.062	13.573	0.467
609.000	382.185	80.011	19.997	100.346	20.062	13.618	0.500
609.500	382.469	80.011	19.996	100.345	20.061	13.685	0.545
610.000	382.673	80.012	19.997	100.345	20.059	13.802	0.521
610.500	382.935	80.011	19.996	100.349	20.057	13.973	0.477
611.000	383.204	80.011	19.996	100.349	20.056	14.066	0.499
611.500	383.445	80.011	19.996	100.348	20.060	13.726	0.521
612.000	383.655	80.009	19.997	100.346	20.059	13.834	0.480
612.500	383.913	80.010	19.996	100.347	20.055	14.089	0.460
613.000	384.176	80.009	19.996	100.342	20.055	14.153	0.494
613.500	384.437	80.011	19.996	100.344	20.056	14.057	0.522
614.000	384.702	80.009	19.996	100.342	20.052	14.380	0.525
614.500	384.940	80.009	19.996	100.342	20.054	14.219	0.515
615.000	385.177	80.009	19.995	100.336	20.052	14.337	0.489
615.500	385.413	80.010	19.997	100.340	20.049	14.574	0.474
616.000	385.679	80.010	19.996	100.342	20.053	14.299	0.488
616.500	385.905	80.011	19.996	100.347	20.052	14.382	0.497
617.000	386.160	80.011	19.996	100.352	20.051	14.448	0.486
617.500	386.472	80.010	19.995	100.357	20.050	14.507	0.524
618.000	386.667	80.009	19.996	100.354	20.051	14.446	0.537
618.500	386.944	80.011	19.996	100.350	20.050	14.460	0.489
619.000	387.155	80.009	19.995	100.344	20.047	14.696	0.480
619.500	387.423	80.010	19.996	100.341	20.047	14.708	0.484
620.000	387.658	80.010	19.996	100.338	20.049	14.539	0.491
620.500	387.883	80.011	19.996	100.338	20.048	14.661	0.482
621.000	388.171	80.011	19.996	100.338	20.047	14.745	0.486
621.500	388.422	80.011	19.995	100.343	20.050	14.521	0.526
622.000	388.664	80.011	19.996	100.342	20.049	14.588	0.516
622.500	388.888	80.010	19.996	100.341	20.045	14.848	0.479
623.000	389.131	80.011	19.995	100.342	20.045	14.850	0.466
623.500	389.398	80.011	19.996	100.344	20.047	14.732	0.488
624.000	389.628	80.011	19.995	100.341	20.046	14.829	0.503
624.500	389.902	80.011	19.995	100.341	20.044	14.989	0.501
625.000	390.123	80.011	19.996	100.343	20.044	14.987	0.500
625.500	390.393	80.011	19.996	100.345	20.044	14.966	0.493
626.000	390.625	80.012	19.996	100.347	20.043	15.053	0.496
626.500	390.856	80.010	19.996	100.349	20.043	15.057	0.482
627.000	391.102	80.011	19.996	100.352	20.044	14.933	0.470
627.500	391.375	80.010	19.996	100.352	20.041	15.185	0.498
628.000	391.614	80.011	19.996	100.351	20.040	15.264	0.516
628.500	391.876	80.013	19.996	100.345	20.043	15.061	0.507
629.000	392.123	80.013	19.997	100.341	20.042	15.092	0.505
629.500	392.349	80.012	19.996	100.336	20.040	15.283	0.490
630.000	392.624	80.013	19.996	100.336	20.042	15.082	0.486
630.500	392.857	80.012	19.995	100.334	20.040	15.237	0.504
631.000	393.123	80.011	19.996	100.336	20.038	15.421	0.504
631.500	393.399	80.012	19.995	100.338	20.042	15.080	0.520
632.000	393.658	80.012	19.996	100.343	20.042	15.133	0.538
632.500	393.898	80.012	19.996	100.343	20.039	15.293	0.517
633.000	394.121	80.012	19.996	100.346	20.041	15.166	0.482
633.500	394.381	80.012	19.996	100.346	20.041	15.187	0.473
634.000	394.629	80.011	19.996	100.344	20.040	15.258	0.495
634.500	394.893	80.011	19.997	100.341	20.040	15.292	0.510
635.000	395.143	80.011	19.996	100.344	20.037	15.465	0.513
635.500	395.403	80.011	19.996	100.344	20.040	15.257	0.512
636.000	395.633	80.011	19.995	100.346	20.036	15.547	0.500
636.500	395.889	80.011	19.995	100.346	20.037	15.457	0.488
637.000	396.142	80.012	19.995	100.346	20.037	15.500	0.497
637.500	396.391	80.011	19.996	100.342	20.036	15.525	0.506
638.000	396.665	80.012	19.996	100.343	20.036	15.529	0.513
638.500	396.934	80.010	19.995	100.342	20.036	15.554	0.533
639.000	397.121	80.009	19.996	100.344	20.035	15.637	0.499
639.500	397.422	80.010	19.997	100.344	20.037	15.507	0.472
640.000	397.680	80.010	19.996	100.344	20.035	15.602	0.524
640.500	397.907	80.009	19.996	100.344	20.036	15.531	0.522
641.000	398.165	80.009	19.996	100.344	20.037	15.516	0.485
641.501	398.416	80.007	19.997	100.346	20.035	15.619	0.497
642.000	398.704	80.008	19.995	100.345	20.035	15.629	0.523
642.500	398.918	80.007	19.996	100.344	20.032	15.877	0.520
643.000	399.193	80.009	19.996	100.342	20.038	15.418	0.495
643.500	399.466	80.007	19.996	100.343	20.034	15.710	0.519
644.000	399.699	80.009	19.996	100.341	20.032	15.874	0.528
644.500	399.968	80.010	19.996	100.343	20.034	15.747	0.504
645.000	400.224	80.009	19.996	100.349	20.035	15.629	0.513
645.500	400.510	80.008	19.996	100.350	20.033	15.789	0.533
646.000	400.719	80.009	19.996	100.349	20.032	15.877	0.519
646.500	400.997	80.008	19.995	100.351	20.033	15.810	0.491
647.000	401.248	80.010	19.995	100.352	20.034	15.725	0.508
647.500	401.503	80.009	19.996	100.348	20.031	15.931	0.518
648.000	401.769	80.008	19.996	100.348	20.029	16.107	0.513
648.500	401.968	80.010	19.995	100.345	20.029	16.091	0.493
649.000	402.255	80.010	19.995	100.345	20.029	16.052	0.476
649.500	402.527	80.010	19.996	100.345	20.027	16.207	0.523
650.000	402.783	80.009	19.996	100.348	20.026	16.284	0.543
650.500	403.042	80.009	19.996	100.347	20.026	16.322	0.521
651.000	403.292	80.009	19.994	100.347	20.026	16.330	0.512
651.500	403.591	80.010	19.995	100.342	20.025	16.406	0.529
652.000	403.811	80.009	19.996	100.340	20.026	16.342	0.534
652.500	404.068	80.011	19.996	100.339	20.023	16.536	0.498
653.000	404.341	80.009	19.996	100.336	20.022	16.605	0.504
653.500	404.568	80.009	19.995	100.336	20.023	16.551	0.515
654.000	404.842	80.009	19.995	100.337	20.026	16.326	0.500
654.501	405.099	80.010	19.995	100.341	20.023	16.508	0.516
655.000	405.337	80.011	19.994	100.343	20.021	16.701	0.513
655.500	405.644	80.010	19.996	100.350	20.021	16.663	0.520
656.000	405.870	80.009	19.995	100.353	20.018	16.924	0.539
656.500	406.121	80.009	19.995	100.353	20.017	17.023	0.505
657.000	406.402	80.010	19.995	100.349	20.015	17.124	0.504
657.500	406.654	80.010	19.995	100.345	20.018	16.949	0.532
658.000	406.896	80.009	19.995	100.341	20.017	17.029	0.513
658.500	407.169	80.010	19.995	100.339	20.016	17.039	0.504
659.000	407.420	80.010	19.995	100.338	20.012	17.363	0.519
659.500	407.655	80.010	19.995	100.340	20.011	17.437	0.506
660.000	407.937	80.010	19.995	100.342	20.010	17.543	0.502
660.500	408.169	80.010	19.996	100.344	20.010	17.506	0.515
661.000	408.458	80.010	19.995	100.348	20.014	17.243	0.517
661.500	408.692	80.009	19.995	100.350	20.012	17.392	0.522
662.000	408.935	80.010	19.995	100.348	20.009	17.582	0.500
662.500	409.187	80.008	19.996	100.345	20.010	17.518	0.486
663.000	409.423	80.009	19.994	100.344	20.006	17.832	0.492
663.500	409.683	80.009	19.995	100.345	20.006	17.830	0.492
664.000	409.958	80.009	19.997	100.346	20.007	17.739	0.515
664.500	410.255	80.008	19.994	100.349	20.008	17.654	0.553
665.000	410.455	80.008	19.996	100.347	20.007	17.749	0.534
665.500	410.734	80.009	19.996	100.348	20.006	17.805	0.488
666.000	410.975	80.010	19.995	100.349	20.004	17.973	0.500
666.500	411.217	80.010	19.996	100.349	20.008	17.702	0.501
667.000	411.479	80.008	19.995	100.350	20.002	18.125	0.493
667.500	411.736	80.011	19.995	100.350	20.001	18.185	0.511
668.000	412.012	80.009	19.996	100.346	20.002	18.136	0.526
668.500	412.276	80.010	19.996	100.339	20.001	18.227	0.537
669.001	412.500	80.009	19.995	100.336	20.002	18.167	0.514
669.500	412.745	80.008	19.995	100.334	19.999	18.352	0.478
670.000	412.988	80.009	19.995	100.337	20.000	18.295	0.478
670.500	413.256	80.008	19.995	100.337	19.997	18.474	0.500
671.000	413.500	80.008	19.995	100.340	19.996	18.596	0.512
671.500	413.746	80.010	19.995	100.339	19.995	18.699	0.501
672.000	413.980	80.008	19.995	100.338	19.994	18.730	0.485
672.500	414.234	80.010	19.996	100.339	19.993	18.842	0.484
673.000	414.465	80.007	19.995	100.339	19.994	18.747	0.486
673.500	414.728	80.008	19.996	100.336	19.989	19.153	0.489
674.000	414.961	80.008	19.995	100.339	19.993	18.830	0.495
674.500	415.252	80.007	19.996	100.338	19.990	19.012	0.510
675.000	415.490	80.009	19.996	100.336	19.991	18.952	0.526
675.500	415.725	80.008	19.995	100.336	19.992	18.872	0.501
676.000	415.989	80.008	19.996	100.336	19.990	19.064	0.486
676.500	416.235	80.009	19.995	100.337	19.991	18.983	0.504
677.000	416.472	80.009	19.994	100.339	19.990	19.037	0.496
677.500	416.764	80.008	19.995	100.339	19.990	19.006	0.506
678.000	416.985	80.009	19.996	100.341	19.992	18.871	0.521
678.500	417.259	80.007	19.995	100.346	19.986	19.336	0.503
679.000	417.488	80.009	19.994	100.346	19.987	19.249	0.499
679.500	417.758	80.009	19.995	100.346	19.987	19.253	0.502
680.000	418.048	80.009	19.995	100.347	19.985	19.392	0.530
680.500	418.282	80.010	19.996	100.342	19.986	19.335	0.542
681.000	418.492	80.009	19.995	100.335	19.986	19.362	0.484
681.500	418.772	80.009	19.996	100.331	19.987	19.275	0.467
682.000	419.020	80.009	19.995	100.329	19.983	19.574	0.509
682.500	419.229	80.010	19.996	100.327	19.982	19.628	0.492
683.000	419.518	80.010	19.996	100.328	19.983	19.577	0.478
683.500	419.778	80.011	19.995	100.329	19.983	19.539	0.524
684.000	420.055	80.011	19.995	100.329	19.982	19.624	0.543
684.501	420.297	80.011	19.995	100.330	19.982	19.640	0.528
685.000	420.531	80.010	19.995	100.332	19.977	20.050	0.498
685.500	420.805	80.012	19.995	100.331	19.979	19.877	0.492
686.000	421.052	80.010	19.995	100.330	19.978	19.956	0.515
686.500	421.299	80.011	19.995	100.331	19.977	20.054	0.507
687.000	421.539	80.012	19.995	100.330	19.975	20.208	0.490
687.500	421.833	80.012	19.995	100.328	19.973	20.367	0.510
688.000	422.075	80.010	19.995	100.330	19.974	20.255	0.535
688.500	422.326	80.012	19.995	100.330	19.972	20.399	0.514
689.000	422.595	80.011	19.995	100.330	19.972	20.426	0.506
689.500	422.845	80.011	19.995	100.328	19.968	20.678	0.520
690.000	423.090	80.011	19.995	100.327	19.967	20.797	0.507
690.500	423.408	80.012	19.995	100.326	19.969	20.656	0.529
691.000	423.599	80.011	19.995	100.326	19.970	20.542	0.536
691.500	423.863	80.013	19.995	100.330	19.968	20.720	0.482
692.000	424.140	80.013	19.995	100.332	19.969	20.660	0.498
692.500	424.384	80.012	19.995	100.333	19.969	20.638	0.531
693.000	424.603	80.012	19.996	100.336	19.966	20.867	0.492
693.500	424.881	80.012	19.995	100.336	19.966	20.870	0.480
694.000	425.146	80.011	19.995	100.332	19.966	20.887	0.520
694.500	425.357	80.011	19.995	100.328	19.965	20.953	0.510
695.000	425.646	80.012	19.996	100.328	19.963	21.056	0.488
695.500	425.916	80.011	19.995	100.327	19.965	20.963	0.530
696.000	426.148	80.011	19.996	100.329	19.965	20.969	0.531
696.500	426.419	80.010	19.995	100.331	19.962	21.177	0.502
697.000	426.684	80.011	19.995	100.335	19.960	21.343	0.519
697.500	426.926	80.011	19.995	100.337	19.961	21.225	0.521
698.000	427.169	80.011	19.996	100.340	19.959	21.383	0.496
698.500	427.457	80.010	19.995	100.339	19.958	21.472	0.508
699.000	427.644	80.010	19.995	100.340	19.957	21.561	0.503
699.500	427.941	80.011	19.995	100.337	19.957	21.516	0.480
700.000	428.182	80.012	19.996	100.334	19.956	21.594	0.511
700.500	428.427	80.011	19.995	100.332	19.955	21.666	0.512
701.000	428.715	80.011	19.996	100.337	19.953	21.837	0.509
701.500	428.968	80.010	19.996	100.337	19.952	21.944	0.537
702.000	429.190	80.010	19.996	100.337	19.952	21.946	0.508
702.500	429.436	80.011	19.995	100.336	19.951	21.984	0.472
703.000	429.705	80.010	19.996	100.335	19.949	22.159	0.491
703.500	429.908	80.011	19.995	100.330	19.949	22.129	0.493
704.000	430.179	80.011	19.995	100.328	19.949	22.133	0.473
704.500	430.440	80.011	19.996	100.331	19.947	22.333	0.503
705.000	430.684	80.010	19.995	100.332	19.948	22.251	0.519
705.500	430.950	80.010	19.996	100.331	19.945	22.444	0.507
706.000	431.220	80.009	19.996	100.332	19.948	22.253	0.523
706.500	431.485	80.010	19.995	100.330	19.949	22.115	0.536
707.000	431.748	80.011	19.995	100.328	19.949	22.140	0.532
707.500	432.004	80.010	19.996	100.327	19.948	22.193	0.523
708.000	432.246	80.011	19.995	100.328	19.946	22.393	0.509
708.500	432.484	80.010	19.995	100.329	19.945	22.432	0.489
709.000	432.763	80.011	19.995	100.331	19.942	22.683	0.499
709.500	433.025	80.011	19.996	100.333	19.944	22.563	0.529
710.000	433.270	80.013	19.996	100.334	19.943	22.575	0.524
710.500	433.507	80.011	19.996	100.333	19.944	22.552	0.494
711.000	433.777	80.012	19.996	100.330	19.943	22.583	0.494
711.500	434.033	80.010	19.995	100.329	19.944	22.513	0.516
712.000	434.307	80.012	19.995	100.327	19.944	22.554	0.528
712.500	434.532	80.012	19.996	100.326	19.944	22.550	0.515
713.000	434.786	80.012	19.995	100.326	19.941	22.763	0.489
713.500	435.062	80.012	19.996	100.325	19.939	22.921	0.504
714.000	435.317	80.012	19.995	100.325	19.942	22.669	0.530
714.500	435.561	80.013	19.996	100.326	19.939	22.891	0.515
715.000	435.811	80.013	19.995	100.326	19.939	22.929	0.497
715.500	436.052	80.011	19.994	100.326	19.939	22.881	0.492
716.000	436.314	80.012	19.995	100.327	19.936	23.115	0.497
716.500	436.560	80.011	19.994	100.329	19.936	23.098	0.506
717.000	436.819	80.011	19.995	100.328	19.934	23.275	0.506
717.500	437.100	80.012	19.996	100.328	19.936	23.110	0.523
718.000	437.311	80.012	19.995	100.329	19.940	22.797	0.516
718.500	437.601	80.012	19.995	100.328	19.935	23.174	0.496
719.000	437.821	80.012	19.995	100.326	19.935	23.190	0.506
719.500	438.110	80.011	19.995	100.326	19.935	23.190	0.510
720.000	438.373	80.010	19.995	100.326	19.936	23.115	0.530
720.500	438.616	80.011	19.995	100.325	19.934	23.318	0.529
721.000	438.871	80.011	19.995	100.326	19.932	23.430	0.502
721.500	439.121	80.011	19.995	100.325	19.933	23.345	0.502
722.000	439.415	80.010	19.995	100.326	19.934	23.297	0.525
722.500	439.627	80.010	19.993	100.325	19.936	23.102	0.525
723.000	439.895	80.009	19.994	100.325	19.930	23.559	0.493
723.500	440.156	80.010	19.998	100.325	19.935	23.212	0.505
724.000	440.411	80.010	19.996	100.326	19.934	23.261	0.522
724.500	440.708	80.007	19.996	100.327	19.931	23.499	0.534
725.000	440.948	80.010	19.997	100.330	19.931	23.489	0.545
725.500	441.217	80.009	19.995	100.333	19.933	23.348	0.523
726.000	441.449	80.009	19.996	100.333	19.933	23.398	0.505
726.500	441.723	80.008	19.996	100.333	19.932	23.451	0.503
727.000	441.958	80.010	19.996	100.332	19.933	23.373	0.508
727.500	442.177	80.008	19.996	100.331	19.929	23.637	0.481
728.000	442.480	80.007	19.996	100.329	19.931	23.548	0.487
728.500	442.705	80.008	19.996	100.330	19.927	23.791	0.525
729.000	442.938	80.007	19.996	100.330	19.927	23.826	0.494
729.500	443.216	80.009	19.998	100.330	19.928	23.772	0.485
730.000	443.457	80.008	19.996	100.328	19.929	23.683	0.514
730.500	443.719	80.008	19.995	100.327	19.927	23.824	0.511
731.000	443.984	80.007	19.997	100.327	19.926	23.867	0.515
731.500	444.241	80.009	19.996	100.327	19.926	23.923	0.525
732.000	444.508	80.009	19.996	100.326	19.926	23.875	0.523
732.500	444.733	80.008	19.997	100.326	19.927	23.797	0.508
733.000	445.020	80.009	19.995	100.326	19.923	24.140	0.502
733.500	445.252	80.009	19.996	100.325	19.923	24.091	0.516
734.000	445.531	80.008	19.996	100.324	19.924	24.074	0.515
734.500	445.764	80.009	19.998	100.324	19.924	24.051	0.512
735.000	446.003	80.008	19.996	100.323	19.924	24.024	0.492
735.500	446.278	80.009	19.996	100.323	19.926	23.859	0.493
736.000	446.511	80.009	19.995	100.324	19.925	23.954	0.511
736.500	446.815	80.010	19.996	100.324	19.922	24.180	0.523
737.000	447.073	80.008	19.997	100.323	19.925	23.948	0.549
737.500	447.297	80.009	19.996	100.322	19.924	24.073	0.522
738.000	447.552	80.010	19.998	100.322	19.922	24.159	0.480
738.500	447.799	80.008	19.996	100.320	19.923	24.145	0.490
739.000	448.108	80.008	19.997	100.321	19.923	24.105	0.529
739.501	448.318	80.009	19.996	100.322	19.925	23.969	0.538
740.001	448.590	80.010	19.996	100.322	19.923	24.122	0.500
740.500	448.867	80.011	19.997	100.323	19.923	24.139	0.515
741.000	449.113	80.010	19.997	100.323	19.924	24.021	0.536
741.500	449.361	80.009	19.997	100.321	19.925	23.973	0.509
742.000	449.609	80.009	19.996	100.321	19.924	24.045	0.495
742.501	449.854	80.010	19.996	100.321	19.922	24.225	0.494
743.000	450.080	80.010	19.998	100.321	19.924	24.050	0.482
743.500	450.327	80.011	19.997	100.322	19.923	24.120	0.472
744.000	450.609	80.011	19.997	100.323	19.923	24.101	0.501
744.500	450.834	80.010	19.998	100.323	19.922	24.198	0.518
745.000	451.087	80.011	19.995	100.323	19.925	23.961	0.493
745.500	451.367	80.008	19.995	100.322	19.926	23.923	0.505
746.000	451.595	80.010	19.995	100.322	19.927	23.799	0.520
746.500	451.827	80.010	19.995	100.323	19.926	23.878	0.484
747.000	452.118	80.009	19.994	100.323	19.925	23.984	0.492
747.500	452.337	80.011	19.994	100.324	19.927	23.849	0.516
748.000	452.610	80.010	19.994	100.324	19.927	23.815	0.501
748.500	452.878	80.011	19.996	100.325	19.925	23.950	0.517
749.000	453.134	80.010	19.996	100.323	19.927	23.799	0.533
749.500	453.407	80.008	19.997	100.323	19.926	23.909	0.526
750.000	453.619	80.009	19.996	100.323	19.928	23.716	0.507
750.500	453.887	80.010	19.994	100.324	19.928	23.770	0.482
751.000	454.131	80.010	19.995	100.324	19.930	23.557	0.496
751.500	454.372	80.010	19.995	100.324	19.931	23.483	0.498
752.000	454.631	80.009	19.995	100.324	19.930	23.593	0.493
752.500	454.900	80.011	19.996	100.323	19.932	23.408	0.514
753.000	455.154	80.009	19.996	100.324	19.930	23.593	0.526
753.500	455.424	80.009	19.996	100.323	19.931	23.510	0.523
754.000	455.686	80.008	19.994	100.324	19.934	23.322	0.528
754.500	455.909	80.009	19.995	100.324	19.933	23.369	0.508
755.000	456.161	80.007	19.996	100.323	19.934	23.256	0.480
755.500	456.432	80.009	19.995	100.323	19.934	23.318	0.499
756.000	456.713	80.009	19.995	100.323	19.936	23.166	0.537
756.500	456.954	80.009	19.996	100.324	19.935	23.228	0.537
757.000	457.208	80.009	19.995	100.324	19.940	22.846	0.509
757.500	457.442	80.007	19.996	100.325	19.939	22.889	0.492
758.000	457.688	80.008	19.995	100.324	19.940	22.794	0.484
758.500	457.967	80.007	19.994	100.324	19.938	22.967	0.502
759.000	458.208	80.008	19.995	100.322	19.938	22.949	0.523
759.500	458.485	80.008	19.995	100.322	19.943	22.568	0.519
760.000	458.707	80.009	19.995	100.322	19.941	22.723	0.508
760.500	459.033	80.008	19.995	100.322	19.944	22.508	0.524
761.000	459.266	80.009	19.996	100.323	19.944	22.529	0.554
761.500	459.517	80.009	19.996	100.324	19.947	22.325	0.521
762.000	459.777	80.009	19.996	100.323	19.947	22.279	0.497
762.501	460.000	80.008	19.996	100.324	19.948	22.252	0.497
763.000	460.289	80.008	19.996	100.324	19.950	22.075	0.498
763.500	460.500	80.008	19.995	100.324	19.953	21.816	0.507
764.000	460.793	80.009	19.995	100.324	19.952	21.950	0.502
764.500	461.039	80.011	19.995	100.324	19.954	21.797	0.521
765.000	461.315	80.008	19.996	100.324	19.957	21.512	0.530
765.500	461.565	80.009	19.995	100.325	19.958	21.456	0.524
766.000	461.824	80.008	19.996	100.325	19.955	21.717	0.517
766.500	462.048	80.011	19.996	100.324	19.958	21.431	0.496
767.000	462.322	80.012	19.995	100.324	19.962	21.154	0.490
767.500	462.569	80.010	19.995	100.324	19.965	20.970	0.510
768.000	462.779	80.010	19.995	100.324	19.966	20.894	0.490
768.500	463.061	80.010	19.996	100.324	19.964	20.985	0.474
769.000	463.348	80.011	19.994	100.325	19.964	20.991	0.530
769.500	463.572	80.010	19.995	100.330	19.968	20.722	0.540
770.000	463.832	80.009	19.996	100.331	19.968	20.681	0.498
770.500	464.072	80.011	19.996	100.330	19.970	20.577	0.492
771.000	464.346	80.010	19.996	100.330	19.973	20.309	0.507
771.500	464.585	80.010	19.994	100.330	19.977	19.990	0.514
772.000	464.838	80.010	19.995	100.325	19.977	20.009	0.502
772.500	465.092	80.010	19.994	100.325	19.978	19.916	0.499
773.000	465.352	80.011	19.994	100.325	19.978	19.949	0.511
773.500	465.605	80.010	19.995	100.325	19.981	19.730	0.514
774.000	465.817	80.009	19.996	100.325	19.982	19.652	0.489
774.500	466.106	80.010	19.996	100.325	19.985	19.430	0.483
775.000	466.365	80.010	19.996	100.325	19.989	19.106	0.524
775.500	466.596	80.011	19.995	100.326	19.989	19.087	0.519
776.000	466.844	80.011	19.995	100.325	19.990	19.037	0.484
776.500	467.121	80.010	19.994	100.325	19.991	18.973	0.502
777.000	467.367	80.010	19.996	100.324	19.997	18.542	0.524
777.500	467.675	80.010	19.995	100.325	19.996	18.573	0.539
778.000	467.893	80.012	19.994	100.325	20.001	18.178	0.540
778.500	468.119	80.009	19.995	100.325	20.000	18.296	0.485
779.000	468.395	80.010	19.995	100.325	20.005	17.934	0.473
779.500	468.659	80.010	19.994	100.327	20.004	17.965	0.522
780.000	468.911	80.010	19.995	100.326	20.008	17.684	0.528
780.500	469.157	80.010	19.993	100.327	20.010	17.541	0.507
781.000	469.424	80.010	19.995	100.328	20.008	17.655	0.506
781.500	469.679	80.011	19.994	100.327	20.011	17.442	0.518
782.000	469.935	80.010	19.996	100.328	20.014	17.202	0.516
782.500	470.203	80.010	19.995	100.328	20.017	16.989	0.517
783.000	470.433	80.010	19.995	100.329	20.018	16.897	0.511
783.500	470.692	80.010	19.995	100.329	20.019	16.829	0.494
784.000	470.923	80.010	19.996	100.330	20.020	16.749	0.489
784.500	471.195	80.010	19.994	100.330	20.025	16.387	0.496
785.000	471.469	80.010	19.995	100.331	20.026	16.295	0.525
785.500	471.726	80.011	19.994	100.333	20.030	15.981	0.539
786.001	471.987	80.010	19.994	100.333	20.030	16.016	0.524
786.500	472.211	80.010	19.995	100.332	20.035	15.613	0.501
787.000	472.459	80.010	19.994	100.332	20.033	15.756	0.478
787.500	472.725	80.010	19.995	100.330	20.039	15.352	0.493
788.000	472.991	80.010	19.996	100.328	20.040	15.234	0.523
788.500	473.244	80.012	19.994	100.329	20.045	14.876	0.525
789.000	473.499	80.010	19.995	100.329	20.046	14.760	0.514
789.500	473.784	80.010	19.994	100.329	20.050	14.514	0.524
790.000	474.065	80.011	19.997	100.329	20.049	14.541	0.553
790.500	474.277	80.010	19.995	100.329	20.054	14.158	0.530
791.000	474.544	80.011	19.993	100.327	20.057	13.999	0.486
791.500	474.803	80.010	19.997	100.328	20.057	13.929	0.502
792.000	475.070	80.011	19.994	100.328	20.059	13.830	0.525
792.500	475.321	80.010	19.994	100.329	20.062	13.561	0.522
793.000	475.590	80.011	19.996	100.328	20.063	13.511	0.519
793.500	475.869	80.010	19.996	100.328	20.068	13.093	0.534
794.000	476.109	80.010	19.995	100.327	20.070	12.979	0.534
794.500	476.365	80.010	19.995	100.327	20.072	12.845	0.508
795.000	476.596	80.010	19.994	100.327	20.075	12.630	0.491
795.500	476.862	80.010	19.993	100.327	20.077	12.435	0.492
796.000	477.123	80.010	19.997	100.326	20.078	12.334	0.512
796.500	477.315	80.010	19.994	100.326	20.082	12.072	0.490
797.000	477.617	80.012	19.995	100.326	20.084	11.900	0.474
797.500	477.893	80.010	19.994	100.326	20.086	11.801	0.536
798.000	478.119	80.011	19.993	100.327	20.091	11.354	0.540
798.500	478.408	80.010	19.995	100.327	20.090	11.492	0.508
799.000	478.658	80.010	19.995	100.326	20.092	11.319	0.527
799.500	478.934	80.011	19.991	100.326	20.091	11.368	0.533
800.000	479.151	80.012	19.998	100.325	20.095	11.067	0.510
800.500	479.406	80.011	19.995	100.323	20.096	10.971	0.482
801.000	479.652	80.009	19.995	100.323	20.097	10.945	0.486
801.500	479.954	80.011	19.994	100.322	20.102	10.543	0.525
802.000	480.208	80.010	19.995	100.323	20.103	10.440	0.552
802.500	480.469	80.010	19.995	100.323	20.102	10.582	0.536
803.000	480.713	80.011	19.996	100.325	20.105	10.309	0.510
803.500	480.991	80.010	19.996	100.324	20.109	10.053	0.513
804.000	481.245	80.011	19.995	100.324	20.110	9.914	0.527
804.500	481.487	80.010	19.996	100.323	20.110	9.914	0.514
805.000	481.746	80.009	19.995	100.323	20.109	10.042	0.498
805.500	482.006	80.008	19.995	100.321	20.113	9.736	0.510
806.000	482.268	80.010	19.995	100.321	20.116	9.486	0.521
806.500	482.500	80.010	19.997	100.323	20.116	9.490	0.508
807.000	482.776	80.009	19.996	100.325	20.116	9.486	0.501
807.500	483.025	80.008	19.996	100.326	20.119	9.249	0.516
808.000	483.256	80.010	19.992	100.326	20.122	9.013	0.503
808.500	483.566	80.009	19.997	100.326	20.121	9.119	0.510
809.000	483.848	80.009	19.995	100.325	20.125	8.841	0.566
809.500	484.063	80.010	19.996	100.324	20.128	8.581	0.544
810.000	484.293	80.010	19.995	100.325	20.130	8.421	0.471
810.500	484.587	80.008	19.998	100.325	20.129	8.497	0.485
811.000	484.816	80.009	19.996	100.328	20.132	8.315	0.523
811.500	485.073	80.010	19.997	100.328	20.132	8.253	0.505
812.000	485.357	80.009	19.995	100.329	20.136	8.001	0.514
812.500	485.587	80.009	19.996	100.328	20.137	7.888	0.527
813.000	485.852	80.009	19.994	100.329	20.142	7.499	0.504
813.500	486.094	80.010	19.995	100.326	20.142	7.513	0.501
814.000	486.345	80.009	19.995	100.325	20.142	7.491	0.500
814.500	486.599	80.008	19.996	100.325	20.145	7.312	0.499
815.000	486.839	80.009	19.996	100.324	20.144	7.376	0.499
815.500	487.105	80.009	19.996	100.323	20.144	7.353	0.500
816.001	487.348	80.008	19.994	100.324	20.147	7.134	0.508
816.500	487.579	80.009	19.997	100.325	20.146	7.192	0.492
817.000	487.867	80.008	19.995	100.325	20.147	7.153	0.496
817.500	488.116	80.010	19.996	100.327	20.145	7.267	0.528
818.000	488.353	80.010	19.996	100.330	20.150	6.878	0.512
818.500	488.626	80.008	19.996	100.333	20.150	6.889	0.498
819.000	488.862	80.008	19.995	100.334	20.152	6.800	0.509
819.500	489.140	80.009	19.996	100.335	20.153	6.707	0.511
820.000	489.373	80.010	19.996	100.334	20.156	6.444	0.512
820.500	489.638	80.008	19.996	100.332	20.155	6.513	0.505
821.000	489.904	80.008	19.995	100.328	20.157	6.378	0.514
821.500	490.131	80.009	19.995	100.325	20.158	6.320	0.512
822.000	490.406	80.009	19.996	100.323	20.160	6.192	0.498
822.500	490.664	80.009	19.996	100.324	20.160	6.165	0.518
823.000	490.910	80.009	19.996	100.329	20.161	6.105	0.519
823.500	491.187	80.010	19.996	100.333	20.165	5.803	0.514
824.000	491.425	80.009	19.996	100.335	20.164	5.886	0.518
824.500	491.664	80.010	19.995	100.336	20.164	5.832	0.496
825.000	491.933	80.009	19.996	100.334	20.165	5.774	0.493
825.500	492.168	80.009	19.996	100.331	20.165	5.743	0.506
826.000	492.426	80.008	19.996	100.327	20.165	5.805	0.498
826.500	492.735	80.008	19.997	100.324	20.164	5.865	0.530
827.000	492.966	80.008	19.996	100.324	20.167	5.617	0.554
827.500	493.219	80.008	19.997	100.326	20.167	5.652	0.512
828.000	493.498	80.009	19.997	100.328	20.171	5.354	0.508
828.500	493.750	80.009	19.997	100.330	20.168	5.541	0.531
829.000	493.963	80.009	19.997	100.331	20.171	5.299	0.498
829.500	494.256	80.010	19.996	100.335	20.172	5.245	0.486
830.000	494.515	80.008	19.997	100.335	20.176	4.972	0.529
830.500	494.762	80.008	19.996	100.334	20.175	5.022	0.529
831.000	494.998	80.009	19.996	100.337	20.174	5.079	0.495
831.500	495.258	80.009	19.996	100.344	20.180	4.641	0.490
832.000	495.505	80.009	19.997	100.343	20.177	4.876	0.501
832.500	495.770	80.008	19.996	100.343	20.177	4.885	0.509
833.000	496.012	80.008	19.996	100.345	20.178	4.816	0.510
833.500	496.279	80.009	19.996	100.348	20.180	4.663	0.508
834.000	496.518	80.008	19.997	100.348	20.179	4.754	0.507
834.500	496.738	80.009	19.996	100.349	20.179	4.710	0.482
835.000	497.014	80.009	19.997	100.354	20.180	4.632	0.478
835.500	497.260	80.010	19.996	100.351	20.182	4.526	0.509
836.000	497.523	80.007	19.997	100.348	20.185	4.297	0.515
836.500	497.812	80.008	19.996	100.345	20.181	4.574	0.531
837.000	498.034	80.008	19.995	100.345	20.181	4.556	0.532
837.500	498.266	80.008	19.996	100.345	20.183	4.402	0.482
838.000	498.525	80.008	19.997	100.345	20.185	4.270	0.472
838.500	498.780	80.008	19.996	100.349	20.186	4.181	0.503
839.000	499.018	80.008	19.995	100.349	20.189	3.997	0.504
839.500	499.272	80.008	19.996	100.350	20.186	4.202	0.493
840.000	499.539	80.008	19.996	100.351	20.184	4.322	0.506
840.500	499.786	80.007	19.995	100.354	20.189	3.989	0.517
841.000	500.065	80.008	19.995	100.353	20.189	3.935	0.520
841.500	500.268	80.007	19.996	100.355	20.186	4.185	0.504
842.000	500.525	80.007	19.996	100.352	20.191	3.842	0.471
842.500	500.791	80.007	19.995	100.349	20.192	3.769	0.492
843.000	501.054	80.009	19.995	100.346	20.188	4.044	0.526
843.500	501.295	80.008	19.995	100.345	20.189	3.941	0.516
844.000	501.575	80.009	19.996	100.343	20.193	3.641	0.512
844.500	501.805	80.008	19.995	100.342	20.193	3.662	0.516
845.000	502.057	80.009	19.995	100.341	20.191	3.782	0.497
845.500	502.322	80.009	19.995	100.338	20.192	3.715	0.499
846.000	502.555	80.009	19.995	100.337	20.191	3.800	0.507
846.500	502.805	80.008	19.994	100.336	20.189	3.935	0.491
847.000	503.052	80.009	19.995	100.340	20.191	3.786	0.490
847.500	503.299	80.008	19.995	100.341	20.192	3.726	0.495
848.000	503.545	80.009	19.995	100.342	20.190	3.906	0.493
848.500	503.795	80.009	19.995	100.339	20.191	3.825	0.494
849.000	504.065	80.010	19.995	100.341	20.194	3.614	0.508
849.500	504.313	80.011	19.995	100.341	20.195	3.519	0.519
850.000	504.544	80.009	19.994	100.342	20.196	3.424	0.499
850.500	504.765	80.010	19.994	100.344	20.196	3.457	0.466
851.000	505.044	80.009	19.995	100.345	20.195	3.531	0.476
851.500	505.274	80.009	19.995	100.344	20.196	3.421	0.504
852.000	505.567	80.010	19.995	100.342	20.193	3.676	0.516
852.500	505.810	80.010	19.995	100.338	20.195	3.500	0.529
853.000	506.058	80.009	19.994	100.337	20.197	3.382	0.513
853.500	506.277	80.010	19.995	100.339	20.197	3.386	0.479
854.000	506.578	80.010	19.995	100.342	20.198	3.289	0.493
854.500	506.811	80.009	19.995	100.343	20.197	3.362	0.527
855.000	507.030	80.010	19.994	100.345	20.200	3.132	0.493
855.500	507.297	80.009	19.995	100.344	20.202	2.985	0.469
856.000	507.552	80.010	19.995	100.341	20.200	3.099	0.504
856.500	507.787	80.010	19.996	100.338	20.197	3.339	0.506
857.000	508.047	80.010	19.995	100.337	20.198	3.248	0.493
857.500	508.314	80.011	19.995	100.338	20.201	3.017	0.511
858.000	508.537	80.009	19.995	100.339	20.201	3.074	0.508
858.500	508.803	80.010	19.994	100.344	20.203	2.884	0.490
859.000	509.033	80.010	19.994	100.346	20.204	2.855	0.493
859.500	509.280	80.012	19.995	100.342	20.204	2.818	0.486
860.000	509.550	80.009	19.995	100.339	20.205	2.712	0.497
860.501	509.785	80.009	19.995	100.338	20.201	3.058	0.511
861.000	510.073	80.010	19.995	100.334	20.204	2.830	0.514
861.500	510.307	80.009	19.993	100.331	20.208	2.546	0.523
862.000	510.576	80.010	19.994	100.331	20.204	2.811	0.512
862.500	510.778	80.009	19.995	100.333	20.202	2.971	0.487
863.000	511.017	80.009	19.995	100.331	20.203	2.896	0.456
863.500	511.285	80.009	19.995	100.331	20.205	2.741	0.474
864.000	511.524	80.009	19.995	100.332	20.203	2.936	0.507
864.500	511.809	80.010	19.994	100.332	20.203	2.865	0.516
865.000	512.040	80.011	19.997	100.332	20.202	2.981	0.520
865.500	512.288	80.010	19.995	100.336	20.205	2.749	0.498
866.000	512.535	80.009	19.996	100.340	20.205	2.783	0.487
866.500	512.747	80.009	19.994	100.345	20.204	2.785	0.476
867.000	513.017	80.009	19.995	100.347	20.205	2.762	0.471
867.500	513.270	80.010	19.995	100.352	20.207	2.625	0.503
868.000	513.527	80.009	19.995	100.350	20.204	2.816	0.517
868.500	513.813	80.010	19.995	100.351	20.208	2.555	0.527
869.000	514.096	80.010	19.995	100.350	20.207	2.588	0.556
869.500	514.318	80.011	19.996	100.350	20.206	2.642	0.537
870.000	514.578	80.011	19.995	100.348	20.207	2.582	0.494
870.500	514.798	80.013	19.995	100.348	20.207	2.623	0.481
871.000	515.117	80.011	19.995	100.341	20.205	2.780	0.509
871.500	515.329	80.011	19.994	100.337	20.209	2.449	0.534
872.000	515.601	80.012	19.996	100.331	20.206	2.702	0.507
872.500	515.839	80.011	19.995	100.330	20.208	2.489	0.497
873.000	516.060	80.011	19.994	100.333	20.210	2.365	0.485
873.500	516.355	80.011	19.995	100.336	20.206	2.691	0.488
874.000	516.582	80.012	19.994	100.336	20.211	2.276	0.519
874.500	516.843	80.011	19.994	100.337	20.209	2.406	0.505
875.000	517.134	80.012	19.994	100.338	20.214	2.079	0.520
875.501	517.385	80.012	19.995	100.337	20.212	2.238	0.547
876.001	517.589	80.011	19.995	100.339	20.217	1.814	0.498
876.500	517.870	80.012	19.995	100.342	20.213	2.122	0.470
877.000	518.085	80.010	19.995	100.342	20.212	2.232	0.490
877.500	518.350	80.012	19.995	100.342	20.212	2.249	0.488
878.000	518.611	80.013	19.993	100.345	20.210	2.362	0.503
878.500	518.880	80.012	19.995	100.347	20.212	2.203	0.528
879.000	519.116	80.012	19.994	100.350	20.212	2.214	0.517
879.500	519.355	80.013	19.995	100.352	20.210	2.334	0.490
880.000	519.616	80.012	19.994	100.352	20.211	2.278	0.488
880.500	519.858	80.012	19.994	100.346	20.209	2.431	0.502
881.000	520.134	80.013	19.995	100.340	20.212	2.191	0.510
881.500	520.360	80.013	19.995	100.336	20.210	2.360	0.510
882.000	520.665	80.011	19.995	100.337	20.215	2.013	0.517
882.500	520.872	80.012	19.994	100.333	20.211	2.309	0.522
883.000	521.137	80.011	19.995	100.335	20.215	2.007	0.492
883.500	521.385	80.011	19.995	100.337	20.215	2.023	0.493
884.000	521.622	80.011	19.995	100.340	20.213	2.176	0.499
884.500	521.901	80.010	19.995	100.338	20.211	2.305	0.500
885.000	522.095	80.010	19.996	100.341	20.213	2.174	0.495
885.500	522.408	80.010	19.996	100.339	20.214	2.028	0.491
886.000	522.637	80.009	19.995	100.339	20.217	1.852	0.525
886.500	522.909	80.011	19.995	100.333	20.214	2.090	0.522
887.000	523.151	80.010	19.996	100.330	20.214	2.098	0.508
887.500	523.413	80.011	19.995	100.330	20.214	2.034	0.509
888.000	523.673	80.009	19.995	100.333	20.212	2.180	0.513
888.500	523.921	80.010	19.995	100.334	20.214	2.040	0.515
889.000	524.214	80.009	19.996	100.338	20.212	2.209	0.524
889.500	524.447	80.009	19.996	100.340	20.212	2.207	0.534
890.000	524.732	80.009	19.996	100.341	20.211	2.274	0.523
890.500	524.932	80.010	19.996	100.339	20.213	2.147	0.502
891.000	525.183	80.009	19.995	100.337	20.214	2.079	0.468
891.500	525.442	80.009	19.996	100.339	20.214	2.040	0.480
892.000	525.690	80.010	19.996	100.338	20.213	2.137	0.509
892.500	525.971	80.009	19.996	100.338	20.213	2.123	0.518
893.000	526.215	80.009	19.996	100.340	20.216	1.930	0.527
893.500	526.452	80.009	19.995	100.345	20.212	2.178	0.503
894.000	526.678	80.009	19.996	100.341	20.218	1.783	0.472
894.500	526.962	80.008	19.996	100.339	20.216	1.936	0.486
895.000	527.184	80.010	19.997	100.337	20.214	2.067	0.508
895.500	527.424	80.009	19.995	100.340	20.213	2.174	0.484
896.000	527.644	80.008	19.995	100.342	20.215	1.967	0.462
896.500	527.878	80.009	19.996	100.348	20.213	2.104	0.457
897.000	528.186	80.009	19.997	100.350	20.213	2.122	0.498
897.500	528.448	80.009	19.996	100.348	20.218	1.775	0.556
898.000	528.674	80.008	19.996	100.343	20.216	1.947	0.529
898.500	528.943	80.007	19.996	100.337	20.218	1.785	0.492
899.000	529.211	80.009	19.996	100.331	20.215	2.017	0.516
899.501	529.439	80.009	19.996	100.331	20.216	1.879	0.516
900.000	529.706	80.007	19.996	100.332	20.213	2.108	0.495
900.500	529.980	80.008	19.996	100.335	20.215	1.997	0.518
901.000	530.214	80.008	19.996	100.338	20.213	2.106	0.524
901.500	530.441	80.008	19.996	100.340	20.213	2.158	0.484
902.000	530.693	80.009	19.995	100.340	20.213	2.168	0.470
902.500	530.910	80.009	19.996	100.344	20.214	2.028	0.474
903.000	531.165	80.008	19.995	100.345	20.215	1.967	0.470
903.500	531.445	80.009	19.997	100.341	20.214	2.075	0.503
904.000	531.659	80.009	19.996	100.340	20.214	2.085	0.515
904.500	531.963	80.009	19.995	100.340	20.216	1.880	0.506
905.000	532.166	80.009	19.997	100.336	20.215	2.023	0.513
905.500	532.437	80.009	19.997	100.335	20.216	1.903	0.491
906.001	532.695	80.009	19.996	100.335	20.214	2.077	0.502
906.500	532.934	80.008	19.996	100.334	20.215	1.957	0.513
907.000	533.194	80.009	19.995	100.334	20.217	1.818	0.498
907.500	533.427	80.010	19.996	100.333	20.215	1.957	0.496
908.000	533.692	80.009	19.996	100.334	20.216	1.922	0.495
908.500	533.936	80.009	19.996	100.336	20.216	1.928	0.504
909.000	534.173	80.009	19.995	100.337	20.216	1.905	0.495
909.500	534.445	80.008	19.996	100.340	20.216	1.877	0.495
910.000	534.675	80.010	19.995	100.345	20.217	1.844	0.505
910.500	534.942	80.009	19.995	100.347	20.217	1.839	0.500
911.000	535.156	80.009	19.996	100.343	20.216	1.934	0.489
911.500	535.449	80.010	19.996	100.348	20.216	1.899	0.494
912.000	535.709	80.009	19.995	100.352	20.214	2.057	0.530
912.500	535.940	80.009	19.996	100.348	20.219	1.717	0.522
913.000	536.183	80.011	19.995	100.347	20.212	2.237	0.483
913.501	536.408	80.007	19.995	100.351	20.217	1.873	0.471
914.000	536.648	80.009	19.995	100.345	20.215	2.017	0.466
914.500	536.904	80.009	19.997	100.338	20.217	1.816	0.480
915.000	537.153	80.009	19.995	100.335	20.215	1.961	0.500
915.500	537.380	80.008	19.996	100.332	20.213	2.141	0.490
916.000	537.629	80.009	19.996	100.327	20.216	1.901	0.476
916.500	537.885	80.009	19.996	100.328	20.215	1.961	0.491
917.000	538.101	80.008	19.995	100.328	20.214	2.094	0.489
917.500	538.376	80.008	19.995	100.333	20.216	1.949	0.481
918.000	538.596	80.007	19.996	100.336	20.215	2.019	0.493
918.500	538.869	80.009	19.996	100.338	20.214	2.092	0.495
919.000	539.135	80.008	19.998	100.342	20.216	1.920	0.516
919.500	539.356	80.007	19.996	100.349	20.217	1.874	0.513
920.000	539.630	80.006	19.996	100.349	20.216	1.930	0.491
920.500	539.875	80.009	19.996	100.353	20.212	2.251	0.507
921.000	540.117	80.007	19.996	100.354	20.213	2.106	0.503
921.500	540.353	80.007	19.996	100.352	20.213	2.115	0.483
922.000	540.587	80.006	19.996	100.349	20.214	2.086	0.474
922.500	540.828	80.007	19.996	100.350	20.217	1.842	0.472
923.001	541.095	80.007	19.996	100.349	20.216	1.937	0.491
923.500	541.306	80.006	19.996	100.351	20.214	2.057	0.493
924.000	541.568	80.008	19.995	100.354	20.215	1.951	0.476
924.500	541.834	80.006	19.998	100.355	20.216	1.883	0.501
925.000	542.066	80.006	19.997	100.350	20.217	1.848	0.513
925.500	542.330	80.007	19.996	100.346	20.218	1.755	0.497
926.001	542.546	80.007	19.996	100.342	20.218	1.788	0.488
926.500	542.784	80.007	19.996	100.340	20.222	1.492	0.468
927.000	543.036	80.007	19.996	100.342	20.217	1.848	0.472
927.500	543.273	80.007	19.997	100.347	20.213	2.110	0.489
928.000	543.532	80.008	19.996	100.352	20.218	1.775	0.492
928.500	543.756	80.008	19.996	100.351	20.218	1.777	0.490
929.000	543.982	80.008	19.996	100.351	20.214	2.029	0.467
929.500	544.221	80.008	19.996	100.348	20.214	2.034	0.457
930.000	544.489	80.007	19.996	100.346	20.214	2.087	0.485
930.500	544.749	80.009	19.997	100.343	20.218	1.746	0.517
931.000	544.945	80.008	19.997	100.349	20.219	1.721	0.492
931.500	545.196	80.009	19.996	100.350	20.216	1.949	0.452
932.000	545.462	80.009	19.996	100.353	20.217	1.846	0.482
932.500	545.698	80.010	19.996	100.355	20.219	1.661	0.509
933.000	545.969	80.010	19.997	100.359	20.220	1.630	0.504
933.500	546.186	80.010	19.996	100.360	20.217	1.846	0.497
934.000	546.446	80.008	19.995	100.360	20.215	1.961	0.482
934.500	546.665	80.011	19.997	100.358	20.216	1.918	0.478
935.000	546.913	80.010	19.994	100.355	20.216	1.899	0.473
935.500	547.169	80.010	19.996	100.353	20.216	1.924	0.486
936.000	547.415	80.009	19.996	100.353	20.217	1.835	0.503
936.500	547.662	80.009	19.996	100.356	20.214	2.036	0.498
937.000	547.918	80.010	19.994	100.358	20.217	1.874	0.498
937.500	548.162	80.010	19.996	100.360	20.218	1.750	0.501
938.000	548.411	80.010	19.996	100.361	20.217	1.854	0.497
938.500	548.668	80.011	19.996	100.356	20.213	2.143	0.500
939.000	548.923	80.010	19.995	100.349	20.216	1.908	0.509
939.500	549.172	80.010	19.995	100.342	20.218	1.746	0.508
940.000	549.432	80.011	19.995	100.338	20.214	2.088	0.506
940.500	549.639	80.009	19.995	100.337	20.215	1.953	0.488
941.000	549.905	80.009	19.995	100.336	20.220	1.595	0.470
941.500	550.174	80.010	19.995	100.341	20.216	1.881	0.504
942.000	550.421	80.010	19.995	100.348	20.217	1.808	0.525
942.500	550.651	80.010	19.995	100.351	20.215	1.976	0.496
943.000	550.926	80.010	19.995	100.350	20.218	1.756	0.491
943.500	551.158	80.009	19.995	100.356	20.218	1.746	0.506
944.000	551.399	80.009	19.994	100.357	20.215	1.990	0.490
944.500	551.653	80.009	19.996	100.354	20.217	1.814	0.484
945.000	551.902	80.008	19.995	100.349	20.214	2.054	0.499
945.500	552.179	80.009	19.995	100.347	20.213	2.110	0.515
946.000	552.427	80.009	19.995	100.342	20.213	2.162	0.525
946.500	552.713	80.009	19.995	100.342	20.212	2.251	0.529
947.000	552.937	80.009	19.995	100.342	20.217	1.835	0.522
947.500	553.207	80.009	19.995	100.342	20.214	2.083	0.502
948.000	553.456	80.008	19.995	100.342	20.215	1.992	0.506
948.500	553.697	80.010	19.995	100.345	20.219	1.678	0.504
949.000	553.949	80.008	19.995	100.342	20.217	1.800	0.491
949.500	554.234	80.010	19.995	100.344	20.219	1.703	0.515
950.000	554.460	80.009	19.995	100.346	20.218	1.732	0.524
950.500	554.769	80.010	19.995	100.349	20.217	1.829	0.523
951.000	555.036	80.009	19.996	100.349	20.215	2.021	0.555
951.500	555.269	80.010	19.996	100.349	20.217	1.868	0.538
952.000	555.504	80.008	19.995	100.345	20.217	1.837	0.484
952.500	555.751	80.010	19.995	100.347	20.219	1.719	0.475
953.000	556.032	80.010	19.995	100.347	20.217	1.800	0.505
953.500	556.301	80.009	19.995	100.344	20.217	1.812	0.539
954.000	556.548	80.011	19.995	100.346	20.217	1.864	0.533
954.500	556.776	80.010	19.996	100.348	20.216	1.949	0.495
955.000	557.049	80.011	19.995	100.347	20.217	1.848	0.488
955.500	557.280	80.009	19.997	100.347	20.218	1.788	0.502
956.000	557.513	80.012	19.996	100.350	20.218	1.784	0.484
956.500	557.815	80.012	19.995	100.349	20.216	1.910	0.500
957.000	558.072	80.011	19.994	100.346	20.215	1.961	0.547
957.500	558.329	80.010	19.995	100.343	20.217	1.837	0.536
958.000	558.563	80.011	19.995	100.337	20.215	1.988	0.503
958.500	558.847	80.010	19.995	100.333	20.215	1.997	0.505
959.000	559.089	80.011	19.994	100.334	20.215	2.009	0.522
959.500	559.324	80.010	19.996	100.335	20.219	1.649	0.501
960.000	559.613	80.011	19.995	100.340	20.218	1.783	0.500
960.500	559.854	80.012	19.995	100.345	20.217	1.860	0.527
961.000	560.131	80.011	19.996	100.350	20.214	2.052	0.524
961.500	560.374	80.012	19.995	100.351	20.218	1.753	0.519
962.000	560.654	80.011	19.995	100.354	20.215	2.009	0.522
962.500	560.899	80.011	19.996	100.356	20.216	1.906	0.524
963.000	561.175	80.010	19.994	100.357	20.218	1.777	0.523
963.500	561.429	80.012	19.996	100.356	20.218	1.784	0.525
964.000	561.678	80.011	19.994	100.357	20.217	1.841	0.516
964.501	561.919	80.010	19.995	100.355	20.217	1.829	0.497
965.000	562.191	80.011	19.997	100.354	20.215	1.974	0.502
965.500	562.423	80.011	19.996	100.356	20.216	1.899	0.509
966.000	562.710	80.010	19.996	100.357	20.217	1.854	0.511
966.500	562.969	80.011	19.996	100.355	20.215	1.958	0.532
967.000	563.252	80.010	19.995	100.356	20.216	1.879	0.544
967.500	563.490	80.010	19.995	100.355	20.217	1.850	0.532
968.000	563.781	80.009	19.997	100.355	20.215	1.959	0.525
968.500	564.005	80.010	19.995	100.353	20.216	1.937	0.522
969.000	564.238	80.008	19.996	100.355	20.215	1.972	0.486
969.500	564.507	80.009	19.996	100.355	20.214	2.046	0.480
970.000	564.785	80.009	19.995	100.355	20.214	2.046	0.525
970.500	565.045	80.009	19.996	100.354	20.218	1.765	0.542
971.000	565.315	80.007	19.995	100.351	20.216	1.889	0.534
971.500	565.595	80.007	19.993	100.351	20.217	1.868	0.540
972.000	565.837	80.010	19.997	100.353	20.214	2.032	0.536
972.500	566.091	80.008	19.997	100.356	20.217	1.837	0.509
973.000	566.319	80.008	19.993	100.358	20.216	1.887	0.489
973.500	566.621	80.009	19.996	100.360	20.216	1.908	0.506
974.000	566.879	80.010	19.994	100.358	20.218	1.753	0.545
974.500	567.138	80.009	19.994	100.355	20.217	1.871	0.539
975.000	567.380	80.010	19.995	100.352	20.216	1.885	0.509
975.500	567.723	80.009	19.996	100.351	20.215	1.978	0.543
976.000	567.931	80.010	19.997	100.353	20.218	1.750	0.568
976.500	568.217	80.009	19.994	100.357	20.215	1.964	0.523
977.000	568.490	80.011	19.995	100.361	20.215	1.968	0.526
977.500	568.768	80.008	19.996	100.364	20.217	1.835	0.555
978.000	568.994	80.009	19.996	100.363	20.219	1.715	0.528
978.500	569.278	80.009	19.995	100.360	20.217	1.858	0.507
979.000	569.541	80.008	19.997	100.355	20.215	1.995	0.529
979.500	569.798	80.010	19.997	100.351	20.215	2.001	0.534
980.000	570.020	80.008	19.993	100.346	20.215	2.003	0.500
980.500	570.294	80.009	19.994	100.347	20.216	1.885	0.487
981.000	570.583	80.008	19.996	100.348	20.213	2.146	0.529
981.500	570.820	80.008	19.995	100.352	20.216	1.883	0.545
982.000	571.091	80.007	19.997	100.355	20.217	1.833	0.517
982.500	571.365	80.009	19.994	100.355	20.217	1.815	0.526
983.000	571.640	80.008	19.995	100.353	20.218	1.790	0.547
983.500	571.850	80.010	19.996	100.355	20.214	2.044	0.518
984.000	572.136	80.009	19.993	100.354	20.215	2.011	0.490
984.500	572.439	80.009	19.995	100.353	20.215	1.955	0.542
985.000	572.689	80.008	19.996	100.357	20.217	1.819	0.571
985.500	572.948	80.008	19.995	100.360	20.217	1.856	0.532
986.000	573.200	80.009	19.994	100.358	20.213	2.131	0.510
986.500	573.466	80.008	19.996	100.354	20.214	2.069	0.514
987.000	573.730	80.008	19.995	100.353	20.218	1.777	0.524
987.500	574.003	80.009	19.995	100.353	20.216	1.901	0.534
988.000	574.316	80.009	19.996	100.351	20.216	1.891	0.562
988.500	574.581	80.008	19.997	100.353	20.216	1.899	0.582
989.000	574.854	80.008	19.995	100.357	20.216	1.883	0.558
989.500	575.118	80.008	19.995	100.359	20.215	2.001	0.538
990.000	575.384	80.008	19.996	100.354	20.214	2.090	0.534
990.500	575.650	80.009	19.994	100.355	20.216	1.889	0.531
991.000	575.952	80.010	19.995	100.352	20.217	1.868	0.550
991.500	576.186	80.010	19.999	100.350	20.215	1.976	0.552
992.000	576.479	80.009	19.995	100.349	20.216	1.891	0.531
992.500	576.736	80.009	19.997	100.351	20.216	1.914	0.539
993.000	577.029	80.008	19.995	100.353	20.216	1.939	0.551
993.500	577.260	80.008	19.996	100.357	20.220	1.616	0.537
994.000	577.521	80.008	19.995	100.356	20.217	1.868	0.508
994.500	577.766	80.008	19.993	100.352	20.217	1.875	0.499
995.000	578.070	80.010	19.995	100.352	20.216	1.908	0.528
995.500	578.347	80.009	19.993	100.350	20.216	1.883	0.565
996.000	578.637	80.008	19.996	100.349	20.218	1.759	0.574
996.500	578.876	80.009	19.996	100.349	20.216	1.912	0.548
997.000	579.160	80.008	19.995	100.354	20.215	2.011	0.525
997.500	579.431	80.008	19.996	100.357	20.214	2.063	0.539
998.000	579.686	80.007	19.994	100.355	20.213	2.154	0.540
998.500	579.936	80.009	19.997	100.355	20.215	1.984	0.516
999.000	580.188	80.008	19.997	100.357	20.218	1.726	0.504
999.500	580.501	80.008	19.997	100.354	20.217	1.854	0.533
1000.000	580.752	80.008	19.996	100.350	20.219	1.649	0.564
1000.500	581.049	80.009	19.998	100.348	20.217	1.833	0.556
1001.000	581.313	80.008	19.996	100.346	20.219	1.678	0.555
1001.500	581.631	80.008	19.995	100.346	20.214	2.090	0.571
1002.000	581.883	80.009	19.998	100.348	20.218	1.736	0.576
1002.500	582.168	80.009	19.996	100.350	20.216	1.895	0.554
1003.000	582.455	80.008	19.995	100.355	20.220	1.643	0.554
1003.500	582.687	80.008	19.997	100.355	20.219	1.684	0.545
1004.000	582.969	80.007	19.997	100.355	20.217	1.837	0.516
1004.500	583.221	80.009	19.996	100.356	20.217	1.844	0.524
1005.000	583.479	80.008	19.997	100.355	20.217	1.858	0.522
1005.500	583.738	80.009	19.997	100.351	20.218	1.769	0.514
1006.000	584.054	80.008	19.996	100.349	20.215	1.953	0.546
1006.500	584.318	80.008	19.995	100.350	20.215	1.955	0.577
1007.000	584.591	80.008	19.996	100.349	20.216	1.949	0.558
1007.500	584.863	80.008	19.994	100.351	20.214	2.069	0.541
1008.000	585.150	80.008	19.994	100.355	20.217	1.815	0.552
1008.500	585.419	80.008	19.998	100.359	20.218	1.754	0.557
1009.000	585.715	80.009	19.996	100.359	20.216	1.949	0.561
1009.500	585.946	80.009	19.997	100.361	20.217	1.850	0.547
1010.000	586.277	80.009	19.998	100.361	20.216	1.879	0.545
1010.500	586.508	80.008	19.996	100.360	20.216	1.905	0.562
1011.000	586.794	80.008	19.995	100.359	20.217	1.850	0.539
1011.500	587.036	80.009	19.995	100.358	20.214	2.044	0.522
1012.000	587.315	80.008	19.997	100.356	20.216	1.905	0.525
1012.500	587.599	80.010	19.995	100.354	20.216	1.879	0.542
1013.000	587.883	80.009	19.997	100.352	20.216	1.932	0.566
1013.500	588.141	80.010	19.996	100.351	20.213	2.129	0.555
1014.000	588.437	80.009	19.995	100.350	20.213	2.133	0.548
1014.500	588.698	80.010	19.997	100.352	20.212	2.251	0.556
1015.000	588.965	80.010	19.996	100.355	20.210	2.359	0.543
1015.500	589.244	80.010	19.996	100.357	20.213	2.133	0.537
1016.000	589.515	80.010	19.996	100.359	20.216	1.920	0.547
1016.500	589.793	80.012	19.996	100.360	20.214	2.071	0.549
1017.000	590.039	80.010	19.996	100.360	20.218	1.730	0.537
1017.500	590.347	80.010	19.996	100.359	20.216	1.877	0.539
1018.000	590.589	80.009	19.997	100.355	20.216	1.879	0.552
1018.500	590.860	80.010	19.996	100.353	20.219	1.686	0.531
1019.000	591.144	80.009	19.997	100.353	20.215	1.964	0.534
1019.500	591.407	80.011	19.997	100.350	20.219	1.655	0.552
1020.000	591.686	80.011	19.997	100.347	20.218	1.734	0.544
1020.500	591.950	80.011	19.997	100.348	20.219	1.674	0.542
1021.000	592.219	80.010	19.996	100.348	20.219	1.672	0.538
1021.500	592.500	80.010	19.995	100.344	20.218	1.788	0.542
1022.000	592.761	80.010	19.997	100.344	20.220	1.626	0.546
1022.500	593.051	80.011	19.995	100.347	20.217	1.858	0.547
1023.000	593.310	80.010	19.996	100.347	20.217	1.868	0.550
1023.500	593.594	80.009	19.998	100.350	20.218	1.726	0.546
1024.000	593.841	80.009	19.997	100.354	20.218	1.780	0.537
1024.500	594.137	80.008	19.996	100.357	20.219	1.707	0.537
1025.000	594.422	80.009	19.998	100.358	20.219	1.701	0.562
1025.500	594.693	80.009	19.996	100.359	20.220	1.626	0.569
1026.000	594.978	80.010	19.998	100.359	20.221	1.560	0.556
1026.500	595.258	80.010	19.997	100.359	20.218	1.732	0.561
1027.000	595.516	80.010	19.996	100.359	20.219	1.699	0.552
1027.500	595.773	80.009	19.998	100.357	20.219	1.684	0.526
1028.000	596.020	80.009	19.997	100.354	20.219	1.713	0.509
1028.500	596.316	80.009	19.999	100.353	20.224	1.320	0.524
1029.000	596.568	80.009	19.997	100.354	20.217	1.815	0.546
1029.500	596.867	80.010	19.997	100.354	20.221	1.560	0.550
1030.000	597.133	80.009	19.997	100.354	20.221	1.562	0.558
1030.500	597.366	80.009	19.996	100.355	20.217	1.804	0.532
1031.000	597.668	80.009	19.997	100.354	20.222	1.438	0.517
1031.500	597.951	80.010	19.997	100.354	20.221	1.535	0.560
1032.000	598.192	80.010	19.995	100.355	20.220	1.583	0.554
1032.500	598.492	80.009	19.995	100.356	20.219	1.653	0.533
1033.000	598.748	80.009	19.997	100.359	20.217	1.875	0.549
1033.500	599.024	80.010	19.996	100.361	20.217	1.813	0.544
1034.001	599.319	80.010	19.996	100.362	20.220	1.583	0.551
1034.501	599.557	80.009	19.993	100.362	20.220	1.610	0.552
1035.001	599.829	80.010	19.995	100.362	20.220	1.618	0.522
1035.501	600.046	80.010	19.995	100.363	20.220	1.587	0.500
1036.001	600.320	80.010	19.994	100.363	20.220	1.612	0.489
1036.500	600.583	80.011	19.995	100.363	20.220	1.603	0.513
1037.000	600.856	80.011	19.996	100.363	20.219	1.686	0.537
1037.500	601.114	80.010	19.994	100.363	20.219	1.649	0.534
1038.000	601.378	80.009	19.993	100.359	20.221	1.539	0.527
1038.501	601.640	80.011	19.993	100.357	20.220	1.620	0.524
1039.001	601.893	80.010	19.996	100.354	20.219	1.653	0.521
1039.500	602.159	80.011	19.995	100.354	20.221	1.504	0.517
1040.000	602.393	80.012	19.993	100.352	20.223	1.347	0.509
1040.500	602.703	80.011	19.997	100.353	20.221	1.537	0.522
1041.000	602.934	80.013	19.995	100.352	20.217	1.806	0.543
1041.500	603.159	80.011	19.995	100.352	20.221	1.506	0.499
1042.000	603.460	80.012	19.994	100.354	20.220	1.616	0.491
1042.500	603.690	80.011	19.995	100.355	20.222	1.421	0.528
1043.000	603.948	80.012	19.996	100.356	20.222	1.475	0.510
1043.501	604.207	80.013	19.996	100.356	20.219	1.672	0.503
1044.001	604.413	80.012	19.997	100.358	20.221	1.527	0.491
1044.500	604.673	80.012	19.997	100.358	20.220	1.628	0.465
1045.000	604.972	80.012	19.993	100.355	20.224	1.324	0.513
1045.500	605.179	80.013	19.996	100.354	20.220	1.620	0.532
1046.000	605.427	80.011	19.995	100.353	20.221	1.521	0.480
1046.500	605.680	80.012	19.994	100.350	20.224	1.341	0.478
1047.000	605.929	80.011	19.994	100.350	20.221	1.533	0.502
1047.500	606.172	80.011	19.997	100.353	20.223	1.364	0.497
1048.000	606.399	80.012	19.996	100.351	20.223	1.351	0.481
1048.501	606.634	80.009	19.994	100.356	20.219	1.657	0.466
1049.001	606.866	80.010	19.993	100.359	20.220	1.579	0.464
1049.500	607.113	80.009	19.996	100.359	20.219	1.713	0.473
1050.000	607.362	80.009	19.993	100.359	20.220	1.626	0.488
1050.500	607.620	80.011	19.994	100.361	20.223	1.384	0.501
1051.000	607.894	80.009	19.995	100.361	20.222	1.455	0.519
1051.500	608.124	80.008	19.994	100.362	20.222	1.436	0.518
1052.000	608.379	80.010	19.996	100.358	20.221	1.550	0.495
1052.501	608.576	80.008	19.994	100.357	20.223	1.419	0.469
1053.001	608.844	80.009	19.995	100.357	20.221	1.552	0.459
1053.501	609.118	80.009	19.993	100.357	20.226	1.186	0.503
1054.001	609.367	80.009	19.997	100.356	20.223	1.351	0.532
1054.500	609.590	80.008	19.995	100.357	20.223	1.378	0.497
1055.000	609.825	80.009	19.994	100.356	20.226	1.192	0.465
1055.500	610.070	80.009	19.994	100.353	20.223	1.386	0.469
1056.001	610.314	80.009	19.996	100.352	20.224	1.270	0.485
1056.501	610.564	80.009	19.996	100.354	20.222	1.488	0.492
1057.000	610.826	80.009	19.996	100.359	20.221	1.535	0.503
1057.500	611.037	80.008	19.996	100.360	20.222	1.471	0.492
1058.000	611.319	80.010	19.998	100.362	20.222	1.494	0.483
1058.500	611.561	80.008	19.996	100.363	20.221	1.548	0.508
1059.000	611.800	80.010	19.996	100.362	20.219	1.678	0.502
1059.500	612.045	80.009	19.998	100.361	20.223	1.411	0.483
1060.000	612.276	80.009	19.994	100.361	20.221	1.570	0.480
1060.500	612.533	80.009	19.996	100.362	20.222	1.463	0.482
1061.000	612.750	80.009	19.995	100.362	20.223	1.415	0.481
1061.501	612.993	80.010	19.997	100.363	20.217	1.819	0.467
1062.001	613.257	80.010	19.995	100.364	20.223	1.359	0.484
1062.500	613.482	80.010	19.995	100.365	20.224	1.308	0.498
1063.000	613.709	80.009	19.998	100.363	20.223	1.370	0.471
1063.500	613.990	80.009	19.993	100.363	20.222	1.482	0.480
1064.001	614.220	80.008	19.995	100.362	20.223	1.409	0.510
1064.501	614.437	80.009	19.996	100.362	20.221	1.506	0.479
1065.001	614.690	80.008	19.994	100.362	20.224	1.318	0.458
1065.501	614.932	80.010	19.996	100.363	20.223	1.355	0.482
1066.000	615.200	80.009	19.993	100.364	20.222	1.482	0.503
1066.501	615.465	80.008	19.995	100.362	20.219	1.676	0.522
1067.001	615.702	80.010	19.997	100.362	20.220	1.597	0.517
1067.500	615.955	80.009	19.995	100.361	20.218	1.753	0.496
1068.000	616.176	80.010	19.997	100.361	20.220	1.600	0.482
1068.500	616.416	80.011	19.994	100.360	20.222	1.428	0.467
1069.000	616.663	80.010	19.992	100.360	20.223	1.420	0.474
1069.500	616.920	80.010	19.996	100.360	20.220	1.583	0.495
1070.000	617.168	80.010	19.992	100.358	20.222	1.438	0.504
1070.500	617.403	80.010	19.994	100.358	20.223	1.355	0.494
1071.000	617.666	80.011	19.994	100.358	20.221	1.548	0.491
1071.500	617.862	80.009	19.996	100.358	20.223	1.401	0.479
1072.001	618.139	80.009	19.994	100.359	20.223	1.351	0.466
1072.501	618.363	80.010	19.997	100.362	20.225	1.254	0.488
1073.000	618.592	80.010	19.996	100.362	20.222	1.481	0.477
1073.500	618.904	80.009	19.995	100.362	20.220	1.608	0.496
1074.000	619.112	80.009	19.994	100.362	20.219	1.653	0.530
1074.500	619.335	80.009	19.994	100.362	20.220	1.612	0.476
1075.000	619.611	80.009	19.997	100.362	20.220	1.641	0.465
1075.500	619.847	80.009	19.995	100.363	20.223	1.411	0.506
1076.000	620.093	80.009	19.997	100.364	20.220	1.599	0.497
1076.500	620.352	80.010	19.997	100.364	20.220	1.583	0.493
1077.000	620.589	80.008	19.997	100.364	20.221	1.544	0.500
1077.500	620.854	80.008	19.994	100.365	20.222	1.486	0.499
1078.000	621.101	80.009	19.996	100.364	20.217	1.848	0.507
1078.500	621.321	80.008	19.994	100.364	20.224	1.324	0.490
1079.000	621.567	80.009	19.995	100.364	20.221	1.513	0.466
1079.501	621.824	80.008	19.998	100.363	20.220	1.633	0.484
1080.001	622.051	80.008	19.995	100.363	20.220	1.589	0.493
1080.501	622.300	80.009	19.995	100.363	20.218	1.728	0.480
1081.001	622.543	80.008	19.996	100.363	20.220	1.610	0.484
1081.500	622.825	80.008	19.996	100.362	20.221	1.502	0.509
1082.000	623.067	80.009	19.996	100.363	20.220	1.647	0.524
1082.501	623.276	80.008	19.995	100.362	20.218	1.755	0.487
1083.001	623.531	80.008	19.995	100.357	20.217	1.823	0.457
1083.500	623.775	80.008	19.995	100.356	20.220	1.637	0.482
1084.000	624.044	80.007	19.996	100.355	20.220	1.624	0.507
1084.500	624.270	80.007	19.997	100.355	20.220	1.645	0.504
1085.000	624.515	80.008	19.996	100.356	20.221	1.558	0.483
1085.500	624.769	80.009	19.996	100.361	20.220	1.575	0.485
1086.000	625.008	80.007	19.995	100.361	20.220	1.610	0.496
1086.500	625.288	80.008	19.997	100.362	20.221	1.539	0.506
1087.000	625.514	80.008	19.998	100.362	20.220	1.608	0.512
1087.500	625.735	80.009	19.997	100.362	20.220	1.645	0.477
1088.000	625.953	80.008	19.997	100.361	20.223	1.370	0.443
1088.500	626.272	80.008	19.997	100.361	20.220	1.593	0.488
1089.000	626.446	80.008	19.995	100.364	20.220	1.606	0.515
1089.501	626.714	80.008	19.994	100.365	20.218	1.786	0.467
1090.001	626.976	80.008	19.995	100.364	20.219	1.701	0.486
1090.500	627.180	80.009	19.994	100.365	20.219	1.707	0.498
1091.000	627.449	80.010	19.996	100.365	20.220	1.604	0.470
1091.500	627.723	80.008	19.996	100.364	20.218	1.763	0.508
1092.000	628.000	80.008	19.997	100.364	20.218	1.786	0.547
1092.500	628.228	80.009	19.998	100.364	20.217	1.807	0.528
1093.000	628.465	80.010	19.997	100.364	20.218	1.786	0.485
1093.501	628.721	80.010	19.997	100.364	20.218	1.757	0.479
1094.001	628.965	80.009	19.998	100.363	20.218	1.742	0.496
1094.501	629.205	80.010	19.995	100.363	20.221	1.535	0.492
1095.001	629.471	80.009	19.995	100.362	20.220	1.624	0.496
1095.501	629.737	80.010	19.995	100.362	20.220	1.608	0.519
1096.000	629.987	80.009	19.997	100.362	20.221	1.529	0.523
1096.501	630.239	80.010	19.995	100.362	20.218	1.755	0.509
1097.001	630.481	80.010	19.997	100.362	20.219	1.682	0.498
1097.500	630.738	80.010	19.996	100.362	20.223	1.413	0.497
1098.001	630.985	80.010	19.996	100.365	20.217	1.823	0.501
1098.501	631.254	80.010	19.996	100.365	20.221	1.533	0.510
1099.001	631.504	80.010	19.994	100.366	20.219	1.674	0.518
1099.500	631.750	80.011	19.996	100.366	20.220	1.581	0.508
1100.000	631.992	80.010	19.996	100.366	20.220	1.589	0.492
1100.501	632.266	80.010	19.993	100.364	20.221	1.511	0.501
1101.001	632.513	80.011	19.995	100.364	20.221	1.546	0.519
1101.501	632.734	80.012	19.997	100.365	20.223	1.416	0.495
1102.000	633.065	80.011	19.997	100.367	20.220	1.573	0.510
1102.500	633.312	80.012	19.997	100.367	20.216	1.906	0.565
1103.000	633.551	80.010	19.995	100.367	20.219	1.658	0.532
1103.500	633.785	80.009	19.994	100.366	20.223	1.407	0.480
1104.000	634.034	80.010	19.995	100.367	20.218	1.788	0.478
1104.500	634.291	80.009	19.997	100.366	20.218	1.732	0.494
1105.000	634.568	80.009	19.996	100.366	20.218	1.764	0.520
1105.500	634.810	80.009	19.995	100.368	20.217	1.811	0.526
1106.000	635.075	80.010	19.997	100.368	20.220	1.592	0.513
1106.500	635.346	80.009	19.994	100.367	20.217	1.842	0.522
1107.000	635.556	80.009	19.996	100.368	20.216	1.947	0.509
1107.500	635.836	80.008	19.996	100.370	20.219	1.695	0.486
1108.000	636.076	80.009	19.996	100.370	20.216	1.900	0.505
1108.500	636.377	80.009	19.997	100.371	20.221	1.529	0.531
1109.000	636.632	80.009	19.997	100.371	20.220	1.639	0.548
1109.500	636.872	80.010	19.997	100.371	20.220	1.585	0.525
1110.000	637.153	80.008	19.996	100.369	20.218	1.749	0.508
1110.501	637.388	80.008	19.994	100.368	20.217	1.809	0.518
1111.001	637.641	80.009	19.996	100.369	20.218	1.778	0.502
1111.500	637.892	80.008	19.996	100.371	20.217	1.819	0.496
1112.000	638.157	80.009	19.996	100.376	20.216	1.941	0.510
1112.500	638.406	80.009	19.997	100.380	20.214	2.033	0.516
1113.000	638.629	80.008	19.997	100.382	20.215	2.001	0.493
1113.501	638.939	80.008	19.995	100.384	20.218	1.772	0.502
1114.001	639.173	80.010	19.997	100.385	20.218	1.790	0.539
1114.501	639.453	80.010	19.997	100.383	20.215	1.979	0.529
1115.000	639.718	80.008	19.997	100.386	20.217	1.809	0.529
1115.500	639.959	80.009	19.998	100.391	20.219	1.720	0.526
1116.000	640.232	80.008	19.997	100.392	20.220	1.631	0.510
1116.500	640.455	80.009	19.995	100.389	20.217	1.813	0.505
1117.000	640.678	80.009	19.998	100.385	20.215	1.968	0.471
1117.500	641.009	80.009	19.998	100.380	20.220	1.598	0.499
1118.000	641.221	80.009	19.997	100.373	20.218	1.724	0.548
1118.500	641.482	80.009	19.995	100.370	20.216	1.915	0.508
1119.000	641.768	80.010	19.997	100.370	20.216	1.911	0.510
1119.500	642.008	80.011	20.000	100.373	20.214	2.055	0.537
1120.000	642.250	80.009	19.994	100.374	20.217	1.828	0.504
1120.500	642.530	80.009	19.996	100.379	20.215	2.014	0.502
1121.000	642.764	80.009	19.996	100.382	20.214	2.045	0.518
1121.500	643.028	80.010	19.996	100.388	20.215	1.958	0.506
1122.000	643.302	80.010	19.996	100.388	20.217	1.828	0.518
1122.501	643.573	80.010	19.996	100.389	20.220	1.643	0.542
1123.001	643.805	80.012	19.998	100.390	20.220	1.592	0.524
1123.500	644.086	80.010	19.996	100.390	20.221	1.552	0.508
1124.000	644.325	80.010	19.996	100.388	20.217	1.842	0.517
1124.500	644.585	80.011	19.999	100.392	20.218	1.772	0.510
1125.001	644.804	80.010	19.996	100.393	20.220	1.590	0.489
1125.501	645.052	80.011	19.995	100.391	20.220	1.596	0.473
1126.001	645.293	80.013	19.996	100.390	20.216	1.892	0.478
1126.500	645.556	80.012	19.997	100.389	20.219	1.708	0.496
1127.000	645.820	80.012	19.996	100.386	20.217	1.846	0.515
1127.500	646.107	80.012	19.996	100.387	20.217	1.875	0.539
1128.000	646.367	80.011	19.995	100.390	20.219	1.689	0.549
1128.500	646.614	80.012	19.996	100.392	20.215	2.014	0.527
1129.000	646.875	80.011	19.995	100.395	20.218	1.736	0.507
1129.500	647.136	80.011	19.995	100.398	20.220	1.608	0.515
1130.000	647.397	80.012	19.995	100.398	20.216	1.879	0.522
1130.500	647.666	80.012	19.995	100.393	20.216	1.885	0.526
1131.000	647.938	80.010	19.996	100.390	20.216	1.885	0.536
1131.500	648.192	80.012	19.994	100.389	20.217	1.828	0.533
1132.000	648.418	80.010	19.994	100.388	20.215	1.960	0.503
1132.500	648.701	80.011	19.997	100.389	20.215	1.960	0.494
1133.000	648.910	80.011	19.995	100.391	20.220	1.579	0.501
1133.500	649.187	80.010	19.997	100.390	20.218	1.780	0.489
1134.001	649.446	80.010	19.994	100.387	20.218	1.726	0.511
1134.501	649.709	80.010	19.996	100.388	20.217	1.846	0.529
1135.001	649.969	80.010	19.996	100.390	20.216	1.921	0.523
1135.501	650.262	80.009	19.996	100.391	20.217	1.851	0.538
1136.000	650.477	80.010	19.997	100.396	20.216	1.927	0.530
1136.500	650.771	80.010	19.995	100.398	20.216	1.890	0.508
1137.000	651.019	80.009	19.997	100.391	20.218	1.797	0.525
1137.500	651.260	80.010	19.996	100.386	20.217	1.834	0.515
1138.000	651.505	80.010	19.995	100.381	20.218	1.757	0.488
1138.500	651.756	80.010	19.997	100.378	20.213	2.132	0.492
1139.001	651.995	80.010	19.996	100.378	20.212	2.254	0.493
1139.501	652.241	80.009	19.994	100.380	20.217	1.821	0.487
1140.001	652.497	80.009	19.993	100.382	20.214	2.103	0.493
1140.501	652.762	80.010	19.993	100.383	20.216	1.938	0.511
1141.001	653.017	80.010	19.999	100.380	20.214	2.085	0.521
1141.500	653.270	80.009	19.997	100.377	20.215	1.969	0.514
1142.000	653.508	80.008	19.995	100.381	20.214	2.031	0.500
1142.500	653.781	80.010	19.996	100.383	20.214	2.035	0.501
1143.000	654.048	80.008	19.996	100.386	20.215	2.018	0.526
1143.500	654.267	80.009	19.996	100.391	20.218	1.757	0.513
1144.000	654.542	80.008	19.996	100.394	20.215	2.020	0.490
1144.500	654.807	80.009	19.996	100.395	20.215	2.010	0.517
1145.000	655.035	80.009	19.997	100.394	20.212	2.209	0.516
1145.500	655.333	80.009	19.997	100.395	20.209	2.449	0.509
1146.001	655.562	80.009	19.996	100.396	20.212	2.209	0.527
1146.501	655.804	80.009	19.995	100.396	20.212	2.194	0.499
1147.000	656.094	80.009	19.996	100.397	20.210	2.352	0.501
1147.500	656.345	80.009	19.996	100.397	20.210	2.385	0.537
1148.000	656.605	80.008	19.994	100.395	20.210	2.333	0.526
1148.500	656.819	80.010	19.996	100.391	20.211	2.298	0.492
1149.000	657.066	80.010	19.995	100.390	20.211	2.312	0.468
1149.500	657.309	80.010	19.997	100.390	20.211	2.273	0.475
1150.000	657.581	80.010	19.995	100.392	20.211	2.258	0.502
1150.500	657.834	80.010	19.997	100.394	20.211	2.296	0.520
1151.000	658.091	80.010	19.998	100.399	20.211	2.318	0.518
1151.500	658.316	80.009	19.993	100.401	20.212	2.242	0.496
1152.000	658.559	80.009	19.996	100.401	20.216	1.946	0.475
1152.501	658.823	80.009	19.996	100.402	20.212	2.205	0.488
1153.001	659.099	80.009	19.996	100.402	20.214	2.047	0.523
1153.500	659.337	80.010	19.996	100.402	20.214	2.076	0.527
1154.000	659.584	80.011	19.997	100.401	20.212	2.250	0.499
1154.500	659.847	80.011	19.997	100.401	20.212	2.207	0.498
1155.000	660.103	80.010	19.997	100.400	20.212	2.194	0.515
1155.500	660.317	80.010	19.996	100.400	20.212	2.186	0.494
1156.000	660.571	80.010	19.996	100.400	20.210	2.341	0.469
1156.500	660.870	80.012	19.995	100.401	20.211	2.300	0.510
1157.000	661.098	80.009	19.997	100.401	20.212	2.184	0.540
1157.500	661.362	80.010	19.996	100.402	20.213	2.132	0.510
1158.000	661.584	80.010	19.994	100.401	20.213	2.130	0.489
1158.500	661.835	80.010	19.995	100.401	20.211	2.292	0.479
1159.001	662.088	80.009	19.996	100.401	20.211	2.312	0.489
1159.501	662.289	80.011	19.996	100.402	20.215	2.012	0.479
1160.000	662.565	80.009	19.997	100.402	20.212	2.209	0.466
1160.501	662.811	80.010	19.997	100.402	20.211	2.314	0.500
1161.001	663.065	80.010	19.995	100.402	20.211	2.296	0.511
1161.500	663.312	80.009	19.999	100.402	20.209	2.416	0.501
1162.000	663.565	80.010	19.997	100.402	20.211	2.306	0.500
1162.500	663.833	80.011	19.996	100.403	20.214	2.060	0.510
1163.000	664.056	80.011	19.997	100.404	20.212	2.207	0.506
1163.500	664.340	80.011	19.996	100.405	20.214	2.052	0.499
1164.000	664.582	80.009	19.996	100.404	20.213	2.145	0.516
1164.500	664.827	80.008	19.997	100.404	20.213	2.170	0.507
1165.001	665.137	80.008	19.994	100.404	20.209	2.431	0.521
1165.501	665.313	80.010	19.994	100.403	20.210	2.361	0.520
1166.000	665.575	80.009	19.997	100.403	20.209	2.419	0.462
1166.500	665.831	80.008	19.996	100.403	20.210	2.336	0.478
1167.000	666.093	80.009	19.994	100.403	20.211	2.303	0.518
1167.500	666.344	80.009	19.996	100.403	20.209	2.419	0.516
1168.000	666.579	80.009	19.997	100.405	20.210	2.367	0.500
1168.500	666.835	80.008	19.996	100.407	20.210	2.352	0.489
1169.000	667.100	80.008	19.994	100.408	20.206	2.655	0.506
1169.501	667.342	80.009	19.994	100.408	20.211	2.296	0.514
1170.001	667.612	80.009	19.995	100.411	20.208	2.497	0.509
1170.500	667.825	80.008	19.996	100.409	20.210	2.354	0.497
1171.000	668.097	80.009	19.995	100.408	20.209	2.443	0.484
1171.500	668.352	80.008	19.997	100.408	20.211	2.305	0.506
1172.000	668.605	80.008	19.995	100.409	20.210	2.402	0.518
1172.500	668.852	80.008	19.996	100.409	20.212	2.222	0.504
1173.000	669.098	80.009	19.995	100.413	20.211	2.305	0.496
1173.500	669.349	80.010	19.997	100.415	20.210	2.385	0.495
1174.000	669.579	80.010	19.996	100.418	20.209	2.479	0.489
1174.500	669.792	80.010	19.994	100.421	20.209	2.464	0.462
1175.001	670.065	80.009	19.996	100.424	20.212	2.212	0.464
1175.501	670.317	80.010	19.995	100.427	20.208	2.518	0.505
1176.001	670.531	80.010	19.997	100.431	20.210	2.338	0.495
1176.500	670.820	80.009	19.995	100.435	20.211	2.282	0.485
1177.001	671.081	80.010	19.994	100.438	20.209	2.449	0.527
1177.501	671.324	80.011	19.996	100.438	20.210	2.398	0.527
1178.000	671.564	80.011	19.994	100.439	20.208	2.536	0.493
1178.500	671.819	80.010	19.997	100.438	20.210	2.342	0.489
1179.000	672.088	80.010	19.997	100.435	20.212	2.230	0.510
1179.500	672.340	80.010	19.995	100.434	20.209	2.479	0.523
1180.000	672.553	80.009	19.996	100.433	20.214	2.073	0.493
1180.500	672.808	80.010	19.996	100.431	20.209	2.414	0.467
1181.000	673.083	80.011	19.996	100.430	20.209	2.450	0.499
1181.500	673.327	80.010	19.992	100.430	20.209	2.460	0.524
1182.001	673.549	80.011	19.997	100.430	20.209	2.477	0.493
1182.501	673.805	80.009	19.994	100.432	20.209	2.444	0.472
1183.001	674.035	80.011	19.995	100.432	20.207	2.564	0.482
1183.500	674.290	80.010	19.997	100.430	20.208	2.516	0.485
1184.001	674.567	80.011	19.998	100.431	20.211	2.332	0.508
1184.501	674.801	80.012	19.996	100.429	20.210	2.367	0.522
1185.000	675.083	80.011	19.995	100.429	20.210	2.383	0.513
1185.500	675.309	80.011	19.996	100.432	20.209	2.468	0.512
1186.000	675.560	80.009	19.997	100.436	20.205	2.777	0.492
1186.500	675.817	80.010	19.995	100.436	20.208	2.535	0.493
1187.000	676.055	80.010	19.995	100.433	20.206	2.667	0.502
1187.500	676.354	80.011	19.997	100.428	20.205	2.744	0.516
1188.000	676.546	80.010	19.996	100.428	20.206	2.649	0.514
1188.500	676.805	80.009	19.996	100.427	20.206	2.700	0.471
1189.000	677.044	80.010	19.996	100.429	20.207	2.618	0.475
1189.500	677.333	80.010	19.996	100.434	20.209	2.473	0.514
1190.001	677.518	80.010	19.994	100.435	20.207	2.615	0.501
1190.501	677.790	80.011	19.996	100.434	20.208	2.528	0.465
1191.000	678.009	80.011	19.995	100.435	20.210	2.371	0.474
1191.500	678.262	80.010	19.995	100.435	20.211	2.317	0.482
1192.000	678.569	80.010	19.995	100.437	20.209	2.477	0.516
1192.500	678.819	80.010	19.998	100.439	20.206	2.705	0.558
1193.000	678.938	80.009	19.993	100.439	20.208	2.522	0.463
1193.500	679.208	80.010	19.993	100.439	20.209	2.483	0.379
1194.000	679.562	80.007	19.996	100.439	20.209	2.454	0.506
1194.500	679.764	80.009	19.993	100.437	20.207	2.605	0.590
1195.000	680.001	80.010	19.998	100.438	20.206	2.676	0.498
1195.500	680.246	80.010	19.995	100.439	20.206	2.692	0.461
1196.001	680.504	80.011	19.995	100.437	20.204	2.787	0.493
1196.501	680.783	80.009	19.994	100.436	20.206	2.678	0.520
1197.000	680.994	80.009	19.994	100.438	20.206	2.663	0.514
1197.500	681.288	80.008	19.994	100.437	20.207	2.607	0.497
1198.000	681.506	80.009	19.997	100.436	20.204	2.810	0.508
1198.500	681.797	80.009	19.993	100.439	20.207	2.601	0.510
1199.000	682.025	80.010	19.994	100.439	20.205	2.719	0.514
1199.500	682.274	80.012	19.997	100.439	20.205	2.754	0.498
1200.000	682.516	80.010	19.996	100.441	20.204	2.787	0.484
1200.500	682.792	80.010	19.996	100.441	20.204	2.796	0.504
1201.000	683.037	80.011	19.996	100.441	20.205	2.748	0.520
1201.500	683.312	80.011	19.997	100.441	20.205	2.761	0.521
1202.000	683.505	80.011	19.995	100.441	20.204	2.802	0.494
1202.500	683.744	80.012	19.996	100.441	20.205	2.767	0.450
1203.000	684.025	80.012	19.997	100.441	20.207	2.626	0.476
1203.500	684.281	80.011	19.995	100.441	20.202	2.957	0.529
1204.000	684.546	80.010	19.996	100.442	20.204	2.850	0.529
1204.501	684.802	80.011	19.996	100.443	20.205	2.767	0.521
1205.001	685.071	80.011	19.995	100.443	20.202	2.986	0.523
1205.501	685.306	80.011	19.997	100.444	20.203	2.912	0.515
1206.001	685.561	80.010	19.998	100.444	20.204	2.852	0.497
1206.500	685.807	80.011	19.998	100.444	20.204	2.860	0.495
1207.000	686.056	80.011	19.996	100.443	20.202	3.014	0.498
1207.500	686.299	80.011	19.997	100.442	20.202	2.968	0.494
1208.001	686.558	80.012	19.996	100.442	20.201	3.026	0.497
1208.501	686.827	80.010	19.996	100.441	20.200	3.130	0.515
1209.000	687.068	80.010	19.996	100.441	20.203	2.908	0.519
1209.500	687.319	80.012	19.996	100.440	20.202	2.983	0.501
1210.000	687.561	80.011	19.997	100.440	20.202	2.985	0.493
1210.500	687.806	80.010	19.998	100.441	20.202	2.981	0.490
1211.001	688.076	80.009	19.996	100.444	20.204	2.796	0.501
1211.501	688.364	80.010	19.997	100.448	20.201	3.055	0.537
1212.001	688.591	80.010	19.996	100.448	20.204	2.859	0.536
1212.500	688.851	80.009	19.997	100.451	20.202	2.985	0.501
1213.000	689.101	80.010	19.996	100.451	20.206	2.678	0.498
1213.501	689.374	80.009	19.998	100.448	20.202	2.987	0.517
1214.001	689.563	80.009	19.996	100.446	20.202	2.952	0.493
1214.500	689.852	80.009	19.996	100.446	20.202	2.948	0.470
1215.000	690.125	80.009	19.994	100.442	20.205	2.765	0.520
1215.501	690.372	80.009	19.997	100.444	20.201	3.072	0.540
1216.001	690.633	80.010	19.999	100.449	20.203	2.921	0.514
1216.500	690.910	80.009	19.998	100.454	20.200	3.136	0.524
1217.000	691.146	80.008	19.997	100.456	20.204	2.855	0.526
1217.500	691.418	80.009	19.996	100.460	20.203	2.938	0.510
1218.001	691.639	80.009	19.997	100.466	20.203	2.915	0.501
1218.501	691.895	80.008	19.996	100.466	20.203	2.913	0.485
1219.001	692.131	80.008	19.996	100.464	20.204	2.836	0.484
1219.501	692.399	80.008	19.996	100.465	20.201	3.045	0.498
1220.001	692.701	80.009	19.998	100.464	20.203	2.871	0.537
1220.500	692.938	80.008	19.997	100.464	20.202	2.965	0.555
1221.000	693.164	80.009	20.001	100.462	20.204	2.840	0.501
1221.500	693.425	80.009	19.995	100.465	20.200	3.108	0.475
1222.000	693.649	80.008	19.997	100.468	20.201	3.085	0.486
1222.500	693.894	80.009	19.998	100.472	20.200	3.126	0.477
1223.000	694.181	80.008	19.997	100.470	20.203	2.936	0.500
1223.500	694.430	80.009	19.996	100.472	20.204	2.838	0.534
1224.000	694.684	80.008	19.995	100.473	20.202	2.958	0.520
1224.501	694.954	80.009	19.994	100.472	20.201	3.079	0.513
1225.001	695.206	80.009	19.996	100.468	20.203	2.925	0.523
1225.501	695.447	80.009	19.996	100.468	20.198	3.279	0.508
1226.000	695.737	80.010	19.994	100.470	20.201	3.037	0.512
1226.500	695.990	80.008	19.996	100.470	20.199	3.193	0.537
1227.000	696.232	80.008	19.997	100.472	20.202	3.010	0.519
1227.500	696.495	80.007	19.995	100.477	20.197	3.323	0.500
1228.000	696.779	80.008	19.995	100.479	20.197	3.377	0.526
1228.501	696.986	80.008	19.993	100.478	20.197	3.336	0.520
1229.001	697.245	80.009	19.996	100.478	20.194	3.601	0.478
1229.500	697.568	80.008	19.994	100.479	20.193	3.632	0.524
1230.000	697.794	80.010	19.997	100.478	20.200	3.139	0.566
1230.500	698.000	80.011	19.998	100.479	20.193	3.694	0.491
1231.000	698.357	80.008	19.997	100.481	20.184	4.349	0.498
1231.501	698.531	80.009	19.996	100.481	20.203	2.905	0.547
1232.001	698.832	80.009	19.996	100.481	20.206	2.708	0.502
1232.500	699.110	80.009	19.993	100.481	20.199	3.187	0.527
1233.000	699.406	80.008	19.995	100.481	20.195	3.496	0.577
1233.500	699.624	80.009	19.995	100.482	20.179	4.718	0.544
1234.000	699.838	80.010	19.997	100.482	20.179	4.745	0.473
1234.500	700.110	80.010	19.997	100.483	20.196	3.442	0.459
1235.000	700.436	80.008	19.996	100.483	20.196	3.463	0.542
1235.500	700.614	80.009	19.996	100.483	20.203	2.936	0.551
1236.000	700.919	80.008	19.993	100.483	20.192	3.726	0.493
1236.500	701.143	80.010	19.995	100.482	20.196	3.442	0.505
1237.000	701.439	80.009	19.996	100.484	20.199	3.235	0.524
1237.500	701.700	80.008	19.995	100.484	20.200	3.110	0.539
1238.000	701.919	80.010	19.996	100.484	20.197	3.392	0.519
1238.501	702.159	80.010	19.995	100.485	20.196	3.430	0.470
1239.001	702.519	80.008	19.996	100.486	20.198	3.247	0.529
1239.500	702.613	80.009	19.997	100.486	20.199	3.189	0.526
1240.000	702.921	80.007	19.991	100.488	20.195	3.500	0.428
1240.500	703.313	80.010	19.997	100.488	20.197	3.371	0.551
1241.000	703.339	80.007	19.995	100.487	20.196	3.460	0.559
1241.500	703.600	80.009	19.995	100.488	20.196	3.431	0.353
1242.000	703.985	80.008	19.995	100.492	20.192	3.717	0.466
1242.500	704.211	80.008	19.996	100.495	20.194	3.597	0.629
1243.001	704.594	80.009	19.996	100.499	20.199	3.243	0.610
1243.501	704.664	80.006	19.994	100.503	20.193	3.654	0.531
1244.000	705.050	80.010	19.997	100.506	20.194	3.591	0.454
1244.500	705.208	80.007	19.996	100.507	20.195	3.523	0.500
1245.001	705.374	80.007	19.993	100.509	20.192	3.768	0.434
1245.501	706.705	80.011	19.996	100.511	20.197	3.365	0.911
1246.001	706.764	80.012	19.998	100.509	20.193	3.674	1.444
1246.501	706.387	80.008	19.997	100.506	20.191	3.813	0.536
1247.001	706.329	80.008	19.994	100.503	20.194	3.591	-0.377
1247.500	707.182	80.006	19.995	100.501	20.198	3.262	0.180
1248.000	706.642	80.008	19.995	100.502	20.195	3.517	0.554
1248.500	706.268	80.006	19.997	100.505	20.191	3.794	-0.301
1249.000	707.365	80.007	19.998	100.508	20.194	3.620	-0.096
1249.500	708.056	80.009	19.997	100.513	20.193	3.649	1.255
1250.000	707.336	80.007	19.995	100.514	20.194	3.623	0.880
1250.500	708.612	80.008	19.998	100.510	20.195	3.548	0.264
1251.000	708.264	80.008	19.996	100.507	20.192	3.732	0.742
1251.501	708.633	80.007	19.996	100.504	20.193	3.656	0.475
1252.001	709.282	80.009	19.997	100.502	20.192	3.726	0.519
1252.501	709.105	80.008	19.993	100.505	20.195	3.513	0.745
1253.001	709.707	80.009	19.995	100.505	20.193	3.641	0.449
1253.501	709.625	80.008	19.997	100.508	20.192	3.718	0.473
1254.001	709.950	80.008	19.995	100.514	20.190	3.898	0.381
1254.500	710.363	80.008	19.994	100.515	20.190	3.875	0.491
1255.000	710.493	80.009	19.993	100.515	20.193	3.677	0.640
1255.500	710.678	80.007	19.994	100.516	20.191	3.813	0.429
1256.000	710.963	80.009	19.994	100.516	20.190	3.859	0.393
1256.500	711.223	80.008	19.995	100.513	20.191	3.815	0.508
1257.000	711.555	80.010	19.994	100.510	20.191	3.830	0.569
1257.500	711.709	80.008	19.994	100.509	20.192	3.776	0.539
1258.000	712.012	80.009	19.993	100.505	20.191	3.847	0.471
1258.500	712.168	80.008	19.995	100.508	20.193	3.627	0.458
1259.000	712.425	80.011	19.995	100.510	20.194	3.614	0.437
1259.501	712.677	80.009	19.996	100.512	20.192	3.755	0.461
1260.001	712.939	80.010	19.995	100.512	20.194	3.583	0.511
1260.500	713.194	80.009	19.998	100.515	20.194	3.610	0.515
1261.000	713.373	80.010	19.994	100.516	20.191	3.828	0.476
1261.500	713.673	80.010	19.996	100.517	20.194	3.592	0.457
1262.000	713.922	80.013	19.994	100.518	20.194	3.614	0.514
1262.500	714.239	80.011	19.998	100.519	20.192	3.737	0.557
1263.000	714.380	80.010	19.994	100.521	20.193	3.687	0.512
1263.500	714.646	80.011	19.995	100.519	20.194	3.592	0.432
1264.000	714.912	80.012	19.996	100.519	20.191	3.797	0.469
1264.501	715.133	80.011	19.993	100.517	20.192	3.730	0.509
1265.001	715.386	80.012	19.995	100.517	20.191	3.840	0.481
1265.501	715.610	80.011	19.994	100.517	20.189	3.983	0.476
1266.001	715.915	80.011	19.995	100.519	20.193	3.656	0.503
1266.500	716.140	80.011	19.995	100.518	20.195	3.538	0.530
1267.000	716.336	80.012	19.995	100.520	20.190	3.861	0.476
1267.500	716.555	80.011	19.994	100.519	20.191	3.778	0.418
1268.000	716.839	80.012	19.995	100.520	20.192	3.701	0.459
1268.500	717.140	80.012	19.996	100.520	20.191	3.844	0.545
1269.000	717.305	80.011	19.995	100.521	20.192	3.728	0.525
1269.501	717.582	80.012	19.995	100.520	20.191	3.788	0.454
1270.001	717.775	80.011	19.995	100.521	20.188	4.033	0.456
1270.500	718.123	80.009	19.994	100.520	20.192	3.722	0.505
1271.000	718.278	80.011	19.995	100.521	20.187	4.143	0.522
1271.500	718.524	80.010	19.996	100.520	20.189	3.981	0.452
1272.000	718.809	80.009	19.995	100.520	20.188	4.020	0.466
1272.500	719.004	80.011	19.995	100.520	20.188	4.012	0.505
1273.000	719.242	80.010	19.995	100.520	20.186	4.209	0.457
1273.500	719.460	80.010	19.995	100.520	20.190	3.925	0.444
1274.000	719.796	80.010	19.996	100.521	20.188	4.070	0.505
1274.500	719.944	80.009	19.996	100.521	20.189	3.998	0.519
1275.000	720.186	80.010	19.997	100.520	20.187	4.120	0.437
1275.500	720.461	80.010	19.997	100.521	20.188	4.037	0.453
1276.000	720.717	80.009	19.995	100.521	20.187	4.141	0.524
1276.501	720.959	80.010	19.996	100.520	20.187	4.107	0.514
1277.001	721.222	80.011	19.997	100.521	20.186	4.199	0.502
1277.500	721.378	80.009	19.995	100.521	20.188	4.033	0.462
1278.000	721.589	80.010	19.997	100.521	20.187	4.097	0.393
1278.500	721.896	80.012	19.996	100.522	20.187	4.101	0.443
1279.000	722.150	80.010	19.997	100.521	20.186	4.228	0.539
1279.500	722.418	80.008	19.996	100.520	20.188	4.008	0.541
1280.000	722.587	80.011	19.996	100.520	20.188	4.021	0.479
1280.500	722.809	80.012	19.995	100.519	20.188	4.041	0.414
1281.000	723.143	80.011	19.998	100.517	20.190	3.869	0.474
1281.500	723.328	80.013	19.996	100.515	20.188	4.062	0.538
1282.000	723.543	80.011	19.998	100.515	20.190	3.906	0.459
1282.500	723.790	80.012	19.995	100.515	20.191	3.842	0.431
1283.001	724.070	80.010	19.995	100.514	20.189	3.962	0.494
1283.501	724.338	80.012	19.996	100.515	20.189	4.004	0.538
1284.000	724.510	80.011	19.997	100.517	20.191	3.782	0.494
1284.500	724.792	80.010	19.994	100.518	20.190	3.877	0.447
1285.000	725.018	80.011	19.997	100.517	20.192	3.759	0.481
1285.500	725.267	80.010	19.995	100.518	20.193	3.693	0.491
1286.000	725.515	80.012	19.993	100.518	20.188	4.033	0.486
1286.500	725.686	80.012	19.994	100.518	20.192	3.711	0.458
1287.000	725.967	80.012	19.996	100.517	20.191	3.794	0.435
1287.501	726.165	80.012	19.993	100.517	20.190	3.852	0.466
1288.001	726.430	80.011	19.994	100.516	20.188	4.016	0.471
1288.501	726.674	80.013	19.997	100.514	20.191	3.850	0.486
1289.001	726.939	80.013	19.995	100.514	20.190	3.927	0.509
1289.500	727.151	80.012	19.996	100.517	20.189	3.943	0.493
1290.000	727.423	80.013	19.995	100.518	20.191	3.823	0.480
1290.500	727.607	80.012	19.995	100.520	20.186	4.192	0.470
1291.000	727.852	80.013	19.996	100.521	20.187	4.109	0.443
1291.500	728.134	80.012	19.995	100.521	20.188	4.045	0.478
1292.000	728.379	80.012	19.995	100.520	20.187	4.121	0.527
1292.500	728.639	80.013	19.996	100.518	20.189	3.964	0.516
1293.000	728.932	80.011	19.995	100.516	20.190	3.858	0.529
1293.500	729.112	80.011	19.995	100.515	20.189	3.999	0.513
1294.000	729.381	80.012	19.997	100.512	20.188	4.011	0.461
1294.500	729.638	80.012	19.998	100.511	20.187	4.082	0.487
1295.000	729.873	80.011	19.995	100.511	20.187	4.094	0.509
1295.500	730.159	80.010	19.995	100.513	20.188	4.046	0.506
1296.000	730.467	80.010	19.997	100.513	20.193	3.632	0.558
1296.500	730.712	80.011	19.996	100.517	20.190	3.851	0.574
1297.000	730.922	80.010	19.996	100.517	20.192	3.746	0.504
1297.500	731.144	80.011	19.996	100.511	20.189	3.984	0.443
1298.000	731.417	80.009	19.996	100.506	20.188	4.027	0.464
1298.500	731.722	80.010	19.994	100.504	20.191	3.818	0.537
1299.000	731.954	80.010	19.994	100.502	20.190	3.866	0.557
1299.500	732.226	80.010	19.996	100.500	20.192	3.766	0.520
1300.001	732.452	80.009	19.994	100.503	20.190	3.876	0.501
1300.501	732.713	80.008	19.996	100.507	20.191	3.799	0.493
1301.000	732.968	80.008	19.996	100.507	20.192	3.725	0.502
1301.500	733.266	80.009	19.996	100.505	20.190	3.882	0.535
1302.000	733.547	80.009	19.996	100.507	20.191	3.778	0.566
1302.500	733.769	80.008	19.995	100.506	20.192	3.708	0.541
1303.000	733.948	80.010	19.996	100.502	20.192	3.772	0.452
1303.500	734.236	80.008	19.993	100.501	20.190	3.852	0.434
1304.001	734.481	80.010	19.995	100.500	20.194	3.616	0.500
1304.501	734.705	80.009	19.997	100.495	20.193	3.674	0.501
1305.000	734.976	80.010	19.997	100.492	20.190	3.859	0.483
1305.500	735.252	80.009	19.997	100.489	20.193	3.689	0.521
1306.000	735.434	80.010	19.997	100.486	20.193	3.676	0.502
1306.500	735.740	80.008	19.996	100.483	20.192	3.755	0.473
1307.000	735.984	80.009	20.000	100.484	20.192	3.736	0.519
1307.500	736.266	80.008	19.996	100.484	20.194	3.614	0.538
1308.000	736.517	80.008	19.996	100.484	20.192	3.765	0.530
1308.500	736.708	80.009	19.996	100.484	20.193	3.630	0.488
1309.000	736.964	80.008	19.997	100.483	20.196	3.429	0.445
1309.500	737.225	80.008	19.998	100.483	20.193	3.672	0.482
1310.000	737.540	80.008	19.996	100.483	20.193	3.655	0.546
1310.500	737.765	80.009	19.996	100.483	20.194	3.576	0.557
1311.000	738.028	80.009	19.996	100.483	20.192	3.765	0.514
1311.500	738.283	80.009	19.996	100.482	20.192	3.728	0.503
1312.000	738.546	80.009	19.996	100.480	20.193	3.651	0.518
1312.500	738.807	80.009	19.997	100.476	20.195	3.485	0.521
1313.000	739.056	80.008	19.995	100.472	20.196	3.452	0.517
1313.500	739.330	80.009	19.997	100.468	20.195	3.479	0.517
1314.000	739.578	80.007	19.997	100.465	20.192	3.735	0.523
1314.500	739.869	80.008	19.996	100.460	20.194	3.553	0.530
1315.001	740.055	80.009	19.996	100.455	20.194	3.567	0.508
1315.501	740.369	80.009	19.996	100.454	20.195	3.503	0.489
1316.000	740.598	80.009	19.996	100.458	20.196	3.410	0.521
1316.500	740.844	80.009	19.996	100.458	20.194	3.583	0.509
1317.000	741.122	80.011	19.995	100.460	20.196	3.403	0.499
1317.500	741.329	80.010	19.995	100.460	20.194	3.581	0.505
1318.000	741.642	80.009	19.996	100.459	20.197	3.391	0.503
1318.500	741.922	80.009	19.997	100.453	20.196	3.395	0.556
1319.000	742.118	80.010	19.993	100.448	20.196	3.432	0.535
1319.501	742.417	80.010	19.996	100.446	20.198	3.287	0.485
1320.001	742.635	80.009	19.995	100.445	20.197	3.336	0.505
1320.500	742.916	80.009	19.995	100.444	20.198	3.309	0.508
1321.000	743.178	80.009	19.997	100.443	20.200	3.094	0.521
1321.500	743.423	80.010	19.994	100.443	20.196	3.415	0.525
1322.000	743.657	80.010	19.995	100.443	20.197	3.373	0.493
