Sample ID:	C:\MCC\MCC Cal\Test\XPS_Foam_Board_MCC_30K_min_220120_R3.txt
Sample Weight (mg):	4.33
Heating Rate (C/s):	0.5
Combustor Temp (C):	900
N2 Flow Rate (cc/min):	80
O2 Flow Rate (cc/min):	20
Calibration File:	C:\MCC\MCC Cal\Coeff1 JN10440_30_210304.txt.txt
T Correction Coefficients:	0	1.024463	0
Time Shift (s):	14
*
Time (s)	Temperature (C)	N2 flow rate (cc/min)	O2 flow rate (cc/min)	Flow Rate (cc/min)	Oxygen (%)	HRR (W/g)	Heating rate (C/s)
-0.001	111.427	80.006	19.994	103.753	20.122	0.063	0.002
0.499	111.443	80.005	19.993	103.752	20.123	-0.006	-0.004
1.000	111.425	80.005	19.994	103.750	20.122	0.066	-0.001
1.500	111.457	80.006	19.993	103.746	20.123	-0.016	0.006
2.000	111.452	80.005	19.993	103.745	20.122	0.010	0.020
2.500	111.488	80.004	19.994	103.744	20.123	-0.018	0.029
3.000	111.436	80.004	19.993	103.745	20.119	0.266	0.007
3.500	111.456	80.004	19.994	103.747	20.121	0.102	-0.024
4.000	111.475	80.005	19.996	103.751	20.120	0.180	0.003
4.500	111.449	80.005	19.994	103.751	20.124	-0.080	0.016
5.000	111.453	80.006	19.994	103.751	20.122	0.074	-0.014
5.500	111.434	80.005	19.995	103.752	20.118	0.305	-0.019
6.000	111.445	80.006	19.995	103.752	20.120	0.188	-0.011
6.500	111.434	80.006	19.994	103.751	20.120	0.225	-0.004
7.000	111.463	80.006	19.995	103.752	20.122	0.016	0.009
7.500	111.483	80.006	19.994	103.749	20.119	0.260	0.033
8.000	111.486	80.007	19.994	103.748	20.120	0.154	0.036
8.500	111.471	80.007	19.994	103.749	20.119	0.295	0.005
9.000	111.430	80.007	19.995	103.749	20.120	0.158	-0.034
9.500	111.463	80.006	19.995	103.749	20.120	0.193	-0.032
10.000	111.449	80.005	19.995	103.750	20.121	0.139	0.006
10.500	111.426	80.005	19.994	103.746	20.123	-0.012	-0.009
11.000	111.440	80.006	19.994	103.744	20.117	0.410	-0.023
11.500	111.436	80.005	19.993	103.740	20.120	0.205	0.000
12.000	111.423	80.006	19.993	103.739	20.118	0.334	-0.003
12.500	111.435	80.005	19.993	103.742	20.122	0.055	-0.009
13.000	111.418	80.007	19.993	103.746	20.120	0.152	-0.003
13.500	111.433	80.005	19.993	103.748	20.118	0.342	-0.004
14.000	111.416	80.006	19.994	103.750	20.115	0.572	-0.003
14.500	111.443	80.005	19.993	103.751	20.120	0.189	0.004
15.000	111.426	80.006	19.993	103.752	20.118	0.367	0.010
15.500	111.423	80.005	19.994	103.755	20.121	0.086	-0.005
16.000	111.452	80.006	19.993	103.758	20.120	0.156	0.003
16.500	111.431	80.006	19.993	103.762	20.118	0.357	0.017
17.000	111.454	80.004	19.993	103.771	20.118	0.346	0.005
17.500	111.452	80.005	19.993	103.778	20.114	0.625	0.011
18.000	111.420	80.005	19.994	103.784	20.112	0.752	-0.006
18.500	111.434	80.004	19.992	103.791	20.114	0.654	-0.026
19.000	111.415	80.005	19.994	103.798	20.114	0.627	-0.011
19.500	111.445	80.004	19.994	103.798	20.109	0.994	0.003
20.000	111.462	80.002	19.993	103.803	20.112	0.816	0.028
20.500	111.444	80.002	19.994	103.808	20.108	1.080	0.023
21.000	111.443	80.003	19.993	103.815	20.108	1.093	-0.010
21.500	111.503	80.003	19.994	103.823	20.108	1.058	0.020
22.000	111.470	80.003	19.995	103.831	20.107	1.156	0.043
22.500	111.506	80.003	19.994	103.835	20.108	1.089	0.015
23.000	111.526	80.004	19.993	103.843	20.110	0.937	0.029
23.500	111.529	80.005	19.993	103.850	20.103	1.427	0.040
24.000	111.542	80.004	19.994	103.854	20.108	1.103	0.019
24.500	111.593	80.004	19.994	103.857	20.104	1.401	0.040
25.000	111.634	80.002	19.994	103.857	20.106	1.253	0.078
25.500	111.626	80.004	19.994	103.857	20.101	1.647	0.062
26.000	111.657	80.003	19.994	103.854	20.105	1.329	0.028
26.500	111.675	80.003	19.994	103.849	20.104	1.374	0.037
27.000	111.714	80.004	19.994	103.845	20.105	1.317	0.053
27.500	111.724	80.003	19.994	103.846	20.101	1.586	0.053
28.000	111.757	80.004	19.993	103.839	20.102	1.504	0.046
28.500	111.834	80.003	19.993	103.835	20.103	1.426	0.076
29.000	111.840	80.003	19.994	103.835	20.103	1.473	0.097
29.500	111.846	80.003	19.994	103.835	20.104	1.417	0.048
30.000	111.877	80.005	19.995	103.834	20.101	1.608	0.024
30.500	111.936	80.003	19.995	103.835	20.104	1.389	0.063
31.000	111.929	80.002	19.994	103.836	20.105	1.344	0.071
31.500	111.965	80.003	19.994	103.836	20.104	1.389	0.041
32.000	111.973	80.003	19.994	103.837	20.101	1.623	0.037
32.499	112.005	80.004	19.994	103.837	20.103	1.463	0.042
32.999	112.053	80.002	19.994	103.839	20.101	1.627	0.060
33.499	112.096	80.002	19.993	103.843	20.103	1.492	0.085
33.999	112.128	80.003	19.994	103.849	20.103	1.443	0.083
34.499	112.195	80.004	19.993	103.853	20.102	1.527	0.087
35.000	112.221	80.004	19.993	103.855	20.101	1.640	0.096
35.500	112.257	80.004	19.994	103.858	20.102	1.562	0.077
35.999	112.307	80.004	19.994	103.862	20.097	1.893	0.074
36.499	112.332	80.003	19.993	103.866	20.101	1.630	0.081
36.999	112.343	80.003	19.995	103.874	20.098	1.872	0.056
37.499	112.403	80.002	19.995	103.881	20.097	1.901	0.054
37.999	112.464	80.003	19.995	103.887	20.098	1.862	0.096
38.499	112.510	80.003	19.993	103.890	20.092	2.311	0.114
38.999	112.546	80.004	19.994	103.890	20.096	1.958	0.095
39.499	112.598	80.004	19.994	103.889	20.095	2.092	0.085
39.999	112.690	80.004	19.994	103.891	20.091	2.350	0.116
40.499	112.743	80.005	19.995	103.895	20.091	2.369	0.145
40.999	112.749	80.005	19.994	103.901	20.089	2.545	0.102
41.499	112.846	80.005	19.994	103.908	20.087	2.673	0.081
41.999	112.887	80.005	19.994	103.915	20.091	2.351	0.121
42.499	112.956	80.004	19.995	103.921	20.088	2.570	0.124
42.999	112.993	80.003	19.994	103.925	20.087	2.653	0.108
43.499	113.011	80.003	19.994	103.933	20.086	2.765	0.081
43.999	113.125	80.004	19.994	103.939	20.088	2.583	0.093
44.499	113.212	80.004	19.993	103.944	20.087	2.694	0.166
44.999	113.273	80.005	19.995	103.946	20.084	2.870	0.174
45.499	113.321	80.004	19.995	103.948	20.087	2.691	0.128
45.999	113.418	80.004	19.994	103.952	20.082	3.051	0.127
46.499	113.488	80.004	19.995	103.963	20.077	3.377	0.157
46.999	113.538	80.004	19.995	103.965	20.083	2.985	0.143
47.499	113.646	80.005	19.994	103.968	20.087	2.657	0.139
47.999	113.720	80.005	19.993	103.970	20.087	2.698	0.170
48.499	113.851	80.004	19.994	103.965	20.085	2.805	0.193
49.000	113.888	80.003	19.993	103.956	20.083	2.965	0.186
49.500	113.965	80.003	19.993	103.955	20.083	2.969	0.142
49.999	114.050	80.003	19.994	103.955	20.081	3.102	0.138
50.499	114.106	80.005	19.993	103.955	20.081	3.102	0.151
50.999	114.236	80.003	19.993	103.956	20.082	3.008	0.164
51.499	114.321	80.003	19.994	103.956	20.077	3.415	0.201
51.999	114.430	80.004	19.993	103.963	20.078	3.308	0.204
52.499	114.522	80.003	19.993	103.970	20.080	3.220	0.197
52.999	114.593	80.002	19.993	103.973	20.079	3.269	0.182
53.499	114.687	80.003	19.994	103.977	20.079	3.230	0.164
53.999	114.803	80.004	19.994	103.980	20.075	3.589	0.188
54.499	114.904	80.004	19.994	103.977	20.078	3.361	0.214
54.999	114.988	80.004	19.995	103.976	20.075	3.546	0.201
55.499	115.102	80.003	19.995	103.977	20.078	3.359	0.191
55.999	115.193	80.004	19.993	103.976	20.076	3.513	0.201
56.499	115.305	80.004	19.994	103.976	20.076	3.519	0.204
56.999	115.399	80.003	19.994	103.974	20.077	3.429	0.204
57.499	115.506	80.004	19.994	103.974	20.077	3.400	0.203
57.999	115.653	80.002	19.994	103.976	20.075	3.560	0.228
58.499	115.718	80.003	19.993	103.976	20.076	3.513	0.233
58.999	115.872	80.003	19.994	103.979	20.076	3.492	0.215
59.499	116.011	80.004	19.994	103.983	20.073	3.706	0.256
59.999	116.121	80.003	19.993	103.984	20.075	3.585	0.271
60.499	116.222	80.005	19.994	103.985	20.075	3.532	0.230
60.999	116.350	80.005	19.994	103.989	20.074	3.671	0.220
61.499	116.487	80.005	19.993	103.990	20.075	3.540	0.247
61.999	116.603	80.006	19.993	103.990	20.072	3.753	0.259
62.499	116.751	80.006	19.993	103.990	20.074	3.618	0.259
62.999	116.823	80.004	19.994	103.990	20.076	3.451	0.242
63.499	116.977	80.006	19.994	103.991	20.074	3.665	0.223
63.999	117.094	80.004	19.996	103.992	20.074	3.628	0.248
64.499	117.214	80.006	19.994	103.991	20.075	3.587	0.254
64.999	117.369	80.005	19.994	103.992	20.072	3.809	0.256
65.499	117.491	80.005	19.994	103.991	20.075	3.552	0.276
65.999	117.625	80.005	19.993	103.990	20.076	3.458	0.266
66.499	117.754	80.006	19.994	103.989	20.076	3.468	0.259
66.999	117.923	80.005	19.994	103.989	20.071	3.838	0.281
67.499	118.062	80.005	19.993	103.987	20.075	3.571	0.303
67.999	118.176	80.005	19.993	103.986	20.074	3.657	0.280
68.499	118.335	80.004	19.995	103.986	20.073	3.704	0.263
68.999	118.484	80.005	19.994	103.986	20.073	3.706	0.291
69.499	118.617	80.006	19.994	103.987	20.068	4.121	0.295
69.999	118.798	80.006	19.994	103.988	20.073	3.733	0.298
70.499	118.879	80.004	19.994	103.989	20.074	3.645	0.288
70.999	119.045	80.006	19.994	103.990	20.069	3.986	0.254
71.499	119.200	80.004	19.992	103.991	20.068	4.053	0.284
71.999	119.353	80.005	19.993	103.990	20.068	4.055	0.315
72.499	119.509	80.005	19.993	103.988	20.076	3.523	0.309
72.999	119.628	80.007	19.994	103.987	20.072	3.768	0.292
73.499	119.798	80.007	19.993	103.986	20.072	3.788	0.282
73.999	119.930	80.005	19.993	103.985	20.071	3.846	0.295
74.499	120.097	80.005	19.992	103.983	20.073	3.682	0.301
74.999	120.285	80.004	19.994	103.985	20.068	4.068	0.327
75.499	120.456	80.005	19.993	103.985	20.070	3.967	0.357
75.999	120.607	80.005	19.993	103.986	20.072	3.780	0.340
76.499	120.795	80.005	19.993	103.992	20.069	4.037	0.330
76.999	120.941	80.005	19.993	103.995	20.071	3.875	0.336
77.500	121.063	80.004	19.993	103.995	20.071	3.849	0.301
78.000	121.265	80.004	19.993	103.996	20.072	3.781	0.296
78.499	121.414	80.004	19.993	103.996	20.071	3.847	0.338
78.999	121.583	80.006	19.994	103.992	20.071	3.839	0.335
79.500	121.763	80.005	19.993	103.992	20.072	3.796	0.334
80.000	121.928	80.004	19.994	103.993	20.073	3.687	0.347
80.499	122.103	80.004	19.993	103.994	20.073	3.699	0.343
80.999	122.274	80.004	19.995	103.994	20.074	3.674	0.343
81.499	122.443	80.005	19.994	103.995	20.074	3.661	0.343
81.999	122.610	80.004	19.996	103.995	20.073	3.717	0.338
82.499	122.778	80.003	19.994	103.994	20.075	3.548	0.336
82.999	122.921	80.004	19.995	103.994	20.072	3.791	0.323
83.499	123.125	80.005	19.993	103.994	20.069	3.988	0.329
84.000	123.282	80.004	19.993	103.996	20.070	3.934	0.354
84.500	123.450	80.004	19.992	103.996	20.073	3.727	0.343
85.000	123.612	80.004	19.993	103.996	20.069	3.988	0.328
85.500	123.804	80.005	19.993	103.996	20.070	3.936	0.342
85.999	123.989	80.006	19.993	103.997	20.069	3.984	0.366
86.499	124.191	80.004	19.993	103.997	20.073	3.729	0.382
86.999	124.396	80.006	19.993	103.997	20.071	3.852	0.397
87.500	124.553	80.006	19.994	104.000	20.069	4.002	0.384
88.000	124.711	80.007	19.992	104.007	20.067	4.150	0.338
88.499	124.918	80.006	19.994	104.012	20.067	4.167	0.340
88.999	125.059	80.005	19.993	104.016	20.065	4.294	0.357
89.499	125.273	80.007	19.994	104.021	20.062	4.530	0.352
89.999	125.435	80.005	19.993	104.023	20.066	4.238	0.366
90.499	125.649	80.007	19.993	104.022	20.065	4.290	0.376
90.999	125.814	80.006	19.993	104.022	20.068	4.070	0.377
91.499	126.048	80.005	19.993	104.016	20.065	4.347	0.389
91.999	126.194	80.006	19.994	104.010	20.065	4.308	0.390
92.499	126.386	80.005	19.993	104.005	20.068	4.113	0.359
92.999	126.577	80.005	19.994	104.000	20.064	4.402	0.361
93.499	126.786	80.005	19.993	103.994	20.068	4.119	0.392
93.999	126.966	80.006	19.994	103.999	20.064	4.374	0.395
94.499	127.154	80.006	19.995	104.000	20.069	4.010	0.378
94.999	127.393	80.006	19.993	104.000	20.065	4.273	0.397
95.500	127.556	80.005	19.997	103.999	20.069	4.031	0.415
96.000	127.756	80.006	19.996	104.002	20.067	4.133	0.383
96.499	127.945	80.005	19.996	103.999	20.067	4.162	0.376
96.999	128.170	80.006	19.994	103.999	20.068	4.098	0.401
97.499	128.368	80.005	19.993	104.002	20.070	3.957	0.419
97.999	128.561	80.005	19.995	104.001	20.070	3.951	0.407
98.499	128.757	80.004	19.994	104.001	20.066	4.203	0.390
98.999	128.937	80.004	19.992	104.004	20.064	4.349	0.382
99.499	129.160	80.004	19.995	104.006	20.067	4.177	0.390
99.999	129.397	80.004	19.994	104.002	20.064	4.374	0.432
100.499	129.591	80.004	19.994	104.002	20.065	4.286	0.446
100.999	129.801	80.004	19.993	104.001	20.063	4.485	0.418
101.499	129.986	80.004	19.993	104.003	20.068	4.095	0.400
102.000	130.172	80.004	19.994	104.003	20.065	4.323	0.383
102.500	130.370	80.004	19.994	104.003	20.063	4.472	0.378
102.999	130.592	80.002	19.994	104.003	20.064	4.376	0.402
103.499	130.765	80.002	19.994	104.002	20.066	4.267	0.407
103.999	130.964	80.001	19.993	103.995	20.061	4.612	0.383
104.499	131.190	80.002	19.994	103.992	20.061	4.581	0.399
104.999	131.409	80.003	19.994	103.992	20.068	4.097	0.435
105.499	131.596	80.004	19.993	103.994	20.068	4.078	0.425
105.999	131.817	80.003	19.995	103.994	20.067	4.165	0.407
106.499	132.013	80.004	19.993	103.994	20.064	4.376	0.412
106.999	132.228	80.003	19.994	103.994	20.065	4.292	0.414
107.499	132.443	80.003	19.994	103.994	20.067	4.193	0.421
107.999	132.662	80.004	19.993	103.993	20.063	4.471	0.432
108.499	132.885	80.003	19.993	103.993	20.063	4.470	0.438
108.999	133.065	80.005	19.994	103.992	20.063	4.464	0.423
109.499	133.280	80.003	19.993	103.993	20.064	4.421	0.399
109.999	133.522	80.004	19.994	103.993	20.064	4.398	0.426
110.499	133.739	80.003	19.994	103.996	20.061	4.634	0.458
111.000	133.961	80.003	19.994	104.002	20.067	4.181	0.449
111.500	134.161	80.004	19.995	104.008	20.065	4.329	0.431
111.999	134.382	80.004	19.994	104.009	20.065	4.317	0.421
112.499	134.622	80.004	19.994	104.008	20.065	4.327	0.441
112.999	134.813	80.003	19.994	104.006	20.063	4.463	0.446
113.499	135.048	80.004	19.995	104.002	20.060	4.717	0.428
113.999	135.231	80.004	19.994	103.996	20.064	4.352	0.422
114.499	135.418	80.003	19.994	103.995	20.066	4.237	0.394
114.999	135.672	80.004	19.993	103.996	20.062	4.539	0.405
115.499	135.893	80.003	19.994	103.997	20.066	4.204	0.458
115.999	136.086	80.004	19.993	104.000	20.065	4.329	0.445
116.499	136.325	80.003	19.994	104.002	20.069	4.048	0.424
116.999	136.533	80.003	19.994	104.005	20.061	4.588	0.440
117.499	136.774	80.004	19.994	104.011	20.065	4.323	0.448
117.999	137.007	80.003	19.993	104.010	20.063	4.423	0.461
118.499	137.212	80.004	19.994	104.007	20.063	4.483	0.456
118.999	137.450	80.003	19.995	104.005	20.065	4.323	0.440
119.499	137.682	80.005	19.994	104.003	20.063	4.438	0.456
119.999	137.904	80.004	19.995	103.995	20.065	4.314	0.462
120.499	138.144	80.003	19.994	103.992	20.069	4.010	0.458
120.999	138.370	80.004	19.995	103.994	20.064	4.409	0.464
121.499	138.572	80.004	19.993	103.993	20.064	4.376	0.447
121.999	138.776	80.003	19.994	103.994	20.063	4.425	0.417
122.499	139.015	80.003	19.994	103.999	20.065	4.305	0.424
122.999	139.248	80.003	19.994	104.004	20.061	4.600	0.457
123.499	139.474	80.002	19.995	104.005	20.063	4.451	0.465
123.999	139.721	80.004	19.996	104.009	20.065	4.323	0.466
124.499	139.968	80.004	19.997	104.012	20.064	4.397	0.484
124.999	140.187	80.004	19.995	104.011	20.068	4.093	0.480
125.499	140.414	80.003	19.995	104.011	20.064	4.383	0.456
125.999	140.630	80.004	19.996	104.013	20.066	4.265	0.445
126.499	140.891	80.003	19.995	104.014	20.064	4.421	0.460
126.999	141.101	80.002	19.996	104.014	20.064	4.411	0.474
127.499	141.305	80.004	19.995	104.013	20.064	4.360	0.443
127.999	141.573	80.003	19.995	104.009	20.061	4.596	0.443
128.500	141.820	80.003	19.994	104.007	20.062	4.512	0.493
129.000	142.010	80.004	19.994	104.009	20.061	4.588	0.476
129.500	142.309	80.004	19.995	104.008	20.064	4.399	0.463
130.000	142.510	80.002	19.995	104.008	20.063	4.451	0.494
130.500	142.764	80.003	19.995	104.007	20.062	4.563	0.477
131.000	142.979	80.005	19.996	104.005	20.066	4.228	0.462
131.500	143.209	80.003	19.995	104.002	20.060	4.700	0.457
132.000	143.454	80.003	19.996	103.999	20.067	4.156	0.460
132.500	143.693	80.003	19.996	104.003	20.061	4.604	0.480
133.000	143.920	80.003	19.995	104.006	20.061	4.587	0.475
133.500	144.154	80.003	19.994	104.012	20.063	4.468	0.464
134.000	144.407	80.002	19.994	104.015	20.062	4.507	0.474
134.500	144.661	80.003	19.995	104.020	20.064	4.355	0.497
135.000	144.859	80.004	19.994	104.020	20.065	4.300	0.480
135.500	145.132	80.003	19.995	104.017	20.061	4.626	0.461
136.000	145.342	80.002	19.994	104.016	20.065	4.335	0.477
136.500	145.594	80.002	19.994	104.013	20.063	4.454	0.473
137.000	145.828	80.003	19.994	104.010	20.062	4.517	0.474
137.500	146.064	80.004	19.994	104.005	20.061	4.602	0.478
138.000	146.280	80.003	19.994	104.008	20.060	4.717	0.461
138.500	146.528	80.003	19.995	104.004	20.061	4.591	0.458
139.000	146.783	80.004	19.994	104.007	20.060	4.655	0.483
139.500	147.017	80.003	19.994	104.010	20.061	4.604	0.496
140.000	147.271	80.004	19.995	104.014	20.061	4.632	0.488
140.500	147.494	80.004	19.994	104.017	20.063	4.441	0.482
141.000	147.706	80.003	19.994	104.018	20.060	4.657	0.457
141.500	147.990	80.004	19.992	104.012	20.061	4.577	0.466
142.000	148.179	80.002	19.993	104.006	20.058	4.813	0.484
142.500	148.406	80.004	19.994	104.002	20.063	4.487	0.445
143.000	148.680	80.003	19.993	103.998	20.064	4.380	0.459
143.500	148.926	80.003	19.993	103.996	20.063	4.493	0.510
144.000	149.138	80.002	19.994	103.998	20.062	4.534	0.489
144.500	149.422	80.004	19.994	103.998	20.062	4.520	0.477
145.000	149.668	80.004	19.994	103.998	20.062	4.540	0.513
145.500	149.872	80.005	19.993	103.995	20.062	4.526	0.490
146.000	150.144	80.005	19.993	103.994	20.060	4.651	0.463
146.500	150.369	80.004	19.993	103.993	20.062	4.507	0.486
147.000	150.629	80.004	19.993	103.995	20.062	4.567	0.491
147.500	150.859	80.004	19.993	103.997	20.062	4.540	0.487
148.000	151.090	80.005	19.993	103.998	20.063	4.450	0.476
148.500	151.326	80.004	19.993	103.998	20.061	4.639	0.464
149.000	151.592	80.004	19.994	103.999	20.064	4.376	0.485
149.500	151.822	80.005	19.992	103.998	20.062	4.509	0.499
150.000	152.088	80.004	19.994	103.996	20.061	4.606	0.496
150.500	152.301	80.006	19.993	103.995	20.067	4.144	0.487
151.000	152.574	80.003	19.993	103.996	20.061	4.647	0.483
151.500	152.791	80.005	19.992	103.995	20.062	4.528	0.488
152.000	153.007	80.003	19.992	103.995	20.063	4.493	0.462
152.500	153.297	80.004	19.992	103.995	20.063	4.493	0.470
153.000	153.531	80.004	19.995	103.998	20.062	4.569	0.515
153.500	153.775	80.004	19.994	104.004	20.060	4.690	0.501
154.000	153.989	80.005	19.995	104.009	20.067	4.195	0.468
154.500	154.266	80.004	19.993	104.009	20.060	4.663	0.475
155.000	154.487	80.005	19.994	104.009	20.062	4.542	0.495
155.500	154.726	80.004	19.994	104.005	20.067	4.125	0.479
156.000	154.967	80.005	19.992	103.998	20.060	4.666	0.470
156.500	155.231	80.005	19.993	103.995	20.065	4.296	0.492
157.000	155.439	80.005	19.993	103.995	20.062	4.530	0.488
157.500	155.743	80.005	19.994	104.001	20.062	4.513	0.492
158.000	155.954	80.004	19.993	104.005	20.067	4.125	0.514
158.500	156.253	80.004	19.995	104.008	20.061	4.595	0.512
159.000	156.490	80.004	19.995	104.007	20.061	4.575	0.523
159.500	156.739	80.005	19.994	104.008	20.065	4.291	0.511
160.000	156.977	80.005	19.994	104.002	20.067	4.142	0.486
160.500	157.238	80.005	19.994	104.000	20.062	4.525	0.493
161.000	157.495	80.004	19.995	103.999	20.066	4.238	0.509
161.500	157.695	80.004	19.995	104.000	20.065	4.291	0.488
162.000	157.961	80.003	19.993	103.999	20.062	4.521	0.462
162.500	158.261	80.004	19.994	103.999	20.066	4.238	0.516
163.000	158.496	80.004	19.994	103.998	20.060	4.675	0.551
163.500	158.718	80.005	19.993	103.996	20.061	4.645	0.496
164.000	158.988	80.004	19.993	103.995	20.062	4.560	0.475
164.500	159.233	80.003	19.993	103.994	20.066	4.226	0.504
165.000	159.467	80.005	19.994	103.998	20.065	4.343	0.497
165.500	159.698	80.004	19.994	104.003	20.064	4.400	0.471
166.000	159.962	80.005	19.994	104.003	20.067	4.172	0.480
166.500	160.184	80.003	19.994	104.003	20.066	4.224	0.491
167.000	160.462	80.005	19.994	104.003	20.068	4.098	0.493
167.500	160.739	80.005	19.993	103.999	20.064	4.408	0.527
168.000	160.968	80.005	19.993	103.994	20.065	4.310	0.531
168.500	161.249	80.006	19.994	103.994	20.064	4.386	0.508
169.000	161.464	80.005	19.992	103.995	20.069	4.006	0.502
169.500	161.783	80.004	19.993	103.995	20.066	4.207	0.515
170.000	162.002	80.005	19.994	103.996	20.066	4.207	0.536
170.500	162.284	80.006	19.993	103.995	20.067	4.184	0.520
171.000	162.451	80.006	19.994	103.995	20.061	4.589	0.475
171.500	162.750	80.006	19.993	103.992	20.066	4.269	0.458
172.000	162.979	80.006	19.993	103.992	20.069	4.002	0.497
172.500	163.238	80.006	19.993	103.991	20.067	4.168	0.508
173.000	163.518	80.007	19.994	103.992	20.066	4.238	0.513
173.500	163.740	80.007	19.993	103.993	20.066	4.209	0.520
174.000	164.005	80.006	19.992	103.994	20.065	4.310	0.494
174.500	164.253	80.007	19.993	103.993	20.065	4.302	0.500
175.000	164.467	80.006	19.993	103.993	20.069	4.032	0.487
175.500	164.747	80.007	19.993	103.992	20.066	4.229	0.478
176.000	165.021	80.005	19.993	103.991	20.066	4.256	0.524
176.500	165.286	80.007	19.993	103.990	20.068	4.094	0.546
177.000	165.553	80.007	19.993	103.991	20.066	4.215	0.535
177.500	165.788	80.008	19.992	103.992	20.070	3.940	0.517
178.000	166.021	80.008	19.992	103.992	20.063	4.435	0.485
178.500	166.285	80.007	19.993	103.992	20.066	4.266	0.483
179.000	166.538	80.007	19.993	103.992	20.066	4.219	0.507
179.500	166.766	80.006	19.993	103.990	20.065	4.281	0.499
180.000	167.092	80.006	19.992	103.987	20.067	4.174	0.517
180.500	167.264	80.006	19.993	103.987	20.065	4.326	0.526
181.000	167.567	80.006	19.994	103.987	20.070	3.940	0.487
181.500	167.819	80.006	19.992	103.987	20.063	4.492	0.515
182.000	168.055	80.006	19.993	103.989	20.064	4.367	0.522
182.500	168.305	80.006	19.994	103.990	20.064	4.416	0.487
183.000	168.573	80.004	19.993	103.989	20.067	4.192	0.502
183.500	168.766	80.004	19.993	103.988	20.069	4.001	0.489
184.000	169.067	80.006	19.994	103.989	20.067	4.137	0.478
184.500	169.287	80.004	19.994	103.989	20.068	4.096	0.508
185.000	169.549	80.004	19.993	103.990	20.063	4.445	0.501
185.500	169.821	80.005	19.994	103.989	20.066	4.268	0.508
186.000	170.075	80.004	19.994	103.985	20.068	4.099	0.530
186.500	170.342	80.003	19.992	103.983	20.063	4.469	0.524
187.000	170.563	80.003	19.994	103.981	20.067	4.194	0.504
187.500	170.833	80.004	19.995	103.979	20.063	4.455	0.489
188.000	171.105	80.004	19.994	103.981	20.068	4.102	0.516
188.500	171.340	80.005	19.993	103.983	20.068	4.061	0.524
189.000	171.599	80.004	19.993	103.983	20.062	4.550	0.500
189.500	171.843	80.005	19.993	103.983	20.065	4.332	0.499
190.000	172.118	80.003	19.994	103.984	20.067	4.151	0.511
190.500	172.361	80.005	19.994	103.983	20.064	4.350	0.519
191.000	172.638	80.004	19.995	103.984	20.066	4.259	0.519
191.500	172.887	80.004	19.993	103.986	20.066	4.263	0.523
192.000	173.167	80.003	19.993	103.986	20.064	4.403	0.528
192.500	173.404	80.003	19.994	103.980	20.068	4.066	0.523
193.000	173.688	80.004	19.994	103.975	20.067	4.163	0.519
193.500	173.910	80.004	19.995	103.969	20.066	4.243	0.513
194.000	174.172	80.003	19.993	103.968	20.065	4.337	0.495
194.500	174.406	80.003	19.994	103.969	20.065	4.286	0.490
195.000	174.670	80.005	19.993	103.975	20.064	4.360	0.497
195.500	174.900	80.004	19.994	103.981	20.067	4.163	0.497
196.000	175.156	80.004	19.994	103.979	20.063	4.432	0.490
196.500	175.371	80.002	19.993	103.973	20.068	4.110	0.479
197.000	175.656	80.005	19.993	103.968	20.070	3.943	0.486
197.500	175.896	80.002	19.994	103.966	20.070	3.916	0.512
198.000	176.155	80.004	19.994	103.966	20.068	4.054	0.511
198.500	176.375	80.004	19.994	103.973	20.067	4.173	0.489
199.000	176.616	80.003	19.995	103.980	20.071	3.890	0.471
199.500	176.890	80.004	19.993	103.983	20.067	4.138	0.488
200.000	177.142	80.002	19.993	103.982	20.067	4.173	0.520
200.500	177.407	80.004	19.993	103.974	20.067	4.167	0.521
201.000	177.664	80.003	19.994	103.968	20.067	4.163	0.519
201.500	177.920	80.003	19.994	103.961	20.066	4.268	0.517
202.000	178.200	80.004	19.995	103.957	20.067	4.149	0.524
202.500	178.446	80.003	19.993	103.953	20.068	4.071	0.532
203.000	178.675	80.004	19.994	103.957	20.066	4.258	0.501
203.500	178.934	80.004	19.993	103.959	20.069	3.995	0.481
204.000	179.182	80.004	19.993	103.960	20.067	4.163	0.497
204.500	179.399	80.003	19.994	103.959	20.069	4.027	0.487
205.000	179.699	80.004	19.994	103.962	20.067	4.159	0.491
205.500	179.952	80.002	19.995	103.965	20.065	4.298	0.535
206.000	180.170	80.003	19.994	103.972	20.065	4.296	0.512
206.500	180.462	80.005	19.995	103.977	20.067	4.128	0.490
207.000	180.719	80.003	19.993	103.977	20.071	3.876	0.529
207.500	180.985	80.003	19.993	103.974	20.068	4.075	0.536
208.000	181.214	80.004	19.993	103.967	20.064	4.360	0.509
208.500	181.474	80.004	19.994	103.960	20.066	4.247	0.492
209.000	181.693	80.004	19.993	103.955	20.071	3.863	0.484
209.500	181.979	80.003	19.994	103.957	20.068	4.050	0.492
210.000	182.205	80.004	19.993	103.960	20.066	4.249	0.508
210.500	182.497	80.003	19.994	103.962	20.069	4.001	0.515
211.000	182.722	80.003	19.995	103.965	20.067	4.175	0.518
211.500	182.968	80.003	19.994	103.966	20.068	4.056	0.494
212.000	183.216	80.004	19.995	103.969	20.066	4.210	0.482
212.500	183.490	80.004	19.993	103.970	20.070	3.957	0.508
213.000	183.748	80.004	19.995	103.976	20.071	3.842	0.527
213.500	184.017	80.006	19.994	103.978	20.061	4.579	0.530
214.000	184.221	80.004	19.994	103.977	20.068	4.097	0.500
214.500	184.501	80.004	19.994	103.971	20.069	3.976	0.478
215.000	184.721	80.004	19.993	103.968	20.068	4.048	0.492
215.500	184.999	80.004	19.994	103.960	20.070	3.912	0.499
216.000	185.219	80.003	19.995	103.956	20.069	3.992	0.498
216.500	185.528	80.003	19.994	103.958	20.071	3.881	0.513
217.000	185.786	80.004	19.994	103.960	20.072	3.754	0.548
217.500	186.041	80.003	19.994	103.961	20.068	4.087	0.540
218.000	186.288	80.003	19.993	103.965	20.068	4.078	0.508
218.500	186.541	80.002	19.995	103.964	20.068	4.068	0.501
219.000	186.800	80.003	19.996	103.963	20.071	3.845	0.506
219.500	187.049	80.002	19.995	103.961	20.072	3.801	0.510
220.000	187.291	80.002	19.994	103.961	20.070	3.931	0.500
220.500	187.537	80.003	19.994	103.956	20.069	4.027	0.490
221.000	187.831	80.004	19.994	103.958	20.069	4.000	0.514
221.500	188.063	80.002	19.995	103.961	20.071	3.890	0.533
222.000	188.313	80.002	19.995	103.961	20.066	4.214	0.504
222.500	188.525	80.003	19.994	103.960	20.070	3.900	0.472
223.000	188.813	80.004	19.995	103.961	20.067	4.130	0.481
223.500	189.070	80.003	19.996	103.959	20.068	4.117	0.523
224.000	189.318	80.002	19.995	103.957	20.070	3.904	0.525
224.500	189.559	80.003	19.995	103.958	20.068	4.048	0.497
225.000	189.839	80.003	19.995	103.958	20.068	4.078	0.505
225.500	190.070	80.003	19.995	103.957	20.067	4.173	0.516
226.000	190.302	80.002	19.994	103.956	20.071	3.850	0.487
226.500	190.516	80.001	19.995	103.954	20.066	4.199	0.455
227.000	190.839	80.003	19.994	103.953	20.070	3.967	0.491
227.500	191.057	80.003	19.994	103.954	20.073	3.731	0.539
228.000	191.294	80.003	19.996	103.954	20.074	3.643	0.498
228.500	191.568	80.004	19.995	103.954	20.070	3.937	0.482
229.000	191.834	80.003	19.996	103.956	20.071	3.838	0.525
229.500	192.060	80.003	19.995	103.957	20.070	3.939	0.516
230.000	192.299	80.004	19.994	103.957	20.072	3.799	0.478
230.500	192.538	80.004	19.994	103.958	20.073	3.729	0.471
231.000	192.841	80.003	19.992	103.958	20.073	3.690	0.510
231.500	193.047	80.003	19.995	103.956	20.070	3.945	0.525
232.000	193.286	80.004	19.994	103.956	20.072	3.797	0.477
232.500	193.568	80.005	19.994	103.955	20.071	3.891	0.483
233.000	193.784	80.005	19.993	103.955	20.070	3.963	0.510
233.500	194.084	80.004	19.993	103.954	20.071	3.875	0.507
234.000	194.289	80.005	19.994	103.953	20.069	4.012	0.510
234.500	194.539	80.005	19.993	103.953	20.069	3.990	0.480
235.000	194.776	80.005	19.994	103.953	20.066	4.244	0.471
235.500	195.057	80.005	19.994	103.953	20.071	3.834	0.502
236.000	195.292	80.006	19.993	103.953	20.067	4.158	0.517
236.500	195.540	80.005	19.993	103.953	20.073	3.703	0.500
237.000	195.732	80.005	19.993	103.952	20.069	4.011	0.462
237.500	196.020	80.005	19.994	103.952	20.072	3.779	0.460
238.000	196.275	80.005	19.992	103.951	20.070	3.935	0.511
238.500	196.518	80.005	19.993	103.950	20.070	3.931	0.521
239.000	196.740	80.005	19.993	103.949	20.072	3.781	0.482
239.500	197.005	80.005	19.993	103.949	20.072	3.777	0.476
240.000	197.253	80.005	19.992	103.949	20.071	3.873	0.500
240.500	197.511	80.004	19.993	103.949	20.071	3.855	0.509
241.000	197.763	80.007	19.994	103.949	20.071	3.887	0.508
241.500	198.007	80.004	19.994	103.950	20.070	3.947	0.503
242.000	198.244	80.006	19.993	103.949	20.070	3.965	0.488
242.500	198.524	80.003	19.993	103.950	20.069	4.033	0.499
243.000	198.741	80.004	19.992	103.950	20.070	3.933	0.507
243.500	199.012	80.005	19.993	103.950	20.071	3.873	0.493
244.000	199.247	80.006	19.993	103.947	20.075	3.542	0.497
244.500	199.501	80.005	19.995	103.947	20.069	4.041	0.497
245.000	199.750	80.005	19.995	103.945	20.068	4.086	0.496
245.500	199.966	80.005	19.995	103.946	20.071	3.852	0.484
246.000	200.176	80.004	19.993	103.945	20.069	3.980	0.445
246.500	200.493	80.004	19.993	103.949	20.067	4.127	0.477
247.000	200.724	80.004	19.995	103.950	20.071	3.893	0.538
247.500	200.940	80.005	19.993	103.951	20.071	3.881	0.498
248.000	201.205	80.005	19.994	103.951	20.069	4.012	0.464
248.500	201.463	80.005	19.994	103.954	20.070	3.932	0.501
249.000	201.691	80.005	19.994	103.954	20.070	3.914	0.504
249.500	201.933	80.005	19.994	103.953	20.075	3.571	0.478
250.000	202.214	80.005	19.994	103.953	20.073	3.744	0.497
250.500	202.472	80.006	19.993	103.953	20.070	3.920	0.531
251.000	202.734	80.006	19.993	103.951	20.070	3.914	0.529
251.500	202.950	80.005	19.995	103.951	20.071	3.825	0.499
252.000	203.218	80.005	19.994	103.951	20.072	3.802	0.481
252.500	203.440	80.006	19.994	103.951	20.068	4.053	0.487
253.000	203.730	80.006	19.994	103.952	20.070	3.899	0.501
253.500	203.948	80.006	19.994	103.951	20.072	3.813	0.510
254.000	204.209	80.005	19.993	103.951	20.070	3.918	0.493
254.500	204.440	80.007	19.993	103.950	20.072	3.750	0.485
255.000	204.727	80.007	19.993	103.948	20.071	3.828	0.505
255.500	204.946	80.007	19.993	103.948	20.070	3.953	0.512
256.000	205.213	80.006	19.993	103.949	20.069	4.045	0.496
256.500	205.454	80.006	19.992	103.949	20.072	3.776	0.497
257.000	205.685	80.006	19.994	103.948	20.070	3.908	0.490
257.500	205.928	80.007	19.993	103.950	20.069	3.998	0.473
258.000	206.208	80.007	19.993	103.950	20.069	4.004	0.499
258.500	206.424	80.007	19.993	103.949	20.072	3.756	0.510
259.000	206.657	80.008	19.993	103.947	20.070	3.932	0.473
259.500	206.903	80.007	19.995	103.946	20.068	4.097	0.464
260.000	207.141	80.007	19.993	103.946	20.069	4.014	0.482
260.500	207.408	80.008	19.994	103.945	20.070	3.953	0.494
261.000	207.687	80.007	19.993	103.945	20.067	4.136	0.526
261.500	207.954	80.007	19.991	103.944	20.071	3.865	0.546
262.000	208.194	80.008	19.994	103.937	20.069	4.010	0.526
262.500	208.468	80.008	19.993	103.931	20.070	3.926	0.510
263.000	208.684	80.007	19.994	103.930	20.068	4.068	0.502
263.500	208.939	80.006	19.994	103.930	20.067	4.195	0.481
264.000	209.136	80.007	19.994	103.934	20.067	4.136	0.462
264.500	209.438	80.007	19.993	103.942	20.067	4.181	0.476
265.000	209.670	80.006	19.994	103.948	20.069	4.033	0.517
265.500	209.911	80.005	19.993	103.950	20.067	4.129	0.503
266.000	210.159	80.006	19.994	103.950	20.070	3.969	0.481
266.500	210.416	80.007	19.993	103.950	20.065	4.329	0.497
267.000	210.661	80.004	19.994	103.949	20.069	4.013	0.504
267.500	210.902	80.005	19.993	103.949	20.067	4.121	0.494
268.000	211.142	80.005	19.991	103.948	20.071	3.826	0.484
268.500	211.382	80.005	19.993	103.948	20.070	3.924	0.480
269.000	211.631	80.004	19.992	103.948	20.068	4.095	0.485
269.500	211.873	80.004	19.992	103.945	20.064	4.415	0.490
270.000	212.137	80.004	19.992	103.946	20.070	3.947	0.499
270.500	212.423	80.005	19.993	103.947	20.070	3.965	0.528
271.000	212.676	80.005	19.993	103.946	20.067	4.152	0.544
271.500	212.872	80.004	19.993	103.944	20.068	4.113	0.494
272.000	213.146	80.004	19.992	103.947	20.070	3.938	0.460
272.500	213.375	80.005	19.993	103.948	20.068	4.078	0.486
273.000	213.637	80.004	19.994	103.949	20.068	4.084	0.497
273.500	213.889	80.005	19.993	103.950	20.070	3.961	0.503
274.000	214.125	80.004	19.992	103.953	20.069	3.992	0.501
274.500	214.396	80.004	19.992	103.951	20.071	3.863	0.498
275.000	214.622	80.003	19.993	103.947	20.073	3.711	0.502
275.500	214.854	80.004	19.994	103.945	20.070	3.969	0.478
276.000	215.093	80.004	19.992	103.946	20.069	4.017	0.465
276.500	215.323	80.005	19.993	103.945	20.072	3.791	0.470
277.000	215.565	80.005	19.994	103.948	20.067	4.138	0.471
277.500	215.832	80.005	19.993	103.952	20.068	4.064	0.490
278.000	216.099	80.005	19.994	103.953	20.072	3.816	0.521
278.500	216.305	80.003	19.994	103.953	20.066	4.244	0.504
279.000	216.533	80.004	19.992	103.952	20.068	4.105	0.454
279.500	216.788	80.004	19.994	103.952	20.066	4.232	0.458
280.000	217.047	80.004	19.993	103.951	20.069	4.028	0.499
280.500	217.279	80.005	19.993	103.951	20.066	4.211	0.503
281.000	217.560	80.004	19.993	103.948	20.065	4.284	0.502
281.500	217.779	80.005	19.993	103.947	20.068	4.112	0.506
282.000	218.039	80.003	19.993	103.946	20.068	4.110	0.489
282.500	218.287	80.004	19.992	103.944	20.067	4.141	0.494
283.000	218.533	80.003	19.994	103.944	20.069	4.029	0.501
283.500	218.777	80.003	19.993	103.946	20.068	4.115	0.492
284.000	219.043	80.004	19.992	103.947	20.066	4.203	0.500
284.500	219.289	80.004	19.995	103.948	20.066	4.254	0.511
285.000	219.519	80.004	19.993	103.950	20.068	4.051	0.494
285.500	219.816	80.003	19.993	103.950	20.068	4.113	0.502
286.000	220.041	80.003	19.993	103.950	20.063	4.425	0.525
286.500	220.268	80.003	19.993	103.950	20.066	4.197	0.487
287.000	220.521	80.004	19.993	103.951	20.066	4.197	0.466
287.500	220.793	80.005	19.993	103.952	20.066	4.254	0.503
288.000	221.036	80.004	19.994	103.953	20.064	4.369	0.520
288.500	221.305	80.004	19.993	103.953	20.066	4.262	0.514
289.000	221.563	80.004	19.994	103.951	20.064	4.416	0.520
289.500	221.793	80.003	19.994	103.950	20.066	4.207	0.507
290.000	222.013	80.003	19.994	103.944	20.064	4.404	0.469
290.500	222.284	80.004	19.993	103.937	20.066	4.199	0.471
291.000	222.530	80.004	19.993	103.929	20.063	4.423	0.504
291.500	222.772	80.003	19.995	103.923	20.066	4.267	0.502
292.000	223.055	80.004	19.994	103.921	20.066	4.201	0.506
292.500	223.261	80.002	19.993	103.927	20.064	4.408	0.507
293.000	223.509	80.002	19.995	103.934	20.064	4.365	0.471
293.500	223.793	80.003	19.994	103.938	20.066	4.207	0.493
294.000	223.999	80.003	19.993	103.939	20.062	4.503	0.511
294.500	224.255	80.003	19.995	103.938	20.063	4.487	0.476
295.000	224.501	80.004	19.994	103.937	20.063	4.427	0.482
295.500	224.780	80.003	19.994	103.937	20.067	4.152	0.513
296.000	225.021	80.004	19.993	103.940	20.064	4.398	0.523
296.500	225.258	80.003	19.993	103.946	20.066	4.201	0.499
297.000	225.516	80.003	19.992	103.950	20.063	4.474	0.486
297.500	225.748	80.004	19.995	103.950	20.064	4.414	0.492
298.000	225.977	80.003	19.993	103.945	20.066	4.199	0.476
298.500	226.217	80.005	19.994	103.943	20.061	4.593	0.465
299.000	226.466	80.003	19.994	103.939	20.066	4.258	0.478
299.500	226.740	80.003	19.995	103.936	20.064	4.358	0.506
300.000	226.971	80.003	19.995	103.928	20.063	4.467	0.514
300.500	227.187	80.003	19.993	103.929	20.067	4.188	0.476
301.000	227.450	80.004	19.995	103.932	20.063	4.490	0.464
301.500	227.695	80.004	19.994	103.937	20.065	4.279	0.494
302.000	227.944	80.004	19.995	103.939	20.061	4.620	0.501
302.500	228.177	80.004	19.995	103.946	20.061	4.632	0.488
303.000	228.456	80.003	19.992	103.944	20.062	4.558	0.496
303.500	228.743	80.001	19.994	103.944	20.063	4.482	0.539
304.000	228.958	80.003	19.994	103.943	20.060	4.679	0.534
304.500	229.211	80.004	19.995	103.944	20.063	4.443	0.485
305.000	229.517	80.004	19.994	103.944	20.063	4.492	0.513
305.500	229.737	80.004	19.994	103.949	20.063	4.451	0.542
306.000	229.992	80.004	19.995	103.944	20.062	4.545	0.501
306.500	230.236	80.004	19.995	103.940	20.061	4.578	0.487
307.000	230.462	80.002	19.994	103.936	20.061	4.639	0.484
307.500	230.734	80.003	19.994	103.934	20.064	4.416	0.484
308.000	231.004	80.004	19.993	103.932	20.060	4.707	0.521
308.500	231.231	80.004	19.994	103.937	20.060	4.714	0.519
309.000	231.477	80.004	19.994	103.941	20.061	4.611	0.485
309.500	231.714	80.005	19.994	103.939	20.061	4.584	0.478
310.000	231.978	80.004	19.993	103.934	20.064	4.346	0.492
310.500	232.183	80.005	19.994	103.928	20.062	4.557	0.485
311.000	232.477	80.004	19.995	103.921	20.064	4.393	0.484
311.500	232.676	80.005	19.994	103.918	20.061	4.596	0.496
312.000	232.948	80.004	19.994	103.923	20.062	4.565	0.482
312.500	233.193	80.005	19.994	103.930	20.065	4.291	0.494
313.000	233.453	80.005	19.994	103.938	20.063	4.441	0.511
313.500	233.693	80.004	19.994	103.945	20.063	4.467	0.502
314.000	233.946	80.005	19.994	103.945	20.063	4.435	0.496
314.500	234.196	80.004	19.995	103.943	20.064	4.402	0.498
315.000	234.475	80.005	19.995	103.942	20.061	4.617	0.516
315.500	234.702	80.005	19.995	103.936	20.063	4.463	0.518
316.000	234.959	80.006	19.994	103.930	20.063	4.420	0.495
316.500	235.181	80.004	19.996	103.929	20.065	4.342	0.481
317.000	235.453	80.006	19.995	103.923	20.063	4.444	0.486
317.500	235.670	80.005	19.995	103.919	20.064	4.356	0.492
318.000	235.952	80.006	19.995	103.924	20.063	4.451	0.494
318.500	236.177	80.005	19.994	103.928	20.060	4.703	0.503
319.000	236.468	80.005	19.994	103.930	20.060	4.710	0.511
319.500	236.681	80.004	19.994	103.934	20.060	4.660	0.510
320.000	236.937	80.005	19.995	103.933	20.061	4.617	0.487
320.500	237.195	80.006	19.995	103.925	20.064	4.408	0.492
321.000	237.440	80.004	19.994	103.920	20.061	4.576	0.508
321.500	237.689	80.005	19.994	103.917	20.064	4.371	0.498
322.000	237.931	80.005	19.995	103.913	20.064	4.412	0.493
322.500	238.169	80.004	19.994	103.916	20.058	4.829	0.485
323.000	238.450	80.005	19.995	103.920	20.062	4.533	0.499
323.500	238.693	80.004	19.995	103.926	20.061	4.630	0.521
324.000	238.941	80.006	19.994	103.930	20.060	4.667	0.508
324.500	239.201	80.004	19.994	103.934	20.064	4.371	0.500
325.000	239.440	80.005	19.994	103.933	20.056	4.958	0.503
325.500	239.640	80.005	19.995	103.933	20.056	4.964	0.469
326.000	239.950	80.005	19.994	103.926	20.058	4.848	0.474
326.500	240.186	80.005	19.994	103.921	20.060	4.701	0.528
327.000	240.430	80.004	19.994	103.919	20.062	4.516	0.514
327.500	240.668	80.004	19.994	103.922	20.059	4.726	0.481
328.000	240.946	80.005	19.994	103.924	20.060	4.662	0.499
328.500	241.192	80.006	19.994	103.929	20.059	4.787	0.520
329.000	241.432	80.005	19.995	103.934	20.060	4.695	0.505
329.500	241.673	80.004	19.995	103.933	20.057	4.878	0.484
330.000	241.925	80.005	19.993	103.932	20.058	4.814	0.487
330.500	242.178	80.004	19.994	103.935	20.059	4.730	0.499
331.000	242.432	80.005	19.994	103.937	20.062	4.549	0.505
331.500	242.714	80.005	19.994	103.936	20.061	4.611	0.521
332.000	242.917	80.004	19.993	103.939	20.061	4.600	0.510
332.500	243.169	80.003	19.994	103.938	20.062	4.568	0.471
333.000	243.448	80.004	19.995	103.938	20.060	4.693	0.493
333.500	243.709	80.005	19.993	103.939	20.064	4.418	0.535
334.000	243.940	80.004	19.992	103.940	20.061	4.588	0.516
334.500	244.186	80.004	19.994	103.942	20.057	4.873	0.485
335.000	244.435	80.005	19.993	103.942	20.060	4.664	0.486
335.500	244.679	80.006	19.992	103.936	20.061	4.590	0.494
336.000	244.929	80.004	19.994	103.929	20.062	4.525	0.493
336.500	245.198	80.006	19.994	103.923	20.060	4.703	0.506
337.000	245.419	80.005	19.993	103.918	20.060	4.716	0.505
337.500	245.672	80.005	19.992	103.916	20.065	4.326	0.482
338.000	245.888	80.006	19.993	103.919	20.061	4.637	0.471
338.500	246.152	80.005	19.994	103.923	20.061	4.625	0.474
339.000	246.432	80.007	19.992	103.929	20.061	4.588	0.512
339.500	246.644	80.005	19.992	103.930	20.062	4.547	0.519
340.000	246.948	80.005	19.993	103.933	20.062	4.533	0.504
340.500	247.207	80.006	19.993	103.929	20.061	4.586	0.539
341.000	247.452	80.005	19.993	103.925	20.062	4.529	0.533
341.500	247.715	80.006	19.993	103.922	20.060	4.701	0.506
342.000	247.945	80.006	19.994	103.923	20.062	4.561	0.501
342.500	248.174	80.007	19.992	103.922	20.063	4.457	0.476
343.000	248.441	80.005	19.992	103.924	20.061	4.588	0.477
343.500	248.694	80.007	19.992	103.926	20.058	4.851	0.508
344.000	248.945	80.006	19.993	103.927	20.061	4.572	0.512
344.500	249.180	80.006	19.994	103.925	20.063	4.421	0.495
345.000	249.454	80.006	19.993	103.924	20.061	4.579	0.498
345.500	249.740	80.005	19.993	103.922	20.060	4.675	0.535
346.000	250.008	80.006	19.992	103.923	20.058	4.820	0.557
346.500	250.249	80.005	19.992	103.924	20.061	4.621	0.531
347.000	250.497	80.005	19.993	103.924	20.059	4.726	0.498
347.500	250.766	80.004	19.993	103.926	20.060	4.646	0.503
348.000	251.009	80.004	19.993	103.927	20.060	4.709	0.515
348.500	251.265	80.005	19.993	103.926	20.058	4.859	0.506
349.000	251.492	80.006	19.994	103.922	20.058	4.795	0.492
349.500	251.754	80.005	19.994	103.921	20.058	4.820	0.486
350.000	252.023	80.004	19.994	103.924	20.058	4.861	0.510
350.500	252.275	80.004	19.994	103.926	20.055	5.083	0.526
351.000	252.525	80.003	19.993	103.926	20.057	4.893	0.511
351.500	252.790	80.003	19.994	103.926	20.056	4.985	0.508
352.000	253.026	80.004	19.995	103.926	20.057	4.930	0.509
352.500	253.266	80.002	19.994	103.920	20.059	4.773	0.488
353.000	253.524	80.002	19.995	103.917	20.055	5.068	0.486
353.500	253.764	80.003	19.994	103.918	20.059	4.736	0.498
354.000	254.026	80.003	19.993	103.922	20.058	4.856	0.500
354.500	254.261	80.002	19.994	103.928	20.058	4.815	0.499
355.000	254.526	80.003	19.992	103.933	20.059	4.762	0.498
355.500	254.762	80.003	19.994	103.939	20.060	4.713	0.501
356.000	255.059	80.003	19.993	103.941	20.059	4.752	0.517
356.500	255.272	80.004	19.994	103.937	20.059	4.746	0.522
357.000	255.539	80.004	19.993	103.931	20.059	4.769	0.495
357.500	255.815	80.005	19.993	103.927	20.060	4.699	0.511
358.000	256.030	80.005	19.993	103.925	20.061	4.602	0.516
358.500	256.307	80.004	19.993	103.923	20.058	4.808	0.491
359.000	256.535	80.004	19.993	103.923	20.061	4.611	0.499
359.500	256.789	80.004	19.993	103.922	20.061	4.601	0.494
360.000	257.030	80.005	19.992	103.923	20.061	4.619	0.489
360.500	257.305	80.004	19.993	103.919	20.058	4.836	0.506
361.000	257.538	80.005	19.993	103.926	20.059	4.742	0.512
361.500	257.836	80.004	19.993	103.934	20.061	4.598	0.519
362.000	258.029	80.004	19.992	103.940	20.061	4.580	0.511
362.500	258.262	80.004	19.994	103.942	20.056	4.962	0.458
363.000	258.544	80.005	19.993	103.943	20.058	4.855	0.470
363.500	258.816	80.004	19.993	103.934	20.059	4.792	0.535
364.000	259.030	80.005	19.996	103.923	20.057	4.899	0.520
364.500	259.318	80.005	19.994	103.917	20.059	4.742	0.494
365.000	259.581	80.004	19.994	103.913	20.059	4.773	0.526
365.500	259.803	80.005	19.995	103.912	20.060	4.656	0.518
366.000	260.054	80.004	19.993	103.918	20.058	4.822	0.479
366.500	260.323	80.006	19.994	103.923	20.061	4.586	0.496
367.000	260.518	80.005	19.995	103.923	20.059	4.725	0.492
367.500	260.848	80.004	19.992	103.923	20.058	4.846	0.495
368.000	261.066	80.004	19.994	103.922	20.056	4.986	0.536
368.500	261.328	80.005	19.992	103.920	20.055	5.081	0.514
369.000	261.544	80.004	19.995	103.921	20.059	4.730	0.479
369.500	261.826	80.005	19.993	103.925	20.059	4.748	0.488
370.000	262.072	80.005	19.995	103.927	20.062	4.510	0.513
370.500	262.333	80.004	19.994	103.928	20.057	4.939	0.518
371.000	262.554	80.005	19.993	103.925	20.061	4.592	0.494
371.500	262.826	80.004	19.993	103.921	20.061	4.604	0.487
372.000	263.055	80.005	19.994	103.917	20.059	4.787	0.497
372.500	263.339	80.004	19.992	103.916	20.061	4.614	0.507
373.000	263.574	80.005	19.993	103.921	20.059	4.785	0.516
373.500	263.868	80.005	19.994	103.927	20.056	4.947	0.523
374.000	264.100	80.004	19.994	103.934	20.059	4.724	0.528
374.500	264.356	80.006	19.993	103.941	20.055	5.050	0.507
375.000	264.598	80.005	19.993	103.939	20.057	4.873	0.493
375.500	264.873	80.004	19.994	103.933	20.059	4.779	0.507
376.000	265.094	80.004	19.994	103.926	20.060	4.688	0.506
376.500	265.332	80.004	19.995	103.920	20.056	4.965	0.478
377.000	265.628	80.005	19.993	103.913	20.057	4.941	0.496
377.500	265.818	80.004	19.994	103.912	20.055	5.027	0.510
378.000	266.072	80.004	19.995	103.914	20.057	4.939	0.466
378.500	266.347	80.003	19.994	103.918	20.057	4.884	0.486
379.000	266.576	80.003	19.995	103.922	20.060	4.658	0.516
379.500	266.843	80.004	19.994	103.923	20.057	4.910	0.500
380.000	267.107	80.003	19.995	103.925	20.060	4.693	0.513
380.500	267.315	80.004	19.995	103.926	20.058	4.861	0.502
381.000	267.625	80.002	19.995	103.925	20.054	5.095	0.495
381.500	267.878	80.003	19.994	103.920	20.057	4.879	0.541
382.000	268.136	80.003	19.994	103.919	20.057	4.906	0.537
382.500	268.351	80.004	19.993	103.919	20.055	5.035	0.492
383.000	268.628	80.003	19.995	103.916	20.053	5.176	0.483
383.500	268.841	80.004	19.995	103.913	20.053	5.227	0.491
384.000	269.083	80.004	19.995	103.916	20.059	4.780	0.473
384.500	269.361	80.004	19.995	103.919	20.055	5.063	0.487
385.000	269.620	80.004	19.993	103.923	20.052	5.305	0.528
385.500	269.880	80.004	19.994	103.924	20.053	5.205	0.528
386.000	270.135	80.004	19.994	103.923	20.056	5.000	0.517
386.500	270.384	80.003	19.994	103.921	20.053	5.181	0.510
387.000	270.661	80.003	19.994	103.916	20.052	5.302	0.515
387.500	270.895	80.003	19.994	103.914	20.054	5.131	0.518
388.000	271.160	80.003	19.996	103.919	20.054	5.121	0.505
388.500	271.410	80.004	19.995	103.924	20.055	5.031	0.507
389.000	271.684	80.004	19.994	103.928	20.055	5.047	0.519
389.500	271.936	80.003	19.994	103.930	20.054	5.111	0.525
390.000	272.168	80.002	19.994	103.927	20.055	5.037	0.505
390.500	272.425	80.004	19.996	103.922	20.053	5.218	0.487
391.000	272.675	80.005	19.995	103.920	20.055	5.062	0.498
391.500	272.885	80.005	19.996	103.919	20.056	5.014	0.484
392.000	273.174	80.005	19.994	103.922	20.054	5.105	0.480
392.500	273.404	80.005	19.995	103.923	20.053	5.177	0.509
393.000	273.667	80.005	19.994	103.924	20.054	5.160	0.506
393.500	273.927	80.003	19.994	103.920	20.049	5.521	0.508
394.000	274.187	80.005	19.995	103.911	20.049	5.540	0.522
394.500	274.415	80.006	19.994	103.907	20.049	5.484	0.504
395.000	274.676	80.004	19.993	103.905	20.052	5.253	0.488
395.500	274.895	80.004	19.993	103.904	20.049	5.474	0.485
396.000	275.148	80.007	19.995	103.906	20.049	5.507	0.476
396.500	275.401	80.005	19.992	103.913	20.054	5.138	0.489
397.000	275.658	80.005	19.994	103.914	20.049	5.479	0.508
397.500	275.909	80.005	19.995	103.914	20.049	5.513	0.509
398.000	276.171	80.006	19.993	103.913	20.049	5.511	0.511
398.500	276.403	80.007	19.993	103.913	20.049	5.542	0.504
399.000	276.654	80.006	19.994	103.911	20.052	5.273	0.488
399.500	276.894	80.005	19.994	103.911	20.052	5.314	0.487
400.000	277.162	80.006	19.994	103.912	20.050	5.443	0.500
400.500	277.391	80.004	19.994	103.913	20.048	5.554	0.503
401.000	277.702	80.006	19.993	103.913	20.050	5.411	0.519
401.500	277.898	80.005	19.995	103.914	20.050	5.417	0.523
402.000	278.127	80.006	19.993	103.913	20.051	5.361	0.466
402.500	278.400	80.004	19.995	103.913	20.053	5.219	0.464
403.000	278.644	80.005	19.994	103.914	20.050	5.437	0.509
403.500	278.902	80.005	19.993	103.914	20.050	5.428	0.509
404.000	279.130	80.005	19.996	103.914	20.048	5.586	0.494
404.500	279.411	80.006	19.994	103.914	20.050	5.453	0.498
405.000	279.683	80.005	19.995	103.914	20.048	5.566	0.531
405.500	279.876	80.005	19.995	103.914	20.048	5.616	0.509
406.000	280.138	80.004	19.994	103.917	20.048	5.616	0.460
406.500	280.402	80.006	19.995	103.921	20.047	5.661	0.490
407.000	280.676	80.005	19.994	103.922	20.045	5.767	0.532
407.500	280.890	80.005	19.994	103.922	20.048	5.560	0.513
408.000	281.162	80.006	19.995	103.922	20.049	5.542	0.487
408.500	281.396	80.004	19.996	103.918	20.045	5.806	0.496
409.000	281.680	80.005	19.995	103.914	20.050	5.408	0.512
409.500	281.923	80.004	19.995	103.913	20.048	5.583	0.522
410.000	282.136	80.005	19.994	103.913	20.047	5.663	0.491
410.500	282.413	80.004	19.994	103.913	20.049	5.538	0.473
411.000	282.648	80.003	19.995	103.914	20.049	5.536	0.501
411.500	282.878	80.004	19.994	103.916	20.046	5.735	0.489
412.000	283.190	80.003	19.996	103.920	20.048	5.575	0.504
412.500	283.443	80.005	19.997	103.920	20.049	5.515	0.553
413.000	283.649	80.004	19.994	103.918	20.043	5.950	0.511
413.500	283.894	80.005	19.996	103.911	20.046	5.759	0.455
414.000	284.184	80.004	19.995	103.908	20.047	5.634	0.493
414.500	284.423	80.005	19.994	103.904	20.049	5.470	0.532
415.000	284.705	80.004	19.994	103.904	20.048	5.569	0.525
415.500	284.941	80.005	19.994	103.906	20.047	5.679	0.520
416.000	285.171	80.005	19.995	103.913	20.044	5.880	0.492
416.500	285.429	80.004	19.994	103.914	20.046	5.757	0.477
417.000	285.697	80.004	19.995	103.914	20.045	5.772	0.507
417.500	285.917	80.004	19.994	103.915	20.046	5.712	0.506
418.000	286.202	80.004	19.994	103.915	20.045	5.780	0.496
418.500	286.439	80.006	19.995	103.913	20.042	6.057	0.514
419.000	286.677	80.005	19.995	103.913	20.043	5.929	0.498
419.500	286.955	80.006	19.994	103.912	20.042	6.030	0.496
420.000	287.195	80.006	19.994	103.912	20.043	5.976	0.518
420.500	287.436	80.008	19.995	103.911	20.041	6.083	0.499
421.000	287.676	80.006	19.995	103.912	20.044	5.890	0.481
421.500	287.936	80.007	19.994	103.913	20.042	6.019	0.491
422.000	288.184	80.006	19.993	103.913	20.040	6.171	0.504
422.500	288.422	80.006	19.993	103.913	20.040	6.186	0.497
423.000	288.671	80.006	19.993	103.914	20.041	6.100	0.486
423.500	288.943	80.007	19.992	103.913	20.040	6.200	0.503
424.000	289.189	80.007	19.994	103.914	20.040	6.208	0.520
424.500	289.461	80.006	19.994	103.915	20.041	6.087	0.519
425.000	289.729	80.006	19.993	103.915	20.038	6.299	0.529
425.500	289.977	80.007	19.993	103.917	20.039	6.270	0.528
426.000	290.218	80.007	19.994	103.918	20.039	6.266	0.502
426.500	290.469	80.006	19.993	103.917	20.042	6.048	0.491
427.000	290.720	80.006	19.993	103.915	20.044	5.880	0.497
427.500	290.958	80.007	19.993	103.915	20.040	6.186	0.496
428.000	291.220	80.006	19.994	103.914	20.040	6.212	0.494
428.500	291.477	80.009	19.992	103.913	20.035	6.580	0.509
429.000	291.745	80.006	19.992	103.913	20.041	6.087	0.522
429.500	292.017	80.006	19.993	103.913	20.040	6.204	0.533
430.000	292.243	80.005	19.993	103.912	20.037	6.401	0.519
430.500	292.505	80.006	19.995	103.909	20.041	6.091	0.493
431.000	292.749	80.008	19.993	103.906	20.037	6.395	0.497
431.500	292.987	80.006	19.993	103.904	20.037	6.377	0.494
432.000	293.255	80.006	19.993	103.903	20.034	6.631	0.494
432.500	293.511	80.004	19.993	103.903	20.038	6.307	0.515
433.000	293.743	80.005	19.994	103.906	20.039	6.252	0.506
433.500	294.006	80.004	19.992	103.909	20.039	6.282	0.491
434.000	294.261	80.005	19.994	103.910	20.037	6.379	0.507
434.500	294.493	80.003	19.994	103.911	20.034	6.619	0.502
435.000	294.738	80.005	19.993	103.911	20.038	6.336	0.482
435.500	294.988	80.004	19.993	103.912	20.037	6.371	0.486
436.000	295.262	80.004	19.993	103.912	20.038	6.321	0.509
436.500	295.514	80.003	19.993	103.912	20.037	6.373	0.525
437.000	295.733	80.004	19.993	103.912	20.036	6.453	0.498
437.500	295.991	80.005	19.992	103.910	20.036	6.514	0.474
438.000	296.238	80.004	19.993	103.907	20.037	6.399	0.491
438.500	296.505	80.004	19.994	103.908	20.035	6.547	0.509
439.000	296.726	80.006	19.993	103.908	20.035	6.534	0.501
439.500	297.015	80.004	19.993	103.908	20.035	6.518	0.500
440.000	297.242	80.005	19.993	103.910	20.038	6.339	0.513
440.500	297.471	80.005	19.992	103.913	20.037	6.382	0.486
441.000	297.753	80.004	19.994	103.912	20.035	6.530	0.484
441.500	298.008	80.005	19.993	103.911	20.034	6.633	0.524
442.000	298.257	80.005	19.994	103.911	20.033	6.678	0.520
442.500	298.524	80.005	19.995	103.911	20.036	6.479	0.510
443.000	298.765	80.004	19.994	103.911	20.033	6.684	0.512
443.500	298.996	80.004	19.994	103.912	20.033	6.665	0.489
444.000	299.275	80.003	19.994	103.912	20.032	6.807	0.491
444.500	299.514	80.005	19.995	103.912	20.034	6.645	0.515
445.000	299.798	80.004	19.994	103.912	20.032	6.777	0.521
445.500	300.029	80.004	19.993	103.912	20.032	6.775	0.519
446.000	300.271	80.004	19.994	103.911	20.033	6.727	0.494
446.500	300.515	80.005	19.994	103.912	20.035	6.545	0.479
447.000	300.784	80.004	19.994	103.911	20.035	6.543	0.500
447.500	301.027	80.004	19.993	103.912	20.035	6.528	0.513
448.000	301.283	80.006	19.995	103.911	20.031	6.867	0.505
448.500	301.524	80.003	19.993	103.911	20.032	6.772	0.498
449.000	301.792	80.004	19.993	103.911	20.031	6.871	0.503
449.500	302.061	80.005	19.993	103.910	20.032	6.764	0.523
450.000	302.287	80.005	19.993	103.905	20.033	6.707	0.516
450.500	302.540	80.004	19.992	103.905	20.032	6.791	0.487
451.000	302.786	80.005	19.993	103.904	20.032	6.775	0.489
451.500	303.057	80.005	19.994	103.904	20.034	6.653	0.508
452.000	303.283	80.004	19.993	103.905	20.032	6.744	0.507
452.500	303.541	80.006	19.994	103.910	20.032	6.779	0.490
453.000	303.772	80.005	19.993	103.908	20.030	6.908	0.487
453.500	304.047	80.006	19.993	103.905	20.031	6.834	0.497
454.000	304.266	80.004	19.994	103.903	20.029	6.966	0.500
454.500	304.551	80.006	19.993	103.903	20.031	6.846	0.499
455.000	304.766	80.005	19.993	103.903	20.028	7.072	0.502
455.500	305.049	80.005	19.993	103.907	20.027	7.133	0.499
456.000	305.292	80.006	19.993	103.910	20.028	7.094	0.512
456.500	305.543	80.006	19.993	103.912	20.027	7.134	0.510
457.000	305.790	80.005	19.992	103.911	20.025	7.304	0.496
457.500	306.050	80.003	19.993	103.911	20.029	6.972	0.502
458.000	306.334	80.005	19.994	103.910	20.024	7.393	0.525
458.500	306.562	80.005	19.994	103.910	20.031	6.855	0.528
459.000	306.823	80.004	19.995	103.909	20.024	7.380	0.501
459.500	307.041	80.005	19.994	103.908	20.026	7.231	0.484
460.000	307.288	80.004	19.994	103.908	20.027	7.126	0.472
460.500	307.571	80.005	19.993	103.909	20.027	7.163	0.498
461.000	307.875	80.005	19.993	103.909	20.028	7.095	0.558
461.500	308.092	80.005	19.993	103.906	20.028	7.093	0.554
462.000	308.341	80.005	19.992	103.909	20.025	7.265	0.494
462.500	308.567	80.004	19.993	103.908	20.028	7.111	0.470
463.000	308.856	80.004	19.992	103.908	20.026	7.212	0.495
463.500	309.074	80.003	19.993	103.909	20.029	6.980	0.511
464.000	309.322	80.005	19.994	103.913	20.026	7.243	0.487
464.500	309.585	80.005	19.993	103.913	20.026	7.253	0.489
465.000	309.848	80.005	19.995	103.912	20.026	7.220	0.519
465.500	310.123	80.003	19.993	103.909	20.028	7.106	0.532
466.000	310.353	80.004	19.993	103.907	20.024	7.393	0.521
466.500	310.601	80.005	19.994	103.907	20.021	7.576	0.491
467.000	310.852	80.003	19.993	103.907	20.024	7.344	0.489
467.500	311.082	80.004	19.994	103.909	20.021	7.572	0.490
468.000	311.360	80.004	19.994	103.914	20.024	7.413	0.494
468.500	311.617	80.002	19.995	103.915	20.020	7.704	0.521
469.000	311.870	80.003	19.995	103.916	20.021	7.632	0.522
469.500	312.157	80.004	19.994	103.916	20.022	7.513	0.525
470.000	312.415	80.004	19.995	103.917	20.020	7.698	0.542
470.500	312.664	80.005	19.994	103.916	20.023	7.470	0.526
471.000	312.854	80.004	19.993	103.915	20.020	7.663	0.473
471.500	313.160	80.005	19.994	103.914	20.019	7.729	0.468
472.000	313.388	80.005	19.994	103.914	20.021	7.591	0.515
472.500	313.639	80.004	19.994	103.914	20.021	7.628	0.506
473.000	313.875	80.004	19.992	103.913	20.021	7.608	0.483
473.500	314.155	80.004	19.994	103.914	20.021	7.624	0.502
474.000	314.405	80.004	19.994	103.914	20.022	7.507	0.523
474.500	314.673	80.005	19.995	103.915	20.018	7.842	0.524
475.000	314.936	80.004	19.995	103.913	20.022	7.554	0.525
475.500	315.160	80.005	19.994	103.910	20.022	7.530	0.509
476.000	315.429	80.004	19.994	103.908	20.016	7.993	0.490
476.500	315.705	80.003	19.993	103.902	20.017	7.893	0.519
477.000	315.944	80.005	19.993	103.898	20.015	8.036	0.530
477.500	316.218	80.004	19.994	103.899	20.018	7.796	0.514
478.000	316.431	80.006	19.993	103.902	20.014	8.103	0.500
478.500	316.684	80.004	19.994	103.904	20.018	7.806	0.477
479.000	316.979	80.005	19.994	103.909	20.016	7.980	0.507
479.500	317.215	80.005	19.993	103.910	20.016	7.960	0.539
480.000	317.451	80.005	19.994	103.909	20.016	7.982	0.502
480.500	317.696	80.005	19.993	103.909	20.015	8.071	0.476
481.000	317.964	80.005	19.993	103.909	20.013	8.188	0.497
481.500	318.234	80.005	19.994	103.909	20.020	7.691	0.526
482.000	318.465	80.005	19.994	103.911	20.015	8.036	0.519
482.500	318.730	80.006	19.993	103.913	20.012	8.240	0.498
483.000	318.986	80.004	19.993	103.913	20.012	8.281	0.508
483.500	319.213	80.005	19.993	103.912	20.014	8.143	0.502
484.000	319.451	80.004	19.994	103.911	20.014	8.129	0.474
484.500	319.718	80.005	19.994	103.911	20.014	8.123	0.485
485.000	319.978	80.005	19.995	103.911	20.016	7.958	0.516
485.500	320.211	80.004	19.994	103.912	20.016	8.009	0.510
486.000	320.468	80.005	19.994	103.913	20.016	7.958	0.491
486.500	320.731	80.005	19.993	103.913	20.011	8.337	0.505
487.000	321.030	80.003	19.993	103.911	20.010	8.389	0.541
487.500	321.265	80.004	19.994	103.909	20.013	8.185	0.548
488.000	321.516	80.004	19.994	103.905	20.012	8.266	0.510
488.500	321.780	80.004	19.994	103.901	20.011	8.367	0.500
489.000	322.008	80.004	19.994	103.902	20.014	8.151	0.503
489.500	322.262	80.006	19.995	103.901	20.008	8.541	0.487
490.000	322.512	80.005	19.993	103.902	20.011	8.387	0.493
490.500	322.736	80.006	19.994	103.903	20.009	8.481	0.489
491.000	322.970	80.003	19.995	103.903	20.014	8.153	0.466
491.500	323.265	80.004	19.993	103.902	20.009	8.471	0.493
492.000	323.515	80.004	19.994	103.903	20.009	8.471	0.537
492.500	323.737	80.005	19.993	103.904	20.009	8.475	0.509
493.000	324.010	80.005	19.994	103.907	20.009	8.514	0.483
493.500	324.258	80.003	19.994	103.911	20.007	8.673	0.508
494.000	324.507	80.004	19.993	103.913	20.007	8.642	0.509
494.500	324.734	80.005	19.992	103.913	20.008	8.541	0.486
495.000	324.988	80.005	19.994	103.912	20.008	8.585	0.478
495.500	325.256	80.006	19.994	103.910	20.005	8.806	0.502
496.000	325.488	80.004	19.993	103.910	20.004	8.879	0.512
496.500	325.773	80.004	19.994	103.904	20.008	8.608	0.509
497.000	326.031	80.005	19.993	103.903	20.005	8.779	0.530
497.500	326.293	80.006	19.995	103.903	20.001	9.126	0.531
498.000	326.546	80.006	19.993	103.903	20.000	9.144	0.517
498.500	326.824	80.006	19.995	103.901	19.999	9.234	0.523
499.000	327.076	80.005	19.993	103.906	20.002	8.991	0.531
499.500	327.310	80.004	19.993	103.908	20.001	9.067	0.508
500.000	327.553	80.005	19.994	103.908	20.001	9.063	0.482
500.500	327.796	80.005	19.994	103.908	19.996	9.504	0.482
501.000	328.083	80.007	19.995	103.909	19.999	9.225	0.508
501.500	328.291	80.006	19.994	103.908	19.995	9.516	0.512
502.000	328.560	80.007	19.993	103.906	19.995	9.577	0.486
502.500	328.830	80.006	19.994	103.905	19.998	9.318	0.508
503.000	329.080	80.007	19.994	103.907	19.995	9.519	0.530
503.500	329.345	80.006	19.993	103.906	19.996	9.454	0.518
504.000	329.568	80.006	19.995	103.904	19.989	9.971	0.502
504.500	329.835	80.006	19.994	103.897	19.991	9.838	0.489
505.000	330.101	80.005	19.994	103.891	19.989	9.960	0.511
505.500	330.344	80.007	19.994	103.889	19.990	9.948	0.521
506.000	330.598	80.006	19.995	103.890	19.987	10.123	0.503
506.500	330.830	80.006	19.997	103.893	19.985	10.268	0.492
507.000	331.096	80.008	19.995	103.900	19.986	10.193	0.493
507.500	331.335	80.006	19.996	103.906	19.988	10.088	0.501
508.000	331.625	80.007	19.995	103.909	19.984	10.396	0.517
508.500	331.886	80.004	19.995	103.907	19.983	10.468	0.540
509.000	332.140	80.007	19.995	103.905	19.985	10.326	0.533
509.500	332.400	80.006	19.995	103.900	19.983	10.470	0.514
510.000	332.621	80.006	19.995	103.897	19.982	10.515	0.497
510.500	332.909	80.006	19.994	103.896	19.979	10.730	0.495
511.000	333.128	80.005	19.995	103.896	19.978	10.790	0.508
511.500	333.409	80.005	19.994	103.894	19.977	10.884	0.503
512.000	333.618	80.006	19.994	103.897	19.978	10.798	0.495
512.500	333.890	80.005	19.994	103.894	19.978	10.843	0.485
513.000	334.107	80.007	19.993	103.889	19.976	10.974	0.485
513.500	334.430	80.006	19.994	103.884	19.973	11.208	0.515
514.000	334.676	80.005	19.993	103.883	19.975	11.036	0.554
514.500	334.915	80.005	19.993	103.886	19.979	10.736	0.527
515.000	335.151	80.005	19.994	103.891	19.971	11.350	0.480
515.500	335.409	80.005	19.994	103.896	19.971	11.341	0.485
516.000	335.672	80.005	19.994	103.902	19.972	11.241	0.508
516.500	335.950	80.004	19.994	103.908	19.973	11.185	0.531
517.000	336.202	80.004	19.994	103.907	19.968	11.551	0.535
517.500	336.460	80.005	19.994	103.907	19.964	11.848	0.520
518.000	336.701	80.004	19.994	103.909	19.963	11.936	0.505
518.500	336.940	80.004	19.995	103.909	19.962	12.008	0.489
519.000	337.178	80.005	19.993	103.908	19.961	12.065	0.478
519.500	337.407	80.005	19.994	103.910	19.960	12.200	0.472
520.000	337.689	80.005	19.995	103.911	19.957	12.418	0.489
520.500	337.960	80.004	19.992	103.911	19.954	12.640	0.532
521.000	338.195	80.004	19.993	103.912	19.956	12.490	0.530
521.500	338.451	80.006	19.993	103.912	19.953	12.692	0.499
522.000	338.706	80.005	19.994	103.912	19.950	12.932	0.501
522.500	338.949	80.005	19.993	103.913	19.951	12.859	0.504
523.000	339.231	80.005	19.993	103.913	19.949	13.018	0.511
523.500	339.492	80.004	19.993	103.912	19.952	12.804	0.534
524.000	339.713	80.005	19.993	103.911	19.944	13.394	0.512
524.500	339.982	80.005	19.994	103.911	19.943	13.451	0.486
525.000	340.226	80.004	19.993	103.909	19.945	13.275	0.502
525.500	340.495	80.005	19.993	103.907	19.943	13.476	0.513
526.000	340.746	80.003	19.994	103.908	19.943	13.472	0.516
526.500	341.028	80.002	19.994	103.908	19.937	13.867	0.526
527.000	341.289	80.003	19.995	103.907	19.935	14.010	0.538
527.500	341.580	80.006	19.994	103.907	19.934	14.085	0.548
528.000	341.801	80.005	19.994	103.909	19.932	14.254	0.532
528.500	342.063	80.005	19.994	103.909	19.929	14.511	0.498
529.000	342.310	80.004	19.993	103.909	19.929	14.458	0.496
529.500	342.556	80.003	19.993	103.907	19.926	14.741	0.501
530.000	342.823	80.003	19.994	103.900	19.928	14.588	0.503
530.500	343.077	80.005	19.993	103.896	19.924	14.888	0.517
531.000	343.329	80.003	19.993	103.890	19.926	14.741	0.514
531.500	343.565	80.005	19.994	103.887	19.920	15.133	0.497
532.000	343.819	80.005	19.994	103.888	19.919	15.221	0.489
532.500	344.043	80.004	19.993	103.895	19.918	15.322	0.484
533.000	344.298	80.003	19.994	103.899	19.916	15.470	0.478
533.500	344.555	80.006	19.993	103.905	19.915	15.522	0.495
534.000	344.785	80.005	19.993	103.909	19.914	15.615	0.500
534.500	345.083	80.004	19.995	103.906	19.909	15.999	0.508
535.000	345.354	80.004	19.993	103.900	19.911	15.802	0.548
535.500	345.612	80.005	19.994	103.899	19.908	16.073	0.549
536.000	345.849	80.004	19.993	103.898	19.909	16.003	0.512
536.500	346.105	80.006	19.995	103.898	19.905	16.257	0.494
537.000	346.397	80.003	19.995	103.904	19.901	16.581	0.520
537.500	346.610	80.005	19.994	103.907	19.899	16.718	0.527
538.000	346.879	80.004	19.993	103.907	19.895	17.061	0.493
538.500	347.141	80.005	19.995	103.909	19.889	17.521	0.506
539.000	347.378	80.004	19.993	103.901	19.889	17.474	0.515
539.500	347.685	80.003	19.993	103.893	19.890	17.433	0.522
540.000	347.932	80.005	19.994	103.894	19.885	17.807	0.549
540.500	348.169	80.004	19.996	103.894	19.883	17.938	0.519
541.000	348.426	80.004	19.995	103.888	19.885	17.821	0.489
541.500	348.664	80.004	19.994	103.888	19.882	17.973	0.494
542.000	348.932	80.003	19.993	103.894	19.879	18.243	0.500
542.500	349.194	80.004	19.994	103.895	19.879	18.238	0.518
543.000	349.437	80.004	19.992	103.891	19.876	18.429	0.517
543.500	349.710	80.004	19.994	103.895	19.873	18.689	0.511
544.000	349.997	80.004	19.995	103.901	19.874	18.622	0.538
544.500	350.275	80.004	19.994	103.903	19.871	18.819	0.562
545.000	350.487	80.005	19.994	103.905	19.871	18.854	0.527
545.500	350.757	80.004	19.994	103.911	19.865	19.274	0.486
546.000	350.997	80.005	19.994	103.913	19.866	19.173	0.496
546.500	351.280	80.004	19.994	103.911	19.861	19.551	0.516
547.000	351.527	80.004	19.995	103.909	19.860	19.624	0.527
547.500	351.802	80.003	19.994	103.908	19.859	19.757	0.526
548.000	352.062	80.004	19.993	103.905	19.859	19.718	0.529
548.500	352.351	80.004	19.993	103.904	19.858	19.804	0.542
549.000	352.592	80.003	19.995	103.906	19.858	19.833	0.540
549.500	352.815	80.003	19.993	103.908	19.855	20.018	0.497
550.000	353.116	80.003	19.994	103.908	19.851	20.316	0.494
550.500	353.376	80.004	19.994	103.910	19.850	20.409	0.543
551.000	353.678	80.004	19.992	103.912	19.846	20.675	0.562
551.500	353.895	80.005	19.993	103.912	19.844	20.821	0.541
552.000	354.152	80.003	19.993	103.912	19.847	20.663	0.497
552.500	354.361	80.002	19.994	103.910	19.845	20.780	0.470
553.000	354.642	80.003	19.994	103.911	19.842	21.015	0.477
553.500	354.924	80.004	19.993	103.912	19.837	21.391	0.527
554.000	355.178	80.006	19.993	103.913	19.836	21.444	0.550
554.500	355.392	80.004	19.993	103.914	19.835	21.524	0.502
555.000	355.697	80.003	19.994	103.916	19.828	22.081	0.494
555.500	355.947	80.004	19.993	103.916	19.828	22.038	0.537
556.000	356.225	80.004	19.993	103.916	19.827	22.132	0.541
556.500	356.450	80.004	19.993	103.915	19.828	22.068	0.516
557.000	356.727	80.004	19.993	103.913	19.825	22.298	0.502
557.500	356.994	80.005	19.994	103.912	19.819	22.695	0.523
558.000	357.259	80.004	19.994	103.911	19.817	22.911	0.538
558.500	357.524	80.005	19.994	103.909	19.817	22.900	0.530
559.000	357.762	80.005	19.992	103.908	19.813	23.176	0.517
559.500	358.016	80.005	19.994	103.909	19.808	23.572	0.498
560.000	358.238	80.005	19.995	103.908	19.809	23.493	0.484
560.500	358.495	80.005	19.993	103.910	19.805	23.781	0.477
561.000	358.788	80.005	19.994	103.910	19.801	24.089	0.515
561.500	359.028	80.006	19.994	103.905	19.800	24.164	0.542
562.000	359.279	80.005	19.994	103.900	19.796	24.415	0.512
562.500	359.513	80.004	19.994	103.901	19.795	24.501	0.488
563.000	359.783	80.006	19.995	103.901	19.790	24.884	0.495
563.500	360.090	80.006	19.994	103.902	19.793	24.658	0.540
564.000	360.339	80.005	19.995	103.908	19.784	25.368	0.566
564.500	360.601	80.007	19.993	103.912	19.782	25.511	0.533
565.000	360.830	80.004	19.996	103.911	19.780	25.682	0.501
565.500	361.086	80.006	19.993	103.909	19.773	26.133	0.488
566.000	361.376	80.005	19.993	103.905	19.770	26.402	0.516
566.500	361.563	80.006	19.993	103.903	19.772	26.273	0.511
567.000	361.829	80.006	19.994	103.903	19.766	26.671	0.464
567.500	362.091	80.007	19.994	103.902	19.758	27.279	0.490
568.000	362.348	80.006	19.994	103.903	19.756	27.443	0.524
568.500	362.576	80.005	19.995	103.907	19.751	27.824	0.502
569.000	362.844	80.005	19.995	103.908	19.750	27.886	0.490
569.500	363.110	80.004	19.994	103.909	19.742	28.518	0.515
570.000	363.370	80.006	19.995	103.911	19.740	28.619	0.530
570.500	363.633	80.006	19.994	103.912	19.733	29.179	0.524
571.000	363.881	80.005	19.994	103.909	19.729	29.458	0.517
571.500	364.099	80.005	19.994	103.903	19.725	29.794	0.488
572.000	364.372	80.005	19.994	103.901	19.721	30.053	0.479
572.500	364.646	80.005	19.993	103.899	19.716	30.436	0.519
573.000	364.897	80.005	19.995	103.893	19.709	30.970	0.536
573.500	365.135	80.004	19.993	103.894	19.703	31.426	0.507
574.000	365.418	80.005	19.994	103.899	19.700	31.612	0.505
574.500	365.667	80.007	19.994	103.899	19.694	32.055	0.526
575.000	365.901	80.004	19.993	103.900	19.688	32.550	0.507
575.500	366.164	80.005	19.994	103.905	19.686	32.671	0.490
576.000	366.434	80.005	19.994	103.906	19.682	33.017	0.515
576.500	366.692	80.005	19.994	103.906	19.675	33.529	0.530
577.000	366.949	80.004	19.996	103.907	19.670	33.921	0.522
577.500	367.198	80.005	19.994	103.909	19.663	34.415	0.511
578.000	367.423	80.005	19.994	103.909	19.658	34.766	0.490
578.500	367.686	80.005	19.995	103.909	19.654	35.084	0.481
579.000	367.967	80.006	19.996	103.909	19.648	35.516	0.516
579.500	368.205	80.006	19.994	103.909	19.644	35.832	0.532
580.000	368.459	80.004	19.995	103.909	19.642	35.969	0.505
580.500	368.711	80.007	19.994	103.909	19.632	36.751	0.499
581.000	368.985	80.005	19.994	103.909	19.626	37.176	0.516
581.500	369.235	80.005	19.994	103.910	19.617	37.818	0.525
582.000	369.481	80.004	19.994	103.910	19.614	38.073	0.510
582.500	369.714	80.005	19.994	103.910	19.609	38.418	0.487
583.000	369.972	80.005	19.994	103.910	19.604	38.851	0.485
583.500	370.231	80.006	19.994	103.910	19.592	39.694	0.504
584.000	370.479	80.007	19.994	103.911	19.589	39.972	0.512
584.500	370.754	80.006	19.995	103.912	19.580	40.596	0.515
585.000	370.994	80.006	19.993	103.911	19.577	40.871	0.519
585.500	371.260	80.007	19.994	103.911	19.565	41.748	0.511
586.000	371.497	80.007	19.993	103.911	19.559	42.214	0.505
586.500	371.748	80.007	19.995	103.910	19.551	42.807	0.496
587.000	371.990	80.008	19.994	103.910	19.543	43.421	0.490
587.500	372.260	80.007	19.994	103.912	19.538	43.785	0.502
588.000	372.496	80.006	19.995	103.918	19.529	44.437	0.509
588.500	372.765	80.008	19.993	103.918	19.521	45.077	0.506
589.000	373.023	80.009	19.994	103.918	19.509	45.949	0.516
589.500	373.283	80.008	19.994	103.918	19.500	46.587	0.522
590.000	373.601	80.009	19.993	103.916	19.493	47.109	0.548
590.500	373.806	80.006	19.994	103.909	19.482	47.976	0.551
591.000	374.065	80.006	19.993	103.909	19.478	48.282	0.494
591.500	374.278	80.007	19.994	103.909	19.467	49.085	0.468
592.000	374.516	80.007	19.994	103.910	19.456	49.905	0.461
592.500	374.776	80.008	19.994	103.910	19.447	50.593	0.474
593.000	375.049	80.009	19.993	103.911	19.439	51.209	0.516
593.500	375.290	80.009	19.993	103.911	19.425	52.232	0.524
594.000	375.530	80.007	19.994	103.911	19.416	52.935	0.497
594.500	375.763	80.006	19.994	103.910	19.404	53.825	0.477
595.000	376.036	80.003	19.995	103.910	19.397	54.350	0.490
595.500	376.333	80.005	19.994	103.910	19.385	55.248	0.538
596.000	376.554	80.006	19.994	103.910	19.376	55.912	0.544
596.500	376.819	80.006	19.994	103.911	19.364	56.775	0.501
597.000	377.077	80.004	19.995	103.913	19.353	57.610	0.504
597.500	377.320	80.005	19.994	103.919	19.343	58.409	0.512
598.000	377.608	80.003	19.993	103.925	19.333	59.119	0.516
598.500	377.808	80.006	19.995	103.925	19.320	60.134	0.510
599.000	378.109	80.003	19.995	103.925	19.309	60.910	0.494
599.500	378.349	80.005	19.995	103.925	19.290	62.367	0.521
600.000	378.577	80.006	19.994	103.920	19.286	62.667	0.504
600.500	378.821	80.003	19.995	103.914	19.274	63.565	0.470
601.000	379.076	80.004	19.995	103.915	19.262	64.412	0.486
601.500	379.321	80.003	19.994	103.923	19.249	65.416	0.500
602.000	379.599	80.006	19.994	103.928	19.234	66.544	0.512
602.500	379.807	80.001	19.994	103.931	19.225	67.192	0.505
603.000	380.106	80.004	19.994	103.931	19.212	68.194	0.496
603.500	380.353	80.003	19.995	103.933	19.200	69.081	0.526
604.000	380.577	80.002	19.996	103.930	19.184	70.305	0.508
604.500	380.827	80.003	19.997	103.932	19.172	71.218	0.473
605.000	381.076	80.004	19.995	103.937	19.156	72.380	0.487
605.500	381.333	80.004	19.996	103.941	19.147	73.050	0.502
606.000	381.550	80.003	19.994	103.944	19.136	73.891	0.490
606.500	381.824	80.003	19.996	103.945	19.118	75.226	0.483
607.000	382.090	80.004	19.994	103.944	19.110	75.835	0.516
607.500	382.322	80.004	19.995	103.943	19.094	77.076	0.519
608.000	382.592	80.004	19.994	103.946	19.083	77.864	0.500
608.500	382.842	80.005	19.995	103.947	19.068	78.980	0.511
609.000	383.116	80.004	19.995	103.944	19.052	80.174	0.522
609.500	383.368	80.004	19.995	103.944	19.041	80.993	0.525
610.000	383.589	80.004	19.994	103.943	19.027	82.062	0.499
610.500	383.867	80.003	19.993	103.935	19.013	83.121	0.486
611.000	384.129	80.005	19.994	103.933	18.996	84.409	0.519
611.500	384.391	80.002	19.993	103.938	18.987	85.057	0.532
612.000	384.618	80.005	19.993	103.939	18.968	86.457	0.507
612.500	384.878	80.004	19.995	103.941	18.955	87.474	0.488
613.000	385.123	80.006	19.994	103.949	18.938	88.689	0.496
613.500	385.369	80.004	19.993	103.952	18.926	89.644	0.498
614.000	385.626	80.003	19.994	103.952	18.909	90.884	0.497
614.500	385.875	80.007	19.994	103.953	18.893	92.090	0.504
615.000	386.143	80.005	19.992	103.953	18.873	93.596	0.511
615.500	386.390	80.006	19.993	103.954	18.857	94.820	0.516
616.000	386.649	80.003	19.994	103.954	18.836	96.372	0.510
616.500	386.916	80.003	19.993	103.954	18.820	97.548	0.516
617.000	387.146	80.006	19.993	103.954	18.802	98.930	0.512
617.500	387.360	80.006	19.993	103.955	18.780	100.569	0.471
618.000	387.639	80.004	19.994	103.954	18.761	101.988	0.468
618.500	387.877	80.005	19.993	103.956	18.741	103.552	0.505
619.000	388.147	80.004	19.994	103.961	18.719	105.128	0.513
619.500	388.380	80.004	19.995	103.961	18.701	106.522	0.506
620.000	388.634	80.005	19.993	103.962	18.681	108.004	0.496
620.500	388.902	80.003	19.994	103.962	18.662	109.433	0.505
621.000	389.154	80.004	19.993	103.961	18.640	111.081	0.520
621.500	389.442	80.005	19.993	103.956	18.621	112.529	0.530
622.000	389.675	80.006	19.993	103.955	18.600	114.034	0.531
622.500	389.905	80.004	19.993	103.955	18.583	115.365	0.492
623.000	390.189	80.005	19.993	103.954	18.560	117.053	0.489
623.500	390.384	80.003	19.993	103.953	18.540	118.602	0.496
624.000	390.670	80.004	19.994	103.951	18.519	120.118	0.479
624.500	390.901	80.003	19.993	103.949	18.499	121.641	0.499
625.000	391.157	80.005	19.993	103.947	18.478	123.215	0.502
625.500	391.406	80.006	19.993	103.948	18.457	124.806	0.497
626.000	391.698	80.004	19.993	103.947	18.433	126.647	0.523
626.500	391.942	80.006	19.994	103.953	18.415	127.947	0.538
627.000	392.185	80.005	19.994	103.962	18.390	129.876	0.512
627.500	392.465	80.004	19.994	103.971	18.366	131.681	0.505
628.000	392.706	80.003	19.994	103.978	18.342	133.452	0.522
628.500	392.984	80.004	19.993	103.987	18.324	134.869	0.520
629.000	393.203	80.004	19.994	103.989	18.300	136.625	0.508
629.500	393.499	80.005	19.994	103.988	18.275	138.497	0.506
630.000	393.726	80.004	19.994	103.988	18.252	140.191	0.519
630.500	393.989	80.004	19.994	103.987	18.230	141.870	0.507
631.000	394.226	80.005	19.994	103.987	18.206	143.635	0.495
631.500	394.478	80.004	19.994	103.984	18.184	145.261	0.495
632.000	394.744	80.005	19.993	103.978	18.160	147.036	0.504
632.500	394.980	80.005	19.994	103.974	18.137	148.748	0.510
633.000	395.241	80.004	19.995	103.974	18.112	150.601	0.499
633.500	395.487	80.003	19.997	103.973	18.082	152.899	0.501
634.000	395.757	80.005	19.997	103.977	18.055	154.867	0.511
634.500	395.978	80.005	19.997	103.985	18.028	156.902	0.504
635.000	396.246	80.004	19.997	103.991	17.993	159.553	0.490
635.500	396.474	80.004	19.996	103.992	17.961	162.037	0.492
636.000	396.696	80.003	19.995	103.997	17.930	164.385	0.473
636.500	396.978	80.006	19.994	104.002	17.896	166.980	0.477
637.000	397.240	80.005	19.994	104.008	17.860	169.654	0.524
637.500	397.477	80.006	19.994	104.014	17.819	172.803	0.521
638.000	397.714	80.004	19.994	104.021	17.784	175.528	0.486
638.500	398.009	80.004	19.994	104.026	17.751	177.985	0.503
639.000	398.252	80.004	19.994	104.035	17.717	180.513	0.535
639.500	398.502	80.004	19.994	104.048	17.686	182.803	0.515
640.000	398.764	80.005	19.994	104.053	17.660	184.661	0.502
640.500	399.023	80.007	19.994	104.046	17.630	186.759	0.516
641.000	399.274	80.005	19.993	104.034	17.602	188.776	0.516
641.500	399.533	80.006	19.993	104.015	17.572	190.878	0.510
642.000	399.763	80.003	19.994	103.992	17.540	193.140	0.500
642.500	400.023	80.007	19.994	103.973	17.515	194.938	0.490
643.000	400.276	80.004	19.993	103.965	17.485	197.125	0.502
643.500	400.507	80.007	19.994	103.960	17.449	199.741	0.499
644.000	400.810	80.006	19.993	103.963	17.411	202.593	0.509
644.500	401.029	80.007	19.994	103.967	17.369	205.824	0.528
645.000	401.277	80.004	19.994	103.974	17.322	209.428	0.494
645.500	401.566	80.006	19.994	103.984	17.262	213.956	0.502
646.000	401.770	80.003	19.993	104.000	17.194	219.260	0.516
646.500	402.069	80.006	19.993	104.020	17.119	225.003	0.498
647.000	402.316	80.005	19.992	104.040	17.044	230.908	0.524
647.500	402.545	80.007	19.994	104.064	16.966	236.980	0.510
648.000	402.808	80.006	19.995	104.078	16.902	242.001	0.484
648.500	403.087	80.006	19.992	104.130	16.853	245.784	0.517
649.000	403.314	80.007	19.992	104.178	16.809	249.122	0.524
649.500	403.596	80.006	19.993	104.179	16.781	251.223	0.507
650.000	403.815	80.005	19.994	104.157	16.757	252.910	0.506
650.500	404.090	80.004	19.995	104.134	16.740	254.074	0.498
651.000	404.359	80.009	19.993	104.070	16.730	254.763	0.519
651.500	404.626	80.007	19.994	103.986	16.716	255.692	0.540
652.000	404.848	80.005	19.994	103.926	16.711	255.994	0.512
652.500	405.116	80.008	19.993	103.871	16.694	257.186	0.490
653.000	405.376	80.007	19.995	103.811	16.687	257.711	0.509
653.500	405.646	80.005	19.994	103.746	16.669	258.986	0.529
654.000	405.913	80.007	19.993	103.708	16.652	260.212	0.534
654.500	406.154	80.006	19.993	103.695	16.638	261.284	0.523
655.000	406.412	80.007	19.993	103.706	16.617	262.902	0.504
655.500	406.660	80.005	19.994	103.725	16.601	264.084	0.502
656.000	406.941	80.005	19.995	103.767	16.574	266.096	0.517
656.500	407.185	80.004	19.994	103.811	16.549	267.978	0.527
657.000	407.424	80.007	19.994	103.893	16.523	269.908	0.504
657.500	407.711	80.006	19.994	103.979	16.498	271.819	0.505
658.000	407.948	80.007	19.993	104.098	16.465	274.312	0.525
658.500	408.207	80.006	19.994	104.195	16.432	276.707	0.510
659.000	408.453	80.006	19.994	104.293	16.400	279.113	0.501
659.500	408.719	80.006	19.994	104.325	16.365	281.746	0.509
660.000	408.994	80.004	19.993	104.349	16.333	284.173	0.526
660.500	409.253	80.006	19.994	104.325	16.293	287.091	0.537
661.000	409.498	80.006	19.994	104.302	16.257	289.768	0.519
661.500	409.757	80.007	19.995	104.254	16.225	292.135	0.504
662.000	410.008	80.005	19.995	104.214	16.189	294.872	0.507
662.500	410.259	80.004	19.995	104.173	16.149	297.891	0.507
663.000	410.518	80.006	19.993	104.138	16.108	300.950	0.506
663.500	410.750	80.004	19.996	104.110	16.072	303.679	0.500
664.000	411.015	80.004	19.997	104.095	16.027	307.105	0.494
664.500	411.251	80.005	19.996	104.082	15.983	310.392	0.499
665.000	411.501	80.004	19.995	104.068	15.940	313.629	0.493
665.500	411.779	80.005	19.995	104.077	15.894	317.107	0.507
666.000	412.021	80.003	19.995	104.075	15.849	320.552	0.524
666.500	412.263	80.006	19.995	104.064	15.812	323.324	0.502
667.000	412.509	80.006	19.995	104.077	15.767	326.689	0.486
667.500	412.770	80.005	19.996	104.083	15.726	329.773	0.498
668.000	413.029	80.006	19.994	104.074	15.683	333.057	0.514
668.500	413.297	80.006	19.993	104.070	15.639	336.312	0.524
669.000	413.577	80.005	19.994	104.074	15.595	339.553	0.537
669.500	413.815	80.007	19.995	104.070	15.558	342.312	0.533
670.000	414.062	80.006	19.996	104.065	15.522	345.049	0.502
670.500	414.288	80.005	19.995	104.063	15.480	348.187	0.479
671.000	414.547	80.007	19.995	104.059	15.442	351.021	0.479
671.500	414.796	80.005	19.995	104.049	15.401	354.063	0.497
672.000	415.016	80.007	19.995	104.039	15.362	356.990	0.489
672.500	415.266	80.006	19.995	104.034	15.323	359.957	0.470
673.000	415.519	80.007	19.995	104.035	15.277	363.374	0.487
673.500	415.769	80.006	19.994	104.041	15.239	366.212	0.503
674.000	416.037	80.006	19.993	104.048	15.196	369.483	0.511
674.500	416.260	80.006	19.995	104.055	15.152	372.738	0.504
675.000	416.534	80.004	19.994	104.059	15.111	375.843	0.494
675.500	416.762	80.006	19.994	104.063	15.072	378.774	0.500
676.000	417.006	80.006	19.994	104.071	15.027	382.239	0.487
676.500	417.303	80.006	19.994	104.082	14.987	385.243	0.506
677.000	417.539	80.006	19.994	104.091	14.948	388.135	0.537
677.500	417.801	80.006	19.993	104.099	14.907	391.213	0.515
678.000	418.031	80.006	19.994	104.106	14.868	394.171	0.495
678.500	418.247	80.005	19.994	104.109	14.833	396.749	0.469
679.000	418.511	80.006	19.995	104.104	14.798	399.340	0.463
679.500	418.782	80.004	19.995	104.097	14.762	402.040	0.507
680.000	419.017	80.004	19.994	104.091	14.724	404.946	0.520
680.500	419.259	80.006	19.993	104.084	14.691	407.407	0.492
681.000	419.555	80.004	19.994	104.079	14.656	409.962	0.508
681.500	419.805	80.004	19.994	104.081	14.623	412.504	0.542
682.000	420.052	80.004	19.993	104.081	14.592	414.840	0.521
682.500	420.272	80.006	19.994	104.081	14.558	417.402	0.482
683.000	420.522	80.005	19.995	104.079	14.527	419.697	0.468
683.500	420.812	80.005	19.995	104.075	14.498	421.872	0.505
684.000	421.065	80.005	19.995	104.074	14.470	423.971	0.542
684.500	421.282	80.003	19.995	104.079	14.440	426.241	0.507
685.000	421.544	80.005	19.994	104.077	14.411	428.370	0.475
685.500	421.813	80.004	19.994	104.079	14.386	430.271	0.505
686.000	422.064	80.003	19.994	104.081	14.364	431.903	0.526
686.500	422.282	80.003	19.993	104.089	14.340	433.678	0.495
687.000	422.529	80.003	19.994	104.098	14.324	434.940	0.467
687.500	422.770	80.005	19.994	104.102	14.301	436.693	0.476
688.000	423.009	80.005	19.995	104.100	14.281	438.232	0.484
688.500	423.269	80.004	19.994	104.103	14.269	439.164	0.490
689.000	423.493	80.004	19.994	104.103	14.252	440.480	0.491
689.500	423.743	80.004	19.995	104.093	14.238	441.526	0.478
690.000	424.033	80.005	19.994	104.086	14.223	442.589	0.507
690.500	424.283	80.005	19.995	104.088	14.211	443.539	0.540
691.000	424.495	80.004	19.994	104.094	14.202	444.243	0.501
691.500	424.752	80.005	19.994	104.090	14.189	445.177	0.466
692.000	425.006	80.005	19.996	104.087	14.188	445.313	0.490
692.500	425.298	80.005	19.994	104.098	14.181	445.769	0.528
693.000	425.504	80.005	19.995	104.104	14.177	446.094	0.522
693.500	425.740	80.005	19.995	104.095	14.176	446.141	0.470
694.000	426.019	80.003	19.995	104.091	14.175	446.238	0.479
694.500	426.265	80.005	19.994	104.099	14.178	446.034	0.520
695.000	426.533	80.002	19.996	104.097	14.181	445.815	0.519
695.500	426.790	80.005	19.995	104.091	14.188	445.303	0.520
696.000	427.034	80.004	19.995	104.096	14.195	444.794	0.513
696.500	427.262	80.004	19.994	104.099	14.208	443.830	0.486
697.000	427.523	80.003	19.995	104.090	14.215	443.295	0.481
697.500	427.806	80.004	19.994	104.088	14.227	442.397	0.517
698.000	428.050	80.005	19.995	104.099	14.244	441.183	0.535
698.500	428.271	80.003	19.995	104.108	14.255	440.342	0.496
699.000	428.534	80.003	19.996	104.108	14.276	438.733	0.475
699.500	428.783	80.005	19.996	104.114	14.292	437.515	0.498
700.000	429.000	80.005	19.995	104.127	14.313	435.958	0.489
700.500	429.288	80.004	19.996	104.127	14.334	434.369	0.486
701.000	429.565	80.005	19.994	104.124	14.360	432.454	0.535
701.500	429.792	80.004	19.995	104.126	14.387	430.470	0.535
702.000	430.059	80.004	19.995	104.134	14.416	428.290	0.499
702.500	430.297	80.004	19.994	104.133	14.446	426.045	0.499
703.000	430.566	80.004	19.994	104.132	14.479	423.607	0.506
703.500	430.823	80.004	19.995	104.130	14.513	421.110	0.517
704.000	431.063	80.005	19.995	104.132	14.544	418.759	0.512
704.500	431.348	80.005	19.994	104.130	14.582	415.869	0.511
705.000	431.560	80.005	19.994	104.130	14.621	412.955	0.511
705.500	431.828	80.004	19.994	104.133	14.658	410.156	0.489
706.000	432.097	80.006	19.993	104.139	14.704	406.771	0.509
706.500	432.348	80.005	19.993	104.142	14.748	403.476	0.528
707.000	432.589	80.006	19.994	104.140	14.791	400.208	0.506
707.500	432.868	80.005	19.994	104.142	14.837	396.741	0.506
708.000	433.128	80.005	19.994	104.143	14.887	393.038	0.530
708.500	433.347	80.006	19.993	104.146	14.937	389.247	0.509
709.000	433.602	80.002	19.993	104.148	14.987	385.493	0.477
709.500	433.898	80.005	19.995	104.150	15.039	381.567	0.513
710.000	434.152	80.004	19.993	104.149	15.095	377.381	0.550
710.500	434.424	80.004	19.994	104.147	15.151	373.132	0.538
711.000	434.642	80.005	19.995	104.147	15.209	368.757	0.508
711.500	434.924	80.007	19.994	104.149	15.267	364.441	0.495
712.000	435.190	80.004	19.994	104.151	15.326	359.998	0.524
712.500	435.440	80.005	19.993	104.153	15.387	355.416	0.532
713.000	435.664	80.005	19.993	104.159	15.447	350.970	0.495
713.500	435.937	80.004	19.993	104.167	15.511	346.119	0.485
714.000	436.200	80.004	19.994	104.173	15.573	341.492	0.516
714.500	436.455	80.007	19.995	104.177	15.637	336.619	0.527
715.000	436.736	80.005	19.995	104.177	15.706	331.508	0.527
715.500	436.971	80.004	19.994	104.176	15.769	326.750	0.526
716.000	437.227	80.003	19.994	104.174	15.832	321.981	0.503
716.500	437.493	80.005	19.992	104.176	15.905	316.538	0.507
717.000	437.750	80.005	19.994	104.179	15.975	311.216	0.523
717.500	438.029	80.005	19.994	104.180	16.044	306.079	0.529
718.000	438.290	80.005	19.993	104.178	16.113	300.858	0.538
718.500	438.543	80.005	19.995	104.178	16.179	295.874	0.527
719.000	438.781	80.006	19.994	104.178	16.251	290.481	0.502
719.500	439.047	80.006	19.993	104.178	16.323	285.004	0.497
720.000	439.313	80.004	19.992	104.177	16.394	279.730	0.518
720.500	439.578	80.005	19.993	104.178	16.465	274.374	0.532
721.000	439.813	80.007	19.994	104.174	16.535	269.088	0.515
721.500	440.073	80.005	19.993	104.168	16.606	263.789	0.497
722.000	440.353	80.005	19.994	104.165	16.674	258.608	0.517
722.500	440.640	80.005	19.993	104.167	16.746	253.209	0.554
723.000	440.899	80.004	19.994	104.170	16.818	247.804	0.557
723.500	441.152	80.004	19.994	104.169	16.894	242.063	0.529
724.000	441.406	80.006	19.995	104.167	16.961	237.065	0.509
724.500	441.640	80.005	19.995	104.167	17.031	231.796	0.498
725.000	441.935	80.005	19.995	104.166	17.100	226.601	0.509
725.500	442.225	80.007	19.995	104.161	17.167	221.525	0.557
726.000	442.455	80.007	19.994	104.161	17.234	216.507	0.553
726.500	442.717	80.007	19.993	104.159	17.304	211.297	0.506
727.000	443.015	80.006	19.993	104.154	17.371	206.247	0.526
727.500	443.293	80.006	19.994	104.150	17.438	201.173	0.568
728.000	443.539	80.005	19.993	104.146	17.500	196.564	0.550
728.500	443.791	80.006	19.993	104.142	17.564	191.715	0.511
729.000	444.071	80.008	19.992	104.134	17.628	186.951	0.515
729.500	444.317	80.006	19.994	104.126	17.691	182.188	0.529
730.000	444.594	80.004	19.994	104.120	17.752	177.636	0.525
730.500	444.834	80.005	19.994	104.113	17.816	172.863	0.520
731.000	445.122	80.006	19.994	104.109	17.874	168.451	0.522
731.500	445.368	80.007	19.992	104.107	17.936	163.842	0.531
732.000	445.644	80.007	19.993	104.102	17.997	159.264	0.528
732.500	445.932	80.006	19.993	104.094	18.047	155.507	0.543
733.000	446.156	80.003	19.993	104.087	18.104	151.209	0.538
733.500	446.439	80.006	19.994	104.079	18.160	147.053	0.510
734.000	446.712	80.006	19.994	104.073	18.212	143.134	0.531
734.500	446.940	80.005	19.993	104.068	18.262	139.431	0.528
735.000	447.201	80.006	19.994	104.061	18.309	135.874	0.495
735.500	447.527	80.005	19.993	104.054	18.367	131.546	0.538
736.000	447.767	80.005	19.993	104.046	18.415	127.882	0.577
736.500	448.008	80.005	19.994	104.038	18.462	124.371	0.523
737.000	448.304	80.006	19.993	104.031	18.508	120.971	0.509
737.500	448.525	80.006	19.993	104.027	18.557	117.290	0.527
738.000	448.810	80.005	19.993	104.024	18.597	114.262	0.511
738.500	449.085	80.006	19.993	104.016	18.642	110.874	0.533
739.000	449.339	80.005	19.994	104.008	18.688	107.462	0.545
739.500	449.584	80.006	19.993	104.002	18.731	104.268	0.514
740.000	449.883	80.005	19.993	103.997	18.771	101.201	0.522
740.500	450.111	80.006	19.994	103.992	18.809	98.393	0.536
741.000	450.394	80.005	19.995	103.991	18.848	95.455	0.519
741.500	450.662	80.006	19.994	103.990	18.883	92.857	0.531
742.000	450.901	80.005	19.993	103.987	18.919	90.139	0.529
742.500	451.185	80.004	19.993	103.983	18.954	87.560	0.515
743.000	451.418	80.005	19.993	103.983	18.986	85.165	0.520
743.500	451.693	80.004	19.994	103.985	19.017	82.823	0.513
744.000	451.980	80.004	19.994	103.986	19.050	80.335	0.535
744.500	452.226	80.006	19.993	103.990	19.082	77.929	0.547
745.000	452.501	80.006	19.994	103.991	19.116	75.408	0.527
745.500	452.762	80.004	19.993	103.985	19.144	73.285	0.528
746.000	453.035	80.006	19.992	103.978	19.170	71.305	0.535
746.500	453.296	80.006	19.993	103.970	19.197	69.288	0.534
747.000	453.543	80.007	19.993	103.963	19.224	67.313	0.521
747.500	453.822	80.006	19.993	103.959	19.250	65.292	0.517
748.000	454.102	80.008	19.993	103.958	19.273	63.609	0.543
748.500	454.359	80.006	19.993	103.958	19.295	61.963	0.548
749.000	454.636	80.005	19.992	103.958	19.318	60.238	0.536
749.500	454.908	80.008	19.992	103.957	19.340	58.594	0.541
750.000	455.149	80.006	19.994	103.955	19.364	56.808	0.531
750.500	455.435	80.004	19.995	103.955	19.382	55.445	0.519
751.000	455.691	80.006	19.995	103.955	19.403	53.828	0.535
751.500	455.947	80.008	19.994	103.955	19.423	52.385	0.527
752.000	456.241	80.007	19.994	103.954	19.441	51.038	0.531
752.500	456.463	80.007	19.994	103.954	19.459	49.641	0.533
753.000	456.739	80.006	19.994	103.954	19.477	48.347	0.507
753.500	456.991	80.006	19.994	103.953	19.492	47.205	0.513
754.000	457.262	80.007	19.993	103.953	19.510	45.866	0.526
754.500	457.499	80.006	19.994	103.953	19.520	45.088	0.515
755.000	457.735	80.008	19.993	103.950	19.542	43.438	0.490
755.500	458.031	80.006	19.993	103.944	19.551	42.748	0.503
756.000	458.301	80.006	19.993	103.938	19.568	41.495	0.549
756.500	458.555	80.007	19.994	103.929	19.582	40.485	0.545
757.000	458.873	80.005	19.993	103.921	19.594	39.524	0.548
757.500	459.070	80.007	19.995	103.916	19.605	38.711	0.544
758.000	459.335	80.006	19.994	103.913	19.619	37.683	0.488
758.500	459.626	80.007	19.994	103.906	19.632	36.699	0.509
759.000	459.876	80.008	19.994	103.902	19.641	36.047	0.549
759.500	460.131	80.007	19.994	103.897	19.653	35.167	0.523
760.000	460.392	80.008	19.994	103.895	19.662	34.454	0.510
760.500	460.649	80.005	19.994	103.892	19.673	33.629	0.517
761.000	460.914	80.005	19.994	103.895	19.685	32.757	0.520
761.500	461.209	80.004	19.994	103.892	19.696	31.907	0.541
762.000	461.447	80.005	19.993	103.892	19.709	30.985	0.546
762.500	461.710	80.005	19.993	103.890	19.716	30.432	0.517
763.000	461.960	80.005	19.996	103.887	19.723	29.891	0.507
763.500	462.223	80.005	19.993	103.882	19.734	29.097	0.513
764.000	462.455	80.003	19.994	103.883	19.741	28.553	0.504
764.500	462.706	80.004	19.995	103.879	19.749	27.935	0.489
765.000	462.988	80.004	19.995	103.874	19.759	27.174	0.508
765.500	463.232	80.004	19.994	103.875	19.765	26.722	0.530
766.000	463.491	80.003	19.994	103.876	19.771	26.318	0.514
766.500	463.773	80.004	19.994	103.875	19.780	25.608	0.522
767.000	463.957	80.004	19.995	103.875	19.784	25.303	0.504
767.500	464.255	80.005	19.995	103.876	19.791	24.845	0.474
768.000	464.498	80.004	19.995	103.874	19.800	24.150	0.511
768.500	464.747	80.006	19.995	103.872	19.807	23.618	0.516
769.000	465.018	80.004	19.996	103.872	19.810	23.363	0.506
769.500	465.249	80.004	19.994	103.873	19.817	22.845	0.511
770.000	465.523	80.006	19.994	103.872	19.820	22.622	0.504
770.500	465.773	80.007	19.993	103.873	19.830	21.885	0.515
771.000	466.020	80.004	19.995	103.874	19.835	21.526	0.510
771.500	466.283	80.005	19.994	103.874	19.840	21.173	0.504
772.000	466.504	80.003	19.993	103.873	19.845	20.733	0.498
772.500	466.788	80.004	19.994	103.869	19.852	20.212	0.495
773.000	467.024	80.005	19.995	103.866	19.853	20.153	0.512
773.500	467.270	80.005	19.994	103.866	19.858	19.775	0.501
774.000	467.555	80.003	19.993	103.867	19.864	19.355	0.507
774.500	467.820	80.003	19.995	103.868	19.868	19.064	0.541
775.000	468.088	80.005	19.993	103.871	19.870	18.876	0.541
775.500	468.314	80.007	19.992	103.872	19.877	18.382	0.513
776.000	468.568	80.004	19.995	103.868	19.881	18.088	0.487
776.500	468.842	80.004	19.994	103.866	19.885	17.750	0.504
777.000	469.092	80.006	19.994	103.866	19.889	17.457	0.526
777.500	469.329	80.004	19.993	103.866	19.896	16.974	0.505
778.000	469.612	80.003	19.993	103.869	19.895	16.993	0.503
778.500	469.832	80.004	19.995	103.872	19.901	16.555	0.512
779.000	470.092	80.004	19.993	103.872	19.906	16.212	0.491
779.500	470.350	80.005	19.993	103.871	19.908	16.045	0.498
780.000	470.611	80.004	19.995	103.868	19.913	15.648	0.518
780.500	470.879	80.006	19.993	103.861	19.919	15.198	0.524
781.000	471.083	80.005	19.994	103.855	19.925	14.793	0.501
781.500	471.352	80.007	19.994	103.854	19.927	14.596	0.473
782.000	471.635	80.004	19.994	103.851	19.929	14.465	0.512
782.500	471.878	80.005	19.993	103.848	19.933	14.164	0.539
783.000	472.108	80.004	19.994	103.852	19.937	13.907	0.500
783.500	472.335	80.004	19.995	103.851	19.940	13.638	0.465
784.000	472.589	80.003	19.995	103.846	19.943	13.446	0.469
784.500	472.883	80.004	19.996	103.843	19.949	12.997	0.514
785.000	473.101	80.004	19.994	103.842	19.951	12.834	0.530
785.500	473.378	80.004	19.995	103.843	19.959	12.248	0.504
786.000	473.654	80.005	19.994	103.844	19.961	12.114	0.524
786.500	473.860	80.006	19.995	103.845	19.967	11.613	0.517
787.000	474.116	80.005	19.994	103.852	19.970	11.415	0.472
787.500	474.398	80.004	19.994	103.857	19.973	11.171	0.500
788.000	474.639	80.003	19.994	103.855	19.978	10.801	0.531
788.500	474.926	80.002	19.995	103.853	19.980	10.647	0.526
789.000	475.177	80.004	19.994	103.852	19.985	10.305	0.533
789.500	475.378	80.004	19.994	103.845	19.990	9.930	0.495
790.000	475.643	80.001	19.994	103.841	19.994	9.633	0.460
790.500	475.909	80.003	19.994	103.838	19.997	9.363	0.499
791.000	476.155	80.004	19.994	103.842	19.999	9.219	0.521
791.500	476.385	80.005	19.994	103.849	20.003	8.942	0.494
792.000	476.645	80.003	19.994	103.853	20.009	8.503	0.483
792.500	476.928	80.003	19.995	103.857	20.011	8.380	0.517
793.000	477.145	80.004	19.995	103.860	20.017	7.877	0.521
793.500	477.390	80.003	19.993	103.857	20.020	7.652	0.481
794.000	477.672	80.005	19.994	103.852	20.026	7.229	0.495
794.500	477.914	80.003	19.994	103.855	20.026	7.209	0.526
795.000	478.181	80.003	19.994	103.856	20.031	6.872	0.517
795.500	478.403	80.003	19.994	103.860	20.032	6.801	0.499
796.000	478.665	80.004	19.995	103.864	20.037	6.393	0.486
796.500	478.883	80.002	19.995	103.868	20.037	6.424	0.482
797.000	479.155	80.002	19.995	103.867	20.035	6.531	0.485
797.500	479.411	80.003	19.995	103.860	20.042	6.055	0.508
798.000	479.653	80.004	19.995	103.853	20.044	5.850	0.513
798.500	479.900	80.004	19.995	103.848	20.043	5.947	0.494
799.000	480.157	80.001	19.994	103.844	20.045	5.787	0.496
799.500	480.399	80.004	19.993	103.839	20.049	5.520	0.501
800.000	480.655	80.003	19.994	103.842	20.049	5.485	0.499
800.500	480.905	80.003	19.993	103.844	20.051	5.322	0.502
801.000	481.133	80.002	19.995	103.849	20.050	5.394	0.492
801.500	481.436	80.003	19.994	103.853	20.054	5.148	0.505
802.000	481.675	80.005	19.994	103.855	20.053	5.203	0.536
802.500	481.934	80.003	19.993	103.851	20.054	5.137	0.520
803.000	482.151	80.004	19.993	103.848	20.057	4.897	0.487
803.500	482.428	80.004	19.993	103.845	20.053	5.167	0.485
804.000	482.654	80.005	19.993	103.841	20.056	4.946	0.499
804.500	482.909	80.005	19.994	103.838	20.058	4.835	0.492
805.000	483.131	80.005	19.994	103.839	20.056	4.946	0.478
805.500	483.384	80.005	19.993	103.840	20.057	4.878	0.476
806.000	483.653	80.005	19.993	103.838	20.059	4.761	0.498
806.500	483.918	80.006	19.993	103.840	20.061	4.601	0.528
807.000	484.185	80.006	19.994	103.840	20.060	4.712	0.534
807.500	484.422	80.005	19.993	103.841	20.064	4.394	0.518
808.000	484.689	80.005	19.993	103.847	20.061	4.613	0.504
808.500	484.942	80.004	19.992	103.853	20.062	4.501	0.512
809.000	485.203	80.005	19.993	103.857	20.065	4.300	0.517
809.500	485.470	80.006	19.993	103.858	20.062	4.511	0.521
810.000	485.698	80.004	19.993	103.857	20.063	4.466	0.511
810.500	485.958	80.004	19.994	103.858	20.064	4.397	0.492
811.000	486.190	80.006	19.992	103.859	20.063	4.423	0.490
811.500	486.436	80.004	19.994	103.861	20.064	4.351	0.485
812.000	486.685	80.005	19.993	103.867	20.064	4.388	0.487
812.500	486.954	80.003	19.993	103.871	20.065	4.300	0.507
813.000	487.207	80.004	19.993	103.866	20.065	4.329	0.519
813.500	487.462	80.004	19.993	103.859	20.064	4.345	0.515
814.000	487.712	80.005	19.991	103.856	20.066	4.216	0.507
814.500	487.987	80.006	19.993	103.853	20.063	4.450	0.515
815.000	488.266	80.004	19.992	103.852	20.066	4.202	0.539
815.500	488.486	80.005	19.993	103.852	20.068	4.056	0.526
816.000	488.730	80.005	19.992	103.857	20.066	4.236	0.481
816.500	488.993	80.004	19.993	103.854	20.067	4.124	0.485
817.000	489.253	80.005	19.993	103.852	20.066	4.263	0.515
817.500	489.507	80.006	19.992	103.851	20.065	4.308	0.519
818.000	489.749	80.004	19.993	103.855	20.067	4.185	0.505
818.500	490.005	80.006	19.993	103.849	20.066	4.229	0.497
819.000	490.291	80.006	19.994	103.848	20.065	4.280	0.520
819.500	490.497	80.005	19.993	103.849	20.066	4.198	0.517
820.000	490.785	80.005	19.992	103.853	20.065	4.284	0.494
820.500	491.007	80.006	19.993	103.853	20.063	4.432	0.502
821.000	491.283	80.004	19.994	103.857	20.066	4.219	0.504
821.500	491.534	80.006	19.992	103.863	20.064	4.356	0.512
822.000	491.776	80.005	19.993	103.860	20.065	4.307	0.510
822.500	492.037	80.007	19.992	103.859	20.068	4.108	0.498
823.000	492.304	80.004	19.995	103.856	20.066	4.212	0.516
823.500	492.562	80.004	19.994	103.853	20.068	4.063	0.526
824.000	492.807	80.005	19.994	103.852	20.066	4.241	0.514
824.500	493.084	80.005	19.993	103.851	20.069	3.989	0.512
825.000	493.357	80.004	19.994	103.850	20.069	4.022	0.536
825.500	493.565	80.006	19.993	103.850	20.070	3.899	0.516
826.000	493.844	80.004	19.993	103.853	20.069	4.038	0.484
826.500	494.103	80.007	19.993	103.852	20.068	4.065	0.512
827.000	494.350	80.005	19.993	103.853	20.069	4.005	0.522
827.500	494.634	80.007	19.993	103.851	20.070	3.903	0.519
828.000	494.862	80.006	19.994	103.853	20.069	4.015	0.522
828.500	495.130	80.005	19.994	103.855	20.067	4.169	0.504
829.000	495.416	80.004	19.992	103.858	20.070	3.956	0.525
829.500	495.678	80.006	19.993	103.865	20.069	3.978	0.551
830.000	495.900	80.006	19.992	103.870	20.072	3.773	0.516
830.500	496.165	80.005	19.994	103.872	20.074	3.664	0.485
831.000	496.434	80.006	19.994	103.872	20.072	3.812	0.511
831.500	496.701	80.006	19.994	103.870	20.071	3.824	0.535
832.000	496.934	80.007	19.994	103.868	20.070	3.896	0.518
832.500	497.221	80.006	19.994	103.868	20.070	3.921	0.510
833.000	497.435	80.006	19.994	103.868	20.072	3.802	0.510
833.500	497.711	80.008	19.994	103.867	20.074	3.618	0.496
834.000	497.970	80.006	19.994	103.869	20.075	3.585	0.513
834.500	498.194	80.007	19.993	103.870	20.073	3.710	0.509
835.000	498.484	80.007	19.993	103.870	20.072	3.780	0.498
835.500	498.728	80.007	19.993	103.871	20.070	3.894	0.524
836.000	498.975	80.007	19.992	103.871	20.071	3.849	0.513
836.500	499.260	80.007	19.993	103.874	20.067	4.128	0.512
837.000	499.509	80.008	19.992	103.873	20.072	3.744	0.533
837.500	499.756	80.006	19.993	103.874	20.069	4.015	0.515
838.000	500.025	80.008	19.992	103.873	20.070	3.902	0.505
838.500	500.275	80.006	19.993	103.871	20.074	3.662	0.517
839.000	500.574	80.006	19.994	103.865	20.071	3.859	0.534
839.500	500.789	80.008	19.993	103.862	20.070	3.956	0.532
840.000	501.051	80.008	19.993	103.859	20.070	3.936	0.496
840.500	501.307	80.006	19.993	103.853	20.070	3.932	0.498
841.000	501.563	80.008	19.993	103.850	20.068	4.057	0.515
841.500	501.820	80.007	19.994	103.853	20.070	3.948	0.513
842.000	502.062	80.007	19.992	103.857	20.071	3.878	0.506
842.500	502.334	80.007	19.993	103.858	20.070	3.952	0.507
843.000	502.573	80.007	19.992	103.865	20.073	3.677	0.512
843.500	502.843	80.007	19.994	103.871	20.066	4.264	0.509
844.000	503.123	80.006	19.996	103.871	20.069	4.036	0.530
844.500	503.409	80.006	19.993	103.872	20.072	3.811	0.558
845.000	503.662	80.006	19.994	103.867	20.073	3.737	0.552
845.500	503.885	80.005	19.993	103.867	20.070	3.919	0.507
846.000	504.136	80.006	19.994	103.866	20.071	3.865	0.475
846.500	504.405	80.005	19.993	103.866	20.071	3.863	0.497
847.000	504.657	80.005	19.994	103.864	20.071	3.828	0.520
847.500	504.938	80.006	19.994	103.865	20.071	3.822	0.527
848.000	505.211	80.005	19.993	103.859	20.071	3.872	0.544
848.500	505.427	80.006	19.994	103.853	20.068	4.059	0.522
849.000	505.684	80.005	19.993	103.852	20.071	3.874	0.481
849.500	505.959	80.006	19.993	103.852	20.070	3.930	0.503
850.000	506.218	80.005	19.992	103.856	20.070	3.897	0.533
850.500	506.475	80.003	19.994	103.863	20.069	4.007	0.525
851.000	506.763	80.005	19.993	103.870	20.070	3.968	0.531
851.500	506.975	80.003	19.993	103.870	20.070	3.907	0.522
852.000	507.219	80.006	19.994	103.867	20.068	4.061	0.478
852.500	507.485	80.005	19.993	103.864	20.071	3.882	0.483
853.000	507.753	80.006	19.994	103.861	20.069	4.026	0.522
853.500	508.041	80.004	19.993	103.861	20.067	4.131	0.545
854.000	508.256	80.005	19.994	103.862	20.072	3.800	0.530
854.500	508.509	80.004	19.993	103.867	20.069	4.008	0.486
855.000	508.757	80.003	19.994	103.870	20.069	3.979	0.485
855.500	509.048	80.005	19.993	103.871	20.067	4.155	0.520
856.000	509.304	80.004	19.994	103.868	20.068	4.094	0.543
856.500	509.557	80.005	19.994	103.863	20.069	3.991	0.528
857.000	509.843	80.004	19.994	103.855	20.069	3.975	0.524
857.500	510.095	80.005	19.994	103.855	20.069	4.001	0.538
858.000	510.343	80.004	19.994	103.856	20.072	3.794	0.519
858.500	510.621	80.004	19.993	103.860	20.070	3.954	0.513
859.000	510.832	80.003	19.994	103.866	20.069	4.016	0.507
859.500	511.114	80.004	19.995	103.874	20.073	3.704	0.491
860.000	511.368	80.004	19.993	103.874	20.070	3.905	0.515
860.500	511.602	80.005	19.994	103.872	20.072	3.768	0.512
861.000	511.895	80.005	19.994	103.869	20.072	3.778	0.507
861.500	512.118	80.005	19.993	103.868	20.072	3.774	0.521
862.000	512.386	80.003	19.994	103.869	20.068	4.108	0.503
862.500	512.667	80.004	19.994	103.869	20.071	3.870	0.520
863.000	512.930	80.004	19.994	103.871	20.067	4.172	0.547
863.500	513.175	80.004	19.993	103.874	20.072	3.790	0.526
864.000	513.434	80.004	19.994	103.875	20.070	3.956	0.506
864.500	513.706	80.004	19.993	103.874	20.070	3.969	0.518
865.000	513.981	80.005	19.994	103.874	20.068	4.049	0.539
865.500	514.246	80.006	19.993	103.875	20.068	4.096	0.543
866.000	514.492	80.004	19.993	103.875	20.070	3.963	0.525
866.500	514.775	80.004	19.994	103.875	20.070	3.911	0.520
867.000	515.033	80.004	19.994	103.876	20.073	3.704	0.535
867.500	515.287	80.004	19.993	103.875	20.070	3.967	0.527
868.000	515.558	80.005	19.994	103.874	20.071	3.825	0.519
868.500	515.851	80.005	19.994	103.873	20.072	3.805	0.544
869.000	516.091	80.004	19.993	103.873	20.071	3.870	0.548
869.500	516.311	80.004	19.993	103.871	20.070	3.895	0.497
870.000	516.597	80.005	19.994	103.871	20.071	3.872	0.483
870.500	516.841	80.005	19.994	103.872	20.071	3.868	0.519
871.000	517.151	80.005	19.993	103.872	20.070	3.956	0.542
871.500	517.387	80.004	19.992	103.872	20.070	3.954	0.550
872.000	517.672	80.005	19.992	103.873	20.072	3.747	0.533
872.500	517.924	80.005	19.993	103.874	20.071	3.880	0.529
873.000	518.182	80.005	19.993	103.875	20.069	3.975	0.524
873.500	518.417	80.005	19.993	103.875	20.068	4.079	0.502
874.000	518.672	80.004	19.994	103.875	20.073	3.710	0.492
874.500	518.983	80.005	19.993	103.875	20.070	3.946	0.527
875.000	519.211	80.003	19.994	103.875	20.069	4.022	0.552
875.500	519.476	80.004	19.994	103.875	20.069	3.973	0.516
876.000	519.735	80.004	19.993	103.875	20.067	4.124	0.509
876.500	519.985	80.004	19.993	103.876	20.069	3.999	0.517
877.000	520.234	80.005	19.993	103.876	20.071	3.889	0.504
877.500	520.550	80.004	19.994	103.877	20.068	4.087	0.533
878.000	520.781	80.003	19.992	103.877	20.068	4.098	0.556
878.500	521.033	80.003	19.993	103.877	20.070	3.901	0.515
879.000	521.306	80.004	19.994	103.877	20.071	3.843	0.504
879.500	521.567	80.005	19.994	103.877	20.069	3.997	0.530
880.000	521.835	80.002	19.993	103.877	20.066	4.210	0.532
880.500	522.113	80.004	19.993	103.877	20.071	3.891	0.537
881.000	522.369	80.002	19.994	103.876	20.069	4.032	0.540
881.500	522.624	80.003	19.994	103.875	20.072	3.757	0.523
882.000	522.894	80.001	19.993	103.874	20.072	3.818	0.518
882.500	523.144	80.003	19.995	103.873	20.070	3.904	0.522
883.000	523.401	80.003	19.993	103.872	20.069	4.001	0.514
883.500	523.654	80.005	19.994	103.873	20.068	4.079	0.509
884.000	523.923	80.002	19.994	103.874	20.065	4.273	0.516
884.500	524.216	80.003	19.994	103.874	20.071	3.843	0.542
885.000	524.456	80.003	19.995	103.874	20.066	4.255	0.547
885.500	524.720	80.002	19.994	103.873	20.069	4.003	0.519
886.000	524.970	80.004	19.994	103.872	20.071	3.862	0.509
886.500	525.220	80.003	19.994	103.872	20.071	3.854	0.507
887.000	525.495	80.004	19.995	103.872	20.073	3.689	0.512
887.500	525.730	80.004	19.994	103.872	20.073	3.696	0.518
888.000	525.987	80.004	19.995	103.872	20.070	3.962	0.501
888.500	526.257	80.004	19.994	103.870	20.071	3.884	0.510
889.000	526.529	80.004	19.994	103.867	20.071	3.827	0.535
889.500	526.773	80.006	19.995	103.866	20.073	3.708	0.529
890.000	527.031	80.005	19.995	103.867	20.069	4.030	0.509
890.500	527.283	80.005	19.995	103.867	20.070	3.960	0.506
891.000	527.564	80.006	19.995	103.869	20.070	3.911	0.521
891.500	527.837	80.006	19.995	103.871	20.071	3.833	0.544
892.000	528.077	80.005	19.993	103.869	20.071	3.835	0.534
892.500	528.383	80.007	19.993	103.864	20.070	3.958	0.529
893.000	528.600	80.006	19.994	103.861	20.072	3.817	0.534
893.500	528.860	80.005	19.994	103.858	20.074	3.669	0.500
894.000	529.145	80.004	19.993	103.857	20.069	4.010	0.511
894.500	529.385	80.005	19.995	103.853	20.070	3.948	0.535
895.000	529.607	80.007	19.994	103.854	20.067	4.124	0.493
895.500	529.889	80.007	19.994	103.857	20.069	4.040	0.483
896.000	530.156	80.007	19.993	103.860	20.069	4.030	0.526
896.500	530.420	80.006	19.993	103.860	20.069	4.011	0.540
897.000	530.676	80.005	19.993	103.867	20.071	3.829	0.525
897.500	530.913	80.006	19.993	103.868	20.069	4.019	0.507
898.000	531.196	80.006	19.992	103.867	20.073	3.718	0.507
898.500	531.435	80.005	19.993	103.867	20.073	3.740	0.521
899.000	531.701	80.005	19.993	103.870	20.071	3.871	0.513
899.500	531.965	80.006	19.992	103.870	20.072	3.771	0.517
900.000	532.241	80.006	19.993	103.871	20.071	3.876	0.535
900.500	532.501	80.006	19.993	103.868	20.072	3.785	0.538
901.000	532.736	80.005	19.992	103.864	20.070	3.945	0.515
901.500	533.009	80.006	19.994	103.861	20.072	3.784	0.502
902.000	533.237	80.003	19.994	103.862	20.073	3.704	0.505
902.500	533.516	80.005	19.994	103.863	20.071	3.861	0.504
903.000	533.821	80.004	19.993	103.866	20.069	4.023	0.546
903.500	534.075	80.005	19.993	103.871	20.074	3.666	0.571
904.000	534.321	80.007	19.995	103.872	20.069	4.005	0.529
904.500	534.582	80.007	19.994	103.872	20.074	3.613	0.503
905.000	534.844	80.007	19.994	103.871	20.073	3.738	0.515
905.500	535.123	80.006	19.994	103.872	20.073	3.738	0.532
906.000	535.403	80.005	19.994	103.872	20.070	3.896	0.550
906.500	535.634	80.004	19.994	103.872	20.070	3.941	0.535
907.000	535.895	80.006	19.993	103.872	20.073	3.693	0.502
907.500	536.218	80.006	19.993	103.866	20.071	3.888	0.538
908.000	536.416	80.005	19.994	103.860	20.070	3.919	0.553
908.500	536.665	80.008	19.994	103.858	20.069	3.997	0.484
909.000	536.897	80.006	19.993	103.856	20.068	4.102	0.464
909.500	537.191	80.006	19.993	103.851	20.069	4.024	0.504
910.000	537.451	80.007	19.993	103.850	20.068	4.079	0.540
910.500	537.689	80.006	19.993	103.854	20.069	4.009	0.526
911.000	537.952	80.005	19.994	103.853	20.067	4.142	0.499
911.500	538.221	80.006	19.994	103.854	20.071	3.867	0.516
912.000	538.466	80.006	19.994	103.858	20.069	4.005	0.523
912.500	538.746	80.006	19.993	103.862	20.068	4.066	0.520
913.000	538.997	80.006	19.994	103.864	20.067	4.152	0.528
913.500	539.279	80.006	19.993	103.860	20.068	4.083	0.532
914.000	539.547	80.006	19.993	103.858	20.069	4.007	0.541
914.500	539.817	80.006	19.993	103.852	20.067	4.129	0.544
915.000	540.051	80.007	19.993	103.851	20.069	4.018	0.521
915.500	540.323	80.008	19.993	103.848	20.068	4.110	0.505
916.000	540.563	80.007	19.994	103.854	20.070	3.917	0.509
916.500	540.825	80.007	19.993	103.854	20.071	3.860	0.507
917.000	541.072	80.007	19.993	103.854	20.070	3.923	0.506
917.500	541.354	80.006	19.994	103.854	20.064	4.399	0.519
918.000	541.583	80.005	19.993	103.857	20.069	4.038	0.520
918.500	541.840	80.007	19.993	103.857	20.067	4.177	0.499
919.000	542.135	80.007	19.993	103.859	20.070	3.912	0.519
919.500	542.346	80.007	19.992	103.864	20.068	4.080	0.529
920.000	542.628	80.006	19.993	103.868	20.071	3.873	0.499
920.500	542.874	80.008	19.993	103.868	20.066	4.261	0.511
921.000	543.164	80.007	19.993	103.869	20.067	4.130	0.532
921.500	543.384	80.007	19.994	103.867	20.067	4.165	0.523
922.000	543.674	80.005	19.994	103.863	20.067	4.182	0.510
922.500	543.910	80.007	19.993	103.858	20.067	4.124	0.518
923.000	544.130	80.008	19.993	103.854	20.070	3.964	0.491
923.500	544.404	80.006	19.994	103.853	20.065	4.299	0.475
924.000	544.633	80.007	19.993	103.856	20.066	4.217	0.499
924.500	544.846	80.007	19.994	103.862	20.065	4.291	0.472
925.000	545.133	80.007	19.993	103.868	20.067	4.122	0.471
925.500	545.397	80.006	19.993	103.873	20.065	4.332	0.525
926.000	545.687	80.006	19.993	103.875	20.067	4.126	0.552
926.500	545.929	80.006	19.993	103.875	20.070	3.948	0.543
927.000	546.182	80.006	19.993	103.874	20.065	4.302	0.514
927.500	546.423	80.005	19.994	103.873	20.065	4.300	0.495
928.000	546.682	80.004	19.993	103.872	20.066	4.214	0.497
928.500	546.906	80.004	19.993	103.865	20.067	4.167	0.491
929.000	547.187	80.004	19.992	103.857	20.067	4.167	0.494
929.500	547.412	80.004	19.992	103.851	20.065	4.294	0.505
930.000	547.678	80.005	19.992	103.845	20.067	4.151	0.499
930.500	547.964	80.005	19.994	103.844	20.067	4.192	0.522
931.000	548.212	80.004	19.994	103.851	20.070	3.969	0.543
931.500	548.477	80.005	19.994	103.859	20.069	4.026	0.523
932.000	548.716	80.004	19.993	103.867	20.068	4.077	0.509
932.500	548.992	80.004	19.993	103.874	20.068	4.077	0.509
933.000	549.228	80.004	19.995	103.875	20.070	3.921	0.514
933.500	549.470	80.004	19.993	103.874	20.070	3.905	0.495
934.000	549.776	80.005	19.992	103.872	20.068	4.106	0.513
934.500	549.992	80.004	19.993	103.872	20.071	3.841	0.535
935.000	550.253	80.004	19.994	103.872	20.069	3.974	0.500
935.500	550.498	80.004	19.993	103.873	20.068	4.083	0.491
936.000	550.738	80.005	19.993	103.874	20.070	3.945	0.495
936.500	551.017	80.005	19.993	103.875	20.069	4.017	0.502
937.000	551.256	80.005	19.994	103.870	20.068	4.063	0.518
937.500	551.525	80.004	19.994	103.864	20.069	3.995	0.513
938.000	551.769	80.005	19.993	103.856	20.067	4.124	0.510
938.500	552.052	80.004	19.994	103.850	20.066	4.210	0.520
939.000	552.275	80.003	19.992	103.849	20.067	4.146	0.516
939.500	552.549	80.006	19.993	103.853	20.070	3.929	0.501
940.000	552.819	80.003	19.994	103.859	20.067	4.167	0.520
940.500	553.047	80.006	19.993	103.866	20.067	4.117	0.521
941.000	553.323	80.004	19.993	103.873	20.066	4.206	0.501
941.500	553.629	80.004	19.992	103.872	20.068	4.108	0.543
942.000	553.869	80.003	19.992	103.872	20.066	4.202	0.564
942.500	554.089	80.003	19.993	103.873	20.067	4.173	0.503
943.000	554.372	80.004	19.993	103.873	20.067	4.124	0.481
943.500	554.631	80.004	19.993	103.873	20.070	3.966	0.522
944.000	554.886	80.004	19.993	103.875	20.066	4.222	0.528
944.500	555.145	80.003	19.993	103.874	20.064	4.362	0.514
945.000	555.414	80.005	19.993	103.867	20.067	4.128	0.521
945.500	555.691	80.004	19.993	103.860	20.067	4.138	0.537
946.000	555.933	80.005	19.993	103.856	20.069	3.997	0.533
946.500	556.199	80.005	19.993	103.854	20.065	4.295	0.513
947.000	556.424	80.006	19.993	103.854	20.067	4.184	0.500
947.500	556.698	80.005	19.994	103.858	20.066	4.202	0.495
948.000	556.960	80.005	19.995	103.864	20.070	3.960	0.517
948.500	557.189	80.005	19.994	103.868	20.066	4.226	0.514
949.000	557.432	80.004	19.994	103.869	20.065	4.294	0.481
949.500	557.696	80.004	19.993	103.866	20.063	4.437	0.489
950.000	557.987	80.004	19.994	103.861	20.065	4.306	0.531
950.500	558.262	80.005	19.993	103.855	20.067	4.171	0.560
951.000	558.493	80.004	19.993	103.853	20.065	4.317	0.536
951.500	558.737	80.005	19.995	103.853	20.066	4.264	0.491
952.000	559.014	80.005	19.993	103.858	20.066	4.253	0.498
952.500	559.275	80.004	19.994	103.865	20.068	4.097	0.530
953.000	559.494	80.004	19.993	103.864	20.068	4.058	0.509
953.500	559.790	80.005	19.994	103.861	20.067	4.167	0.497
954.000	560.013	80.003	19.995	103.861	20.068	4.077	0.517
954.500	560.306	80.004	19.993	103.858	20.068	4.112	0.518
955.000	560.562	80.004	19.993	103.853	20.069	3.991	0.533
955.500	560.804	80.003	19.993	103.858	20.068	4.098	0.524
956.000	561.021	80.004	19.994	103.863	20.067	4.147	0.479
956.500	561.308	80.003	19.994	103.863	20.067	4.124	0.481
957.000	561.521	80.004	19.994	103.866	20.071	3.886	0.502
957.500	561.792	80.003	19.993	103.871	20.067	4.143	0.492
958.000	562.078	80.004	19.993	103.869	20.067	4.163	0.521
958.500	562.290	80.004	19.994	103.865	20.067	4.120	0.527
959.000	562.580	80.004	19.993	103.857	20.069	4.024	0.500
959.500	562.818	80.002	19.994	103.852	20.067	4.130	0.515
960.000	563.079	80.004	19.994	103.853	20.068	4.100	0.514
960.500	563.340	80.003	19.994	103.855	20.067	4.161	0.510
961.000	563.581	80.003	19.994	103.859	20.071	3.878	0.512
961.500	563.808	80.002	19.994	103.866	20.068	4.046	0.485
962.000	564.092	80.004	19.993	103.867	20.066	4.227	0.489
962.500	564.331	80.003	19.995	103.864	20.068	4.089	0.517
963.000	564.570	80.002	19.994	103.863	20.067	4.169	0.501
963.500	564.848	80.002	19.995	103.860	20.069	4.034	0.498
964.000	565.059	80.004	19.995	103.858	20.068	4.050	0.503
964.500	565.312	80.004	19.996	103.862	20.070	3.917	0.476
965.000	565.591	80.003	19.995	103.865	20.068	4.095	0.498
965.500	565.815	80.003	19.996	103.866	20.068	4.081	0.517
966.000	566.094	80.004	19.994	103.869	20.064	4.374	0.503
966.500	566.375	80.003	19.994	103.872	20.066	4.237	0.532
967.000	566.577	80.004	19.993	103.872	20.064	4.356	0.522
967.500	566.889	80.005	19.994	103.872	20.070	3.962	0.498
968.000	567.121	80.003	19.994	103.872	20.066	4.253	0.529
968.500	567.363	80.003	19.995	103.872	20.065	4.323	0.509
969.000	567.640	80.003	19.994	103.872	20.067	4.155	0.496
969.500	567.908	80.004	19.994	103.872	20.067	4.151	0.531
970.000	568.134	80.003	19.994	103.871	20.067	4.180	0.520
970.500	568.384	80.004	19.994	103.870	20.066	4.200	0.486
971.000	568.680	80.005	19.994	103.867	20.067	4.126	0.511
971.500	568.882	80.005	19.993	103.862	20.064	4.366	0.522
972.000	569.171	80.006	19.994	103.862	20.066	4.265	0.495
972.500	569.413	80.006	19.994	103.862	20.065	4.296	0.510
973.000	569.699	80.007	19.994	103.863	20.066	4.226	0.529
973.500	569.940	80.005	19.993	103.866	20.066	4.220	0.527
974.000	570.208	80.005	19.994	103.871	20.064	4.409	0.518
974.500	570.452	80.005	19.994	103.869	20.067	4.166	0.511
975.000	570.720	80.006	19.993	103.864	20.063	4.455	0.513
975.500	570.946	80.007	19.994	103.862	20.064	4.398	0.503
976.000	571.218	80.006	19.993	103.859	20.065	4.294	0.496
976.500	571.495	80.006	19.993	103.858	20.065	4.271	0.524
977.000	571.714	80.005	19.994	103.857	20.067	4.185	0.522
977.500	571.998	80.005	19.994	103.858	20.069	4.032	0.500
978.000	572.206	80.005	19.994	103.858	20.068	4.097	0.498
978.500	572.456	80.004	19.994	103.861	20.072	3.804	0.475
979.000	572.774	80.005	19.995	103.860	20.069	4.005	0.512
979.500	573.027	80.005	19.994	103.865	20.068	4.052	0.569
980.000	573.258	80.005	19.994	103.869	20.067	4.173	0.528
980.500	573.539	80.005	19.994	103.871	20.068	4.079	0.499
981.000	573.775	80.003	19.994	103.869	20.068	4.077	0.515
981.500	574.064	80.004	19.994	103.865	20.064	4.344	0.521
982.000	574.325	80.005	19.993	103.859	20.067	4.120	0.538
982.500	574.587	80.006	19.994	103.852	20.064	4.414	0.537
983.000	574.850	80.005	19.994	103.851	20.069	3.975	0.524
983.500	575.082	80.006	19.994	103.852	20.070	3.956	0.510
984.000	575.355	80.004	19.994	103.851	20.066	4.264	0.500
984.500	575.630	80.004	19.994	103.850	20.066	4.204	0.526
985.000	575.870	80.004	19.996	103.853	20.066	4.215	0.532
985.500	576.124	80.003	19.995	103.848	20.066	4.235	0.505
986.000	576.375	80.003	19.993	103.843	20.068	4.094	0.499
986.500	576.610	80.006	19.994	103.850	20.067	4.192	0.495
987.000	576.885	80.005	19.995	103.854	20.070	3.960	0.498
987.500	577.115	80.005	19.993	103.857	20.064	4.403	0.507
988.000	577.374	80.004	19.994	103.858	20.067	4.118	0.498
988.500	577.653	80.008	19.994	103.857	20.068	4.048	0.514
989.000	577.899	80.005	19.994	103.854	20.068	4.044	0.531
989.500	578.178	80.004	19.995	103.854	20.067	4.120	0.525
990.000	578.397	80.004	19.995	103.852	20.069	4.015	0.511
990.500	578.680	80.004	19.992	103.857	20.071	3.878	0.500
991.000	578.967	80.004	19.993	103.863	20.068	4.106	0.536
991.500	579.243	80.005	19.993	103.865	20.069	4.032	0.567
992.000	579.501	80.004	19.993	103.868	20.070	3.929	0.548
992.500	579.723	80.005	19.992	103.872	20.071	3.893	0.507
993.000	580.002	80.004	19.993	103.873	20.066	4.219	0.491
993.500	580.275	80.005	19.992	103.874	20.069	4.022	0.527
994.000	580.491	80.005	19.993	103.876	20.071	3.831	0.520
994.500	580.755	80.006	19.992	103.876	20.072	3.796	0.485
995.000	581.011	80.005	19.993	103.876	20.065	4.269	0.500
995.500	581.280	80.006	19.993	103.875	20.068	4.054	0.523
996.000	581.555	80.008	19.992	103.872	20.067	4.142	0.534
996.500	581.787	80.007	19.993	103.870	20.069	4.042	0.525
997.000	582.045	80.005	19.992	103.870	20.069	4.013	0.498
997.500	582.305	80.005	19.993	103.871	20.070	3.937	0.504
998.000	582.568	80.007	19.993	103.872	20.070	3.949	0.521
998.500	582.819	80.007	19.992	103.871	20.070	3.904	0.518
999.000	583.043	80.006	19.992	103.864	20.071	3.857	0.494
999.500	583.322	80.006	19.993	103.861	20.068	4.078	0.489
1000.000	583.580	80.007	19.992	103.860	20.069	3.990	0.520
1000.500	583.860	80.007	19.992	103.860	20.069	3.984	0.538
1001.000	584.093	80.007	19.993	103.863	20.072	3.783	0.525
1001.500	584.351	80.006	19.994	103.869	20.073	3.720	0.502
1002.000	584.628	80.006	19.993	103.871	20.071	3.849	0.513
1002.500	584.879	80.006	19.994	103.871	20.072	3.753	0.532
1003.000	585.130	80.008	19.992	103.870	20.070	3.948	0.515
1003.500	585.409	80.007	19.993	103.870	20.073	3.714	0.515
1004.000	585.609	80.005	19.993	103.871	20.072	3.802	0.505
1004.500	585.896	80.006	19.992	103.869	20.070	3.968	0.484
1005.000	586.179	80.008	19.993	103.863	20.069	4.003	0.529
1005.500	586.393	80.007	19.994	103.861	20.068	4.087	0.533
1006.000	586.748	80.006	19.992	103.858	20.069	3.984	0.533
1006.500	586.920	80.005	19.992	103.852	20.067	4.167	0.548
1007.000	587.181	80.005	19.993	103.854	20.065	4.316	0.480
1007.500	587.413	80.004	19.994	103.858	20.067	4.173	0.463
1008.000	587.679	80.005	19.992	103.856	20.067	4.158	0.495
1008.500	587.941	80.005	19.993	103.850	20.067	4.165	0.513
1009.000	588.231	80.006	19.993	103.850	20.066	4.220	0.540
1009.500	588.461	80.004	19.993	103.847	20.066	4.212	0.536
1010.000	588.738	80.005	19.993	103.841	20.065	4.284	0.513
1010.500	588.974	80.004	19.993	103.841	20.067	4.147	0.510
1011.000	589.227	80.004	19.993	103.844	20.067	4.124	0.501
1011.500	589.487	80.004	19.994	103.848	20.066	4.236	0.501
1012.000	589.767	80.004	19.992	103.851	20.068	4.089	0.526
1012.500	589.965	80.005	19.993	103.855	20.068	4.050	0.509
1013.000	590.239	80.004	19.992	103.858	20.065	4.288	0.476
1013.500	590.535	80.003	19.992	103.862	20.064	4.356	0.521
1014.000	590.738	80.004	19.995	103.864	20.066	4.247	0.534
1014.500	591.022	80.005	19.993	103.862	20.069	4.018	0.493
1015.000	591.251	80.002	19.993	103.859	20.067	4.134	0.500
1015.500	591.547	80.004	19.993	103.860	20.068	4.081	0.519
1016.000	591.777	80.005	19.994	103.860	20.070	3.966	0.526
1016.500	592.043	80.004	19.994	103.860	20.070	3.902	0.512
1017.000	592.300	80.005	19.993	103.859	20.065	4.271	0.510
1017.500	592.577	80.004	19.994	103.858	20.070	3.910	0.528
1018.000	592.794	80.005	19.993	103.854	20.068	4.064	0.514
1018.500	593.027	80.005	19.993	103.853	20.066	4.196	0.473
1019.000	593.313	80.004	19.994	103.852	20.068	4.048	0.485
1019.500	593.552	80.003	19.994	103.855	20.069	4.003	0.522
1020.000	593.842	80.004	19.995	103.862	20.067	4.135	0.527
1020.500	594.079	80.004	19.994	103.863	20.069	4.034	0.528
1021.000	594.335	80.005	19.993	103.861	20.067	4.120	0.510
1021.500	594.588	80.006	19.994	103.863	20.068	4.056	0.501
1022.000	594.854	80.004	19.993	103.858	20.069	3.996	0.514
1022.500	595.116	80.005	19.994	103.854	20.070	3.955	0.523
1023.000	595.391	80.002	19.994	103.858	20.069	4.010	0.533
1023.500	595.636	80.004	19.996	103.860	20.070	3.961	0.528
1024.000	595.908	80.005	19.995	103.860	20.066	4.193	0.518
1024.499	596.130	80.005	19.996	103.865	20.070	3.898	0.506
1024.999	596.369	80.005	19.994	103.868	20.068	4.077	0.478
1025.499	596.680	80.004	19.994	103.866	20.069	4.027	0.505
1025.999	596.887	80.004	19.993	103.860	20.070	3.968	0.534
1026.499	597.142	80.004	19.993	103.853	20.068	4.091	0.491
1026.999	597.424	80.002	19.993	103.849	20.068	4.109	0.500
1027.499	597.663	80.003	19.994	103.845	20.069	3.982	0.529
1027.999	597.893	80.007	19.994	103.847	20.069	4.012	0.494
1028.499	598.182	80.005	19.993	103.855	20.070	3.926	0.494
1028.999	598.422	80.004	19.993	103.861	20.071	3.844	0.524
1029.499	598.722	80.004	19.993	103.866	20.069	3.990	0.535
1029.999	598.964	80.004	19.993	103.870	20.064	4.361	0.541
1030.499	599.197	80.005	19.993	103.871	20.070	3.959	0.508
1030.999	599.426	80.006	19.993	103.871	20.065	4.275	0.469
1031.499	599.747	80.006	19.993	103.870	20.067	4.134	0.507
1031.999	599.965	80.003	19.995	103.865	20.064	4.380	0.545
1032.499	600.202	80.004	19.994	103.857	20.068	4.093	0.497
1032.999	600.466	80.007	19.993	103.850	20.066	4.226	0.478
1033.499	600.717	80.003	19.993	103.844	20.068	4.091	0.508
1033.999	600.993	80.004	19.993	103.844	20.064	4.365	0.521
1034.499	601.243	80.006	19.993	103.843	20.065	4.314	0.527
1034.999	601.493	80.005	19.993	103.847	20.066	4.199	0.513
1035.499	601.732	80.004	19.994	103.853	20.070	3.894	0.494
1035.999	602.016	80.005	19.994	103.859	20.067	4.187	0.506
1036.499	602.231	80.004	19.994	103.858	20.068	4.075	0.511
1036.999	602.492	80.006	19.994	103.858	20.069	4.036	0.488
1037.500	602.752	80.003	19.993	103.855	20.070	3.958	0.499
1038.000	602.997	80.006	19.994	103.850	20.070	3.948	0.513
1038.499	603.243	80.003	19.994	103.844	20.069	4.015	0.497
1038.999	603.518	80.006	19.994	103.841	20.067	4.155	0.506
1039.499	603.760	80.003	19.994	103.840	20.067	4.188	0.519
1039.999	604.030	80.005	19.993	103.838	20.062	4.552	0.515
1040.499	604.284	80.004	19.994	103.837	20.068	4.099	0.518
1040.999	604.521	80.004	19.993	103.838	20.071	3.841	0.508
1041.499	604.769	80.005	19.994	103.843	20.068	4.052	0.488
1041.999	605.027	80.002	19.994	103.850	20.069	4.021	0.495
1042.499	605.253	80.005	19.994	103.856	20.069	3.972	0.495
1042.999	605.493	80.005	19.995	103.857	20.067	4.187	0.475
1043.499	605.800	80.005	19.994	103.856	20.067	4.171	0.507
1043.999	606.041	80.004	19.994	103.850	20.069	4.007	0.548
1044.499	606.288	80.004	19.995	103.848	20.068	4.099	0.518
1044.999	606.531	80.004	19.994	103.845	20.069	4.013	0.489
1045.499	606.785	80.003	19.994	103.846	20.069	4.007	0.494
1045.999	607.042	80.004	19.996	103.852	20.069	4.022	0.504
1046.499	607.322	80.003	19.994	103.858	20.067	4.118	0.524
1046.999	607.530	80.002	19.995	103.859	20.067	4.167	0.512
1047.499	607.812	80.003	19.994	103.861	20.067	4.135	0.489
1047.999	608.090	80.004	19.994	103.864	20.064	4.374	0.525
1048.499	608.320	80.004	19.995	103.864	20.068	4.063	0.534
1048.999	608.589	80.004	19.994	103.860	20.064	4.389	0.504
1049.499	608.848	80.003	19.994	103.860	20.067	4.145	0.514
1050.000	609.118	80.003	19.995	103.862	20.065	4.301	0.528
1050.500	609.407	80.000	19.994	103.862	20.064	4.362	0.544
1050.999	609.636	80.005	19.994	103.860	20.067	4.190	0.539
1051.499	609.888	80.005	19.994	103.862	20.067	4.145	0.499
1051.999	610.119	80.004	19.994	103.858	20.066	4.237	0.482
1052.499	610.385	80.005	19.994	103.858	20.066	4.245	0.491
1052.999	610.638	80.002	19.993	103.860	20.063	4.466	0.508
1053.499	610.883	80.004	19.994	103.861	20.064	4.394	0.508
1053.999	611.125	80.004	19.993	103.858	20.068	4.113	0.493
1054.500	611.403	80.005	19.994	103.860	20.064	4.382	0.504
1055.000	611.655	80.005	19.995	103.863	20.068	4.093	0.525
1055.499	611.917	80.005	19.994	103.864	20.067	4.167	0.522
1055.999	612.126	80.005	19.994	103.867	20.066	4.210	0.492
1056.499	612.397	80.007	19.994	103.871	20.067	4.159	0.475
1056.999	612.656	80.005	19.994	103.873	20.066	4.228	0.505
1057.499	612.919	80.005	19.994	103.873	20.069	4.017	0.527
1057.999	613.155	80.007	19.995	103.872	20.067	4.136	0.511
1058.499	613.400	80.006	19.994	103.869	20.069	4.019	0.490
1058.999	613.689	80.006	19.994	103.867	20.069	4.029	0.507
1059.499	613.958	80.006	19.994	103.867	20.068	4.077	0.546
1059.999	614.216	80.007	19.994	103.867	20.069	4.017	0.543
1060.499	614.459	80.008	19.994	103.867	20.067	4.126	0.514
1060.999	614.706	80.005	19.993	103.869	20.068	4.106	0.495
1061.499	614.968	80.006	19.993	103.870	20.065	4.330	0.499
1061.999	615.206	80.005	19.993	103.869	20.071	3.860	0.504
1062.499	615.461	80.006	19.994	103.863	20.072	3.810	0.497
1062.999	615.729	80.003	19.995	103.862	20.067	4.132	0.508
1063.499	615.953	80.007	19.993	103.860	20.071	3.863	0.507
1063.999	616.218	80.005	19.994	103.856	20.065	4.296	0.490
1064.499	616.479	80.007	19.994	103.854	20.068	4.111	0.508
1064.999	616.711	80.004	19.993	103.854	20.069	3.999	0.509
1065.499	616.956	80.006	19.994	103.850	20.067	4.128	0.485
1065.999	617.205	80.005	19.994	103.849	20.065	4.272	0.486
1066.499	617.483	80.006	19.994	103.853	20.068	4.112	0.511
1066.999	617.748	80.004	19.994	103.857	20.066	4.213	0.535
1067.500	617.970	80.006	19.994	103.855	20.065	4.288	0.515
1068.000	618.243	80.008	19.995	103.856	20.064	4.374	0.490
1068.499	618.505	80.003	19.994	103.855	20.068	4.099	0.515
1068.999	618.738	80.004	19.994	103.849	20.067	4.177	0.515
1069.499	619.029	80.002	19.994	103.846	20.067	4.165	0.510
1069.999	619.260	80.006	19.994	103.850	20.067	4.190	0.523
1070.499	619.552	80.004	19.993	103.854	20.070	3.921	0.522
1070.999	619.767	80.003	19.994	103.859	20.068	4.107	0.515
1071.499	620.012	80.004	19.995	103.866	20.067	4.148	0.484
1071.999	620.268	80.005	19.993	103.870	20.065	4.285	0.480
1072.499	620.532	80.005	19.994	103.874	20.069	4.021	0.511
1072.999	620.805	80.006	19.994	103.873	20.067	4.179	0.528
1073.499	621.051	80.004	19.995	103.867	20.065	4.333	0.528
1073.999	621.309	80.003	19.995	103.864	20.067	4.159	0.511
1074.499	621.566	80.005	19.994	103.858	20.067	4.133	0.510
1074.999	621.817	80.004	19.995	103.856	20.067	4.190	0.511
1075.500	622.055	80.005	19.995	103.857	20.066	4.215	0.499
1076.000	622.292	80.004	19.994	103.863	20.068	4.065	0.483
1076.499	622.598	80.005	19.994	103.865	20.066	4.235	0.509
1076.999	622.839	80.007	19.995	103.872	20.065	4.338	0.544
1077.499	623.070	80.003	19.995	103.874	20.065	4.325	0.510
1078.000	623.349	80.005	19.994	103.873	20.066	4.218	0.492
1078.500	623.606	80.006	19.995	103.868	20.063	4.477	0.523
1078.999	623.836	80.006	19.995	103.862	20.065	4.313	0.511
1079.499	624.085	80.007	19.994	103.860	20.066	4.266	0.483
1079.999	624.355	80.006	19.994	103.859	20.064	4.401	0.499
1080.499	624.584	80.006	19.994	103.860	20.066	4.224	0.509
1080.999	624.845	80.006	19.994	103.860	20.064	4.380	0.495
1081.499	625.127	80.007	19.995	103.860	20.066	4.202	0.517
1081.999	625.362	80.006	19.993	103.856	20.065	4.284	0.530
1082.499	625.629	80.008	19.994	103.849	20.064	4.354	0.510
1082.999	625.886	80.006	19.992	103.846	20.066	4.200	0.513
1083.499	626.137	80.006	19.994	103.849	20.069	3.985	0.516
1083.999	626.346	80.008	19.995	103.854	20.067	4.128	0.484
1084.499	626.634	80.009	19.994	103.864	20.068	4.107	0.478
1084.999	626.918	80.007	19.995	103.871	20.063	4.450	0.534
1085.499	627.166	80.006	19.994	103.874	20.064	4.366	0.552
1085.999	627.435	80.007	19.993	103.875	20.066	4.219	0.524
1086.499	627.674	80.007	19.994	103.875	20.069	4.010	0.512
1086.999	627.917	80.008	19.993	103.870	20.065	4.284	0.495
1087.499	628.187	80.005	19.994	103.868	20.067	4.130	0.498
1087.999	628.425	80.008	19.993	103.868	20.067	4.145	0.510
1088.499	628.696	80.006	19.993	103.868	20.064	4.409	0.509
1088.999	628.957	80.007	19.993	103.865	20.064	4.352	0.521
1089.499	629.222	80.006	19.993	103.863	20.067	4.157	0.529
1089.999	629.452	80.008	19.993	103.863	20.063	4.427	0.511
1090.499	629.720	80.008	19.993	103.864	20.067	4.183	0.496
1090.999	629.976	80.004	19.992	103.861	20.068	4.083	0.511
1091.499	630.201	80.005	19.994	103.861	20.064	4.380	0.503
1091.999	630.493	80.007	19.993	103.864	20.065	4.311	0.499
1092.499	630.746	80.006	19.994	103.864	20.061	4.641	0.531
1092.999	631.038	80.004	19.993	103.865	20.071	3.849	0.545
1093.499	631.236	80.007	19.993	103.867	20.065	4.298	0.518
1093.999	631.507	80.001	19.994	103.871	20.060	4.688	0.479
1094.499	631.761	80.003	19.993	103.865	20.069	4.030	0.496
1094.999	632.086	80.004	19.993	103.860	20.061	4.571	0.552
1095.499	632.321	80.005	19.994	103.859	20.068	4.044	0.569
1095.999	632.579	80.006	19.993	103.861	20.067	4.141	0.527
1096.499	632.770	80.006	19.994	103.860	20.068	4.065	0.471
1096.999	633.092	80.009	19.993	103.867	20.065	4.319	0.481
1097.499	633.333	80.005	19.993	103.873	20.065	4.269	0.538
1097.999	633.624	80.004	19.993	103.873	20.068	4.105	0.547
1098.499	633.880	80.007	19.993	103.871	20.065	4.290	0.539
1098.999	634.156	80.006	19.994	103.869	20.074	3.664	0.540
1099.499	634.340	79.996	19.994	103.869	20.063	4.421	0.496
1099.999	634.664	80.003	19.994	103.862	20.063	4.435	0.484
1100.499	634.902	80.005	19.994	103.861	20.053	5.194	0.535
1100.999	635.114	80.004	19.994	103.861	20.054	5.143	0.506
1101.499	635.462	80.008	19.995	103.862	20.056	4.974	0.505
1101.999	635.687	80.004	19.994	103.860	20.062	4.519	0.567
1102.499	635.914	80.006	19.993	103.865	20.069	4.006	0.513
1102.999	636.234	80.005	19.994	103.863	20.081	3.075	0.499
1103.499	636.511	80.004	19.994	103.857	20.067	4.119	0.571
1103.999	636.650	80.005	19.993	103.853	20.054	5.099	0.507
1104.499	636.987	80.005	19.993	103.856	20.071	3.857	0.446
1104.999	637.233	80.004	19.994	103.856	20.067	4.183	0.529
1105.499	637.521	80.005	19.993	103.860	20.070	3.941	0.558
1105.999	637.771	80.004	19.992	103.867	20.066	4.201	0.536
1106.499	637.921	79.996	19.995	103.871	20.071	3.836	0.469
1106.999	638.246	80.006	19.993	103.871	20.063	4.474	0.438
1107.499	638.555	80.006	19.994	103.868	20.063	4.443	0.554
1108.000	638.718	80.005	19.994	103.862	20.065	4.294	0.553
1108.500	639.134	80.005	19.994	103.857	20.059	4.743	0.526
1108.999	639.255	80.006	19.993	103.852	20.063	4.456	0.558
1109.499	639.512	80.004	19.994	103.852	20.065	4.339	0.457
1109.999	639.964	80.003	19.994	103.854	20.061	4.577	0.543
1110.499	640.120	80.005	19.993	103.854	20.065	4.309	0.659
1110.999	640.232	80.004	19.994	103.856	20.063	4.444	0.438
1111.499	640.522	80.003	19.994	103.860	20.064	4.370	0.335
1111.999	641.048	80.002	19.994	103.855	20.069	4.033	0.609
1112.499	641.176	80.005	19.994	103.850	20.065	4.330	0.735
1112.999	641.323	80.003	19.993	103.848	20.065	4.283	0.464
1113.499	641.656	79.999	19.993	103.846	20.066	4.218	0.377
1113.999	641.417	80.006	19.993	103.840	20.067	4.189	0.287
1114.499	641.375	80.006	19.994	103.843	20.063	4.470	-0.093
1114.999	641.649	80.005	19.994	103.849	20.066	4.242	-0.025
1115.499	641.875	80.005	19.994	103.850	20.066	4.244	0.366
1115.999	642.245	80.002	19.992	103.853	20.067	4.191	0.548
1116.499	642.790	80.001	19.995	103.852	20.065	4.282	0.756
1116.999	644.067	80.007	19.992	103.847	20.065	4.276	1.368
1117.500	644.183	80.023	19.991	103.844	20.067	4.147	1.607
1118.001	643.351	80.010	19.994	103.845	20.065	4.315	0.339
1118.500	644.460	80.004	19.992	103.845	20.068	4.083	-0.219
1118.999	644.296	80.002	19.993	103.852	20.066	4.198	0.611
1119.499	644.617	80.003	19.993	103.857	20.065	4.321	0.551
1119.999	645.037	80.004	19.993	103.857	20.065	4.327	0.448
1120.499	645.231	80.005	19.994	103.862	20.064	4.392	0.678
1120.999	645.688	80.005	19.994	103.867	20.066	4.207	0.633
1121.499	645.426	80.005	19.993	103.861	20.065	4.314	0.423
1121.999	645.847	79.996	19.993	103.858	20.066	4.210	0.177
1122.499	646.139	80.006	19.993	103.854	20.066	4.233	0.436
1122.999	646.446	80.000	19.993	103.848	20.064	4.393	0.656
1123.499	646.711	80.003	19.994	103.845	20.067	4.120	0.586
1123.999	646.952	80.011	19.992	103.843	20.067	4.136	0.539
1124.499	647.120	80.001	19.993	103.844	20.065	4.290	0.457
1124.999	647.509	80.003	19.993	103.844	20.068	4.089	0.483
1125.499	647.612	80.002	19.994	103.842	20.065	4.284	0.525
1125.999	648.077	80.003	19.994	103.839	20.068	4.082	0.530
1126.499	648.230	80.006	19.993	103.843	20.065	4.300	0.592
1126.999	648.487	80.003	19.994	103.848	20.068	4.081	0.514
1127.499	648.707	80.006	19.993	103.856	20.069	3.982	0.443
1127.999	648.972	80.006	19.993	103.862	20.068	4.087	0.481
1128.499	649.151	80.002	19.993	103.866	20.068	4.054	0.465
1128.999	649.532	80.002	19.994	103.870	20.068	4.079	0.502
1129.499	649.682	80.004	19.994	103.869	20.068	4.083	0.545
1130.000	650.061	80.003	19.993	103.866	20.067	4.119	0.530
1130.500	650.232	80.003	19.994	103.861	20.066	4.208	0.539
1130.999	650.516	80.000	19.993	103.857	20.065	4.327	0.502
1131.499	650.751	80.007	19.993	103.849	20.064	4.386	0.487
1131.999	650.900	79.998	19.994	103.845	20.055	5.059	0.452
1132.499	651.256	80.007	19.993	103.849	20.060	4.685	0.445
1132.999	651.500	80.001	19.994	103.855	20.066	4.257	0.553
1133.499	651.719	80.006	19.994	103.862	20.070	3.951	0.532
1133.999	651.930	80.006	19.995	103.866	20.067	4.124	0.446
1134.499	652.242	80.002	19.994	103.865	20.064	4.370	0.476
1134.999	652.416	80.004	19.994	103.858	20.067	4.161	0.504
1135.499	652.667	80.006	19.993	103.854	20.067	4.134	0.456
1135.999	652.936	80.004	19.994	103.853	20.067	4.119	0.473
1136.499	653.193	80.003	19.994	103.851	20.066	4.238	0.523
1136.999	653.426	80.004	19.994	103.850	20.070	3.963	0.508
1137.499	653.743	80.005	19.995	103.854	20.066	4.242	0.519
1137.999	653.895	80.006	19.993	103.856	20.068	4.109	0.510
1138.499	654.253	80.004	19.993	103.854	20.067	4.138	0.490
1138.999	654.454	80.005	19.993	103.857	20.068	4.048	0.534
1139.499	654.627	80.005	19.993	103.863	20.069	3.996	0.466
1139.999	654.958	80.006	19.993	103.860	20.065	4.310	0.439
1140.499	655.112	80.005	19.994	103.854	20.067	4.146	0.495
1140.999	655.517	80.004	19.994	103.849	20.066	4.257	0.522
1141.499	655.697	80.009	19.993	103.850	20.067	4.129	0.572
1141.999	655.811	80.003	19.994	103.852	20.068	4.068	0.439
1142.499	656.188	80.005	19.994	103.850	20.064	4.390	0.393
1142.999	656.478	80.006	19.993	103.850	20.067	4.179	0.579
1143.499	656.595	80.005	19.993	103.849	20.067	4.165	0.537
1143.999	657.001	80.006	19.994	103.846	20.066	4.257	0.465
1144.499	657.114	80.003	19.994	103.846	20.068	4.099	0.521
1144.999	657.231	80.004	19.995	103.852	20.066	4.253	0.375
1145.499	657.714	80.006	19.993	103.854	20.067	4.117	0.415
1145.999	657.760	80.006	19.993	103.854	20.067	4.169	0.565
1146.499	657.908	80.007	19.993	103.852	20.067	4.122	0.361
1146.999	658.477	80.005	19.994	103.845	20.069	3.976	0.455
1147.499	658.748	80.003	19.994	103.838	20.069	3.970	0.778
1147.999	658.759	80.005	19.994	103.835	20.066	4.263	0.561
1148.499	659.086	80.003	19.994	103.841	20.066	4.195	0.310
1148.999	659.311	80.006	19.994	103.847	20.066	4.244	0.445
1149.499	659.623	80.006	19.994	103.848	20.066	4.228	0.545
1149.999	659.809	80.003	19.994	103.849	20.067	4.140	0.517
1150.499	660.060	80.005	19.993	103.853	20.065	4.310	0.468
1151.000	660.284	80.004	19.994	103.849	20.064	4.368	0.456
1151.500	660.516	80.004	19.994	103.845	20.067	4.151	0.465
1151.999	660.835	80.004	19.994	103.843	20.067	4.182	0.504
1152.499	661.035	80.004	19.995	103.842	20.069	4.028	0.535
1152.999	661.234	80.004	19.994	103.841	20.071	3.892	0.459
1153.499	661.518	80.005	19.994	103.846	20.070	3.952	0.441
1153.999	661.781	80.006	19.994	103.852	20.068	4.113	0.515
1154.500	661.990	80.005	19.993	103.859	20.070	3.914	0.509
1155.001	662.254	80.005	19.993	103.864	20.068	4.105	0.472
1155.500	662.466	80.004	19.993	103.862	20.066	4.244	0.474
1155.999	662.767	80.006	19.993	103.855	20.070	3.920	0.495
1156.499	662.981	80.004	19.994	103.851	20.068	4.052	0.514
1156.999	663.213	80.007	19.993	103.850	20.068	4.054	0.481
1157.499	663.479	80.004	19.994	103.852	20.066	4.202	0.472
1157.999	663.725	80.005	19.993	103.856	20.068	4.089	0.504
1158.499	663.993	80.003	19.995	103.856	20.069	4.000	0.513
1158.999	664.208	80.006	19.994	103.854	20.066	4.203	0.499
1159.499	664.455	80.006	19.994	103.847	20.069	4.031	0.473
1159.999	664.688	80.006	19.994	103.842	20.069	3.989	0.471
1160.499	664.972	80.006	19.994	103.838	20.069	4.008	0.499
1160.999	665.205	80.006	19.994	103.845	20.066	4.193	0.517
1161.499	665.436	80.007	19.995	103.850	20.067	4.174	0.490
1161.999	665.648	80.006	19.994	103.858	20.069	4.012	0.453
1162.499	665.912	80.005	19.994	103.862	20.071	3.891	0.459
1162.999	666.171	80.004	19.995	103.868	20.069	4.012	0.500
1163.499	666.400	80.006	19.994	103.865	20.069	3.984	0.506
1163.999	666.651	80.005	19.996	103.861	20.067	4.150	0.484
1164.499	666.903	80.007	19.995	103.859	20.067	4.134	0.492
1164.999	667.138	80.006	19.994	103.853	20.067	4.128	0.495
1165.499	667.456	80.006	19.994	103.847	20.066	4.253	0.520
1165.999	667.681	80.008	19.994	103.846	20.068	4.102	0.548
1166.499	667.939	80.006	19.995	103.846	20.066	4.245	0.513
1166.999	668.185	80.007	19.996	103.845	20.068	4.099	0.494
1167.499	668.423	80.005	19.994	103.853	20.065	4.290	0.494
1167.999	668.671	80.008	19.996	103.859	20.066	4.212	0.485
1168.499	668.902	80.005	19.995	103.858	20.066	4.251	0.482
1168.999	669.118	80.003	19.995	103.854	20.064	4.356	0.463
1169.499	669.399	80.005	19.995	103.847	20.064	4.385	0.472
1170.000	669.660	80.005	19.995	103.840	20.064	4.401	0.519
1170.500	669.913	80.006	19.994	103.832	20.065	4.319	0.528
1171.000	670.153	80.004	19.994	103.828	20.065	4.307	0.504
1171.500	670.416	80.006	19.994	103.832	20.063	4.450	0.498
1171.999	670.621	80.005	19.994	103.837	20.064	4.366	0.486
1172.499	670.833	80.004	19.994	103.838	20.068	4.051	0.443
1172.999	671.141	80.007	19.994	103.840	20.067	4.139	0.468
1173.499	671.434	80.005	19.994	103.842	20.066	4.218	0.560
1173.999	671.656	80.005	19.994	103.841	20.067	4.161	0.558
1174.499	671.909	80.005	19.994	103.842	20.068	4.093	0.495
1174.999	672.164	80.003	19.995	103.849	20.067	4.169	0.492
1175.499	672.419	80.003	19.994	103.855	20.065	4.324	0.509
1175.999	672.645	80.004	19.993	103.860	20.068	4.113	0.495
1176.499	672.901	80.005	19.994	103.861	20.067	4.185	0.481
1176.999	673.165	80.002	19.994	103.865	20.069	4.023	0.501
1177.499	673.413	80.004	19.993	103.864	20.069	4.007	0.516
1177.999	673.686	80.004	19.992	103.864	20.068	4.089	0.517
1178.499	673.934	80.006	19.994	103.866	20.067	4.149	0.521
1178.999	674.170	80.003	19.994	103.870	20.066	4.216	0.502
1179.499	674.442	80.003	19.993	103.868	20.069	3.993	0.497
1179.999	674.680	80.007	19.994	103.868	20.067	4.118	0.509
1180.499	674.967	80.003	19.993	103.868	20.068	4.046	0.517
1180.999	675.227	80.006	19.993	103.865	20.067	4.132	0.536
1181.499	675.464	80.004	19.994	103.866	20.070	3.956	0.522
1181.999	675.715	80.006	19.993	103.869	20.072	3.773	0.493
1182.499	675.994	80.002	19.994	103.871	20.071	3.884	0.509
1182.999	676.232	80.005	19.993	103.872	20.070	3.929	0.523
1183.499	676.500	80.004	19.993	103.874	20.070	3.966	0.512
1183.999	676.740	80.005	19.992	103.872	20.068	4.075	0.507
1184.499	676.977	80.002	19.993	103.866	20.070	3.900	0.493
1184.999	677.239	80.003	19.994	103.862	20.070	3.935	0.488
1185.499	677.508	79.993	19.994	103.859	20.068	4.062	0.515
1185.999	677.784	80.005	19.993	103.854	20.074	3.611	0.538
1186.499	678.037	80.005	19.993	103.849	20.071	3.861	0.537
1186.999	678.292	80.003	19.994	103.849	20.072	3.786	0.518
1187.499	678.585	80.005	19.993	103.849	20.071	3.888	0.528
1187.999	678.812	80.004	19.994	103.850	20.070	3.927	0.534
1188.499	679.064	80.008	19.993	103.856	20.070	3.954	0.499
1188.999	679.306	80.004	19.994	103.861	20.072	3.815	0.486
1189.499	679.553	80.004	19.993	103.862	20.070	3.956	0.492
1189.999	679.821	80.003	19.995	103.867	20.068	4.079	0.503
1190.499	680.078	80.007	19.993	103.864	20.068	4.067	0.521
1190.999	680.321	80.002	19.994	103.858	20.064	4.393	0.513
1191.499	680.606	80.004	19.993	103.858	20.068	4.067	0.514
1191.999	680.831	80.006	19.994	103.861	20.068	4.108	0.519
1192.499	681.100	80.007	19.993	103.857	20.067	4.155	0.502
1192.999	681.335	80.004	19.993	103.857	20.066	4.239	0.499
1193.500	681.652	80.004	19.994	103.860	20.068	4.065	0.528
1194.000	681.916	80.003	19.994	103.862	20.067	4.134	0.567
1194.499	682.121	80.006	19.994	103.859	20.069	4.032	0.525
1194.999	682.382	80.004	19.993	103.858	20.068	4.104	0.468
1195.499	682.657	80.006	19.992	103.857	20.067	4.161	0.501
1195.999	682.915	80.003	19.993	103.857	20.066	4.221	0.535
1196.499	683.134	80.004	19.994	103.851	20.067	4.145	0.505
1196.999	683.423	80.006	19.993	103.851	20.066	4.200	0.493
1197.499	683.694	80.003	19.993	103.854	20.064	4.364	0.534
1197.999	683.931	80.004	19.991	103.861	20.069	4.019	0.534
1198.499	684.183	80.003	19.993	103.865	20.068	4.093	0.498
1198.999	684.464	80.006	19.994	103.868	20.068	4.052	0.511
1199.499	684.740	80.005	19.993	103.871	20.068	4.051	0.545
1199.999	684.970	80.004	19.994	103.871	20.068	4.060	0.532
1200.499	685.239	80.003	19.993	103.869	20.068	4.078	0.503
1200.999	685.490	80.005	19.992	103.866	20.064	4.398	0.509
1201.499	685.800	80.004	19.994	103.867	20.067	4.134	0.540
1201.999	686.082	80.004	19.994	103.868	20.067	4.144	0.577
1202.499	686.308	80.002	19.993	103.869	20.069	4.036	0.550
1202.999	686.529	80.005	19.994	103.871	20.067	4.142	0.478
1203.499	686.751	80.001	19.994	103.869	20.068	4.113	0.445
1203.999	687.024	80.004	19.995	103.868	20.067	4.171	0.469
1204.499	687.299	80.002	19.995	103.868	20.068	4.075	0.521
1204.999	687.563	80.004	19.994	103.868	20.067	4.191	0.544
1205.499	687.783	80.003	19.994	103.868	20.067	4.118	0.511
1205.999	688.063	80.002	19.993	103.873	20.070	3.910	0.492
1206.499	688.343	80.004	19.994	103.873	20.068	4.111	0.530
1206.999	688.534	80.005	19.994	103.870	20.069	3.992	0.515
1207.499	688.824	80.004	19.993	103.866	20.067	4.174	0.476
1207.999	689.142	80.006	19.994	103.862	20.068	4.090	0.545
1208.499	689.346	80.004	19.994	103.855	20.069	4.037	0.566
1208.999	689.617	80.005	19.993	103.851	20.070	3.893	0.499
1209.499	689.849	80.005	19.993	103.849	20.066	4.236	0.489
1209.999	690.150	80.006	19.993	103.846	20.068	4.078	0.518
1210.499	690.392	80.006	19.994	103.843	20.068	4.092	0.538
1210.999	690.677	80.006	19.993	103.842	20.065	4.279	0.535
1211.499	690.958	80.004	19.994	103.845	20.068	4.090	0.547
1211.999	691.179	80.004	19.993	103.850	20.069	4.027	0.534
1212.499	691.387	80.003	19.993	103.855	20.069	3.975	0.465
1212.999	691.717	80.004	19.994	103.857	20.067	4.166	0.484
1213.499	691.888	80.006	19.994	103.860	20.070	3.902	0.520
1213.999	692.194	80.004	19.993	103.858	20.069	4.010	0.489
1214.499	692.621	80.007	19.993	103.855	20.068	4.107	0.605
1214.999	692.549	80.000	19.994	103.856	20.070	3.912	0.544
1215.499	692.922	80.004	19.994	103.856	20.071	3.853	0.329
1215.999	693.173	80.004	19.994	103.858	20.068	4.105	0.462
1216.499	693.547	80.007	19.993	103.855	20.066	4.214	0.624
1216.999	693.734	80.004	19.994	103.850	20.071	3.857	0.593
1217.499	694.024	80.007	19.993	103.845	20.070	3.914	0.519
1217.999	694.287	80.007	19.993	103.843	20.067	4.123	0.515
1218.499	694.498	80.006	19.993	103.839	20.069	3.984	0.514
1218.999	694.777	80.009	19.993	103.838	20.068	4.076	0.483
1219.499	695.019	80.005	19.993	103.837	20.069	4.019	0.506
1219.999	695.303	80.006	19.994	103.836	20.067	4.167	0.523
1220.499	695.525	80.006	19.993	103.840	20.067	4.167	0.516
1220.999	695.799	80.007	19.993	103.842	20.066	4.240	0.501
1221.499	696.060	80.006	19.993	103.843	20.064	4.372	0.516
1222.000	696.311	80.004	19.993	103.844	20.067	4.167	0.524
1222.500	696.566	80.008	19.992	103.845	20.069	4.040	0.509
1222.999	696.844	80.008	19.993	103.842	20.065	4.306	0.519
1223.499	697.072	80.007	19.994	103.839	20.070	3.960	0.520
1223.999	697.368	80.007	19.994	103.838	20.069	4.023	0.515
1224.499	697.622	80.007	19.993	103.840	20.071	3.830	0.537
1224.999	697.870	80.005	19.994	103.839	20.068	4.113	0.526
1225.499	698.112	80.006	19.994	103.838	20.069	3.990	0.496
1225.999	698.360	80.008	19.993	103.839	20.069	3.992	0.490
1226.500	698.630	80.009	19.993	103.844	20.067	4.185	0.504
1227.000	698.902	80.008	19.993	103.846	20.066	4.246	0.530
1227.499	699.175	80.006	19.993	103.845	20.068	4.103	0.544
1227.999	699.409	80.007	19.993	103.844	20.065	4.298	0.526
1228.499	699.672	80.005	19.993	103.846	20.068	4.099	0.502
1228.999	699.897	80.006	19.994	103.845	20.067	4.124	0.493
1229.499	700.182	80.006	19.993	103.847	20.071	3.892	0.500
1230.000	700.431	80.007	19.994	103.852	20.067	4.164	0.522
1230.500	700.679	80.007	19.995	103.857	20.069	3.978	0.515
1230.999	700.955	80.007	19.994	103.859	20.068	4.058	0.511
1231.499	701.202	80.006	19.994	103.856	20.068	4.058	0.524
1231.999	701.437	80.007	19.993	103.850	20.070	3.912	0.503
1232.499	701.699	80.006	19.994	103.847	20.069	4.011	0.489
1232.999	701.923	80.005	19.995	103.850	20.070	3.906	0.491
1233.499	702.217	80.006	19.994	103.852	20.065	4.337	0.502
1233.999	702.463	80.004	19.995	103.852	20.068	4.107	0.529
1234.499	702.713	80.004	19.994	103.853	20.067	4.168	0.518
1234.999	702.983	80.005	19.994	103.852	20.063	4.435	0.508
1235.500	703.234	80.007	19.994	103.848	20.066	4.208	0.520
1236.000	703.491	80.007	19.994	103.844	20.069	4.038	0.514
1236.499	703.736	80.005	19.994	103.843	20.063	4.456	0.505
1236.999	703.993	80.007	19.993	103.843	20.064	4.385	0.502
1237.499	704.289	80.005	19.993	103.841	20.063	4.432	0.527
1237.999	704.569	80.005	19.994	103.842	20.068	4.101	0.565
1238.499	704.778	80.005	19.994	103.844	20.066	4.261	0.532
1238.999	705.046	80.005	19.993	103.848	20.067	4.181	0.483
1239.500	705.342	80.007	19.992	103.851	20.068	4.076	0.520
1240.000	705.575	80.006	19.993	103.853	20.070	3.947	0.547
1240.499	705.803	80.007	19.993	103.849	20.065	4.310	0.495
1240.999	706.082	80.008	19.993	103.844	20.065	4.316	0.484
1241.499	706.295	80.009	19.994	103.846	20.068	4.115	0.499
1241.999	706.589	80.006	19.994	103.847	20.066	4.209	0.500
1242.499	706.829	80.006	19.994	103.850	20.066	4.225	0.521
1242.999	707.091	80.006	19.994	103.853	20.069	3.994	0.518
1243.499	707.342	80.010	19.993	103.854	20.067	4.158	0.507
1243.999	707.625	80.007	19.993	103.849	20.066	4.242	0.524
1244.499	707.812	80.009	19.993	103.846	20.064	4.404	0.502
1244.999	708.138	80.008	19.993	103.842	20.067	4.168	0.491
1245.499	708.394	80.008	19.993	103.840	20.064	4.359	0.547
1245.999	708.661	80.007	19.993	103.844	20.066	4.211	0.553
1246.499	708.899	80.006	19.993	103.848	20.065	4.291	0.514
1246.999	709.154	80.007	19.993	103.854	20.067	4.178	0.499
1247.499	709.404	80.012	19.993	103.861	20.065	4.314	0.499
1247.999	709.675	80.011	19.993	103.867	20.066	4.201	0.513
1248.499	709.922	80.005	19.993	103.862	20.066	4.254	0.519
1248.999	710.168	80.007	19.993	103.859	20.065	4.289	0.505
1249.499	710.384	80.009	19.992	103.854	20.068	4.074	0.478
1250.000	710.692	80.009	19.995	103.849	20.068	4.111	0.493
1250.500	710.899	80.006	19.993	103.844	20.065	4.291	0.520
1250.999	711.185	80.009	19.992	103.843	20.068	4.084	0.505
1251.499	711.424	80.003	19.993	103.841	20.062	4.517	0.509
1251.999	711.670	80.009	19.994	103.839	20.064	4.372	0.505
1252.499	711.907	80.011	19.993	103.833	20.066	4.257	0.484
1252.999	712.188	80.007	19.995	103.833	20.063	4.427	0.500
1253.499	712.442	80.009	19.993	103.833	20.064	4.394	0.527
1253.999	712.690	80.029	19.993	103.834	20.063	4.437	0.518
1254.499	712.951	80.002	19.993	103.836	20.066	4.263	0.505
1254.999	713.144	79.998	19.994	103.839	20.064	4.414	0.482
1255.499	713.443	80.010	19.993	103.837	20.063	4.484	0.473
1255.999	713.719	80.005	19.995	103.840	20.068	4.085	0.533
1256.499	713.939	80.000	19.994	103.840	20.065	4.329	0.536
1256.999	714.249	80.007	19.994	103.839	20.063	4.446	0.513
1257.499	714.508	80.003	19.994	103.840	20.060	4.663	0.549
1257.999	714.734	80.012	19.994	103.840	20.061	4.608	0.527
1258.499	715.001	79.991	19.996	103.839	20.063	4.419	0.489
1258.999	715.230	80.000	19.995	103.836	20.062	4.503	0.495
1259.499	715.516	80.008	19.994	103.834	20.063	4.484	0.506
1259.999	715.741	79.998	19.994	103.832	20.065	4.281	0.513
1260.499	716.014	80.008	19.994	103.832	20.062	4.517	0.504
1260.999	716.287	80.002	19.995	103.837	20.063	4.435	0.522
1261.499	716.564	80.004	19.994	103.841	20.065	4.324	0.548
1261.999	716.765	80.010	19.995	103.845	20.063	4.429	0.514
1262.499	717.039	79.998	19.995	103.850	20.064	4.386	0.476
1262.999	717.296	80.004	19.993	103.850	20.064	4.408	0.503
1263.499	717.537	80.003	19.996	103.845	20.067	4.127	0.515
1263.999	717.810	80.009	19.996	103.841	20.063	4.460	0.506
1264.499	718.040	80.002	19.996	103.839	20.065	4.271	0.508
1265.000	718.309	80.004	19.997	103.834	20.064	4.386	0.501
1265.500	718.560	79.990	19.998	103.840	20.064	4.373	0.510
1265.999	718.792	79.997	19.993	103.840	20.068	4.076	0.502
1266.499	719.062	80.004	19.996	103.848	20.067	4.187	0.493
1266.999	719.317	80.002	19.993	103.852	20.069	4.019	0.513
1267.499	719.555	80.004	19.994	103.859	20.064	4.409	0.509
1267.999	719.794	79.983	19.995	103.862	20.070	3.950	0.485
1268.499	720.049	80.010	19.994	103.863	20.066	4.249	0.485
1268.999	720.314	79.982	19.996	103.859	20.068	4.081	0.507
1269.499	720.564	79.995	19.994	103.854	20.067	4.161	0.517
1269.999	720.849	80.018	19.994	103.854	20.065	4.288	0.525
1270.499	721.048	80.012	19.994	103.847	20.068	4.082	0.510
1270.999	721.337	79.997	19.994	103.845	20.067	4.178	0.486
1271.499	721.575	79.998	19.995	103.842	20.068	4.086	0.508
1271.999	721.786	80.000	19.994	103.842	20.065	4.269	0.488
1272.499	722.080	80.011	19.992	103.836	20.068	4.113	0.477
1272.999	722.317	80.009	19.992	103.838	20.067	4.160	0.518
1273.500	722.537	80.003	19.994	103.840	20.068	4.097	0.494
1274.000	722.859	79.997	19.996	103.844	20.067	4.134	0.499
1274.499	723.094	80.004	19.994	103.844	20.068	4.075	0.550
1274.999	723.374	79.996	19.993	103.846	20.067	4.128	0.536
1275.499	723.581	80.005	19.994	103.846	20.068	4.112	0.501
1275.999	723.825	80.009	19.993	103.843	20.069	3.991	0.469
1276.499	724.067	80.004	19.994	103.840	20.069	3.989	0.468
1276.999	724.384	80.011	19.993	103.840	20.070	3.964	0.523
1277.499	724.586	80.004	19.992	103.841	20.070	3.917	0.539
1277.999	724.846	80.006	19.994	103.845	20.071	3.822	0.490
1278.499	725.110	80.003	19.993	103.852	20.070	3.943	0.493
1278.999	725.369	80.007	19.992	103.858	20.071	3.828	0.523
1279.499	725.595	80.000	19.993	103.863	20.068	4.107	0.504
1279.999	725.870	80.006	19.994	103.859	20.070	3.943	0.493
1280.499	726.119	80.005	19.995	103.858	20.068	4.097	0.512
1280.999	726.364	80.006	19.995	103.851	20.068	4.116	0.509
1281.499	726.618	80.006	19.995	103.845	20.070	3.962	0.496
1281.999	726.896	80.006	19.994	103.841	20.065	4.327	0.516
1282.499	727.142	80.005	19.993	103.840	20.068	4.074	0.528
1282.999	727.422	80.004	19.994	103.839	20.069	4.038	0.525
1283.499	727.671	80.005	19.994	103.845	20.071	3.862	0.527
1283.999	727.916	80.006	19.994	103.852	20.068	4.073	0.511
1284.499	728.156	80.006	19.993	103.857	20.069	4.032	0.490
1284.999	728.448	80.004	19.995	103.860	20.069	3.985	0.509
1285.499	728.706	80.002	19.994	103.861	20.069	3.989	0.541
1285.999	728.981	80.001	19.997	103.860	20.069	4.026	0.542
1286.499	729.212	80.002	19.993	103.858	20.068	4.077	0.520
1286.999	729.467	80.004	19.995	103.860	20.065	4.315	0.496
1287.499	729.714	80.006	19.995	103.863	20.070	3.939	0.493
1287.999	729.961	80.002	19.993	103.866	20.072	3.796	0.498
1288.499	730.213	80.004	19.993	103.861	20.069	3.982	0.497
1288.999	730.492	80.005	19.993	103.858	20.067	4.190	0.515
1289.499	730.726	80.002	19.994	103.857	20.065	4.274	0.522
1289.999	731.007	80.005	19.994	103.857	20.067	4.134	0.514
1290.499	731.289	80.006	19.994	103.855	20.066	4.218	0.539
1290.999	731.575	80.005	19.995	103.861	20.067	4.187	0.565
1291.499	731.787	80.004	19.994	103.864	20.066	4.222	0.533
1291.999	732.052	80.006	19.994	103.860	20.065	4.304	0.488
1292.499	732.279	79.997	19.993	103.857	20.070	3.948	0.484
1292.999	732.581	80.005	19.994	103.855	20.065	4.297	0.510
1293.499	732.806	80.001	19.995	103.853	20.066	4.245	0.528
1293.999	733.089	80.004	19.993	103.856	20.068	4.085	0.518
1294.499	733.322	80.003	19.994	103.863	20.069	4.042	0.512
1294.999	733.597	80.003	19.993	103.865	20.068	4.113	0.512
1295.499	733.840	80.004	19.992	103.867	20.068	4.062	0.513
1296.000	734.102	79.989	19.994	103.871	20.070	3.921	0.511
1296.500	734.364	80.004	19.993	103.870	20.068	4.078	0.514
1296.999	734.625	80.004	19.991	103.866	20.067	4.138	0.523
1297.499	734.865	80.008	19.993	103.863	20.070	3.953	0.512
1297.999	735.133	80.008	19.994	103.862	20.069	4.031	0.505
1298.499	735.342	80.006	19.994	103.858	20.071	3.865	0.493
1298.999	735.616	80.008	19.993	103.859	20.071	3.843	0.480
1299.499	735.907	80.007	19.993	103.862	20.068	4.062	0.524
1299.999	736.144	80.004	19.995	103.866	20.072	3.814	0.546
1300.500	736.400	80.010	19.994	103.864	20.073	3.681	0.510
1301.001	736.644	79.997	19.994	103.859	20.069	4.017	0.497
1301.500	736.907	80.020	19.992	103.852	20.071	3.835	0.504
1301.999	737.153	80.010	19.993	103.852	20.071	3.888	0.508
1302.499	737.403	80.002	19.994	103.851	20.068	4.078	0.503
1302.999	737.648	80.010	19.994	103.857	20.069	4.033	0.495
1303.499	737.897	80.005	19.994	103.863	20.066	4.228	0.494
1303.999	738.151	80.000	19.994	103.869	20.069	4.023	0.499
1304.499	738.428	80.010	19.992	103.865	20.071	3.853	0.517
1304.999	738.674	80.007	19.994	103.862	20.069	4.019	0.527
1305.499	738.959	80.010	19.991	103.860	20.071	3.837	0.527
1305.999	739.182	80.009	19.994	103.854	20.070	3.943	0.519
1306.500	739.428	80.006	19.995	103.853	20.074	3.650	0.488
1307.000	739.715	80.002	19.993	103.851	20.072	3.783	0.501
1307.499	739.964	80.009	19.992	103.850	20.073	3.681	0.534
1307.999	740.231	80.010	19.991	103.848	20.069	4.033	0.526
1308.499	740.450	80.020	19.992	103.849	20.071	3.836	0.501
1308.999	740.773	80.022	19.991	103.847	20.070	3.939	0.514
1309.499	741.020	80.004	19.995	103.847	20.069	3.988	0.556
1309.999	741.277	80.014	19.993	103.847	20.070	3.953	0.537
1310.499	741.496	80.003	19.995	103.851	20.072	3.771	0.490
1310.999	741.741	80.000	19.994	103.854	20.068	4.103	0.470
1311.499	742.032	80.008	19.994	103.856	20.068	4.091	0.500
1311.999	742.281	79.998	19.994	103.860	20.070	3.959	0.538
1312.499	742.544	80.008	19.994	103.859	20.068	4.060	0.526
1312.999	742.786	80.001	19.992	103.852	20.066	4.193	0.508
1313.499	743.039	79.994	19.995	103.848	20.069	3.976	0.500
1313.999	743.284	80.006	19.993	103.840	20.068	4.080	0.497
1314.499	743.571	80.018	19.991	103.836	20.067	4.138	0.515
