Sample ID:	C:\MCC\MCC Cal\Test\XPS_Foam_Board_MCC_30K_min_220120_R2.txt
Sample Weight (mg):	4.72
Heating Rate (C/s):	0.5
Combustor Temp (C):	900
N2 Flow Rate (cc/min):	80
O2 Flow Rate (cc/min):	20
Calibration File:	C:\MCC\MCC Cal\Coeff1 JN10440_30_210304.txt.txt
T Correction Coefficients:	0	1.024463	0
Time Shift (s):	14
*
Time (s)	Temperature (C)	N2 flow rate (cc/min)	O2 flow rate (cc/min)	Flow Rate (cc/min)	Oxygen (%)	HRR (W/g)	Heating rate (C/s)
0.000	115.240	80.005	19.993	103.801	20.066	-0.384	-0.030
0.501	115.233	80.006	19.994	103.796	20.064	-0.192	-0.014
1.000	115.261	80.007	19.993	103.795	20.063	-0.122	0.008
1.500	115.273	80.007	19.992	103.797	20.066	-0.344	0.030
2.000	115.255	80.006	19.994	103.801	20.065	-0.295	0.017
2.500	115.261	80.007	19.993	103.803	20.060	0.041	-0.009
3.000	115.271	80.006	19.993	103.803	20.063	-0.154	0.002
3.500	115.229	80.005	19.994	103.805	20.061	-0.015	-0.008
4.000	115.281	80.004	19.993	103.810	20.064	-0.216	-0.011
4.500	115.282	80.006	19.994	103.806	20.065	-0.265	0.031
5.000	115.255	80.006	19.992	103.809	20.065	-0.316	0.014
5.500	115.289	80.005	19.992	103.812	20.062	-0.096	-0.009
6.000	115.280	80.004	19.993	103.812	20.066	-0.361	0.016
6.500	115.280	80.004	19.993	103.807	20.062	-0.079	0.008
7.002	115.255	80.006	19.993	103.805	20.063	-0.166	-0.017
7.501	115.276	80.006	19.992	103.803	20.068	-0.471	-0.015
8.000	115.299	80.002	19.996	103.803	20.067	-0.439	0.020
8.500	115.272	80.004	19.997	103.802	20.070	-0.621	0.020
9.000	115.262	80.003	19.995	103.801	20.068	-0.510	-0.021
9.500	115.255	80.006	19.995	103.796	20.069	-0.546	-0.027
10.000	115.246	80.005	19.996	103.796	20.066	-0.382	-0.017
10.500	115.234	80.006	19.994	103.805	20.067	-0.420	-0.018
11.000	115.245	80.004	19.994	103.811	20.063	-0.186	-0.011
11.500	115.248	80.003	19.995	103.809	20.064	-0.226	0.006
12.000	115.226	80.002	19.994	103.813	20.061	-0.049	-0.003
12.500	115.236	80.003	19.994	103.812	20.063	-0.121	-0.015
13.000	115.232	80.001	19.993	103.801	20.062	-0.077	-0.003
13.500	115.223	80.004	19.993	103.802	20.059	0.094	-0.004
14.000	115.246	80.005	19.994	103.812	20.061	-0.034	0.000
14.500	115.246	80.002	19.994	103.822	20.061	-0.038	0.018
15.000	115.258	80.004	19.994	103.837	20.056	0.328	0.018
15.500	115.222	80.003	19.993	103.855	20.057	0.283	-0.006
16.000	115.283	80.002	19.994	103.864	20.057	0.284	0.000
16.500	115.254	80.002	19.993	103.872	20.057	0.279	0.029
17.000	115.313	80.003	19.993	103.884	20.056	0.330	0.031
17.500	115.296	80.004	19.994	103.893	20.051	0.652	0.036
18.000	115.313	80.000	19.994	103.896	20.055	0.414	0.021
18.500	115.347	80.003	19.994	103.908	20.050	0.770	0.025
19.000	115.334	80.002	19.994	103.918	20.049	0.821	0.036
19.500	115.328	80.003	19.994	103.926	20.046	1.045	0.001
20.000	115.334	80.005	19.993	103.939	20.047	0.951	-0.009
20.500	115.350	80.000	19.995	103.932	20.043	1.215	0.011
21.000	115.408	80.001	19.995	103.919	20.045	1.074	0.048
21.500	115.417	80.003	19.994	103.913	20.041	1.383	0.071
22.000	115.453	80.001	19.994	103.908	20.040	1.437	0.056
22.500	115.452	80.002	19.995	103.899	20.040	1.418	0.040
23.000	115.545	80.003	19.996	103.918	20.040	1.396	0.063
23.500	115.557	80.005	19.993	103.960	20.038	1.575	0.098
24.000	115.571	80.002	19.994	103.988	20.037	1.607	0.066
24.500	115.584	80.005	19.994	104.009	20.036	1.684	0.027
25.000	115.638	80.003	19.995	104.022	20.035	1.750	0.047
25.500	115.686	80.002	19.993	104.026	20.039	1.503	0.085
26.000	115.689	80.004	19.994	104.006	20.037	1.656	0.076
26.500	115.764	80.005	19.993	103.991	20.037	1.650	0.064
27.000	115.776	80.003	19.993	103.978	20.035	1.754	0.083
27.500	115.841	80.004	19.994	103.974	20.034	1.865	0.082
28.000	115.865	80.003	19.994	103.974	20.036	1.714	0.083
28.500	115.930	80.005	19.994	103.977	20.034	1.872	0.089
29.000	115.987	80.004	19.994	103.984	20.035	1.759	0.105
29.500	116.068	80.005	19.994	103.987	20.033	1.903	0.130
30.000	116.098	80.003	19.995	103.985	20.035	1.741	0.124
30.500	116.170	80.004	19.994	103.983	20.031	2.044	0.106
31.000	116.198	80.000	19.993	103.983	20.031	2.052	0.101
31.500	116.286	80.004	19.995	103.981	20.033	1.918	0.108
32.000	116.328	80.004	19.993	103.984	20.032	2.009	0.123
32.500	116.380	80.004	19.994	103.990	20.033	1.916	0.112
33.000	116.453	80.002	19.995	103.991	20.035	1.766	0.110
33.500	116.499	80.003	19.994	103.991	20.030	2.101	0.122
34.000	116.580	80.002	19.994	103.992	20.033	1.937	0.123
34.500	116.674	80.004	19.992	103.988	20.030	2.084	0.151
35.000	116.724	80.003	19.993	103.987	20.029	2.195	0.159
35.500	116.799	80.002	19.994	103.989	20.032	1.956	0.135
36.000	116.855	80.005	19.992	103.992	20.031	2.039	0.129
36.500	116.939	80.005	19.993	103.992	20.030	2.135	0.136
37.000	117.005	80.005	19.993	103.996	20.028	2.223	0.144
37.500	117.074	80.004	19.993	103.997	20.027	2.287	0.142
38.000	117.200	80.004	19.992	103.995	20.029	2.178	0.165
38.500	117.233	80.002	19.994	103.997	20.030	2.146	0.177
39.000	117.370	80.004	19.993	103.997	20.029	2.161	0.165
39.500	117.419	80.003	19.994	103.997	20.029	2.165	0.178
40.000	117.514	80.003	19.993	104.000	20.028	2.248	0.165
40.500	117.637	80.001	19.994	104.008	20.027	2.320	0.181
41.000	117.695	80.004	19.994	104.011	20.027	2.329	0.200
41.500	117.788	80.003	19.993	104.017	20.030	2.121	0.166
42.000	117.883	80.002	19.993	104.023	20.028	2.276	0.170
42.500	117.997	80.002	19.994	104.028	20.029	2.212	0.199
43.000	118.074	80.004	19.993	104.028	20.026	2.381	0.200
43.500	118.216	80.004	19.994	104.027	20.027	2.302	0.205
44.000	118.271	80.006	19.994	104.028	20.029	2.195	0.209
44.500	118.335	80.003	19.995	104.029	20.026	2.378	0.158
45.000	118.464	80.004	19.994	104.028	20.028	2.233	0.156
45.500	118.600	80.006	19.994	104.027	20.030	2.135	0.229
46.000	118.692	80.003	19.993	104.027	20.026	2.370	0.246
46.500	118.812	80.007	19.994	104.027	20.025	2.470	0.220
47.000	118.952	80.002	19.993	104.023	20.024	2.557	0.236
47.500	119.031	80.003	19.994	104.023	20.024	2.510	0.239
48.000	119.147	80.003	19.993	104.023	20.024	2.546	0.207
48.500	119.251	80.003	19.994	104.023	20.026	2.378	0.208
49.000	119.379	80.004	19.994	104.024	20.025	2.491	0.226
49.500	119.482	80.005	19.994	104.027	20.027	2.333	0.232
50.000	119.569	80.007	19.993	104.028	20.026	2.394	0.211
50.500	119.705	80.005	19.993	104.029	20.025	2.450	0.207
51.000	119.833	80.008	19.993	104.030	20.028	2.224	0.244
51.500	119.957	80.004	19.995	104.029	20.029	2.196	0.258
52.000	120.069	80.006	19.993	104.025	20.026	2.392	0.244
52.500	120.170	80.008	19.994	104.017	20.024	2.537	0.225
53.000	120.358	80.006	19.993	104.011	20.027	2.330	0.251
53.500	120.458	80.007	19.993	104.007	20.027	2.343	0.288
54.000	120.605	80.003	19.993	104.007	20.028	2.269	0.267
54.500	120.714	80.002	19.994	104.011	20.029	2.197	0.252
55.000	120.852	80.007	19.995	104.016	20.024	2.510	0.252
55.500	120.979	80.006	19.994	104.019	20.026	2.392	0.256
56.000	121.080	80.004	19.994	104.019	20.024	2.539	0.246
56.500	121.243	80.005	19.993	104.018	20.023	2.608	0.246
57.000	121.413	80.006	19.993	104.019	20.024	2.516	0.299
57.501	121.507	80.007	19.994	104.021	20.024	2.546	0.299
58.001	121.683	80.004	19.994	104.022	20.023	2.576	0.267
58.500	121.798	80.006	19.994	104.022	20.025	2.469	0.281
59.000	121.947	80.009	19.993	104.022	20.026	2.382	0.277
59.500	122.077	80.004	19.993	104.025	20.026	2.407	0.271
60.000	122.230	79.998	19.995	104.033	20.023	2.594	0.281
60.500	122.355	80.002	19.993	104.042	20.027	2.349	0.280
61.000	122.464	80.003	19.994	104.053	20.028	2.222	0.256
61.500	122.665	80.007	19.994	104.060	20.023	2.588	0.272
62.000	122.769	80.005	19.994	104.060	20.023	2.586	0.308
62.500	122.944	80.003	19.994	104.055	20.022	2.665	0.292
63.000	123.080	80.006	19.994	104.056	20.029	2.215	0.295
63.500	123.248	80.006	19.993	104.054	20.024	2.514	0.307
64.000	123.368	80.006	19.992	104.056	20.023	2.571	0.296
64.500	123.547	80.008	19.993	104.055	20.023	2.565	0.294
65.000	123.660	80.006	19.995	104.052	20.024	2.508	0.296
65.500	123.820	80.005	19.993	104.048	20.027	2.339	0.283
66.000	124.033	80.006	19.993	104.051	20.025	2.486	0.323
66.500	124.127	80.006	19.993	104.046	20.024	2.546	0.340
67.000	124.309	80.005	19.993	104.044	20.025	2.452	0.291
67.500	124.438	80.006	19.995	104.044	20.022	2.643	0.293
68.000	124.676	80.006	19.994	104.042	20.023	2.584	0.339
68.500	124.781	80.006	19.993	104.039	20.023	2.597	0.355
69.000	124.944	80.006	19.993	104.040	20.024	2.496	0.305
69.500	125.155	80.007	19.992	104.044	20.022	2.663	0.321
70.000	125.298	80.006	19.993	104.051	20.022	2.665	0.364
70.500	125.474	80.002	19.995	104.056	20.023	2.628	0.336
71.000	125.621	80.011	19.990	104.058	20.022	2.675	0.321
71.500	125.756	80.006	19.993	104.063	20.021	2.746	0.303
72.000	125.961	80.008	19.994	104.065	20.023	2.631	0.311
72.500	126.087	80.006	19.993	104.064	20.021	2.708	0.335
73.000	126.291	80.005	19.992	104.061	20.023	2.631	0.330
73.500	126.461	80.007	19.993	104.056	20.020	2.795	0.352
74.000	126.631	80.006	19.994	104.056	20.022	2.654	0.357
74.500	126.826	80.004	19.994	104.054	20.023	2.582	0.353
75.000	126.956	80.007	19.993	104.052	20.024	2.516	0.345
75.500	127.180	80.004	19.993	104.050	20.023	2.614	0.339
76.000	127.334	80.007	19.992	104.048	20.020	2.784	0.366
76.500	127.535	80.006	19.993	104.045	20.021	2.735	0.366
77.000	127.740	80.008	19.993	104.049	20.021	2.708	0.380
77.500	127.931	80.005	19.994	104.052	20.021	2.731	0.401
78.000	128.063	80.007	19.992	104.058	20.021	2.752	0.360
78.500	128.263	80.006	19.993	104.064	20.021	2.742	0.328
79.000	128.418	80.006	19.993	104.064	20.022	2.697	0.343
79.500	128.662	80.003	19.994	104.066	20.022	2.674	0.377
80.000	128.846	80.008	19.992	104.065	20.024	2.529	0.413
80.500	129.027	80.008	19.992	104.064	20.020	2.829	0.396
81.000	129.212	80.004	19.993	104.062	20.019	2.874	0.365
81.500	129.432	80.009	19.992	104.061	20.020	2.780	0.385
82.000	129.589	80.003	19.993	104.058	20.020	2.837	0.391
82.500	129.797	80.012	19.992	104.053	20.022	2.646	0.371
83.000	129.961	80.007	19.992	104.052	20.021	2.763	0.368
83.500	130.189	80.008	19.994	104.051	20.023	2.609	0.382
84.000	130.389	80.005	19.993	104.052	20.021	2.758	0.410
84.500	130.532	80.004	19.993	104.053	20.022	2.673	0.385
85.000	130.739	80.005	19.993	104.056	20.019	2.871	0.346
85.501	130.968	80.003	19.993	104.052	20.020	2.778	0.393
86.001	131.182	80.006	19.995	104.050	20.022	2.667	0.440
86.500	131.340	80.003	19.994	104.049	20.022	2.672	0.408
87.000	131.539	80.002	19.994	104.049	20.019	2.882	0.364
87.500	131.699	80.004	19.995	104.050	20.021	2.757	0.357
88.000	131.924	80.003	19.993	104.050	20.022	2.686	0.372
88.500	132.173	80.001	19.994	104.048	20.018	2.950	0.430
89.000	132.345	80.001	19.997	104.051	20.017	3.023	0.448
89.500	132.516	80.003	19.993	104.051	20.020	2.780	0.382
90.000	132.738	80.003	19.992	104.050	20.019	2.876	0.368
90.500	132.935	80.004	19.995	104.056	20.021	2.761	0.406
91.000	133.146	80.006	19.993	104.058	20.018	2.933	0.413
91.500	133.312	80.000	19.990	104.057	20.026	2.424	0.392
92.000	133.483	80.004	19.995	104.054	20.021	2.723	0.357
92.500	133.736	80.003	19.993	104.054	20.021	2.733	0.381
93.000	133.921	80.003	19.994	104.055	20.021	2.705	0.431
93.500	134.179	80.004	19.994	104.060	20.020	2.818	0.441
94.000	134.356	80.005	19.992	104.063	20.020	2.790	0.439
94.500	134.597	80.003	19.995	104.068	20.021	2.718	0.427
95.000	134.775	80.001	19.991	104.071	20.019	2.841	0.419
95.500	134.990	79.999	19.999	104.070	20.018	2.933	0.406
96.000	135.212	80.003	19.991	104.062	20.021	2.703	0.415
96.500	135.401	80.005	19.997	104.058	20.020	2.780	0.424
97.000	135.652	80.002	19.991	104.053	20.021	2.716	0.426
97.500	135.851	80.003	19.995	104.051	20.021	2.722	0.446
98.000	136.043	80.002	19.998	104.051	20.021	2.722	0.421
98.500	136.270	80.006	19.994	104.054	20.025	2.473	0.405
99.000	136.450	79.995	19.992	104.056	20.021	2.748	0.413
99.500	136.704	80.006	19.994	104.059	20.020	2.801	0.420
100.000	136.922	80.007	19.995	104.062	20.021	2.735	0.453
100.500	137.106	80.001	19.993	104.064	20.020	2.774	0.437
101.000	137.308	80.005	19.992	104.067	20.023	2.605	0.394
101.500	137.502	80.002	19.995	104.061	20.022	2.652	0.391
102.000	137.776	80.007	19.994	104.059	20.023	2.569	0.432
102.500	137.974	79.999	20.001	104.058	20.022	2.657	0.470
103.000	138.171	80.004	19.996	104.055	20.024	2.554	0.434
103.500	138.364	80.001	19.995	104.056	20.020	2.812	0.392
104.000	138.591	80.006	19.993	104.062	20.022	2.650	0.405
104.500	138.819	80.004	19.996	104.064	20.024	2.520	0.437
105.000	139.021	80.002	19.992	104.062	20.024	2.516	0.442
105.500	139.264	80.005	19.994	104.066	20.020	2.823	0.437
106.000	139.473	80.005	19.994	104.066	20.020	2.787	0.449
106.500	139.700	80.007	19.992	104.067	20.022	2.636	0.445
107.000	139.961	80.007	19.990	104.067	20.022	2.676	0.462
107.500	140.141	80.000	19.996	104.067	20.021	2.740	0.464
108.000	140.334	80.000	19.998	104.067	20.018	2.925	0.407
108.500	140.640	80.000	19.994	104.063	20.022	2.667	0.436
109.000	140.830	80.005	19.993	104.057	20.024	2.520	0.498
109.500	141.054	80.002	19.994	104.054	20.020	2.827	0.455
110.000	141.273	80.002	19.995	104.051	20.024	2.520	0.428
110.500	141.499	80.005	19.994	104.046	20.018	2.918	0.444
111.000	141.726	80.000	19.998	104.044	20.021	2.727	0.449
111.500	141.980	80.003	19.991	104.047	20.021	2.759	0.467
112.000	142.190	80.002	19.998	104.050	20.021	2.750	0.472
112.500	142.387	80.007	19.997	104.049	20.022	2.686	0.435
113.000	142.636	80.002	19.993	104.052	20.023	2.616	0.427
113.500	142.865	80.007	19.994	104.052	20.024	2.556	0.462
114.000	143.070	80.007	19.992	104.048	20.021	2.758	0.455
114.500	143.257	80.003	19.995	104.043	20.021	2.741	0.413
115.000	143.551	80.003	19.999	104.046	20.025	2.477	0.436
115.500	143.752	80.003	19.993	104.041	20.023	2.595	0.488
116.000	144.027	80.007	19.994	104.039	20.023	2.603	0.486
116.500	144.220	80.010	19.995	104.040	20.024	2.521	0.473
117.000	144.505	80.000	19.997	104.042	20.019	2.847	0.473
117.500	144.684	79.999	19.994	104.038	20.019	2.902	0.471
118.000	144.918	80.005	19.994	104.042	20.022	2.655	0.438
118.500	145.199	80.004	19.995	104.047	20.026	2.424	0.464
119.000	145.400	80.004	19.995	104.049	20.027	2.335	0.499
119.500	145.658	80.006	19.994	104.045	20.022	2.669	0.471
120.000	145.833	80.002	19.996	104.045	20.021	2.718	0.446
120.500	146.093	80.003	19.995	104.046	20.023	2.622	0.434
121.000	146.349	79.999	19.997	104.048	20.023	2.623	0.475
121.500	146.597	80.011	19.994	104.051	20.026	2.410	0.510
122.000	146.809	80.002	19.995	104.052	20.022	2.648	0.482
122.501	147.037	80.014	19.993	104.050	20.016	3.066	0.450
123.001	147.266	80.004	19.994	104.051	20.020	2.793	0.448
123.501	147.495	80.010	19.993	104.047	20.024	2.497	0.457
124.000	147.743	80.013	19.991	104.048	20.020	2.770	0.468
124.500	147.966	80.004	19.993	104.054	20.024	2.535	0.475
125.000	148.162	80.000	19.995	104.063	20.022	2.646	0.445
125.500	148.456	79.998	19.993	104.058	20.024	2.497	0.454
126.000	148.665	79.999	19.995	104.057	20.023	2.618	0.496
126.500	148.927	80.011	19.992	104.049	20.022	2.646	0.487
127.000	149.136	79.999	19.995	104.042	20.023	2.563	0.471
127.500	149.387	79.998	19.994	104.032	20.023	2.567	0.465
128.000	149.653	80.013	19.993	104.037	20.025	2.452	0.489
128.500	149.915	79.997	19.995	104.041	20.021	2.710	0.523
129.000	150.114	80.005	19.995	104.047	20.023	2.616	0.494
129.500	150.347	80.004	19.995	104.049	20.024	2.535	0.446
130.000	150.604	80.004	19.995	104.054	20.023	2.563	0.462
130.500	150.830	80.004	19.995	104.056	20.023	2.595	0.486
131.000	151.053	79.999	19.995	104.052	20.025	2.440	0.466
131.500	151.289	80.000	19.994	104.047	20.026	2.423	0.454
132.000	151.543	80.010	19.993	104.045	20.028	2.265	0.474
132.500	151.778	80.009	19.993	104.042	20.025	2.448	0.489
133.000	152.007	80.013	19.995	104.038	20.023	2.578	0.477
133.500	152.230	80.000	19.995	104.041	20.021	2.706	0.458
134.000	152.488	80.002	19.995	104.040	20.027	2.318	0.467
134.500	152.722	80.010	19.988	104.040	20.024	2.524	0.487
135.000	152.992	80.004	19.994	104.046	20.020	2.825	0.498
135.500	153.208	80.007	19.995	104.049	20.022	2.652	0.495
136.000	153.466	80.010	19.993	104.044	20.023	2.627	0.480
136.500	153.658	80.008	19.991	104.046	20.018	2.919	0.462
137.000	153.912	80.003	19.993	104.046	20.019	2.878	0.448
137.500	154.150	80.009	19.995	104.039	20.021	2.712	0.469
138.000	154.395	80.006	19.993	104.042	20.020	2.804	0.487
138.500	154.632	80.004	19.995	104.049	20.021	2.721	0.483
139.000	154.896	80.004	19.993	104.053	20.019	2.840	0.492
139.500	155.129	80.005	19.993	104.056	20.023	2.578	0.499
140.000	155.378	80.001	19.995	104.056	20.025	2.452	0.489
140.500	155.600	79.998	19.996	104.048	20.022	2.663	0.476
141.000	155.860	80.010	19.995	104.041	20.027	2.329	0.476
141.500	156.119	80.001	19.997	104.036	20.023	2.627	0.501
142.000	156.354	80.004	19.994	104.033	20.023	2.631	0.507
142.500	156.609	80.004	19.994	104.037	20.023	2.618	0.492
143.000	156.798	80.002	19.996	104.042	20.026	2.378	0.467
143.500	157.086	79.996	19.994	104.046	20.024	2.505	0.460
144.000	157.313	80.003	19.994	104.046	20.029	2.203	0.496
144.500	157.595	80.014	19.991	104.052	20.027	2.352	0.512
145.000	157.826	80.006	19.991	104.052	20.023	2.631	0.511
145.500	158.065	80.005	19.993	104.049	20.026	2.381	0.491
146.000	158.305	80.009	19.993	104.046	20.027	2.328	0.475
146.500	158.564	80.004	19.994	104.047	20.024	2.520	0.489
147.000	158.773	80.000	19.997	104.040	20.026	2.392	0.483
147.500	159.040	80.003	19.997	104.037	20.021	2.753	0.472
148.000	159.261	80.007	19.991	104.036	20.025	2.440	0.482
148.500	159.526	80.004	19.994	104.036	20.026	2.408	0.487
149.000	159.762	80.005	19.992	104.034	20.026	2.371	0.494
149.500	159.991	80.000	19.996	104.036	20.026	2.410	0.483
150.000	160.251	80.004	19.990	104.039	20.028	2.261	0.477
150.500	160.501	80.005	19.986	104.044	20.029	2.158	0.500
151.000	160.709	80.002	19.992	104.047	20.023	2.614	0.483
151.500	160.960	80.004	19.993	104.049	20.024	2.557	0.458
152.000	161.225	80.004	19.993	104.050	20.023	2.604	0.488
152.500	161.439	80.007	19.994	104.047	20.024	2.559	0.498
153.000	161.739	80.003	19.996	104.044	20.025	2.466	0.496
153.500	162.004	79.998	19.998	104.040	20.025	2.480	0.539
154.000	162.212	80.011	19.992	104.040	20.025	2.431	0.519
154.500	162.480	80.005	19.993	104.044	20.025	2.489	0.475
155.000	162.684	80.004	19.995	104.052	20.026	2.369	0.474
155.500	162.950	80.005	19.994	104.054	20.025	2.489	0.471
156.000	163.212	80.004	19.994	104.058	20.023	2.631	0.499
156.500	163.446	80.003	19.992	104.057	20.024	2.514	0.512
157.000	163.736	80.010	19.992	104.050	20.025	2.427	0.510
157.500	163.953	80.004	19.994	104.044	20.026	2.401	0.515
158.000	164.230	80.006	19.990	104.044	20.026	2.367	0.500
158.500	164.502	80.005	19.993	104.041	20.026	2.359	0.521
159.000	164.767	80.008	19.994	104.040	20.029	2.186	0.543
159.500	165.000	80.005	19.992	104.041	20.025	2.438	0.518
160.000	165.291	80.008	19.992	104.042	20.025	2.436	0.511
160.500	165.484	80.008	19.992	104.037	20.023	2.599	0.504
161.000	165.783	80.009	19.989	104.036	20.026	2.389	0.488
161.500	166.010	80.003	19.996	104.040	20.026	2.416	0.509
162.000	166.240	79.998	20.000	104.038	20.027	2.352	0.492
162.500	166.511	80.006	19.999	104.033	20.027	2.320	0.479
163.000	166.729	80.013	19.992	104.032	20.025	2.431	0.495
163.500	167.056	80.002	19.990	104.031	20.030	2.124	0.517
164.000	167.277	80.007	19.990	104.027	20.028	2.222	0.546
164.500	167.515	80.001	19.993	104.027	20.026	2.391	0.503
165.000	167.778	80.009	19.992	104.028	20.025	2.470	0.480
165.500	168.046	79.993	19.991	104.030	20.023	2.610	0.517
166.000	168.256	80.001	19.993	104.033	20.026	2.370	0.504
166.500	168.487	80.000	19.995	104.033	20.027	2.310	0.459
167.000	168.736	80.006	19.991	104.031	20.026	2.365	0.460
167.500	169.009	80.009	19.993	104.035	20.028	2.286	0.501
168.000	169.264	80.005	19.996	104.036	20.028	2.224	0.525
168.500	169.530	79.992	19.995	104.032	20.030	2.129	0.525
169.000	169.773	80.001	19.991	104.029	20.030	2.142	0.515
169.500	170.019	80.006	19.991	104.030	20.029	2.197	0.499
170.000	170.290	80.006	19.992	104.031	20.026	2.378	0.503
170.500	170.531	80.006	19.992	104.030	20.028	2.219	0.514
171.000	170.785	80.006	19.993	104.031	20.029	2.187	0.504
171.500	171.032	80.015	19.990	104.035	20.025	2.427	0.498
172.000	171.303	80.000	19.996	104.037	20.027	2.334	0.509
172.500	171.546	80.004	19.993	104.033	20.031	2.076	0.516
173.000	171.796	80.005	19.993	104.033	20.029	2.208	0.504
173.500	172.045	80.009	19.993	104.032	20.031	2.069	0.496
174.000	172.295	80.007	19.997	104.031	20.033	1.910	0.499
174.500	172.570	80.002	19.992	104.028	20.029	2.176	0.512
175.000	172.819	80.001	19.995	104.031	20.031	2.054	0.525
175.500	173.080	80.004	19.994	104.030	20.030	2.118	0.517
176.000	173.302	80.003	19.991	104.030	20.033	1.912	0.496
176.500	173.591	80.013	19.992	104.029	20.032	2.003	0.497
177.000	173.855	80.008	19.989	104.031	20.031	2.033	0.532
177.500	174.110	80.000	20.000	104.031	20.031	2.061	0.536
178.000	174.354	80.011	19.995	104.030	20.032	1.967	0.509
178.500	174.622	80.004	19.992	104.030	20.029	2.172	0.505
179.000	174.847	80.007	19.996	104.031	20.031	2.048	0.503
179.500	175.099	80.007	19.991	104.028	20.029	2.159	0.485
180.000	175.326	80.000	19.996	104.024	20.029	2.182	0.478
180.500	175.607	80.008	19.994	104.022	20.026	2.365	0.494
181.000	175.883	80.003	19.993	104.015	20.028	2.244	0.533
181.500	176.118	80.001	19.998	104.009	20.027	2.295	0.534
182.000	176.353	79.999	19.997	104.010	20.025	2.455	0.490
182.500	176.665	80.006	19.993	104.012	20.030	2.117	0.508
183.000	176.880	80.006	19.994	104.016	20.028	2.229	0.537
183.500	177.099	80.003	19.994	104.021	20.028	2.264	0.481
184.000	177.379	80.002	19.996	104.026	20.027	2.306	0.467
184.500	177.675	80.002	19.995	104.023	20.027	2.295	0.537
185.000	177.902	80.005	19.993	104.017	20.026	2.376	0.549
185.500	178.151	80.006	19.994	104.015	20.029	2.188	0.500
186.000	178.465	80.003	19.993	104.016	20.029	2.152	0.519
186.500	178.670	80.006	19.993	104.016	20.027	2.325	0.541
187.000	178.917	80.007	19.995	104.016	20.029	2.214	0.486
187.500	179.189	80.007	19.993	104.021	20.031	2.031	0.486
188.000	179.448	80.008	19.994	104.020	20.027	2.321	0.525
188.500	179.696	80.004	19.996	104.020	20.028	2.259	0.519
189.000	179.970	80.006	19.993	104.019	20.032	1.991	0.515
189.500	180.157	79.987	19.998	104.023	20.031	2.063	0.492
190.000	180.494	80.012	19.995	104.020	20.032	2.004	0.492
190.500	180.711	80.000	19.996	104.023	20.032	2.010	0.539
191.000	180.960	80.005	19.996	104.022	20.027	2.311	0.510
191.500	181.238	80.010	19.991	104.022	20.028	2.268	0.496
192.000	181.452	80.015	19.995	104.016	20.029	2.200	0.510
192.500	181.734	79.990	19.999	104.015	20.029	2.218	0.494
193.000	181.970	80.013	19.996	104.009	20.027	2.295	0.507
193.500	182.235	79.998	19.996	104.006	20.028	2.272	0.509
194.000	182.533	80.016	19.993	104.001	20.028	2.238	0.532
194.500	182.759	80.006	19.995	104.008	20.026	2.421	0.544
195.000	182.999	80.004	19.992	104.012	20.027	2.304	0.496
195.500	183.234	80.007	19.991	104.017	20.026	2.387	0.471
196.000	183.531	80.005	19.994	104.022	20.028	2.227	0.503
196.500	183.751	80.004	19.995	104.028	20.026	2.360	0.524
197.000	184.022	80.006	19.994	104.026	20.026	2.421	0.504
197.500	184.269	80.008	19.994	104.024	20.027	2.311	0.505
198.000	184.522	80.001	19.988	104.019	20.027	2.343	0.509
198.500	184.755	80.000	19.995	104.018	20.027	2.313	0.493
199.000	185.002	79.999	19.992	104.015	20.024	2.500	0.483
199.500	185.267	80.008	19.992	104.011	20.026	2.387	0.496
200.000	185.511	80.004	19.992	104.012	20.027	2.291	0.510
200.500	185.764	80.007	19.998	104.010	20.023	2.609	0.503
201.000	186.059	80.009	19.995	104.003	20.028	2.230	0.522
201.500	186.334	80.008	19.993	104.002	20.027	2.302	0.559
202.000	186.594	80.008	19.993	104.003	20.026	2.402	0.553
202.500	186.841	80.003	19.995	104.004	20.027	2.328	0.521
203.000	187.128	80.009	19.995	104.009	20.028	2.268	0.520
203.500	187.359	80.004	19.995	104.016	20.026	2.405	0.526
204.000	187.623	80.005	19.995	104.016	20.031	2.078	0.506
204.500	187.868	80.004	20.000	104.016	20.028	2.225	0.502
205.000	188.103	80.006	19.993	104.012	20.030	2.097	0.495
205.500	188.388	80.003	19.996	104.010	20.027	2.308	0.500
206.000	188.615	80.004	19.996	104.003	20.030	2.108	0.516
206.500	188.834	79.983	19.998	104.003	20.032	1.982	0.479
207.000	189.103	80.010	19.995	104.003	20.034	1.846	0.467
207.500	189.309	79.999	19.996	104.004	20.033	1.908	0.482
208.001	189.589	80.011	19.994	104.001	20.030	2.121	0.480
208.500	189.827	80.005	19.996	104.003	20.031	2.014	0.502
209.000	190.104	80.012	19.994	104.000	20.035	1.797	0.516
209.500	190.330	80.008	19.989	104.001	20.028	2.241	0.509
210.000	190.584	79.996	19.995	104.000	20.029	2.153	0.492
210.500	190.817	79.999	19.996	104.000	20.031	2.068	0.483
211.000	191.116	80.010	19.995	104.000	20.033	1.933	0.509
211.500	191.331	80.000	19.995	104.003	20.030	2.112	0.523
212.000	191.568	80.006	19.992	103.999	20.030	2.142	0.483
212.500	191.798	80.000	20.002	103.998	20.030	2.144	0.460
213.000	192.086	80.002	19.990	103.995	20.028	2.232	0.493
213.500	192.346	79.992	19.994	103.993	20.030	2.097	0.533
214.000	192.577	80.005	19.994	103.990	20.027	2.304	0.519
214.500	192.812	80.002	19.993	103.989	20.031	2.027	0.478
215.000	193.075	80.009	19.993	103.989	20.029	2.155	0.482
215.500	193.335	80.012	19.994	103.995	20.029	2.157	0.511
216.000	193.577	80.008	19.993	103.996	20.030	2.134	0.512
216.500	193.814	80.006	19.992	103.995	20.027	2.319	0.491
217.000	194.039	80.001	19.997	103.997	20.030	2.140	0.471
217.500	194.349	80.014	19.990	103.996	20.030	2.143	0.498
218.000	194.566	80.005	19.995	103.995	20.033	1.933	0.531
218.500	194.856	80.001	19.997	103.994	20.034	1.872	0.517
219.000	195.088	79.992	19.998	103.995	20.030	2.087	0.515
219.500	195.353	80.008	19.992	103.989	20.028	2.260	0.509
220.000	195.628	80.014	19.994	103.990	20.031	2.068	0.519
220.500	195.830	80.003	19.995	103.990	20.027	2.334	0.509
221.000	196.066	80.011	19.993	103.991	20.027	2.296	0.457
221.500	196.362	79.990	19.995	103.993	20.029	2.164	0.484
222.000	196.608	80.011	19.989	103.996	20.031	2.019	0.537
222.500	196.846	80.019	19.993	104.000	20.027	2.300	0.514
223.000	197.075	80.014	19.996	104.001	20.029	2.160	0.476
223.500	197.325	80.006	19.994	104.000	20.028	2.228	0.473
224.000	197.556	80.017	19.989	103.997	20.031	2.076	0.480
224.500	197.817	80.023	19.986	104.005	20.032	1.950	0.486
225.000	198.078	80.015	19.995	104.005	20.031	2.017	0.506
225.500	198.362	80.017	19.997	104.006	20.031	2.053	0.533
226.000	198.580	80.004	19.992	104.010	20.030	2.115	0.524
226.500	198.846	79.999	19.998	104.010	20.029	2.166	0.493
227.000	199.074	80.000	19.992	104.003	20.029	2.174	0.489
227.500	199.306	79.999	20.001	103.997	20.025	2.426	0.477
228.000	199.589	80.007	19.991	103.992	20.031	2.038	0.487
228.500	199.843	80.008	19.993	103.988	20.032	1.972	0.526
229.000	200.055	80.001	19.996	103.991	20.031	2.078	0.502
229.500	200.338	79.993	19.994	103.991	20.030	2.110	0.481
230.000	200.553	80.008	19.994	103.993	20.030	2.140	0.496
230.500	200.810	80.005	19.993	103.995	20.028	2.232	0.485
231.000	201.075	80.007	19.991	103.995	20.029	2.168	0.497
231.500	201.323	79.995	19.993	103.994	20.027	2.309	0.518
232.000	201.548	80.010	20.001	103.994	20.026	2.369	0.493
232.500	201.804	80.010	19.991	103.992	20.029	2.179	0.477
233.000	202.070	80.003	19.993	103.993	20.029	2.194	0.502
233.500	202.309	80.008	19.996	103.992	20.029	2.166	0.514
234.000	202.579	80.007	19.995	103.989	20.027	2.351	0.507
234.500	202.810	80.005	19.991	103.990	20.028	2.283	0.505
235.000	203.064	80.002	19.993	103.996	20.029	2.183	0.493
235.500	203.282	80.006	19.987	103.993	20.026	2.387	0.479
236.000	203.568	80.008	19.991	103.994	20.029	2.213	0.488
236.500	203.797	80.007	19.992	103.996	20.029	2.217	0.509
237.000	204.074	80.010	19.993	103.996	20.031	2.015	0.511
237.500	204.313	80.007	19.988	103.992	20.031	2.057	0.511
238.000	204.547	80.010	19.992	103.995	20.032	1.985	0.495
238.500	204.833	80.019	19.989	103.994	20.031	2.066	0.497
239.000	205.083	80.029	19.990	103.996	20.032	1.966	0.528
239.500	205.288	80.006	19.992	103.999	20.029	2.172	0.496
240.000	205.551	80.001	19.992	103.997	20.029	2.172	0.462
240.500	205.770	80.004	19.993	103.995	20.030	2.144	0.475
241.000	206.029	80.004	19.993	103.996	20.033	1.891	0.480
241.500	206.268	80.003	19.993	103.992	20.031	2.080	0.488
242.000	206.511	80.004	19.994	103.983	20.031	2.019	0.490
242.500	206.775	80.012	19.993	103.977	20.031	2.055	0.494
243.000	207.035	80.002	19.993	103.972	20.030	2.104	0.516
243.500	207.278	80.008	19.995	103.965	20.029	2.151	0.514
244.000	207.519	80.006	19.994	103.967	20.029	2.173	0.493
244.500	207.757	80.010	19.994	103.975	20.032	1.951	0.481
245.000	208.019	80.016	19.993	103.984	20.032	1.974	0.490
245.500	208.264	80.004	19.992	103.993	20.034	1.834	0.504
246.000	208.509	80.003	19.993	103.994	20.030	2.141	0.499
246.500	208.738	80.007	19.991	103.992	20.034	1.846	0.482
247.000	209.001	80.005	19.992	103.989	20.031	2.013	0.483
247.500	209.192	80.007	19.994	103.985	20.035	1.740	0.473
248.000	209.485	80.006	19.993	103.981	20.033	1.876	0.469
248.500	209.728	80.008	19.994	103.985	20.031	2.034	0.509
249.000	209.962	80.007	19.994	103.983	20.035	1.759	0.506
249.500	210.218	80.003	19.994	103.984	20.030	2.102	0.483
250.000	210.456	79.986	19.998	103.984	20.032	1.949	0.492
250.500	210.709	80.011	19.997	103.986	20.033	1.880	0.493
251.000	210.967	79.996	19.996	103.992	20.035	1.765	0.501
251.500	211.251	80.007	19.995	103.993	20.034	1.853	0.526
252.000	211.467	80.004	19.993	103.992	20.034	1.831	0.521
252.500	211.726	80.004	19.993	103.996	20.033	1.878	0.488
253.000	211.998	80.004	19.993	103.994	20.030	2.085	0.503
253.500	212.212	79.998	19.993	103.983	20.028	2.221	0.508
254.000	212.475	80.000	19.992	103.978	20.029	2.191	0.482
254.500	212.682	80.004	19.996	103.976	20.031	2.029	0.473
255.000	212.997	80.021	19.999	103.970	20.032	1.985	0.496
255.500	213.242	80.003	19.990	103.970	20.032	1.951	0.541
256.000	213.463	80.013	19.990	103.977	20.033	1.942	0.513
256.500	213.730	79.995	19.999	103.981	20.030	2.117	0.477
257.000	213.971	79.993	19.994	103.981	20.028	2.251	0.498
257.500	214.179	80.007	19.991	103.985	20.029	2.206	0.478
258.000	214.442	80.007	19.993	103.986	20.032	1.964	0.460
258.500	214.669	80.009	19.993	103.983	20.030	2.119	0.481
259.000	214.953	80.001	19.997	103.985	20.032	1.970	0.500
259.500	215.214	79.995	19.995	103.984	20.032	1.993	0.528
260.000	215.482	80.001	19.992	103.981	20.028	2.234	0.537
260.500	215.698	79.997	19.994	103.980	20.028	2.243	0.507
261.000	215.965	80.006	19.986	103.980	20.029	2.213	0.483
261.500	216.189	80.002	19.995	103.984	20.029	2.183	0.487
262.000	216.429	80.004	19.995	103.984	20.029	2.160	0.478
262.500	216.693	79.988	19.996	103.984	20.030	2.096	0.485
263.000	216.925	80.000	19.997	103.981	20.029	2.179	0.500
263.500	217.187	79.994	19.991	103.983	20.031	2.070	0.494
264.000	217.402	79.999	19.993	103.981	20.031	2.060	0.485
264.500	217.679	80.009	19.992	103.982	20.030	2.094	0.485
265.000	217.914	79.999	19.999	103.986	20.032	1.962	0.502
265.500	218.141	80.020	19.993	103.985	20.032	2.000	0.488
266.000	218.387	80.014	19.991	103.985	20.035	1.780	0.468
266.500	218.676	80.012	19.995	103.989	20.030	2.104	0.504
267.000	218.923	80.002	19.993	103.991	20.033	1.891	0.535
267.500	219.121	80.003	19.993	103.989	20.031	2.038	0.491
268.000	219.404	80.006	19.993	103.994	20.028	2.258	0.463
268.500	219.626	80.005	19.997	103.990	20.032	1.966	0.493
269.000	219.901	79.997	19.998	103.985	20.030	2.126	0.501
269.500	220.118	79.986	20.000	103.985	20.029	2.198	0.495
270.000	220.399	80.005	19.995	103.980	20.030	2.120	0.495
270.500	220.624	79.987	20.004	103.979	20.028	2.220	0.502
271.000	220.850	79.996	19.996	103.976	20.025	2.450	0.478
271.500	221.130	80.014	19.991	103.977	20.029	2.211	0.479
272.000	221.352	80.014	19.990	103.975	20.029	2.211	0.504
272.500	221.608	80.004	19.996	103.975	20.027	2.293	0.490
273.000	221.855	79.999	19.996	103.973	20.030	2.145	0.490
273.500	222.079	80.017	19.997	103.976	20.026	2.360	0.487
274.000	222.314	80.006	19.998	103.978	20.029	2.185	0.465
274.500	222.600	80.011	19.994	103.975	20.029	2.177	0.490
275.000	222.841	80.008	19.991	103.977	20.027	2.355	0.524
275.500	223.076	79.980	19.998	103.974	20.027	2.343	0.501
276.000	223.389	80.000	19.993	103.967	20.027	2.324	0.512
276.500	223.634	80.001	19.993	103.965	20.025	2.437	0.553
277.000	223.844	80.003	19.996	103.965	20.024	2.533	0.506
277.500	224.120	80.002	19.994	103.968	20.028	2.228	0.470
278.000	224.370	80.010	19.992	103.972	20.030	2.105	0.506
278.500	224.597	79.993	19.992	103.979	20.030	2.096	0.502
279.000	224.838	80.013	19.996	103.974	20.028	2.247	0.472
279.500	225.131	80.011	19.989	103.972	20.030	2.143	0.501
280.000	225.340	80.007	19.997	103.973	20.030	2.134	0.518
280.500	225.575	80.009	19.988	103.973	20.035	1.804	0.473
281.000	225.842	80.019	19.991	103.969	20.026	2.375	0.473
281.500	226.094	79.989	19.999	103.976	20.032	1.949	0.510
282.000	226.352	79.989	19.995	103.971	20.031	2.075	0.515
282.500	226.580	79.995	19.996	103.964	20.025	2.470	0.498
283.000	226.805	79.987	19.993	103.957	20.029	2.186	0.469
283.500	227.079	79.995	19.989	103.955	20.030	2.103	0.476
284.000	227.325	80.019	19.993	103.952	20.030	2.128	0.509
284.500	227.568	80.009	19.989	103.962	20.035	1.785	0.505
285.000	227.802	79.999	19.992	103.974	20.032	1.955	0.484
285.500	228.085	79.999	19.996	103.983	20.028	2.243	0.497
286.000	228.335	80.010	19.986	103.991	20.028	2.281	0.525
286.500	228.568	80.003	19.994	103.996	20.028	2.272	0.508
287.000	228.813	80.007	19.996	103.991	20.029	2.215	0.480
287.500	229.027	79.993	19.992	103.984	20.032	1.991	0.468
288.000	229.338	80.006	19.994	103.975	20.028	2.241	0.492
288.500	229.591	80.027	19.991	103.968	20.029	2.192	0.545
289.000	229.790	80.006	19.993	103.963	20.032	1.947	0.508
289.500	230.081	80.006	19.995	103.967	20.026	2.422	0.471
290.000	230.330	80.000	19.998	103.970	20.027	2.326	0.515
290.500	230.637	80.001	19.994	103.987	20.030	2.102	0.548
291.000	230.819	79.990	19.994	103.993	20.027	2.313	0.522
291.500	231.066	79.997	19.994	103.980	20.026	2.358	0.459
292.000	231.335	80.008	19.991	103.968	20.025	2.450	0.473
292.500	231.565	80.020	19.996	103.962	20.027	2.316	0.508
293.000	231.796	79.996	19.995	103.948	20.029	2.158	0.480
293.500	232.067	80.003	19.993	103.944	20.030	2.083	0.481
294.000	232.321	80.006	19.996	103.956	20.028	2.271	0.513
294.500	232.541	80.021	19.996	103.963	20.026	2.369	0.499
295.000	232.814	79.999	19.996	103.966	20.025	2.448	0.483
295.500	233.112	79.997	19.995	103.971	20.024	2.531	0.532
296.000	233.305	80.011	19.997	103.976	20.028	2.256	0.531
296.500	233.590	79.990	19.996	103.981	20.026	2.364	0.484
297.000	233.825	80.003	19.994	103.987	20.028	2.262	0.500
297.500	234.048	80.005	19.994	103.988	20.028	2.262	0.489
298.000	234.329	79.993	19.995	103.979	20.024	2.542	0.481
298.500	234.569	80.030	19.990	103.971	20.029	2.156	0.512
299.000	234.810	80.003	20.001	103.969	20.025	2.446	0.501
299.500	235.058	80.002	19.991	103.962	20.029	2.192	0.485
300.000	235.313	80.007	19.990	103.958	20.029	2.154	0.496
300.500	235.567	80.005	19.991	103.962	20.026	2.356	0.506
301.000	235.796	80.004	19.990	103.969	20.028	2.262	0.496
301.500	236.070	80.009	19.999	103.969	20.028	2.222	0.493
302.000	236.314	80.005	19.994	103.974	20.024	2.510	0.510
302.500	236.558	80.006	19.994	103.980	20.028	2.275	0.503
303.000	236.819	80.017	20.000	103.977	20.028	2.265	0.496
303.500	237.041	79.994	19.995	103.972	20.024	2.540	0.494
304.000	237.297	80.011	19.991	103.966	20.027	2.297	0.481
304.501	237.541	80.016	19.994	103.962	20.029	2.198	0.489
305.001	237.783	80.002	19.995	103.959	20.026	2.399	0.493
305.500	238.019	80.002	19.997	103.962	20.024	2.533	0.482
306.000	238.304	80.010	19.993	103.967	20.027	2.327	0.499
306.500	238.529	80.006	19.993	103.974	20.025	2.455	0.515
307.000	238.783	80.004	20.000	103.978	20.024	2.495	0.495
307.500	239.017	79.995	20.003	103.974	20.025	2.485	0.484
308.000	239.316	80.016	19.997	103.970	20.025	2.455	0.510
308.500	239.532	80.008	19.995	103.969	20.028	2.237	0.523
309.000	239.772	79.996	19.995	103.967	20.027	2.340	0.485
309.500	239.986	80.004	19.998	103.964	20.027	2.290	0.455
310.000	240.246	80.006	19.996	103.967	20.028	2.278	0.464
310.500	240.514	79.996	19.997	103.974	20.030	2.115	0.502
311.000	240.779	80.006	19.997	103.969	20.027	2.318	0.530
311.500	241.011	80.004	19.996	103.963	20.029	2.215	0.514
312.000	241.241	79.995	19.994	103.963	20.031	2.071	0.479
312.500	241.505	80.004	19.997	103.961	20.029	2.175	0.478
313.000	241.746	79.994	19.995	103.954	20.030	2.083	0.500
313.500	241.998	80.025	19.991	103.956	20.029	2.198	0.499
314.000	242.239	80.001	19.994	103.963	20.023	2.574	0.493
314.500	242.498	80.017	19.990	103.961	20.028	2.260	0.497
315.000	242.783	80.005	19.994	103.962	20.025	2.427	0.522
315.500	243.009	80.005	19.995	103.962	20.026	2.369	0.527
316.000	243.239	80.006	19.995	103.959	20.026	2.401	0.484
316.500	243.474	80.006	19.998	103.954	20.031	2.030	0.461
317.000	243.778	80.007	19.994	103.952	20.026	2.393	0.502
317.500	243.989	80.004	19.999	103.951	20.024	2.540	0.527
318.000	244.236	80.006	19.995	103.950	20.025	2.465	0.486
318.500	244.482	80.006	19.997	103.949	20.024	2.527	0.476
319.000	244.715	80.022	19.990	103.948	20.025	2.461	0.486
319.500	244.987	80.003	19.998	103.951	20.025	2.459	0.491
320.000	245.203	79.996	19.996	103.953	20.027	2.322	0.496
320.500	245.470	79.999	19.997	103.958	20.026	2.361	0.486
321.000	245.747	80.008	19.994	103.961	20.026	2.359	0.514
321.500	245.991	80.011	19.995	103.967	20.027	2.316	0.533
322.000	246.265	80.021	19.991	103.965	20.026	2.418	0.519
322.500	246.500	80.006	19.996	103.966	20.027	2.288	0.514
323.000	246.779	80.009	19.993	103.963	20.027	2.339	0.512
323.500	247.019	80.005	19.992	103.961	20.025	2.471	0.516
324.000	247.260	80.000	20.001	103.963	20.028	2.279	0.500
324.500	247.492	80.005	20.001	103.965	20.023	2.610	0.477
325.000	247.743	80.012	19.993	103.959	20.027	2.292	0.478
325.500	248.018	79.992	19.999	103.962	20.029	2.180	0.505
326.000	248.259	80.005	19.994	103.961	20.026	2.359	0.521
326.500	248.547	80.024	19.988	103.957	20.029	2.207	0.522
327.000	248.755	80.011	19.993	103.964	20.023	2.581	0.512
327.500	249.031	80.014	19.993	103.968	20.028	2.229	0.490
328.000	249.287	80.008	19.993	103.966	20.025	2.448	0.508
328.500	249.523	80.011	19.996	103.969	20.026	2.361	0.512
329.000	249.790	79.990	19.997	103.967	20.028	2.280	0.498
329.500	250.066	80.002	19.991	103.959	20.026	2.407	0.523
330.000	250.334	80.013	19.989	103.961	20.025	2.472	0.543
330.500	250.534	80.007	20.005	103.962	20.027	2.295	0.506
331.000	250.816	80.009	20.001	103.957	20.026	2.418	0.475
331.500	251.017	79.995	19.993	103.956	20.025	2.450	0.483
332.000	251.314	80.003	19.989	103.956	20.025	2.425	0.491
332.500	251.549	80.008	19.992	103.950	20.024	2.534	0.515
333.000	251.825	79.990	19.994	103.949	20.027	2.303	0.521
333.500	252.076	79.999	19.992	103.956	20.024	2.538	0.519
334.000	252.272	79.994	19.995	103.962	20.027	2.322	0.487
334.500	252.568	80.010	19.991	103.959	20.024	2.544	0.469
335.000	252.797	80.004	19.995	103.962	20.025	2.452	0.509
335.500	253.041	79.991	19.995	103.962	20.029	2.198	0.499
336.000	253.277	80.001	19.995	103.957	20.026	2.412	0.476
336.500	253.557	80.008	19.995	103.951	20.019	2.844	0.498
337.000	253.784	80.003	19.995	103.955	20.026	2.386	0.511
337.500	254.042	79.995	19.995	103.953	20.028	2.271	0.496
338.000	254.313	80.008	19.993	103.951	20.026	2.418	0.507
338.500	254.557	80.005	19.994	103.955	20.028	2.284	0.522
339.000	254.822	80.009	19.991	103.957	20.026	2.367	0.512
339.500	255.072	80.004	19.996	103.959	20.022	2.648	0.512
340.000	255.306	80.002	19.993	103.963	20.026	2.407	0.499
340.500	255.552	80.018	19.997	103.964	20.022	2.632	0.482
341.000	255.837	80.003	19.991	103.961	20.025	2.437	0.506
341.500	256.053	80.017	19.993	103.959	20.025	2.476	0.516
342.000	256.318	80.000	19.995	103.959	20.023	2.602	0.491
342.500	256.536	80.003	19.994	103.956	20.025	2.468	0.482
343.000	256.784	80.010	19.994	103.956	20.021	2.758	0.474
343.500	257.072	80.009	19.995	103.956	20.025	2.453	0.500
344.000	257.313	80.016	19.991	103.958	20.022	2.653	0.532
344.500	257.565	80.013	19.994	103.959	20.027	2.339	0.511
345.000	257.814	80.020	19.990	103.961	20.026	2.397	0.497
345.500	258.070	80.000	19.996	103.966	20.024	2.493	0.503
346.000	258.343	80.007	19.992	103.969	20.022	2.672	0.517
346.500	258.588	80.001	19.992	103.968	20.026	2.363	0.524
347.000	258.833	80.010	19.995	103.965	20.026	2.401	0.504
347.500	259.092	80.006	19.993	103.964	20.025	2.431	0.497
348.000	259.366	80.008	19.997	103.961	20.030	2.128	0.519
348.500	259.637	80.000	19.993	103.958	20.026	2.376	0.539
349.000	259.840	80.007	19.996	103.960	20.025	2.478	0.509
349.500	260.092	80.006	19.991	103.958	20.025	2.453	0.464
350.000	260.359	80.007	19.992	103.961	20.026	2.419	0.487
350.500	260.554	79.998	19.994	103.961	20.025	2.468	0.491
351.000	260.816	80.003	19.992	103.961	20.025	2.480	0.460
351.500	261.076	80.020	19.994	103.956	20.024	2.551	0.489
352.000	261.339	80.010	19.993	103.959	20.025	2.431	0.522
352.500	261.576	80.003	19.993	103.956	20.026	2.399	0.511
353.000	261.822	79.999	19.994	103.954	20.025	2.431	0.491
353.500	262.092	80.001	19.993	103.950	20.024	2.532	0.500
354.000	262.317	80.024	19.988	103.951	20.025	2.442	0.506
354.500	262.588	80.008	19.995	103.953	20.026	2.376	0.496
355.000	262.827	80.007	19.994	103.953	20.025	2.487	0.503
355.500	263.129	80.004	19.992	103.952	20.026	2.370	0.526
356.000	263.335	80.005	19.992	103.957	20.027	2.299	0.524
356.500	263.568	80.009	19.997	103.956	20.023	2.561	0.473
357.000	263.827	79.987	19.992	103.953	20.024	2.557	0.465
357.500	264.097	80.015	19.989	103.948	20.021	2.732	0.510
358.000	264.341	80.001	19.994	103.952	20.021	2.711	0.522
358.500	264.592	80.000	19.992	103.951	20.023	2.570	0.504
359.000	264.856	79.985	19.995	103.950	20.022	2.670	0.505
359.500	265.103	80.000	19.994	103.947	20.023	2.595	0.513
360.000	265.361	79.998	19.995	103.953	20.022	2.687	0.508
360.500	265.611	80.003	19.995	103.950	20.023	2.600	0.506
361.000	265.868	80.006	19.993	103.950	20.023	2.567	0.508
361.500	266.128	80.006	19.993	103.948	20.022	2.663	0.512
362.000	266.350	80.003	19.997	103.948	20.018	2.907	0.499
362.500	266.613	80.005	19.994	103.947	20.023	2.581	0.483
363.000	266.868	79.996	19.993	103.950	20.026	2.380	0.502
363.500	267.110	80.003	19.994	103.948	20.024	2.508	0.508
364.000	267.373	79.996	19.999	103.950	20.024	2.534	0.501
364.500	267.641	80.008	19.992	103.949	20.023	2.583	0.518
365.000	267.830	80.007	19.995	103.951	20.023	2.604	0.494
365.500	268.114	79.998	19.997	103.946	20.019	2.898	0.465
366.000	268.360	79.998	19.994	103.943	20.020	2.800	0.502
366.500	268.602	80.019	19.992	103.941	20.022	2.659	0.509
367.000	268.858	80.000	20.002	103.946	20.020	2.768	0.493
367.500	269.133	80.010	19.990	103.945	20.021	2.734	0.514
368.000	269.403	79.998	19.991	103.950	20.020	2.770	0.538
368.500	269.606	80.004	19.994	103.955	20.021	2.726	0.509
369.000	269.889	80.005	19.993	103.957	20.025	2.487	0.480
369.500	270.127	80.005	19.998	103.954	20.020	2.818	0.503
370.000	270.368	80.019	19.995	103.956	20.019	2.845	0.500
370.500	270.640	79.993	20.001	103.959	20.021	2.741	0.496
371.000	270.888	80.006	19.995	103.956	20.021	2.749	0.516
371.500	271.139	79.992	19.994	103.957	20.020	2.822	0.509
372.000	271.421	80.003	19.990	103.957	20.023	2.626	0.515
372.500	271.683	80.003	19.998	103.957	20.020	2.781	0.539
373.000	271.934	80.001	19.994	103.951	20.023	2.596	0.529
373.500	272.195	80.008	19.997	103.954	20.021	2.762	0.513
374.000	272.374	79.988	19.999	103.953	20.025	2.453	0.476
374.500	272.674	79.999	19.994	103.949	20.024	2.531	0.460
375.000	272.925	80.010	19.993	103.945	20.021	2.704	0.515
375.500	273.210	80.002	19.998	103.950	20.018	2.907	0.543
376.000	273.424	80.013	19.993	103.954	20.020	2.775	0.518
376.500	273.694	79.994	19.999	103.954	20.022	2.683	0.492
377.000	273.963	80.020	19.994	103.959	20.022	2.638	0.511
377.500	274.222	80.013	19.991	103.963	20.022	2.657	0.533
378.000	274.493	80.008	19.992	103.961	20.023	2.610	0.529
378.500	274.726	80.003	19.996	103.956	20.018	2.926	0.517
379.000	274.962	80.003	19.994	103.948	20.020	2.794	0.486
379.500	275.219	80.002	19.994	103.942	20.020	2.787	0.481
380.000	275.486	80.008	19.995	103.940	20.018	2.945	0.509
380.500	275.727	80.005	19.994	103.936	20.019	2.856	0.516
381.000	275.999	80.004	19.990	103.936	20.020	2.826	0.511
381.500	276.204	80.001	19.998	103.943	20.022	2.649	0.495
382.000	276.467	80.003	19.996	103.948	20.022	2.636	0.472
382.500	276.721	80.006	19.993	103.947	20.018	2.952	0.492
383.000	276.975	80.008	19.996	103.946	20.019	2.884	0.512
383.500	277.178	80.001	19.996	103.944	20.021	2.728	0.482
384.000	277.471	80.011	19.990	103.943	20.019	2.904	0.477
384.500	277.697	80.003	19.995	103.947	20.016	3.067	0.508
385.000	277.914	80.004	19.993	103.947	20.016	3.049	0.481
385.500	278.216	80.006	19.990	103.948	20.014	3.194	0.481
386.000	278.473	80.012	19.990	103.951	20.019	2.902	0.539
386.500	278.736	80.002	19.988	103.951	20.017	3.005	0.539
387.000	278.975	80.001	19.996	103.948	20.019	2.890	0.511
387.500	279.216	80.010	19.994	103.948	20.017	2.984	0.491
388.000	279.477	80.014	19.993	103.949	20.019	2.868	0.491
388.500	279.751	79.992	20.002	103.951	20.013	3.267	0.518
389.000	279.973	80.007	19.995	103.949	20.013	3.299	0.516
389.500	280.236	80.006	19.994	103.948	20.013	3.289	0.491
390.000	280.458	80.006	19.995	103.949	20.017	3.037	0.485
390.500	280.731	79.998	19.997	103.949	20.017	3.037	0.490
391.000	280.952	80.000	19.992	103.946	20.016	3.107	0.495
391.500	281.249	80.002	19.998	103.947	20.012	3.376	0.507
392.000	281.488	80.009	19.993	103.946	20.015	3.122	0.527
392.500	281.722	80.002	19.991	103.944	20.017	3.003	0.504
393.000	281.958	80.003	19.995	103.942	20.014	3.212	0.471
393.500	282.247	79.998	19.990	103.943	20.016	3.075	0.497
394.000	282.471	79.998	19.998	103.946	20.016	3.050	0.519
394.500	282.730	80.006	19.994	103.948	20.012	3.327	0.498
395.000	282.986	80.006	19.991	103.956	20.011	3.389	0.499
395.500	283.249	80.010	19.997	103.959	20.014	3.242	0.517
396.000	283.488	80.014	19.992	103.960	20.012	3.368	0.511
396.500	283.730	80.001	19.999	103.958	20.011	3.419	0.491
397.000	283.989	80.007	19.996	103.955	20.013	3.263	0.491
397.500	284.226	80.010	19.996	103.946	20.012	3.368	0.499
398.000	284.511	80.006	19.993	103.944	20.017	3.033	0.509
398.500	284.761	80.014	19.991	103.944	20.012	3.323	0.528
399.000	284.995	80.021	19.994	103.948	20.011	3.434	0.509
399.500	285.237	79.993	19.994	103.954	20.011	3.387	0.480
400.000	285.458	80.000	19.998	103.955	20.018	2.937	0.470
400.500	285.737	80.006	19.998	103.954	20.011	3.428	0.482
401.000	285.969	80.011	19.997	103.951	20.012	3.380	0.506
401.500	286.286	80.015	19.993	103.948	20.012	3.353	0.530
402.000	286.487	80.012	19.993	103.946	20.014	3.216	0.533
402.500	286.765	80.005	19.990	103.945	20.013	3.290	0.499
403.000	286.984	80.000	19.994	103.946	20.011	3.414	0.489
403.500	287.233	79.994	19.994	103.949	20.012	3.342	0.483
404.000	287.512	80.004	19.997	103.949	20.013	3.310	0.498
404.500	287.752	80.011	19.994	103.945	20.011	3.436	0.523
405.000	288.053	80.007	19.991	103.947	20.012	3.344	0.529
405.500	288.291	80.013	19.989	103.945	20.009	3.523	0.540
406.000	288.518	80.008	19.991	103.943	20.009	3.583	0.502
406.500	288.776	80.011	19.999	103.945	20.013	3.299	0.475
407.000	289.021	79.996	19.992	103.947	20.014	3.240	0.494
407.500	289.283	80.007	19.995	103.947	20.011	3.388	0.505
408.000	289.559	80.006	19.992	103.947	20.012	3.317	0.522
408.500	289.785	79.996	19.996	103.951	20.011	3.396	0.520
409.000	290.033	80.001	19.988	103.949	20.012	3.375	0.488
409.500	290.315	80.004	19.991	103.949	20.007	3.698	0.502
410.000	290.544	80.007	19.992	103.951	20.012	3.327	0.520
410.500	290.787	79.999	19.998	103.951	20.011	3.396	0.491
411.000	291.062	80.014	19.989	103.942	20.011	3.432	0.495
411.500	291.345	80.018	19.992	103.942	20.011	3.430	0.539
412.000	291.617	80.028	19.987	103.945	20.011	3.451	0.557
412.500	291.850	79.994	19.992	103.951	20.006	3.758	0.530
413.000	292.100	80.017	19.991	103.950	20.013	3.259	0.493
413.500	292.336	80.003	19.996	103.961	20.011	3.434	0.484
414.000	292.610	80.016	19.997	103.961	20.011	3.436	0.498
414.500	292.865	80.000	19.991	103.958	20.010	3.494	0.520
415.000	293.115	80.002	19.998	103.952	20.012	3.372	0.517
415.500	293.379	80.008	19.986	103.955	20.014	3.242	0.509
416.000	293.621	79.995	19.996	103.954	20.010	3.494	0.510
416.500	293.857	80.007	19.994	103.954	20.009	3.577	0.492
417.000	294.125	80.013	19.991	103.951	20.008	3.616	0.491
417.500	294.353	80.009	19.995	103.950	20.005	3.855	0.500
418.000	294.617	80.017	19.994	103.937	20.011	3.405	0.494
418.500	294.897	79.996	19.994	103.929	20.005	3.845	0.518
419.000	295.111	80.013	19.994	103.930	20.011	3.443	0.519
419.500	295.392	79.991	20.001	103.933	20.006	3.731	0.495
420.000	295.613	80.004	19.991	103.930	20.007	3.686	0.498
420.500	295.910	80.010	19.994	103.941	20.003	3.948	0.510
421.000	296.114	80.010	19.989	103.944	20.007	3.707	0.510
421.500	296.422	80.013	19.994	103.941	20.007	3.701	0.507
422.000	296.635	80.014	19.991	103.937	20.009	3.539	0.517
422.500	296.872	79.991	19.995	103.934	20.011	3.385	0.486
423.000	297.138	80.001	19.996	103.935	20.010	3.507	0.476
423.500	297.404	79.988	19.996	103.933	20.005	3.852	0.518
424.000	297.628	80.023	19.992	103.934	20.008	3.609	0.511
424.500	297.912	80.007	19.994	103.938	20.009	3.543	0.499
425.000	298.147	80.007	19.995	103.943	20.008	3.639	0.514
425.500	298.429	80.007	19.992	103.943	20.009	3.522	0.518
426.000	298.676	80.009	19.995	103.947	20.006	3.767	0.522
426.500	298.912	79.997	19.994	103.948	20.004	3.880	0.506
427.000	299.182	80.026	19.993	103.940	20.004	3.910	0.495
427.500	299.439	80.004	19.994	103.936	20.009	3.586	0.516
428.000	299.688	80.005	19.993	103.928	20.004	3.897	0.516
428.500	299.915	79.995	19.993	103.919	20.008	3.615	0.491
429.000	300.152	80.013	19.994	103.913	20.005	3.826	0.470
429.500	300.431	80.007	19.998	103.913	20.006	3.763	0.490
430.000	300.667	80.003	19.998	103.912	20.005	3.844	0.516
430.500	300.966	80.001	19.993	103.920	20.005	3.836	0.524
431.000	301.202	80.009	19.990	103.927	20.003	3.966	0.535
431.500	301.442	79.993	19.998	103.931	20.004	3.897	0.506
432.000	301.712	80.011	19.995	103.935	20.004	3.906	0.493
432.500	301.909	79.991	19.997	103.939	20.003	3.982	0.489
433.000	302.170	80.005	20.002	103.932	20.002	4.023	0.462
433.500	302.471	80.014	19.990	103.928	19.999	4.232	0.510
434.000	302.732	80.007	19.992	103.933	20.005	3.825	0.562
434.500	302.946	79.996	19.999	103.932	20.003	3.991	0.519
435.000	303.205	79.996	19.993	103.924	20.003	3.984	0.474
435.500	303.472	79.996	19.996	103.927	20.004	3.918	0.500
436.000	303.715	80.010	19.995	103.925	20.005	3.803	0.518
436.500	303.981	80.001	20.001	103.922	20.003	3.991	0.509
437.000	304.232	80.014	19.991	103.922	20.004	3.927	0.513
437.500	304.443	79.998	19.992	103.930	20.003	3.954	0.490
438.000	304.707	79.999	19.998	103.932	20.003	3.978	0.468
438.500	304.973	79.998	19.997	103.938	20.000	4.146	0.502
439.000	305.253	80.013	19.992	103.935	19.999	4.227	0.538
439.500	305.473	80.008	19.994	103.943	20.001	4.104	0.523
440.000	305.695	79.977	20.002	103.939	20.002	4.059	0.471
440.500	305.989	79.996	19.994	103.933	20.002	4.025	0.479
441.000	306.247	80.004	19.998	103.927	19.997	4.362	0.534
441.500	306.507	80.027	19.992	103.924	20.002	4.053	0.535
442.000	306.752	79.998	19.997	103.924	20.000	4.174	0.511
442.500	306.976	80.012	19.995	103.928	19.999	4.217	0.487
443.000	307.279	80.009	19.993	103.935	20.000	4.202	0.498
443.500	307.473	80.010	19.995	103.937	19.999	4.255	0.512
444.000	307.738	79.999	19.996	103.937	20.000	4.167	0.478
444.500	308.000	80.005	19.993	103.928	19.999	4.240	0.493
445.000	308.228	79.996	19.997	103.927	19.999	4.214	0.508
445.500	308.541	80.010	19.991	103.928	19.996	4.418	0.516
446.000	308.761	79.993	19.996	103.934	19.994	4.554	0.537
446.500	309.018	79.998	19.999	103.935	19.998	4.339	0.505
447.000	309.265	80.005	19.995	103.937	19.997	4.358	0.491
447.500	309.498	80.012	19.988	103.940	19.999	4.209	0.492
448.000	309.759	79.998	19.991	103.945	19.996	4.468	0.487
448.500	310.024	80.007	19.990	103.941	19.996	4.455	0.510
449.000	310.297	80.009	19.997	103.948	19.994	4.554	0.532
449.500	310.518	80.022	19.990	103.951	19.997	4.392	0.515
450.000	310.804	80.007	19.995	103.945	20.000	4.166	0.500
450.500	311.087	80.005	19.987	103.938	19.995	4.491	0.538
451.000	311.322	80.003	19.989	103.939	19.994	4.568	0.543
451.500	311.565	80.009	19.996	103.934	19.995	4.529	0.498
452.000	311.812	79.994	19.998	103.932	19.996	4.465	0.484
452.500	312.082	80.000	19.993	103.933	19.993	4.672	0.504
453.000	312.318	80.003	19.991	103.934	19.994	4.619	0.512
453.500	312.584	80.004	19.996	103.932	19.995	4.536	0.504
454.000	312.882	80.028	19.991	103.938	19.997	4.380	0.532
454.500	313.106	80.006	19.994	103.947	19.994	4.604	0.543
455.000	313.370	80.006	19.990	103.949	19.992	4.703	0.505
455.500	313.616	79.998	20.001	103.947	19.994	4.617	0.499
456.000	313.874	79.985	19.997	103.944	19.990	4.856	0.507
456.500	314.136	80.006	19.991	103.935	19.993	4.648	0.512
457.000	314.381	80.009	19.996	103.925	19.989	4.900	0.514
457.500	314.615	80.006	19.995	103.923	19.990	4.827	0.493
458.000	314.886	80.007	19.996	103.927	19.994	4.599	0.492
458.500	315.107	80.006	19.991	103.934	19.988	4.991	0.499
459.000	315.379	80.008	19.992	103.941	19.990	4.842	0.492
459.500	315.622	79.986	19.995	103.944	19.992	4.721	0.503
460.000	315.895	79.998	19.991	103.940	19.989	4.953	0.515
460.500	316.128	80.002	19.995	103.933	19.987	5.038	0.511
461.000	316.386	80.007	19.992	103.925	19.988	5.027	0.499
461.500	316.583	79.997	19.999	103.925	19.989	4.953	0.473
462.000	316.876	80.000	19.993	103.920	19.986	5.125	0.472
462.500	317.151	80.010	19.993	103.920	19.988	5.002	0.529
463.000	317.400	80.011	19.997	103.922	19.985	5.223	0.547
463.500	317.630	80.006	19.999	103.925	19.983	5.336	0.502
464.000	317.865	80.008	19.999	103.916	19.984	5.283	0.472
464.500	318.166	79.998	20.001	103.916	19.984	5.248	0.500
465.000	318.405	80.002	19.996	103.914	19.982	5.411	0.537
465.500	318.659	80.000	19.990	103.910	19.984	5.288	0.516
466.000	318.912	80.008	19.996	103.908	19.982	5.380	0.500
466.500	319.160	80.007	19.993	103.917	19.984	5.275	0.504
467.000	319.417	80.003	19.998	103.921	19.981	5.482	0.503
467.500	319.650	80.002	19.996	103.924	19.982	5.436	0.498
468.000	319.902	80.006	19.995	103.930	19.982	5.378	0.488
468.500	320.143	79.999	19.994	103.934	19.982	5.423	0.489
469.000	320.367	80.002	19.994	103.930	19.983	5.339	0.479
469.500	320.699	80.010	19.993	103.931	19.983	5.352	0.511
470.000	320.919	79.991	19.994	103.934	19.979	5.606	0.554
470.500	321.186	80.021	19.992	103.931	19.976	5.795	0.519
471.000	321.396	80.007	19.995	103.935	19.978	5.715	0.482
471.500	321.661	80.006	19.993	103.939	19.981	5.469	0.476
472.000	321.925	80.013	19.993	103.940	19.979	5.585	0.502
472.500	322.155	79.991	19.995	103.939	19.977	5.728	0.511
473.000	322.393	80.010	19.994	103.937	19.980	5.557	0.481
473.500	322.670	80.024	19.990	103.936	19.979	5.630	0.492
474.000	322.930	80.007	19.993	103.944	19.976	5.807	0.526
474.501	323.182	80.006	19.993	103.945	19.979	5.647	0.524
475.000	323.419	80.004	19.996	103.943	19.978	5.696	0.500
475.500	323.696	80.006	19.993	103.950	19.975	5.886	0.501
476.000	323.901	80.009	19.992	103.946	19.977	5.772	0.498
476.500	324.159	80.001	19.995	103.935	19.976	5.847	0.472
477.000	324.405	80.008	19.992	103.928	19.972	6.103	0.484
477.500	324.672	79.997	19.991	103.931	19.974	5.958	0.509
478.000	324.934	80.001	19.993	103.925	19.973	6.040	0.521
478.500	325.153	79.996	19.994	103.921	19.973	6.044	0.505
479.000	325.418	80.006	19.998	103.923	19.974	5.972	0.482
479.500	325.629	80.012	19.994	103.926	19.973	6.002	0.480
480.000	325.930	80.007	19.997	103.925	19.970	6.242	0.494
480.500	326.140	80.009	19.995	103.926	19.974	5.951	0.511
481.000	326.380	79.992	19.998	103.934	19.972	6.077	0.481
481.500	326.674	80.003	19.996	103.934	19.971	6.178	0.493
482.000	326.940	80.005	19.991	103.934	19.970	6.231	0.547
482.500	327.188	80.003	19.996	103.930	19.971	6.182	0.536
483.000	327.442	80.009	19.994	103.928	19.966	6.479	0.508
483.500	327.663	79.992	19.996	103.926	19.967	6.431	0.489
484.000	327.955	80.003	19.991	103.923	19.967	6.439	0.494
484.500	328.189	79.991	19.997	103.921	19.972	6.101	0.519
485.000	328.449	79.990	19.998	103.920	19.967	6.444	0.509
485.500	328.685	79.989	19.999	103.924	19.968	6.393	0.495
486.000	328.916	79.997	19.996	103.919	19.962	6.778	0.482
486.500	329.182	80.013	19.990	103.927	19.963	6.740	0.482
487.000	329.474	80.010	19.992	103.930	19.963	6.715	0.527
487.500	329.716	80.007	19.995	103.930	19.963	6.724	0.546
488.000	329.967	79.987	19.999	103.925	19.961	6.882	0.513
488.500	330.193	80.005	20.003	103.923	19.961	6.827	0.485
489.000	330.450	80.008	19.993	103.914	19.961	6.883	0.480
489.500	330.703	80.009	19.992	103.911	19.960	6.910	0.497
490.000	330.960	80.011	19.997	103.912	19.957	7.104	0.510
490.500	331.245	80.008	19.998	103.916	19.958	7.064	0.525
491.000	331.442	79.999	19.995	103.923	19.957	7.158	0.512
491.500	331.716	80.008	19.996	103.929	19.953	7.414	0.477
492.000	331.957	80.008	19.994	103.932	19.954	7.324	0.493
492.500	332.219	79.998	19.999	103.932	19.956	7.190	0.509
493.000	332.470	80.003	19.998	103.929	19.950	7.601	0.509
493.500	332.736	80.008	19.995	103.923	19.953	7.380	0.515
494.000	332.960	80.002	19.993	103.917	19.949	7.663	0.503
494.500	333.219	80.008	19.997	103.913	19.948	7.778	0.487
495.000	333.526	80.004	19.996	103.914	19.950	7.614	0.524
495.500	333.785	80.004	19.992	103.921	19.948	7.725	0.566
496.000	334.030	80.005	19.995	103.929	19.950	7.627	0.535
496.500	334.290	80.003	19.996	103.934	19.946	7.881	0.504
497.000	334.523	80.005	19.992	103.938	19.947	7.847	0.499
497.500	334.773	80.005	19.996	103.937	19.946	7.917	0.488
498.000	335.040	80.005	19.992	103.929	19.946	7.881	0.500
498.500	335.273	80.000	19.999	103.923	19.947	7.840	0.508
499.000	335.575	80.002	19.992	103.918	19.944	8.038	0.518
499.500	335.830	79.998	19.999	103.916	19.944	8.040	0.547
500.000	336.036	80.001	19.993	103.914	19.942	8.160	0.509
500.500	336.299	80.003	19.994	103.916	19.942	8.132	0.465
501.000	336.542	80.001	19.993	103.916	19.942	8.184	0.487
501.500	336.809	80.004	19.992	103.917	19.941	8.252	0.508
502.000	337.044	80.006	19.992	103.917	19.936	8.535	0.506
502.500	337.293	80.005	19.997	103.919	19.938	8.432	0.493
503.000	337.535	80.008	19.995	103.917	19.936	8.554	0.487
503.500	337.813	80.008	19.992	103.916	19.933	8.792	0.506
504.000	338.062	80.002	19.991	103.917	19.932	8.850	0.524
504.500	338.298	79.996	19.996	103.917	19.928	9.137	0.506
505.000	338.566	80.006	19.994	103.918	19.928	9.115	0.494
505.500	338.818	80.009	19.994	103.922	19.925	9.334	0.512
506.000	339.068	79.984	19.993	103.925	19.926	9.259	0.511
506.500	339.329	80.010	20.002	103.921	19.923	9.464	0.506
507.000	339.573	79.995	19.994	103.918	19.923	9.449	0.508
507.500	339.838	80.019	19.993	103.919	19.921	9.622	0.507
508.000	340.074	80.008	19.995	103.919	19.923	9.488	0.505
508.500	340.297	79.997	19.994	103.916	19.917	9.867	0.480
509.000	340.590	80.005	19.994	103.915	19.914	10.102	0.488
509.500	340.842	80.001	19.995	103.921	19.912	10.228	0.530
510.000	341.119	80.007	19.993	103.922	19.910	10.369	0.537
510.500	341.377	79.997	19.995	103.924	19.907	10.592	0.532
511.000	341.612	80.001	19.993	103.922	19.907	10.547	0.514
511.500	341.860	79.998	19.995	103.922	19.909	10.454	0.488
512.000	342.151	80.012	19.993	103.918	19.904	10.767	0.511
512.500	342.389	80.002	19.997	103.913	19.899	11.080	0.534
513.000	342.661	80.003	19.998	103.909	19.898	11.184	0.519
513.500	342.898	80.007	19.989	103.908	19.897	11.227	0.509
514.000	343.152	80.011	19.995	103.910	19.897	11.223	0.500
514.500	343.422	80.011	19.996	103.911	19.892	11.620	0.508
515.000	343.685	80.004	19.993	103.914	19.892	11.592	0.529
515.500	343.933	80.002	20.000	103.920	19.889	11.811	0.522
516.000	344.160	79.998	19.994	103.924	19.887	11.916	0.493
516.500	344.404	80.013	19.999	103.932	19.885	12.084	0.473
517.000	344.659	80.002	19.999	103.936	19.883	12.220	0.485
517.500	344.902	80.009	19.990	103.937	19.881	12.368	0.499
518.000	345.150	80.006	19.994	103.934	19.878	12.571	0.495
518.500	345.450	79.997	19.996	103.935	19.873	12.899	0.520
519.000	345.678	80.015	19.994	103.934	19.875	12.791	0.537
519.500	345.928	80.005	19.995	103.938	19.868	13.231	0.503
520.000	346.177	79.999	19.997	103.939	19.869	13.149	0.488
520.500	346.417	79.995	19.999	103.938	19.869	13.142	0.494
521.000	346.698	80.011	19.998	103.932	19.863	13.554	0.505
521.500	346.986	80.016	19.993	103.927	19.863	13.558	0.545
522.000	347.202	80.017	19.993	103.922	19.859	13.839	0.537
522.500	347.451	79.994	19.996	103.919	19.856	14.035	0.485
523.000	347.754	80.003	19.989	103.921	19.855	14.133	0.508
523.500	347.992	79.997	19.993	103.927	19.849	14.516	0.546
524.000	348.235	79.998	19.998	103.928	19.851	14.400	0.511
524.500	348.510	79.994	19.998	103.926	19.849	14.565	0.500
525.000	348.760	80.004	19.992	103.926	19.847	14.717	0.522
525.500	349.023	80.016	19.994	103.925	19.841	15.127	0.519
526.000	349.277	80.008	19.994	103.930	19.840	15.168	0.515
526.500	349.600	79.999	19.990	103.932	19.837	15.394	0.547
527.000	349.811	80.004	19.995	103.931	19.832	15.713	0.555
527.500	350.075	80.003	19.990	103.933	19.833	15.639	0.504
528.000	350.336	80.011	19.993	103.940	19.833	15.637	0.500
528.500	350.594	79.992	19.997	103.942	19.829	15.937	0.522
529.000	350.834	80.009	19.993	103.940	19.831	15.753	0.508
529.500	351.122	80.006	19.993	103.944	19.827	16.040	0.513
530.000	351.376	80.008	19.997	103.942	19.827	16.038	0.535
530.500	351.616	80.013	19.993	103.936	19.824	16.257	0.518
531.000	351.864	80.003	19.997	103.930	19.822	16.406	0.491
531.500	352.175	80.008	19.992	103.929	19.823	16.334	0.523
532.000	352.399	80.003	19.994	103.933	19.820	16.529	0.547
532.500	352.681	80.007	19.992	103.933	19.818	16.696	0.520
533.000	352.933	80.011	19.991	103.934	19.821	16.448	0.520
533.500	353.208	79.997	19.994	103.936	19.818	16.690	0.530
534.000	353.454	79.996	19.993	103.935	19.817	16.734	0.524
534.500	353.743	80.009	19.997	103.932	19.814	16.971	0.528
535.000	354.007	79.998	19.994	103.933	19.813	17.033	0.544
535.500	354.318	80.014	19.991	103.929	19.812	17.081	0.564
536.000	354.581	80.016	19.990	103.928	19.810	17.259	0.575
536.500	354.804	79.995	19.996	103.935	19.806	17.466	0.530
537.000	355.078	80.003	19.994	103.934	19.805	17.557	0.491
537.500	355.357	79.981	19.992	103.936	19.804	17.667	0.525
538.000	355.574	80.010	19.996	103.938	19.799	17.979	0.525
538.500	355.841	80.014	19.991	103.937	19.800	17.894	0.490
539.000	356.062	79.988	19.998	103.937	19.794	18.329	0.486
539.500	356.363	80.006	19.990	103.930	19.795	18.274	0.505
540.000	356.627	80.009	19.994	103.932	19.793	18.376	0.543
540.500	356.861	79.991	20.000	103.937	19.788	18.746	0.531
541.000	357.136	80.003	19.993	103.933	19.789	18.645	0.504
541.500	357.363	80.001	19.995	103.926	19.788	18.766	0.506
542.000	357.661	80.009	19.994	103.927	19.785	18.915	0.513
542.500	357.935	80.003	19.991	103.930	19.779	19.343	0.549
543.000	358.176	80.024	19.992	103.932	19.781	19.242	0.543
543.500	358.436	79.993	19.996	103.944	19.776	19.546	0.508
544.000	358.696	80.007	19.994	103.948	19.774	19.683	0.511
544.500	358.951	80.006	19.995	103.954	19.772	19.822	0.518
545.000	359.220	80.019	19.987	103.946	19.770	20.010	0.520
545.500	359.477	80.010	19.995	103.942	19.763	20.429	0.525
546.000	359.733	80.014	19.994	103.932	19.762	20.557	0.519
546.500	359.947	79.989	19.995	103.928	19.761	20.601	0.491
547.000	360.229	80.006	19.996	103.917	19.755	21.021	0.483
547.500	360.518	80.002	19.994	103.921	19.754	21.066	0.534
548.000	360.801	80.009	19.988	103.924	19.745	21.681	0.572
548.500	361.013	79.995	19.999	103.930	19.745	21.699	0.533
549.000	361.266	80.009	19.993	103.928	19.744	21.768	0.480
549.500	361.556	80.013	19.994	103.936	19.739	22.090	0.504
550.000	361.820	80.009	19.991	103.936	19.737	22.251	0.549
550.500	362.021	79.999	19.999	103.932	19.732	22.613	0.510
551.000	362.311	79.999	19.989	103.926	19.730	22.735	0.478
551.500	362.591	80.009	19.995	103.933	19.725	23.049	0.530
552.000	362.806	80.009	19.990	103.935	19.722	23.293	0.532
552.500	363.053	80.012	19.998	103.938	19.716	23.677	0.479
553.000	363.273	79.993	19.999	103.939	19.712	23.932	0.465
553.500	363.535	80.013	19.991	103.942	19.708	24.260	0.475
554.000	363.782	80.007	19.995	103.943	19.702	24.620	0.495
554.500	364.058	79.992	19.996	103.942	19.697	24.991	0.516
555.000	364.329	80.009	19.996	103.940	19.691	25.437	0.535
555.500	364.557	79.989	19.996	103.937	19.682	26.048	0.523
556.000	364.813	80.017	19.993	103.937	19.683	25.985	0.491
556.500	365.112	80.013	19.994	103.940	19.679	26.259	0.519
557.000	365.348	80.007	19.995	103.938	19.669	26.888	0.545
557.500	365.605	80.002	19.995	103.935	19.669	26.933	0.515
558.000	365.878	80.002	19.991	103.935	19.661	27.457	0.512
558.500	366.098	80.007	19.994	103.934	19.658	27.651	0.511
559.000	366.380	80.003	19.993	103.929	19.652	28.060	0.497
559.500	366.614	80.001	19.996	103.926	19.645	28.551	0.509
560.000	366.892	79.998	19.996	103.925	19.638	29.048	0.514
560.500	367.097	80.009	19.998	103.923	19.636	29.186	0.497
561.000	367.333	79.997	19.998	103.920	19.627	29.766	0.462
561.500	367.621	80.011	19.990	103.923	19.622	30.165	0.482
562.000	367.892	80.002	19.994	103.929	19.621	30.230	0.541
562.500	368.140	80.012	19.996	103.936	19.612	30.828	0.539
563.000	368.407	80.009	19.996	103.943	19.604	31.396	0.517
563.500	368.634	80.007	19.995	103.950	19.597	31.836	0.504
564.000	368.901	80.006	19.992	103.952	19.591	32.313	0.494
564.500	369.164	80.022	19.992	103.947	19.583	32.847	0.512
565.000	369.421	80.019	19.994	103.948	19.579	33.081	0.525
565.500	369.663	80.016	19.992	103.948	19.573	33.529	0.510
566.000	369.898	79.987	19.997	103.946	19.565	34.051	0.488
566.500	370.166	80.005	19.996	103.942	19.560	34.404	0.490
567.000	370.421	80.025	19.992	103.948	19.550	35.077	0.513
567.500	370.674	80.011	19.996	103.944	19.542	35.626	0.515
568.000	370.915	80.019	19.993	103.939	19.535	36.094	0.501
568.500	371.155	80.010	19.992	103.937	19.527	36.694	0.487
569.000	371.424	79.999	19.993	103.938	19.520	37.167	0.495
569.500	371.669	79.996	19.993	103.933	19.513	37.657	0.512
570.000	371.959	80.019	19.992	103.929	19.504	38.255	0.525
570.500	372.150	80.002	19.994	103.934	19.496	38.796	0.508
571.000	372.424	80.012	19.992	103.932	19.484	39.631	0.473
571.500	372.676	80.009	20.000	103.930	19.478	40.072	0.496
572.000	372.934	80.011	19.987	103.929	19.470	40.566	0.518
572.500	373.198	80.013	19.990	103.936	19.462	41.171	0.515
573.000	373.441	80.023	19.992	103.940	19.454	41.690	0.515
573.500	373.696	80.006	19.996	103.949	19.445	42.296	0.503
574.000	373.986	79.993	19.996	103.953	19.437	42.856	0.521
574.500	374.237	79.995	19.995	103.958	19.424	43.732	0.543
575.000	374.472	80.028	19.985	103.959	19.414	44.450	0.514
575.500	374.730	80.006	19.997	103.963	19.406	45.010	0.489
576.000	374.989	80.006	19.992	103.959	19.398	45.577	0.505
576.500	375.234	80.000	19.997	103.959	19.386	46.360	0.511
577.000	375.434	79.993	19.998	103.960	19.376	47.043	0.475
577.500	375.689	80.001	19.990	103.958	19.364	47.901	0.450
578.000	375.930	80.001	19.998	103.952	19.354	48.570	0.475
578.500	376.199	79.990	19.996	103.951	19.341	49.471	0.503
579.000	376.468	80.017	19.992	103.947	19.334	49.961	0.524
579.500	376.699	80.008	19.994	103.947	19.318	51.052	0.519
580.000	376.979	79.995	20.000	103.949	19.308	51.717	0.505
580.500	377.212	79.999	19.993	103.948	19.297	52.504	0.512
581.000	377.460	79.999	19.999	103.952	19.286	53.220	0.497
581.500	377.701	80.015	19.993	103.953	19.273	54.113	0.485
582.000	377.971	80.005	19.998	103.956	19.261	54.951	0.501
582.500	378.214	80.008	19.995	103.953	19.248	55.872	0.512
583.000	378.424	79.992	19.994	103.954	19.234	56.814	0.483
583.500	378.690	80.012	19.998	103.955	19.219	57.848	0.465
584.000	378.927	80.006	19.999	103.958	19.206	58.767	0.490
584.500	379.175	80.022	19.995	103.953	19.195	59.465	0.494
585.000	379.427	80.013	19.992	103.959	19.184	60.235	0.492
585.500	379.673	79.999	19.996	103.965	19.168	61.331	0.499
586.000	379.919	79.999	19.995	103.962	19.154	62.294	0.496
586.500	380.170	80.000	19.997	103.963	19.142	63.159	0.495
587.000	380.449	80.004	19.995	103.963	19.128	64.147	0.513
587.500	380.685	80.004	19.991	103.959	19.117	64.885	0.522
588.000	380.947	80.003	19.996	103.953	19.103	65.861	0.507
588.500	381.202	79.997	19.995	103.952	19.087	66.974	0.507
589.000	381.441	80.006	19.993	103.949	19.073	67.905	0.505
589.500	381.686	79.999	19.996	103.951	19.056	69.088	0.489
590.000	381.940	80.000	19.996	103.952	19.038	70.306	0.491
590.500	382.171	80.004	19.998	103.951	19.026	71.146	0.492
591.000	382.442	80.021	19.990	103.951	19.011	72.119	0.494
591.500	382.683	80.003	19.996	103.955	18.991	73.487	0.507
592.000	382.936	80.003	19.993	103.956	18.979	74.377	0.503
592.500	383.146	80.003	19.994	103.956	18.965	75.335	0.478
593.000	383.399	80.010	19.994	103.957	18.947	76.525	0.463
593.500	383.677	80.005	19.993	103.957	18.932	77.576	0.497
594.000	383.923	79.991	19.995	103.958	18.915	78.762	0.527
594.500	384.180	80.008	19.993	103.957	18.897	80.010	0.514
595.000	384.416	80.009	19.993	103.958	18.877	81.362	0.498
595.500	384.685	80.010	19.993	103.960	18.857	82.738	0.499
596.000	384.910	80.004	19.992	103.967	18.837	84.118	0.499
596.500	385.174	80.010	19.991	103.969	18.823	85.121	0.492
597.000	385.375	80.010	19.993	103.978	18.803	86.501	0.477
597.500	385.652	80.005	19.994	103.987	18.781	87.962	0.472
598.000	385.911	80.002	19.996	103.996	18.763	89.216	0.507
598.500	386.167	80.004	19.993	103.995	18.741	90.741	0.526
599.000	386.406	80.007	19.995	103.997	18.723	91.952	0.505
599.500	386.637	80.001	19.997	103.997	18.704	93.265	0.482
600.000	386.896	80.005	19.996	103.992	18.683	94.720	0.480
600.500	387.150	80.002	20.001	103.987	18.662	96.146	0.501
601.000	387.441	79.985	19.994	103.983	18.642	97.540	0.529
601.500	387.691	80.009	19.995	103.975	18.620	99.099	0.544
602.000	387.957	80.023	19.988	103.966	18.598	100.617	0.529
602.500	388.212	80.014	19.994	103.970	18.575	102.178	0.518
603.000	388.472	80.018	19.992	103.973	18.557	103.413	0.517
603.500	388.700	80.008	19.994	103.979	18.534	105.010	0.501
604.000	388.947	80.007	19.994	103.986	18.515	106.326	0.482
604.500	389.207	80.014	19.990	103.995	18.489	108.083	0.492
605.000	389.441	79.995	19.995	103.995	18.467	109.643	0.501
605.500	389.680	80.004	19.990	103.993	18.446	111.035	0.483
606.000	389.968	80.004	19.993	103.995	18.427	112.343	0.500
606.500	390.172	80.000	19.994	103.996	18.406	113.786	0.509
607.000	390.464	79.997	19.994	104.000	18.388	115.057	0.493
607.500	390.709	80.007	19.991	103.999	18.369	116.306	0.516
608.000	390.946	80.001	19.992	104.005	18.350	117.655	0.510
608.500	391.213	79.999	19.997	104.001	18.325	119.338	0.493
609.000	391.488	79.995	19.994	103.999	18.301	121.051	0.524
609.500	391.703	79.986	20.001	103.998	18.276	122.729	0.516
610.000	391.989	80.003	19.994	103.997	18.253	124.318	0.495
610.500	392.237	80.002	19.996	103.996	18.231	125.790	0.517
611.000	392.467	80.002	19.998	104.005	18.207	127.449	0.506
611.500	392.730	79.999	19.992	104.012	18.179	129.384	0.486
612.000	392.982	80.001	19.996	104.016	18.152	131.265	0.504
612.500	393.213	79.993	19.996	104.025	18.121	133.363	0.499
613.000	393.512	80.005	19.990	104.026	18.096	135.079	0.507
613.500	393.768	80.017	19.992	104.029	18.062	137.438	0.542
614.000	394.040	80.002	19.995	104.038	18.034	139.369	0.541
614.500	394.251	80.007	19.995	104.041	18.003	141.552	0.505
615.000	394.539	80.002	19.992	104.043	17.973	143.639	0.491
615.500	394.790	80.018	19.991	104.051	17.944	145.594	0.519
616.000	395.027	80.004	19.995	104.059	17.910	148.002	0.513
616.500	395.277	80.005	19.991	104.053	17.878	150.201	0.488
617.000	395.542	79.997	20.000	104.053	17.848	152.245	0.501
617.500	395.812	79.995	20.000	104.051	17.820	154.159	0.525
618.000	396.054	80.010	19.993	104.046	17.787	156.484	0.523
618.500	396.308	79.997	19.994	104.036	17.754	158.712	0.504
619.000	396.584	80.007	19.993	104.034	17.720	161.089	0.513
619.500	396.805	80.004	19.994	104.033	17.688	163.234	0.514
620.000	397.047	80.017	19.994	104.040	17.659	165.244	0.481
620.500	397.329	80.001	19.995	104.039	17.628	167.341	0.494
621.000	397.558	80.011	19.993	104.032	17.597	169.474	0.517
621.500	397.840	80.008	19.992	104.029	17.571	171.341	0.511
622.000	398.074	80.006	19.995	104.030	17.544	173.216	0.513
622.500	398.296	79.997	19.994	104.024	17.511	175.451	0.486
623.000	398.572	79.996	19.997	104.024	17.479	177.594	0.477
623.500	398.839	80.006	19.991	104.029	17.446	179.822	0.520
624.000	399.074	80.003	19.993	104.035	17.410	182.190	0.522
624.500	399.351	80.012	19.994	104.036	17.374	184.564	0.507
625.000	399.612	80.016	19.994	104.042	17.337	187.067	0.525
625.500	399.855	80.010	19.994	104.051	17.296	189.827	0.521
626.000	400.094	79.995	19.993	104.064	17.256	192.523	0.493
626.500	400.352	79.988	19.995	104.076	17.216	195.196	0.490
627.000	400.580	80.022	19.989	104.079	17.172	198.268	0.492
627.500	400.834	80.004	19.996	104.089	17.129	201.206	0.484
628.000	401.083	80.006	19.992	104.098	17.083	204.444	0.492
628.500	401.335	80.007	19.994	104.098	17.034	207.934	0.502
629.000	401.591	80.003	19.993	104.097	16.977	211.942	0.505
629.500	401.850	80.003	19.993	104.101	16.916	216.262	0.511
630.000	402.127	79.998	19.992	104.099	16.843	221.450	0.525
630.500	402.336	79.998	19.996	104.095	16.777	226.192	0.511
631.000	402.683	80.014	19.992	104.091	16.710	230.975	0.521
631.500	402.929	80.010	19.994	104.083	16.652	235.133	0.575
632.000	403.169	80.013	19.993	104.083	16.607	238.302	0.539
632.500	403.417	80.011	19.993	104.104	16.572	240.771	0.487
633.000	403.668	80.013	19.994	104.104	16.551	242.176	0.493
633.500	403.917	80.020	19.990	104.084	16.529	243.551	0.499
634.000	404.174	80.002	19.997	104.068	16.516	244.315	0.503
634.500	404.419	80.002	19.993	104.034	16.503	245.106	0.504
635.000	404.713	80.010	19.989	103.976	16.494	245.589	0.521
635.500	404.960	79.998	20.000	103.929	16.484	246.158	0.540
636.000	405.239	80.001	19.994	103.903	16.472	246.924	0.533
636.500	405.493	80.005	19.992	103.863	16.454	248.123	0.529
637.000	405.761	80.009	19.991	103.844	16.441	249.051	0.527
637.500	406.035	80.013	19.990	103.814	16.415	250.782	0.532
638.000	406.289	80.009	19.997	103.828	16.389	252.521	0.535
638.500	406.543	79.998	19.996	103.842	16.364	254.272	0.518
639.000	406.794	80.011	19.993	103.881	16.330	256.634	0.507
639.500	407.020	79.999	19.996	103.916	16.296	258.947	0.491
640.000	407.329	80.024	19.999	103.968	16.258	261.606	0.507
640.500	407.550	80.005	20.000	104.032	16.219	264.267	0.532
641.000	407.884	80.012	19.994	104.108	16.180	266.949	0.542
641.500	408.106	80.003	19.992	104.197	16.141	269.648	0.556
642.000	408.345	80.012	19.997	104.290	16.106	272.087	0.509
642.500	408.628	80.005	19.991	104.359	16.069	274.618	0.491
643.000	408.883	80.005	19.991	104.394	16.026	277.547	0.530
643.500	409.133	80.008	19.994	104.412	15.977	280.919	0.522
644.000	409.409	80.003	19.994	104.375	15.928	284.299	0.515
644.500	409.643	80.018	19.995	104.323	15.880	287.660	0.518
645.000	409.929	80.000	19.994	104.277	15.833	290.950	0.515
645.500	410.154	80.004	19.991	104.211	15.784	294.330	0.516
646.000	410.426	80.005	19.994	104.156	15.738	297.589	0.505
646.500	410.697	80.004	19.997	104.128	15.692	300.758	0.520
647.000	410.939	80.011	19.993	104.102	15.646	303.964	0.528
647.500	411.230	80.020	19.994	104.084	15.602	306.988	0.522
648.000	411.479	79.990	19.996	104.080	15.557	310.098	0.536
648.500	411.734	79.998	19.993	104.070	15.516	312.867	0.522
649.000	412.011	80.013	19.993	104.056	15.469	316.023	0.518
649.500	412.285	80.017	19.991	104.054	15.431	318.645	0.542
650.000	412.530	80.002	19.996	104.054	15.387	321.655	0.535
650.500	412.774	80.009	19.995	104.056	15.340	324.873	0.504
651.000	413.030	80.008	19.996	104.062	15.303	327.390	0.494
651.500	413.297	80.014	19.992	104.071	15.262	330.233	0.512
652.000	413.558	80.011	19.993	104.076	15.217	333.335	0.525
652.500	413.808	80.009	19.997	104.079	15.170	336.547	0.519
653.000	414.090	80.014	19.991	104.074	15.127	339.504	0.521
653.500	414.330	80.013	19.997	104.074	15.076	343.052	0.527
654.000	414.549	79.999	19.995	104.076	15.028	346.343	0.491
654.500	414.803	79.994	19.995	104.072	14.981	349.532	0.466
655.000	415.069	80.004	19.993	104.077	14.932	352.926	0.497
655.500	415.317	79.988	19.997	104.093	14.888	355.962	0.517
656.000	415.562	80.005	19.993	104.104	14.844	359.016	0.504
656.500	415.862	80.021	19.993	104.117	14.803	361.830	0.519
657.000	416.109	80.010	19.993	104.138	14.755	365.145	0.546
657.500	416.355	80.003	19.997	104.148	14.714	367.948	0.520
658.000	416.638	80.002	19.995	104.155	14.664	371.417	0.511
658.500	416.887	80.005	19.998	104.160	14.625	374.086	0.530
659.000	417.128	79.999	19.998	104.157	14.572	377.790	0.511
659.500	417.340	79.994	19.997	104.143	14.530	380.696	0.472
660.000	417.594	80.005	19.996	104.127	14.488	383.640	0.459
660.500	417.890	80.003	19.999	104.113	14.445	386.562	0.507
661.000	418.154	80.000	19.990	104.110	14.395	390.079	0.555
661.500	418.398	80.005	19.998	104.108	14.354	392.935	0.534
662.000	418.651	80.002	19.991	104.098	14.313	395.724	0.503
662.500	418.880	79.998	19.989	104.101	14.269	398.860	0.490
663.000	419.141	79.997	19.996	104.108	14.230	401.522	0.486
663.500	419.376	80.005	19.994	104.097	14.195	403.962	0.493
664.000	419.622	80.007	19.999	104.094	14.157	406.509	0.488
664.500	419.868	80.007	19.991	104.111	14.125	408.689	0.487
665.000	420.168	80.013	19.992	104.111	14.092	410.847	0.519
665.500	420.408	80.019	19.995	104.099	14.062	412.910	0.543
666.000	420.698	80.003	19.995	104.108	14.033	414.857	0.535
666.500	420.933	80.012	19.990	104.111	13.997	417.282	0.527
667.000	421.188	80.007	19.996	104.104	13.967	419.340	0.507
667.500	421.403	79.994	19.996	104.111	13.939	421.357	0.480
668.000	421.669	79.992	19.994	104.112	13.907	423.510	0.476
668.500	421.940	80.001	19.991	104.105	13.878	425.512	0.509
669.000	422.166	80.001	19.986	104.114	13.853	427.213	0.517
669.500	422.432	80.008	19.992	104.114	13.823	429.306	0.495
670.000	422.690	80.013	19.998	104.122	13.795	431.241	0.508
670.500	422.920	80.004	19.997	104.133	13.767	433.205	0.506
671.000	423.189	80.000	19.995	104.139	13.740	435.088	0.493
671.500	423.450	80.012	19.993	104.144	13.717	436.774	0.514
672.000	423.676	79.992	19.992	104.155	13.692	438.529	0.508
672.500	423.918	80.003	19.997	104.166	13.672	439.990	0.478
673.000	424.173	80.011	19.992	104.163	13.650	441.549	0.483
673.500	424.448	80.009	19.992	104.181	13.637	442.466	0.513
674.000	424.649	80.007	19.993	104.172	13.620	443.682	0.503
674.500	424.955	80.017	19.994	104.183	13.611	444.312	0.492
675.000	425.171	80.000	20.000	104.162	13.599	445.139	0.514
675.500	425.386	80.004	20.003	104.169	13.594	445.474	0.477
676.000	425.649	80.002	19.996	104.139	13.590	445.748	0.455
676.500	425.945	80.001	19.998	104.140	13.587	445.944	0.518
677.000	426.189	80.003	19.994	104.112	13.588	445.861	0.549
677.500	426.444	80.005	19.995	104.115	13.589	445.775	0.519
678.000	426.709	80.004	19.996	104.104	13.593	445.498	0.509
678.500	426.967	80.005	19.998	104.119	13.601	444.934	0.522
679.000	427.233	80.005	19.997	104.108	13.607	444.515	0.524
679.500	427.471	80.004	19.996	104.120	13.615	444.031	0.513
680.000	427.737	80.006	19.993	104.107	13.627	443.197	0.504
680.500	427.982	80.008	19.995	104.116	13.638	442.436	0.508
681.000	428.235	80.007	19.995	104.115	13.651	441.618	0.505
681.500	428.492	80.003	19.995	104.132	13.667	440.447	0.504
682.000	428.741	79.993	19.997	104.140	13.681	439.482	0.508
682.500	429.022	79.991	19.998	104.161	13.703	438.048	0.518
683.000	429.259	80.017	19.993	104.171	13.726	436.470	0.524
683.500	429.480	80.001	19.995	104.183	13.751	434.732	0.488
684.000	429.744	80.001	19.995	104.192	13.778	432.908	0.471
684.500	430.004	80.011	19.994	104.197	13.800	431.370	0.505
685.000	430.231	80.002	19.996	104.214	13.830	429.256	0.506
685.500	430.516	80.007	19.996	104.212	13.862	427.110	0.499
686.000	430.777	80.005	19.992	104.220	13.892	425.035	0.529
686.500	431.049	80.010	19.994	104.214	13.925	422.784	0.539
687.000	431.304	80.006	19.992	104.217	13.964	420.192	0.530
687.501	431.551	80.004	19.994	104.203	14.000	417.709	0.515
688.000	431.815	80.004	19.995	104.200	14.039	415.056	0.506
688.500	432.073	80.028	19.992	104.197	14.083	411.997	0.517
689.000	432.353	79.999	19.993	104.201	14.127	408.923	0.530
689.500	432.597	79.994	19.996	104.197	14.173	405.769	0.531
690.000	432.835	80.001	19.993	104.204	14.222	402.371	0.503
690.500	433.102	79.996	19.996	104.214	14.268	399.159	0.493
691.000	433.390	80.010	19.992	104.208	14.318	395.760	0.530
691.500	433.646	80.004	19.993	104.218	14.371	392.054	0.549
692.000	433.903	79.987	19.993	104.228	14.430	387.991	0.529
692.500	434.150	79.999	19.996	104.219	14.484	384.227	0.508
693.000	434.434	80.002	19.997	104.222	14.541	380.295	0.518
693.500	434.705	80.011	19.989	104.235	14.602	376.111	0.543
694.000	434.955	80.004	19.993	104.237	14.663	371.906	0.538
694.500	435.210	80.015	19.993	104.236	14.724	367.674	0.513
695.000	435.408	80.004	19.995	104.239	14.789	363.250	0.479
695.500	435.716	79.997	19.994	104.235	14.850	359.086	0.480
696.000	435.968	80.000	19.992	104.230	14.920	354.252	0.533
696.500	436.263	80.010	19.991	104.230	14.989	349.488	0.554
697.000	436.491	80.008	19.994	104.239	15.056	344.813	0.536
697.500	436.773	80.019	19.992	104.249	15.127	339.889	0.517
698.000	437.069	80.019	19.991	104.261	15.196	335.106	0.544
698.500	437.292	80.007	19.992	104.267	15.271	329.945	0.548
699.000	437.550	80.004	19.995	104.266	15.341	325.122	0.500
699.500	437.820	80.005	19.995	104.259	15.416	319.950	0.505
700.000	438.079	80.012	19.995	104.257	15.493	314.653	0.529
700.500	438.307	79.999	19.995	104.254	15.573	309.166	0.508
701.000	438.604	80.012	19.995	104.253	15.644	304.214	0.506
701.500	438.841	80.005	19.991	104.252	15.722	298.841	0.529
702.000	439.115	79.990	19.997	104.256	15.798	293.598	0.522
702.500	439.348	80.004	19.995	104.250	15.875	288.281	0.509
703.000	439.624	79.999	19.994	104.245	15.956	282.711	0.508
703.500	439.894	80.004	19.996	104.236	16.029	277.602	0.528
704.000	440.169	79.998	19.996	104.230	16.108	272.194	0.546
704.500	440.452	80.009	19.994	104.227	16.188	266.643	0.551
705.000	440.698	80.004	19.990	104.230	16.265	261.304	0.543
705.500	440.976	80.000	19.992	104.233	16.342	255.994	0.526
706.000	441.268	80.020	19.992	104.240	16.422	250.535	0.547
706.500	441.506	80.001	19.991	104.243	16.500	245.150	0.550
707.000	441.790	80.006	19.988	104.240	16.578	239.744	0.526
707.500	442.086	80.006	19.995	104.239	16.653	234.560	0.551
708.000	442.282	80.003	20.000	104.236	16.730	229.253	0.536
708.500	442.518	80.002	19.992	104.227	16.808	223.848	0.462
709.000	442.854	80.014	19.991	104.220	16.883	218.674	0.502
709.500	443.103	80.002	19.993	104.216	16.959	213.392	0.579
710.000	443.387	80.010	19.998	104.213	17.034	208.256	0.559
710.500	443.626	80.010	19.996	104.211	17.112	202.872	0.528
711.000	443.878	80.008	19.993	104.212	17.184	197.888	0.507
711.500	444.153	80.013	19.989	104.209	17.254	193.104	0.509
712.000	444.403	80.010	19.994	104.207	17.325	188.209	0.526
712.500	444.661	80.007	19.999	104.199	17.395	183.373	0.517
713.000	444.931	80.007	19.995	104.192	17.468	178.312	0.518
713.500	445.241	80.003	19.993	104.186	17.535	173.700	0.554
714.000	445.504	80.002	19.995	104.184	17.598	169.350	0.576
714.500	445.755	80.011	19.995	104.175	17.663	164.877	0.543
715.000	446.019	80.011	19.994	104.168	17.728	160.393	0.515
715.500	446.289	80.014	19.996	104.162	17.794	155.899	0.524
716.000	446.579	80.004	19.994	104.157	17.852	151.870	0.547
716.500	446.823	80.004	19.996	104.148	17.915	147.522	0.547
717.000	447.068	80.017	19.996	104.147	17.974	143.477	0.512
717.500	447.336	80.007	19.990	104.148	18.037	139.132	0.501
718.000	447.611	79.999	19.995	104.145	18.096	135.104	0.527
718.500	447.889	80.005	19.995	104.136	18.151	131.313	0.548
719.000	448.183	80.006	19.991	104.128	18.203	127.751	0.563
719.500	448.421	80.000	19.994	104.115	18.260	123.814	0.552
720.000	448.686	80.007	19.994	104.104	18.310	120.382	0.518
720.500	448.971	80.003	19.994	104.092	18.362	116.806	0.526
721.000	449.250	79.996	19.999	104.085	18.411	113.400	0.556
721.500	449.501	80.009	19.993	104.078	18.461	109.971	0.547
722.000	449.740	79.995	19.996	104.076	18.505	106.961	0.510
722.500	450.005	80.006	19.995	104.066	18.554	103.543	0.497
723.000	450.260	80.023	19.990	104.060	18.602	100.250	0.512
723.500	450.558	80.014	19.993	104.055	18.644	97.389	0.536
724.000	450.805	80.014	19.991	104.052	18.686	94.496	0.549
724.500	451.101	80.015	19.991	104.043	18.730	91.502	0.544
725.000	451.357	80.015	19.993	104.042	18.772	88.561	0.548
725.500	451.661	80.026	19.991	104.038	18.806	86.238	0.556
726.000	451.892	79.998	19.993	104.038	18.849	83.259	0.548
726.500	452.150	80.014	19.992	104.034	18.883	80.912	0.512
727.000	452.411	80.009	19.994	104.034	18.918	78.539	0.503
727.500	452.679	80.014	19.992	104.031	18.952	76.219	0.524
728.000	452.959	80.006	19.995	104.029	18.986	73.845	0.539
728.500	453.205	80.001	19.995	104.018	19.017	71.706	0.538
729.000	453.459	80.001	19.988	104.013	19.050	69.471	0.513
729.500	453.747	80.006	19.995	104.006	19.080	67.368	0.520
730.000	454.026	80.008	19.992	104.004	19.110	65.328	0.554
730.500	454.272	80.008	19.995	104.006	19.139	63.375	0.546
731.000	454.536	79.998	19.997	104.004	19.165	61.524	0.517
731.500	454.785	80.008	19.999	103.999	19.193	59.619	0.512
732.000	455.064	80.011	19.993	103.994	19.218	57.887	0.521
732.500	455.340	80.007	19.989	103.989	19.244	56.092	0.542
733.000	455.607	80.002	19.989	103.985	19.268	54.487	0.549
733.500	455.884	80.016	19.995	103.987	19.291	52.900	0.543
734.000	456.127	79.999	19.995	103.989	19.313	51.396	0.532
734.500	456.399	80.013	19.994	103.992	19.335	49.835	0.517
735.000	456.662	80.010	19.991	103.992	19.357	48.378	0.525
735.500	456.901	80.006	19.996	103.991	19.379	46.866	0.519
736.000	457.163	80.004	19.996	103.982	19.399	45.483	0.502
736.500	457.450	80.003	19.995	103.976	19.420	44.017	0.525
737.000	457.700	80.010	19.992	103.974	19.436	42.887	0.543
737.500	457.979	80.008	19.993	103.967	19.455	41.605	0.533
738.000	458.234	80.010	19.995	103.962	19.470	40.602	0.531
738.500	458.480	80.008	19.995	103.967	19.487	39.375	0.518
739.000	458.783	80.015	19.993	103.967	19.501	38.464	0.525
739.500	459.036	80.011	19.993	103.965	19.515	37.453	0.552
740.000	459.298	80.001	19.994	103.966	19.532	36.294	0.535
740.500	459.558	80.002	19.994	103.963	19.548	35.213	0.518
741.000	459.806	80.005	19.994	103.960	19.560	34.389	0.515
741.500	460.067	80.009	19.995	103.958	19.572	33.578	0.508
742.000	460.343	80.004	19.995	103.953	19.586	32.630	0.523
742.500	460.590	80.009	19.995	103.943	19.599	31.742	0.530
743.000	460.809	80.006	19.997	103.937	19.609	31.043	0.495
743.500	461.079	79.996	19.998	103.929	19.624	29.979	0.478
744.000	461.298	80.001	19.997	103.922	19.630	29.554	0.489
744.500	461.610	80.000	19.994	103.923	19.647	28.429	0.510
745.000	461.901	80.004	19.995	103.930	19.655	27.856	0.567
745.500	462.140	80.011	19.995	103.933	19.668	26.985	0.566
746.000	462.366	80.003	19.994	103.934	19.678	26.303	0.497
746.500	462.618	80.007	19.994	103.931	19.686	25.712	0.472
747.000	462.892	80.004	19.996	103.926	19.697	25.007	0.502
747.500	463.155	80.001	19.995	103.918	19.710	24.099	0.531
748.000	463.391	80.003	19.997	103.912	19.716	23.647	0.518
748.500	463.654	80.001	19.995	103.907	19.723	23.186	0.499
749.000	463.924	80.011	19.994	103.905	19.731	22.645	0.516
749.500	464.202	80.004	19.997	103.903	19.740	22.020	0.540
750.000	464.431	80.000	19.995	103.901	19.748	21.472	0.527
750.500	464.673	80.014	19.993	103.902	19.754	21.057	0.489
751.000	464.936	80.005	19.995	103.902	19.760	20.622	0.488
751.500	465.167	80.011	19.997	103.904	19.768	20.098	0.500
752.000	465.436	80.004	19.995	103.905	19.776	19.521	0.497
752.500	465.705	79.998	19.996	103.907	19.782	19.159	0.518
753.000	465.969	80.007	19.994	103.902	19.788	18.713	0.535
753.500	466.222	79.997	19.994	103.902	19.796	18.171	0.525
754.000	466.433	80.002	19.996	103.901	19.802	17.751	0.490
754.500	466.720	80.005	19.993	103.897	19.808	17.361	0.481
755.000	466.986	80.008	19.992	103.893	19.811	17.171	0.526
755.500	467.227	80.006	19.994	103.894	19.819	16.612	0.530
756.000	467.460	80.006	19.995	103.897	19.826	16.097	0.490
756.500	467.710	80.007	19.997	103.898	19.829	15.942	0.479
757.000	467.969	80.001	19.995	103.903	19.833	15.649	0.496
757.500	468.232	80.006	19.996	103.905	19.838	15.307	0.515
758.000	468.507	80.001	19.994	103.907	19.844	14.860	0.530
758.500	468.752	80.006	19.994	103.903	19.850	14.457	0.529
759.000	469.000	80.003	19.997	103.901	19.856	14.072	0.507
759.500	469.239	80.005	19.995	103.899	19.859	13.835	0.491
760.000	469.513	80.004	19.996	103.899	19.866	13.362	0.500
760.500	469.764	80.010	19.994	103.895	19.869	13.195	0.519
761.000	469.986	80.004	19.995	103.893	19.875	12.774	0.499
761.500	470.291	80.009	19.993	103.888	19.880	12.392	0.500
762.000	470.507	80.005	19.993	103.886	19.882	12.268	0.524
762.500	470.773	80.000	19.995	103.885	19.890	11.698	0.501
763.000	471.056	80.002	19.997	103.886	19.892	11.599	0.515
763.500	471.305	80.012	19.992	103.884	19.892	11.557	0.541
764.000	471.548	80.005	19.996	103.885	19.902	10.920	0.512
764.500	471.792	80.008	19.994	103.884	19.901	10.967	0.489
765.000	472.032	80.001	19.994	103.882	19.908	10.470	0.485
765.500	472.332	80.000	19.995	103.879	19.911	10.261	0.512
766.000	472.550	80.014	19.993	103.878	19.915	9.992	0.530
766.500	472.802	80.006	19.994	103.879	19.921	9.626	0.495
767.000	473.075	80.003	19.993	103.878	19.926	9.233	0.497
767.500	473.317	80.003	19.995	103.877	19.928	9.148	0.519
768.000	473.591	80.005	19.995	103.877	19.936	8.554	0.516
768.500	473.811	80.007	19.994	103.878	19.938	8.456	0.505
769.000	474.085	80.004	19.997	103.876	19.940	8.269	0.494
769.500	474.337	80.005	19.994	103.874	19.948	7.741	0.510
770.000	474.615	80.008	19.992	103.873	19.954	7.331	0.528
770.500	474.853	80.001	19.993	103.874	19.958	7.062	0.523
771.000	475.122	80.005	19.996	103.875	19.966	6.497	0.511
771.500	475.388	80.007	19.994	103.874	19.967	6.443	0.521
772.000	475.646	80.004	19.997	103.877	19.972	6.109	0.529
772.500	475.878	80.002	19.997	103.881	19.977	5.775	0.507
773.000	476.163	80.004	19.996	103.883	19.981	5.509	0.504
773.500	476.393	80.008	19.994	103.884	19.984	5.255	0.516
774.000	476.670	80.004	19.996	103.884	19.991	4.821	0.511
774.500	476.919	80.002	19.994	103.879	19.997	4.344	0.517
775.000	477.176	80.004	19.995	103.873	20.001	4.086	0.516
775.500	477.414	80.003	19.994	103.870	20.003	3.972	0.500
776.000	477.682	80.008	19.995	103.868	20.005	3.846	0.501
776.500	477.938	80.004	19.995	103.868	20.010	3.484	0.515
777.000	478.192	80.006	19.993	103.873	20.011	3.398	0.516
777.500	478.425	80.008	19.994	103.876	20.017	3.035	0.498
778.000	478.672	80.004	19.992	103.877	20.017	3.018	0.484
778.500	478.933	80.000	19.991	103.879	20.023	2.619	0.494
779.000	479.194	80.002	19.995	103.879	20.028	2.258	0.515
779.500	479.416	80.008	19.996	103.877	20.028	2.231	0.503
780.000	479.693	80.008	19.989	103.875	20.029	2.156	0.491
780.500	479.968	80.008	19.993	103.876	20.031	2.062	0.525
781.000	480.177	80.009	19.993	103.878	20.035	1.784	0.518
781.500	480.441	79.999	19.995	103.880	20.037	1.601	0.479
782.000	480.686	80.007	19.992	103.880	20.038	1.567	0.491
782.500	480.957	80.001	19.992	103.880	20.041	1.383	0.513
783.000	481.211	80.008	19.985	103.878	20.043	1.210	0.521
783.500	481.458	80.007	19.991	103.879	20.041	1.377	0.513
784.000	481.697	80.015	19.992	103.878	20.043	1.221	0.494
784.500	481.952	80.008	19.991	103.881	20.048	0.862	0.490
785.000	482.217	80.006	20.000	103.879	20.046	0.986	0.507
785.500	482.473	80.009	19.992	103.873	20.049	0.781	0.521
786.000	482.714	80.009	19.993	103.869	20.049	0.826	0.509
786.500	482.974	80.013	19.991	103.867	20.052	0.634	0.499
787.000	483.219	80.004	19.996	103.867	20.050	0.741	0.503
787.500	483.509	80.006	19.995	103.866	20.053	0.512	0.520
788.000	483.732	80.004	20.001	103.870	20.050	0.758	0.524
788.500	484.019	80.008	19.993	103.866	20.053	0.551	0.511
789.000	484.232	80.008	19.992	103.867	20.052	0.615	0.505
789.500	484.522	80.001	19.999	103.865	20.057	0.267	0.502
790.000	484.742	80.004	19.997	103.863	20.054	0.476	0.507
790.500	484.980	80.002	19.999	103.865	20.052	0.625	0.484
791.000	485.215	80.001	19.987	103.871	20.052	0.576	0.466
791.500	485.508	80.006	19.996	103.870	20.057	0.258	0.501
792.000	485.776	80.008	19.990	103.870	20.057	0.245	0.544
792.500	486.008	80.008	19.996	103.874	20.056	0.339	0.530
793.000	486.241	80.005	19.994	103.870	20.057	0.265	0.483
793.500	486.498	80.001	19.995	103.870	20.062	-0.081	0.478
794.000	486.804	80.007	19.995	103.866	20.061	0.017	0.526
794.500	487.008	80.007	19.995	103.863	20.058	0.175	0.537
795.000	487.289	80.006	19.989	103.859	20.060	0.055	0.498
795.500	487.522	80.001	19.999	103.865	20.059	0.103	0.500
796.000	487.765	80.003	19.996	103.864	20.060	0.064	0.495
796.500	488.029	80.004	19.988	103.867	20.062	-0.068	0.491
797.000	488.300	80.010	19.991	103.872	20.061	-0.047	0.521
797.500	488.500	80.003	19.998	103.874	20.060	0.036	0.503
798.000	488.785	80.002	19.993	103.868	20.061	-0.036	0.478
798.500	489.024	80.006	19.993	103.867	20.060	0.043	0.504
799.000	489.262	80.005	19.992	103.866	20.061	0.011	0.501
799.500	489.538	80.002	19.999	103.867	20.063	-0.171	0.496
800.000	489.808	80.006	19.994	103.865	20.063	-0.149	0.530
800.500	490.052	80.006	19.995	103.866	20.060	0.032	0.530
801.000	490.321	80.011	19.991	103.865	20.063	-0.179	0.513
801.500	490.527	80.003	19.994	103.863	20.064	-0.254	0.494
802.000	490.806	80.005	19.995	103.861	20.063	-0.167	0.480
802.500	491.055	80.007	19.996	103.865	20.064	-0.254	0.507
803.000	491.327	80.004	19.997	103.870	20.063	-0.181	0.524
803.500	491.577	80.004	19.993	103.876	20.065	-0.305	0.521
804.000	491.816	80.012	19.990	103.879	20.065	-0.312	0.505
804.500	492.066	80.008	19.995	103.881	20.064	-0.245	0.489
805.000	492.329	80.003	19.995	103.880	20.066	-0.369	0.501
805.500	492.566	80.000	19.994	103.877	20.065	-0.275	0.506
806.000	492.829	80.009	19.995	103.873	20.062	-0.071	0.500
806.500	493.118	80.006	19.994	103.872	20.063	-0.149	0.526
807.000	493.380	80.004	19.996	103.871	20.061	-0.021	0.552
807.500	493.654	80.004	19.996	103.872	20.063	-0.122	0.544
808.000	493.902	80.007	19.993	103.869	20.064	-0.254	0.529
808.500	494.151	80.012	19.994	103.871	20.066	-0.374	0.510
809.000	494.403	80.006	19.995	103.871	20.063	-0.181	0.499
809.500	494.666	80.010	19.993	103.871	20.062	-0.098	0.508
810.000	494.927	80.003	19.995	103.873	20.067	-0.423	0.519
810.500	495.187	80.006	19.995	103.874	20.066	-0.376	0.522
811.000	495.435	80.010	19.992	103.874	20.064	-0.220	0.514
811.500	495.674	80.007	19.994	103.877	20.065	-0.316	0.498
812.000	495.932	80.008	19.992	103.877	20.065	-0.314	0.492
812.500	496.169	80.006	19.992	103.877	20.065	-0.284	0.496
813.000	496.417	80.005	19.994	103.878	20.067	-0.395	0.490
813.500	496.693	80.007	19.993	103.874	20.066	-0.356	0.505
814.000	496.954	80.006	19.995	103.870	20.066	-0.376	0.531
814.500	497.222	80.006	19.993	103.869	20.066	-0.342	0.533
815.000	497.476	80.007	19.993	103.868	20.063	-0.141	0.525
815.500	497.749	80.007	19.994	103.868	20.065	-0.318	0.524
816.000	497.988	80.008	19.992	103.871	20.067	-0.446	0.520
816.500	498.255	80.008	19.992	103.872	20.065	-0.280	0.509
817.000	498.519	80.008	19.994	103.875	20.067	-0.401	0.518
817.500	498.766	80.008	19.992	103.875	20.066	-0.335	0.521
818.000	499.034	80.003	19.993	103.876	20.065	-0.314	0.513
818.500	499.296	80.003	19.995	103.876	20.066	-0.388	0.523
819.000	499.562	80.003	19.995	103.877	20.066	-0.367	0.529
819.500	499.809	80.005	19.994	103.873	20.064	-0.235	0.520
820.000	500.032	79.999	19.993	103.874	20.066	-0.352	0.492
820.500	500.307	80.014	19.991	103.873	20.067	-0.418	0.485
821.000	500.595	80.007	19.993	103.876	20.063	-0.126	0.531
821.500	500.837	80.014	19.992	103.878	20.062	-0.100	0.546
822.000	501.077	80.004	19.994	103.881	20.067	-0.423	0.506
822.500	501.351	80.024	19.991	103.880	20.065	-0.269	0.498
823.000	501.618	80.028	19.992	103.884	20.066	-0.376	0.527
823.500	501.898	79.982	19.996	103.886	20.067	-0.416	0.544
824.000	502.139	80.007	19.995	103.881	20.067	-0.446	0.534
824.500	502.376	80.005	19.995	103.880	20.066	-0.354	0.499
825.000	502.642	80.001	19.999	103.880	20.066	-0.344	0.491
825.500	502.888	80.011	19.990	103.878	20.068	-0.489	0.507
826.000	503.145	80.001	19.996	103.873	20.069	-0.596	0.507
826.500	503.421	80.003	19.995	103.876	20.069	-0.546	0.518
827.000	503.657	80.000	19.997	103.875	20.065	-0.320	0.522
827.500	503.929	80.006	19.992	103.873	20.069	-0.555	0.510
828.000	504.184	80.006	19.995	103.873	20.068	-0.465	0.518
828.500	504.432	80.003	19.994	103.873	20.068	-0.484	0.515
829.000	504.656	80.004	19.994	103.875	20.071	-0.713	0.488
829.500	504.921	80.005	19.993	103.876	20.070	-0.608	0.481
830.000	505.198	80.010	19.994	103.875	20.069	-0.534	0.515
830.500	505.472	80.009	19.992	103.874	20.072	-0.747	0.546
831.000	505.737	80.007	19.993	103.874	20.069	-0.576	0.545
831.500	505.957	80.007	19.995	103.873	20.070	-0.617	0.512
832.000	506.210	80.008	19.994	103.873	20.066	-0.367	0.479
832.500	506.496	80.006	19.995	103.876	20.068	-0.508	0.506
833.000	506.752	80.006	19.996	103.876	20.068	-0.493	0.541
833.500	506.988	80.008	19.994	103.876	20.070	-0.608	0.517
834.000	507.277	80.008	19.994	103.874	20.067	-0.416	0.509
834.500	507.509	80.004	19.996	103.874	20.069	-0.549	0.523
835.000	507.758	80.004	19.995	103.874	20.067	-0.455	0.501
835.500	508.021	80.004	19.994	103.874	20.067	-0.455	0.496
836.000	508.283	80.009	19.993	103.876	20.069	-0.566	0.518
836.500	508.527	80.005	19.994	103.877	20.071	-0.670	0.516
837.000	508.784	80.003	19.997	103.878	20.070	-0.638	0.504
837.500	509.024	80.006	19.997	103.878	20.070	-0.623	0.499
838.000	509.314	80.002	19.996	103.877	20.069	-0.532	0.513
838.500	509.553	80.003	19.993	103.873	20.065	-0.295	0.529
839.000	509.806	80.004	19.993	103.871	20.067	-0.450	0.511
839.500	510.067	80.004	19.993	103.869	20.068	-0.467	0.504
840.000	510.339	79.999	19.997	103.871	20.069	-0.563	0.524
840.500	510.598	80.000	19.995	103.870	20.067	-0.421	0.532
841.000	510.848	80.010	19.992	103.872	20.067	-0.452	0.520
841.500	511.071	80.006	19.995	103.879	20.070	-0.608	0.491
842.000	511.357	79.999	19.998	103.882	20.069	-0.538	0.491
842.500	511.606	80.010	19.986	103.880	20.069	-0.555	0.522
843.000	511.850	80.006	19.992	103.881	20.067	-0.427	0.514
843.500	512.130	80.004	19.998	103.881	20.072	-0.758	0.508
844.000	512.358	80.007	19.997	103.874	20.065	-0.294	0.516
844.500	512.641	80.001	20.001	103.870	20.066	-0.382	0.510
845.000	512.879	80.005	19.998	103.871	20.067	-0.405	0.516
845.500	513.154	80.003	19.993	103.870	20.065	-0.292	0.517
846.000	513.417	80.002	19.994	103.871	20.064	-0.192	0.525
846.500	513.663	80.008	19.992	103.875	20.068	-0.467	0.524
847.000	513.917	80.006	19.995	103.879	20.069	-0.589	0.505
847.500	514.194	80.014	19.992	103.881	20.067	-0.446	0.516
848.000	514.438	80.005	19.994	103.885	20.066	-0.371	0.526
848.500	514.722	79.998	20.001	103.884	20.070	-0.642	0.524
849.000	514.986	80.006	19.993	103.881	20.068	-0.478	0.538
849.500	515.246	80.004	19.989	103.880	20.068	-0.504	0.536
850.000	515.491	80.003	19.993	103.886	20.071	-0.726	0.514
850.500	515.739	80.006	19.993	103.885	20.068	-0.478	0.500
851.000	516.022	80.003	19.998	103.885	20.067	-0.459	0.512
851.500	516.268	80.011	19.995	103.885	20.067	-0.450	0.530
852.000	516.533	80.002	19.997	103.887	20.066	-0.357	0.520
852.500	516.764	80.000	19.999	103.880	20.069	-0.559	0.504
853.000	517.045	80.007	19.994	103.876	20.068	-0.504	0.504
853.500	517.305	80.004	19.992	103.872	20.065	-0.307	0.526
854.000	517.571	80.015	19.990	103.877	20.068	-0.497	0.533
854.500	517.855	80.011	19.992	103.874	20.070	-0.610	0.538
855.000	518.094	80.005	19.996	103.879	20.069	-0.580	0.537
855.500	518.311	80.012	19.992	103.887	20.070	-0.604	0.490
856.000	518.569	79.997	19.998	103.896	20.066	-0.327	0.465
856.500	518.839	80.002	19.991	103.890	20.068	-0.510	0.501
857.000	519.099	80.006	19.994	103.888	20.068	-0.480	0.530
857.500	519.340	80.012	19.991	103.884	20.072	-0.802	0.515
858.000	519.625	80.003	19.991	103.879	20.068	-0.504	0.513
858.500	519.843	80.002	20.001	103.875	20.070	-0.647	0.515
859.000	520.103	80.011	19.995	103.878	20.068	-0.499	0.491
859.500	520.380	79.998	19.998	103.882	20.068	-0.476	0.507
860.000	520.626	79.999	19.990	103.883	20.068	-0.506	0.530
860.500	520.895	80.005	19.992	103.883	20.065	-0.262	0.519
861.000	521.169	80.013	19.994	103.884	20.067	-0.406	0.529
861.500	521.416	80.005	19.994	103.886	20.069	-0.555	0.532
862.000	521.645	80.006	19.993	103.881	20.069	-0.542	0.498
862.500	521.927	80.008	19.994	103.880	20.070	-0.611	0.493
863.000	522.186	80.002	19.994	103.879	20.069	-0.568	0.526
863.500	522.436	79.999	19.996	103.878	20.070	-0.606	0.525
864.000	522.711	80.006	19.996	103.877	20.070	-0.617	0.517
864.500	522.957	80.007	19.994	103.877	20.070	-0.666	0.523
865.000	523.195	80.001	19.997	103.880	20.070	-0.610	0.502
865.500	523.474	80.002	19.996	103.880	20.071	-0.722	0.500
866.000	523.758	80.009	19.994	103.882	20.072	-0.770	0.540
866.500	524.013	80.006	19.995	103.882	20.072	-0.788	0.552
867.000	524.216	80.003	19.994	103.881	20.072	-0.775	0.498
867.500	524.496	80.010	19.992	103.878	20.070	-0.657	0.470
868.000	524.762	80.008	19.995	103.878	20.071	-0.677	0.514
868.500	525.019	80.002	19.997	103.876	20.067	-0.457	0.535
869.000	525.290	80.009	19.996	103.875	20.070	-0.619	0.525
869.500	525.590	80.004	19.992	103.876	20.072	-0.802	0.549
870.000	525.815	80.013	19.993	103.876	20.071	-0.692	0.548
870.500	526.046	80.011	19.989	103.876	20.072	-0.771	0.491
871.000	526.309	80.007	19.995	103.877	20.069	-0.570	0.475
871.500	526.580	80.001	20.002	103.876	20.068	-0.484	0.514
872.000	526.840	80.003	20.000	103.874	20.072	-0.741	0.533
872.500	527.096	80.006	19.998	103.873	20.071	-0.694	0.523
873.000	527.355	80.010	19.994	103.870	20.071	-0.708	0.515
873.500	527.609	80.004	20.000	103.869	20.072	-0.772	0.514
874.000	527.846	80.002	19.997	103.868	20.070	-0.623	0.502
874.500	528.103	80.015	19.993	103.869	20.072	-0.738	0.493
875.000	528.403	80.007	19.996	103.869	20.074	-0.926	0.526
875.500	528.667	80.005	19.994	103.871	20.074	-0.913	0.561
876.000	528.905	80.005	19.996	103.871	20.071	-0.736	0.533
876.500	529.191	80.002	19.993	103.872	20.075	-0.977	0.513
877.000	529.456	80.008	19.995	103.873	20.072	-0.777	0.538
877.500	529.688	80.010	19.995	103.872	20.074	-0.877	0.524
878.000	529.985	80.007	19.986	103.873	20.074	-0.920	0.513
878.500	530.239	80.005	19.994	103.873	20.074	-0.890	0.540
879.000	530.512	80.004	19.992	103.873	20.076	-1.022	0.539
879.500	530.736	80.001	19.997	103.873	20.074	-0.883	0.512
880.000	530.990	80.013	19.989	103.874	20.074	-0.881	0.487
880.500	531.278	79.999	19.998	103.876	20.073	-0.845	0.510
881.000	531.505	80.007	19.995	103.875	20.070	-0.625	0.528
881.500	531.753	80.004	19.994	103.874	20.070	-0.655	0.495
882.000	532.055	80.005	19.995	103.874	20.072	-0.796	0.512
882.500	532.294	80.001	19.996	103.874	20.073	-0.841	0.545
883.000	532.536	80.008	19.993	103.872	20.072	-0.753	0.511
883.500	532.806	80.005	19.994	103.880	20.072	-0.779	0.496
884.000	533.061	80.003	19.992	103.886	20.072	-0.775	0.519
884.500	533.311	80.008	19.997	103.887	20.073	-0.811	0.516
885.000	533.606	80.011	19.989	103.894	20.074	-0.877	0.525
885.500	533.851	80.013	19.991	103.895	20.072	-0.766	0.542
886.000	534.102	80.011	19.991	103.888	20.074	-0.930	0.518
886.500	534.391	80.006	19.986	103.883	20.071	-0.730	0.518
887.000	534.674	80.006	19.995	103.884	20.070	-0.660	0.556
887.500	534.885	80.013	19.993	103.878	20.071	-0.721	0.533
888.000	535.180	80.006	19.996	103.877	20.069	-0.598	0.500
888.500	535.452	80.006	19.992	103.875	20.074	-0.903	0.537
889.000	535.697	80.011	19.993	103.877	20.074	-0.896	0.542
889.500	535.959	80.006	19.993	103.879	20.072	-0.796	0.512
890.000	536.230	80.012	19.993	103.887	20.074	-0.916	0.520
890.500	536.505	80.008	19.992	103.893	20.073	-0.832	0.540
891.000	536.750	80.009	19.992	103.897	20.079	-1.253	0.533
891.500	537.009	80.008	19.995	103.895	20.074	-0.898	0.512
892.000	537.246	80.010	19.998	103.892	20.074	-0.913	0.500
892.500	537.533	80.002	19.992	103.885	20.076	-1.014	0.510
893.000	537.781	80.007	19.994	103.879	20.072	-0.773	0.530
893.500	538.028	80.011	19.993	103.881	20.075	-1.010	0.515
894.000	538.258	80.009	19.993	103.883	20.071	-0.724	0.486
894.500	538.515	80.002	19.998	103.883	20.072	-0.800	0.482
895.001	538.768	80.003	19.998	103.882	20.073	-0.852	0.499
895.500	539.063	80.008	19.996	103.886	20.074	-0.879	0.529
896.000	539.293	80.007	19.994	103.888	20.073	-0.873	0.536
896.500	539.584	80.009	19.992	103.886	20.074	-0.937	0.523
897.000	539.829	80.001	19.997	103.886	20.072	-0.790	0.528
897.500	540.086	80.008	19.997	103.887	20.072	-0.756	0.519
898.000	540.380	80.003	19.992	103.883	20.074	-0.918	0.527
898.500	540.617	80.008	19.994	103.879	20.073	-0.869	0.541
899.000	540.870	80.007	19.994	103.882	20.072	-0.771	0.510
899.500	541.127	80.002	19.989	103.887	20.073	-0.813	0.500
900.000	541.401	80.010	19.989	103.888	20.070	-0.655	0.521
900.500	541.623	80.000	19.997	103.889	20.070	-0.653	0.513
901.000	541.884	80.004	19.994	103.888	20.070	-0.662	0.489
901.500	542.145	80.004	19.996	103.883	20.072	-0.788	0.502
902.000	542.416	79.999	19.991	103.877	20.073	-0.817	0.527
902.500	542.655	80.006	19.995	103.880	20.073	-0.815	0.521
903.000	542.948	80.009	19.991	103.877	20.071	-0.679	0.521
903.500	543.214	80.006	19.991	103.878	20.070	-0.621	0.546
904.000	543.477	80.004	19.993	103.878	20.072	-0.768	0.544
904.500	543.709	80.006	19.994	103.880	20.072	-0.743	0.512
905.000	543.994	80.004	19.996	103.877	20.072	-0.760	0.506
905.500	544.208	80.007	19.994	103.876	20.074	-0.888	0.508
906.000	544.475	80.003	19.994	103.875	20.073	-0.815	0.490
906.500	544.734	80.011	19.994	103.876	20.075	-0.952	0.503
907.000	544.979	80.008	19.995	103.876	20.073	-0.813	0.515
907.500	545.238	80.011	19.995	103.877	20.070	-0.608	0.504
908.000	545.479	80.006	19.994	103.880	20.072	-0.788	0.502
908.500	545.739	80.008	19.993	103.881	20.074	-0.896	0.501
909.000	545.995	80.002	19.992	103.882	20.075	-0.990	0.509
909.500	546.258	80.004	19.993	103.879	20.074	-0.898	0.517
910.000	546.518	80.002	19.995	103.878	20.076	-1.048	0.521
910.500	546.786	80.005	19.993	103.877	20.074	-0.905	0.526
911.000	547.039	80.003	19.996	103.876	20.075	-0.971	0.524
911.500	547.287	80.003	19.993	103.874	20.074	-0.890	0.511
912.000	547.546	80.002	19.994	103.878	20.073	-0.832	0.505
912.500	547.801	80.004	19.993	103.878	20.072	-0.760	0.511
913.000	548.070	80.004	19.995	103.877	20.069	-0.551	0.519
913.500	548.312	80.009	19.995	103.878	20.073	-0.850	0.517
914.000	548.584	80.005	19.994	103.877	20.075	-0.958	0.512
914.500	548.818	80.001	19.993	103.875	20.071	-0.715	0.510
915.000	549.071	80.002	19.997	103.876	20.070	-0.640	0.496
915.500	549.330	80.006	19.994	103.875	20.073	-0.832	0.500
916.000	549.584	80.000	19.994	103.876	20.074	-0.918	0.513
916.500	549.857	80.000	19.994	103.876	20.074	-0.901	0.520
917.000	550.113	80.002	19.992	103.875	20.073	-0.854	0.528
917.500	550.376	80.005	19.993	103.875	20.072	-0.771	0.524
918.000	550.671	80.002	19.994	103.876	20.071	-0.706	0.538
918.500	550.908	80.002	19.993	103.876	20.072	-0.749	0.545
919.000	551.123	80.007	19.993	103.879	20.074	-0.926	0.492
919.500	551.407	80.005	19.993	103.880	20.073	-0.824	0.475
920.000	551.671	80.008	19.992	103.880	20.070	-0.651	0.524
920.500	551.915	80.004	19.995	103.885	20.070	-0.628	0.528
921.000	552.179	80.004	19.993	103.889	20.072	-0.758	0.508
921.500	552.427	80.004	19.995	103.888	20.069	-0.570	0.510
922.000	552.648	80.005	19.994	103.888	20.070	-0.642	0.491
922.500	552.927	80.006	19.994	103.888	20.073	-0.807	0.485
923.000	553.183	80.010	19.996	103.884	20.071	-0.709	0.518
923.500	553.474	80.006	19.991	103.879	20.075	-0.965	0.541
924.000	553.767	80.006	19.993	103.878	20.075	-0.960	0.566
924.500	553.992	79.997	19.997	103.878	20.075	-0.988	0.551
925.000	554.282	80.003	19.993	103.875	20.077	-1.121	0.516
925.500	554.544	80.011	19.993	103.875	20.070	-0.658	0.534
926.000	554.771	80.003	19.993	103.876	20.072	-0.790	0.521
926.500	555.028	80.005	19.995	103.876	20.073	-0.815	0.487
927.000	555.271	80.006	19.992	103.875	20.076	-1.031	0.492
927.500	555.550	80.005	19.994	103.881	20.072	-0.764	0.511
928.000	555.815	80.006	19.995	103.882	20.070	-0.627	0.533
928.500	556.051	80.003	19.993	103.882	20.072	-0.794	0.522
929.000	556.343	80.005	19.996	103.883	20.071	-0.717	0.514
929.500	556.606	80.003	19.998	103.879	20.074	-0.935	0.542
930.000	556.840	80.004	19.994	103.876	20.072	-0.790	0.526
930.500	557.109	80.008	19.994	103.876	20.073	-0.862	0.500
931.000	557.318	80.004	19.994	103.876	20.072	-0.800	0.490
931.500	557.573	80.004	19.994	103.873	20.076	-1.059	0.471
932.000	557.832	80.004	19.996	103.876	20.072	-0.753	0.489
932.500	558.078	80.003	19.997	103.878	20.070	-0.638	0.510
933.000	558.380	80.007	19.994	103.877	20.076	-1.057	0.527
933.500	558.626	80.005	19.994	103.876	20.077	-1.104	0.548
934.000	558.891	80.003	19.994	103.878	20.074	-0.924	0.529
934.500	559.155	80.005	19.995	103.879	20.072	-0.790	0.519
935.000	559.376	80.001	19.994	103.877	20.073	-0.867	0.507
935.500	559.696	80.005	19.995	103.876	20.070	-0.660	0.513
936.000	559.916	80.002	19.995	103.874	20.070	-0.651	0.541
936.500	560.171	80.003	19.994	103.870	20.075	-1.010	0.508
937.000	560.437	80.004	19.995	103.869	20.075	-0.977	0.498
937.500	560.669	80.005	19.994	103.869	20.075	-1.005	0.509
938.000	560.942	80.003	19.995	103.870	20.073	-0.860	0.501
938.500	561.204	80.006	19.993	103.872	20.073	-0.818	0.520
939.000	561.455	80.004	19.996	103.875	20.072	-0.756	0.524
939.500	561.694	80.006	19.994	103.871	20.072	-0.802	0.502
940.000	561.956	80.002	19.994	103.869	20.075	-0.956	0.495
940.500	562.224	80.006	19.993	103.868	20.076	-1.065	0.515
941.000	562.479	80.006	19.993	103.869	20.072	-0.802	0.527
941.500	562.728	80.006	19.994	103.868	20.074	-0.888	0.514
942.000	562.982	80.006	19.993	103.873	20.070	-0.653	0.503
942.500	563.225	80.006	19.992	103.875	20.072	-0.786	0.500
943.000	563.466	80.003	19.996	103.877	20.078	-1.191	0.490
943.500	563.759	80.007	19.997	103.875	20.072	-0.794	0.509
944.000	563.999	80.008	19.994	103.875	20.073	-0.873	0.534
944.500	564.280	80.005	19.995	103.877	20.077	-1.108	0.527
945.000	564.528	80.005	19.995	103.876	20.075	-0.969	0.525
945.500	564.793	80.006	19.994	103.875	20.076	-1.014	0.521
946.000	565.028	80.008	19.993	103.875	20.077	-1.084	0.506
946.500	565.264	80.006	19.993	103.877	20.076	-1.018	0.485
947.000	565.558	80.006	19.995	103.876	20.076	-1.076	0.501
947.500	565.826	80.008	19.993	103.876	20.074	-0.916	0.546
948.000	566.044	80.008	19.996	103.876	20.075	-0.948	0.524
948.500	566.325	80.004	19.994	103.876	20.078	-1.150	0.493
949.000	566.552	80.006	19.996	103.874	20.074	-0.888	0.504
949.500	566.831	80.009	19.995	103.874	20.077	-1.131	0.507
950.000	567.063	80.003	19.996	103.876	20.071	-0.694	0.509
950.500	567.362	80.007	19.995	103.875	20.073	-0.873	0.521
951.000	567.575	80.004	19.994	103.876	20.075	-0.946	0.521
951.500	567.858	80.007	19.994	103.876	20.075	-0.952	0.504
952.000	568.134	80.010	19.993	103.875	20.076	-1.044	0.528
952.500	568.351	80.004	19.996	103.872	20.074	-0.882	0.526
953.000	568.603	80.006	19.993	103.872	20.076	-1.061	0.480
953.500	568.872	80.004	19.996	103.871	20.073	-0.835	0.495
954.000	569.117	80.006	19.995	103.870	20.073	-0.856	0.518
954.500	569.384	80.006	19.993	103.870	20.074	-0.907	0.513
955.000	569.642	80.003	19.994	103.871	20.075	-1.008	0.519
955.500	569.903	80.007	19.995	103.874	20.074	-0.881	0.522
956.000	570.156	80.008	19.993	103.874	20.074	-0.939	0.516
956.500	570.421	80.005	19.996	103.876	20.074	-0.931	0.516
957.000	570.678	80.006	19.995	103.879	20.070	-0.662	0.521
957.500	570.879	80.005	19.997	103.878	20.073	-0.837	0.490
958.000	571.168	80.007	19.996	103.876	20.073	-0.818	0.473
958.500	571.448	80.003	19.995	103.876	20.077	-1.106	0.529
959.000	571.704	80.007	19.995	103.873	20.073	-0.826	0.553
959.500	571.943	80.008	19.997	103.872	20.076	-1.033	0.516
960.000	572.219	80.003	19.995	103.871	20.075	-0.988	0.505
960.500	572.477	79.997	19.996	103.874	20.072	-0.773	0.525
961.000	572.736	80.012	19.995	103.873	20.076	-1.046	0.525
961.500	572.977	80.002	19.996	103.874	20.073	-0.820	0.508
962.000	573.246	80.005	19.994	103.873	20.074	-0.939	0.505
962.500	573.511	80.001	19.996	103.873	20.074	-0.928	0.522
963.000	573.771	80.004	19.995	103.870	20.077	-1.093	0.529
963.500	574.054	80.006	19.996	103.872	20.075	-0.993	0.534
964.000	574.284	80.006	19.995	103.872	20.076	-1.040	0.528
964.500	574.590	80.005	19.995	103.872	20.075	-0.950	0.525
965.000	574.817	80.005	19.995	103.873	20.073	-0.847	0.535
965.500	575.099	80.005	19.993	103.873	20.077	-1.101	0.521
966.000	575.363	80.002	19.995	103.874	20.074	-0.882	0.527
966.500	575.611	80.007	19.994	103.875	20.076	-1.078	0.528
967.000	575.870	80.007	19.993	103.876	20.072	-0.749	0.509
967.500	576.105	80.006	19.993	103.876	20.073	-0.864	0.500
968.000	576.370	80.008	19.993	103.878	20.076	-1.022	0.497
968.500	576.619	80.005	19.993	103.877	20.076	-1.025	0.508
969.000	576.890	80.007	19.992	103.875	20.074	-0.892	0.517
969.500	577.155	80.007	19.992	103.875	20.072	-0.771	0.527
970.000	577.375	80.008	19.994	103.875	20.074	-0.901	0.510
970.500	577.676	80.006	19.995	103.876	20.074	-0.937	0.503
971.000	577.904	80.001	19.994	103.876	20.077	-1.121	0.525
971.500	578.190	80.006	19.994	103.876	20.076	-1.063	0.522
972.000	578.424	80.005	19.994	103.876	20.077	-1.084	0.517
972.500	578.683	80.009	19.994	103.876	20.076	-1.061	0.507
973.000	578.944	80.009	19.992	103.875	20.077	-1.129	0.507
973.500	579.225	80.005	19.997	103.875	20.076	-1.039	0.531
974.000	579.460	80.002	19.995	103.879	20.076	-1.080	0.529
974.500	579.730	80.001	19.993	103.877	20.078	-1.163	0.511
975.000	579.979	80.008	19.993	103.875	20.076	-1.061	0.512
975.500	580.208	80.006	19.996	103.875	20.074	-0.892	0.498
976.000	580.518	80.005	19.995	103.872	20.075	-0.967	0.508
976.500	580.763	80.008	19.993	103.870	20.075	-0.978	0.547
977.000	580.991	80.006	19.995	103.872	20.075	-1.007	0.514
977.500	581.251	80.006	19.995	103.874	20.076	-1.012	0.481
978.000	581.516	80.013	19.991	103.875	20.074	-0.903	0.507
978.500	581.778	80.006	19.993	103.878	20.075	-0.993	0.526
979.000	582.037	80.005	19.995	103.879	20.074	-0.916	0.524
979.500	582.280	80.003	19.996	103.879	20.076	-1.031	0.511
980.000	582.538	80.007	19.992	103.881	20.073	-0.830	0.502
980.500	582.782	80.011	19.992	103.879	20.075	-0.980	0.502
981.000	583.026	80.006	19.994	103.877	20.074	-0.935	0.495
981.500	583.312	80.010	19.991	103.876	20.076	-1.061	0.508
982.000	583.578	79.999	19.995	103.877	20.076	-1.031	0.541
982.500	583.809	80.006	19.989	103.875	20.075	-1.001	0.525
983.000	584.056	80.008	19.995	103.878	20.076	-1.024	0.488
983.500	584.314	80.003	19.992	103.878	20.075	-0.999	0.491
984.000	584.579	80.004	19.994	103.879	20.079	-1.231	0.514
984.500	584.834	79.999	19.996	103.879	20.077	-1.133	0.522
985.000	585.111	80.007	19.993	103.880	20.079	-1.278	0.526
985.500	585.342	80.007	19.993	103.880	20.079	-1.221	0.520
986.000	585.605	80.006	19.996	103.880	20.077	-1.136	0.501
986.500	585.892	80.004	19.995	103.878	20.077	-1.140	0.522
987.000	586.144	80.006	19.993	103.877	20.077	-1.118	0.544
987.500	586.391	80.003	19.994	103.878	20.078	-1.170	0.519
988.000	586.641	80.003	19.994	103.877	20.079	-1.247	0.498
988.500	586.909	80.004	19.994	103.876	20.079	-1.234	0.507
989.000	587.150	80.004	19.990	103.877	20.075	-0.990	0.513
989.500	587.442	80.004	19.993	103.877	20.079	-1.230	0.521
990.000	587.647	80.001	19.996	103.878	20.075	-0.946	0.515
990.500	587.922	80.005	19.992	103.877	20.077	-1.114	0.488
991.000	588.194	80.002	20.000	103.878	20.077	-1.142	0.513
991.500	588.450	79.998	19.998	103.877	20.077	-1.116	0.538
992.000	588.691	80.006	19.998	103.876	20.079	-1.253	0.513
992.500	588.972	80.004	19.995	103.873	20.077	-1.086	0.509
993.000	589.219	80.003	19.992	103.873	20.077	-1.121	0.525
993.500	589.447	80.002	19.994	103.873	20.075	-0.992	0.502
994.000	589.745	80.003	19.995	103.873	20.078	-1.176	0.501
994.500	589.966	80.006	19.992	103.875	20.076	-1.027	0.523
995.000	590.261	80.005	19.995	103.877	20.075	-0.999	0.517
995.500	590.502	80.004	19.999	103.878	20.075	-0.967	0.526
996.000	590.781	80.006	19.993	103.877	20.078	-1.170	0.529
996.500	591.037	80.005	19.993	103.878	20.079	-1.232	0.528
997.000	591.289	80.006	19.994	103.878	20.079	-1.247	0.521
997.500	591.550	80.002	19.995	103.878	20.077	-1.097	0.510
998.000	591.818	80.005	19.996	103.877	20.076	-1.020	0.521
998.500	592.085	80.007	19.993	103.876	20.073	-0.807	0.532
999.000	592.305	80.003	19.993	103.874	20.077	-1.084	0.511
999.501	592.567	80.004	19.993	103.873	20.076	-1.056	0.485
1000.000	592.843	80.004	19.995	103.872	20.079	-1.279	0.511
1000.500	593.086	80.008	19.993	103.871	20.078	-1.204	0.529
1001.000	593.358	80.003	19.996	103.872	20.078	-1.206	0.517
1001.500	593.610	80.007	19.993	103.874	20.075	-0.950	0.519
1002.000	593.840	80.003	19.995	103.874	20.078	-1.167	0.503
1002.500	594.123	80.004	19.995	103.874	20.077	-1.119	0.498
1003.000	594.390	80.006	19.991	103.874	20.074	-0.933	0.531
1003.500	594.625	80.009	19.992	103.874	20.078	-1.163	0.526
1004.000	594.862	80.007	19.993	103.874	20.077	-1.112	0.487
1004.500	595.129	80.008	19.992	103.875	20.082	-1.437	0.487
1005.000	595.406	80.006	19.993	103.877	20.080	-1.310	0.524
1005.500	595.678	80.006	19.991	103.881	20.079	-1.264	0.547
1006.000	595.915	80.008	19.992	103.881	20.078	-1.150	0.529
1006.500	596.182	80.007	19.994	103.881	20.074	-0.888	0.506
1007.000	596.400	80.003	19.992	103.880	20.079	-1.231	0.494
1007.500	596.682	80.006	19.993	103.876	20.078	-1.187	0.493
1008.000	596.921	80.006	19.992	103.873	20.076	-1.029	0.510
1008.500	597.204	80.009	19.992	103.871	20.078	-1.191	0.522
1009.000	597.451	80.007	19.994	103.871	20.079	-1.278	0.527
1009.500	597.734	80.002	19.993	103.870	20.076	-1.035	0.530
1010.000	597.946	80.005	19.996	103.872	20.079	-1.227	0.512
1010.500	598.237	80.009	19.992	103.875	20.078	-1.206	0.499
1011.000	598.455	80.008	19.993	103.877	20.079	-1.236	0.506
1011.500	598.701	80.001	19.998	103.877	20.078	-1.214	0.486
1012.000	598.976	80.007	19.992	103.877	20.079	-1.236	0.492
1012.500	599.205	80.003	19.995	103.877	20.078	-1.200	0.513
1013.000	599.496	80.001	19.996	103.873	20.080	-1.300	0.512
1013.500	599.750	80.005	19.995	103.872	20.077	-1.146	0.533
1014.000	600.006	80.001	19.999	103.871	20.080	-1.311	0.528
1014.500	600.212	80.007	19.994	103.870	20.079	-1.283	0.486
1015.000	600.496	80.010	19.991	103.873	20.076	-1.069	0.476
1015.500	600.775	80.002	19.995	103.876	20.079	-1.229	0.526
1016.000	601.025	80.005	19.997	103.877	20.081	-1.422	0.546
1016.500	601.266	80.005	19.995	103.878	20.080	-1.296	0.510
1017.000	601.543	80.003	19.996	103.880	20.082	-1.479	0.505
1017.500	601.767	80.005	19.995	103.878	20.078	-1.185	0.510
1018.000	602.067	80.002	19.997	103.876	20.080	-1.293	0.513
1018.500	602.328	80.007	19.993	103.875	20.079	-1.264	0.543
1019.000	602.534	80.005	19.993	103.875	20.079	-1.274	0.513
1019.500	602.830	80.002	19.996	103.875	20.079	-1.229	0.484
1020.000	603.034	80.005	19.996	103.874	20.080	-1.321	0.501
1020.500	603.289	80.006	19.994	103.874	20.080	-1.306	0.480
1021.000	603.566	80.006	19.993	103.874	20.079	-1.247	0.496
1021.500	603.813	80.005	19.994	103.873	20.081	-1.409	0.528
1022.000	604.075	80.002	19.994	103.873	20.081	-1.411	0.517
1022.500	604.341	80.004	19.993	103.873	20.082	-1.451	0.519
1023.000	604.554	80.008	19.994	103.873	20.078	-1.197	0.503
1023.500	604.818	80.009	19.994	103.873	20.082	-1.424	0.478
1024.000	605.100	80.006	19.994	103.874	20.080	-1.321	0.511
1024.500	605.367	80.006	19.996	103.874	20.080	-1.321	0.548
1025.000	605.614	80.002	19.995	103.873	20.083	-1.533	0.532
1025.500	605.857	80.004	19.998	103.873	20.079	-1.236	0.502
1026.000	606.112	80.010	19.993	103.872	20.078	-1.195	0.494
1026.500	606.387	80.003	19.996	103.874	20.082	-1.466	0.514
1027.000	606.634	80.006	19.997	103.874	20.079	-1.263	0.526
1027.500	606.890	80.006	19.998	103.874	20.081	-1.409	0.512
1028.000	607.156	80.008	19.994	103.873	20.082	-1.426	0.512
1028.500	607.410	79.999	19.995	103.877	20.081	-1.377	0.521
1029.000	607.660	80.007	19.994	103.874	20.083	-1.535	0.512
1029.500	607.945	80.006	19.994	103.875	20.081	-1.374	0.520
1030.000	608.196	80.008	19.995	103.877	20.080	-1.334	0.535
1030.500	608.415	80.007	19.996	103.878	20.083	-1.548	0.503
1031.000	608.693	80.008	19.996	103.874	20.082	-1.456	0.483
1031.500	608.966	80.001	19.996	103.875	20.084	-1.567	0.524
1032.000	609.180	80.000	19.995	103.875	20.081	-1.417	0.520
1032.500	609.455	80.009	19.993	103.872	20.084	-1.562	0.488
1033.000	609.710	80.005	19.997	103.873	20.078	-1.193	0.510
1033.500	609.976	80.009	19.993	103.874	20.080	-1.351	0.525
1034.000	610.231	80.005	19.995	103.875	20.080	-1.317	0.521
1034.500	610.503	80.008	19.992	103.874	20.079	-1.285	0.524
1035.000	610.747	80.004	19.995	103.875	20.077	-1.148	0.522
1035.500	611.031	80.009	19.990	103.874	20.078	-1.191	0.522
1036.000	611.253	80.009	19.994	103.875	20.082	-1.434	0.517
1036.500	611.507	80.005	19.993	103.874	20.079	-1.285	0.491
1037.000	611.789	80.008	19.992	103.876	20.079	-1.278	0.506
1037.500	612.046	80.006	19.991	103.877	20.080	-1.294	0.537
1038.000	612.298	80.006	19.992	103.880	20.079	-1.261	0.524
1038.500	612.541	80.008	19.992	103.880	20.081	-1.381	0.503
1039.000	612.811	80.005	19.996	103.881	20.081	-1.387	0.504
1039.500	613.069	80.010	19.991	103.881	20.079	-1.274	0.520
1040.000	613.317	80.007	19.995	103.882	20.083	-1.530	0.517
1040.500	613.574	80.007	19.994	103.878	20.081	-1.377	0.505
1041.000	613.864	80.002	19.992	103.878	20.080	-1.353	0.526
1041.500	614.105	80.005	19.991	103.876	20.081	-1.411	0.539
1042.000	614.357	80.007	19.994	103.876	20.082	-1.471	0.512
1042.500	614.580	80.007	19.996	103.875	20.082	-1.436	0.484
1043.000	614.888	80.006	19.990	103.876	20.084	-1.607	0.503
1043.500	615.142	80.004	19.999	103.878	20.083	-1.539	0.546
1044.000	615.367	80.003	19.993	103.876	20.081	-1.360	0.520
1044.500	615.667	80.006	19.993	103.876	20.081	-1.400	0.502
1045.000	615.939	80.004	19.995	103.876	20.080	-1.332	0.549
1045.500	616.161	80.005	19.993	103.877	20.082	-1.479	0.534
1046.000	616.402	80.004	19.995	103.875	20.081	-1.421	0.479
1046.500	616.696	80.008	19.993	103.876	20.080	-1.302	0.498
1047.000	616.919	80.005	19.995	103.876	20.080	-1.294	0.525
1047.500	617.191	80.005	19.992	103.875	20.081	-1.402	0.506
1048.000	617.440	80.007	19.993	103.876	20.078	-1.159	0.508
1048.500	617.697	80.009	19.993	103.876	20.079	-1.223	0.514
1049.000	617.955	80.000	19.985	103.879	20.079	-1.283	0.511
1049.500	618.213	80.008	19.995	103.881	20.077	-1.144	0.516
1050.000	618.464	80.002	19.997	103.882	20.084	-1.629	0.513
1050.500	618.751	80.008	19.993	103.881	20.080	-1.293	0.524
1051.000	618.963	80.002	19.999	103.881	20.082	-1.484	0.519
1051.500	619.256	80.005	19.993	103.877	20.080	-1.313	0.502
1052.000	619.492	80.009	19.993	103.875	20.082	-1.458	0.516
1052.500	619.737	80.004	19.995	103.875	20.081	-1.372	0.505
1053.000	620.015	80.007	19.997	103.876	20.080	-1.293	0.502
1053.500	620.271	80.005	19.997	103.875	20.083	-1.541	0.529
1054.000	620.560	80.005	19.993	103.876	20.079	-1.281	0.540
1054.500	620.795	80.009	19.990	103.875	20.079	-1.227	0.535
1055.001	621.015	80.007	19.994	103.875	20.079	-1.249	0.490
1055.501	621.284	80.008	19.994	103.875	20.082	-1.458	0.472
1056.000	621.582	80.006	19.995	103.875	20.084	-1.577	0.528
1056.500	621.815	80.008	19.994	103.876	20.082	-1.434	0.549
1057.000	622.063	80.007	19.995	103.874	20.082	-1.424	0.506
1057.500	622.325	80.008	19.992	103.871	20.081	-1.381	0.495
1058.000	622.569	80.006	19.993	103.871	20.085	-1.639	0.508
1058.500	622.777	80.005	19.994	103.871	20.080	-1.294	0.479
1059.000	623.059	80.006	19.994	103.870	20.078	-1.191	0.471
1059.500	623.329	80.003	19.997	103.872	20.080	-1.349	0.522
1060.000	623.627	80.005	19.994	103.874	20.081	-1.422	0.560
1060.500	623.815	80.003	19.995	103.873	20.080	-1.294	0.527
1061.000	624.104	80.005	19.994	103.872	20.081	-1.405	0.481
1061.500	624.308	80.010	19.993	103.873	20.079	-1.285	0.485
1062.000	624.574	80.004	19.993	103.874	20.083	-1.528	0.482
1062.500	624.863	80.002	19.993	103.874	20.083	-1.505	0.512
1063.000	625.141	80.004	19.994	103.874	20.079	-1.240	0.561
1063.500	625.369	80.006	19.994	103.875	20.082	-1.447	0.537
1064.000	625.640	80.006	19.994	103.874	20.082	-1.462	0.502
1064.500	625.875	80.005	19.994	103.873	20.082	-1.452	0.502
1065.000	626.122	80.006	19.993	103.873	20.080	-1.308	0.495
1065.500	626.385	80.005	19.993	103.874	20.081	-1.407	0.496
1066.000	626.631	80.006	19.993	103.874	20.081	-1.409	0.510
1066.500	626.913	80.005	19.996	103.872	20.082	-1.481	0.518
1067.000	627.183	80.007	19.993	103.867	20.084	-1.612	0.539
1067.500	627.444	80.007	19.993	103.868	20.081	-1.404	0.542
1068.000	627.678	80.001	19.994	103.868	20.082	-1.424	0.514
1068.500	627.911	80.005	19.993	103.868	20.082	-1.483	0.481
1069.000	628.173	80.005	19.993	103.869	20.082	-1.440	0.481
1069.500	628.482	80.009	19.993	103.870	20.080	-1.323	0.533
1070.000	628.722	80.005	19.994	103.870	20.081	-1.411	0.560
1070.500	628.997	80.006	19.993	103.869	20.078	-1.187	0.532
1071.000	629.219	80.004	19.994	103.869	20.076	-1.065	0.506
1071.500	629.499	80.006	19.992	103.869	20.081	-1.366	0.500
1072.000	629.730	80.005	19.993	103.873	20.082	-1.479	0.506
1072.500	629.971	80.002	19.994	103.874	20.081	-1.370	0.491
1073.000	630.222	80.007	19.993	103.874	20.079	-1.231	0.482
1073.500	630.502	80.007	19.994	103.875	20.082	-1.430	0.512
1074.000	630.751	80.004	19.994	103.875	20.083	-1.535	0.530
1074.500	631.041	80.005	19.993	103.875	20.070	-0.617	0.534
1075.000	631.269	80.005	19.996	103.875	20.069	-0.534	0.528
1075.500	631.586	80.006	19.994	103.873	20.087	-1.776	0.531
1076.000	631.793	80.005	19.994	103.874	20.084	-1.584	0.534
1076.500	632.095	80.007	19.995	103.873	20.072	-0.773	0.517
1077.000	632.311	80.006	19.993	103.873	20.086	-1.736	0.514
1077.500	632.611	80.006	19.992	103.873	20.077	-1.146	0.517
1078.000	632.846	80.005	19.992	103.875	20.082	-1.467	0.525
1078.500	633.076	80.008	19.990	103.875	20.083	-1.548	0.500
1079.000	633.325	80.005	19.994	103.876	20.081	-1.390	0.472
1079.501	633.598	80.010	19.992	103.877	20.080	-1.347	0.500
1080.001	633.902	80.006	19.993	103.888	20.078	-1.193	0.549
1080.500	634.170	80.003	19.996	103.886	20.079	-1.259	0.574
1081.000	634.439	80.006	19.994	103.873	20.079	-1.249	0.555
1081.500	634.597	80.006	19.994	103.866	20.081	-1.371	0.482
1082.000	634.947	80.006	19.994	103.863	20.079	-1.223	0.468
1082.500	635.172	80.005	19.995	103.847	20.078	-1.213	0.541
1083.000	635.496	80.007	19.994	103.851	20.084	-1.586	0.562
1083.500	635.639	80.005	19.992	103.867	20.077	-1.138	0.508
1084.000	636.025	80.005	19.993	103.875	20.079	-1.225	0.498
1084.500	636.240	80.008	19.994	103.877	20.080	-1.336	0.565
1085.000	636.342	80.007	19.993	103.883	20.078	-1.197	0.459
1085.500	636.827	80.005	19.995	103.885	20.077	-1.093	0.452
1086.000	636.943	80.005	19.994	103.882	20.081	-1.392	0.594
1086.500	637.369	80.006	19.996	103.880	20.078	-1.168	0.572
1087.000	637.465	80.006	19.996	103.881	20.081	-1.377	0.532
1087.500	637.616	80.005	19.993	103.874	20.078	-1.163	0.385
1088.000	637.967	80.006	19.994	103.865	20.077	-1.121	0.374
1088.500	637.702	80.005	19.992	103.864	20.079	-1.285	0.293
1089.000	637.732	80.006	19.993	103.860	20.079	-1.259	-0.074
1089.500	638.517	80.003	19.994	103.852	20.076	-1.080	0.291
1090.000	639.493	80.006	19.995	103.855	20.076	-1.067	1.288
1090.500	638.695	80.005	19.994	103.860	20.078	-1.178	0.969
1091.000	639.807	80.005	19.994	103.859	20.078	-1.168	0.246
1091.500	639.768	80.005	19.993	103.858	20.079	-1.221	0.693
1092.000	639.943	80.005	19.992	103.864	20.078	-1.151	0.604
1092.500	640.398	80.004	19.994	103.865	20.078	-1.159	0.383
1093.000	640.600	80.006	19.994	103.864	20.081	-1.396	0.644
1093.500	640.753	80.004	19.994	103.866	20.080	-1.287	0.506
1094.000	641.076	80.006	19.993	103.871	20.080	-1.315	0.416
1094.500	641.377	80.004	19.993	103.873	20.079	-1.276	0.550
1095.000	641.568	80.006	19.994	103.873	20.079	-1.234	0.558
1095.500	641.806	80.005	19.994	103.876	20.078	-1.217	0.461
1096.000	642.154	80.007	19.993	103.878	20.080	-1.351	0.508
1096.500	642.391	80.006	19.994	103.877	20.080	-1.351	0.585
1097.000	642.636	80.005	19.995	103.875	20.081	-1.409	0.533
1097.500	642.891	80.005	19.994	103.875	20.080	-1.341	0.491
1098.000	643.163	80.005	19.994	103.875	20.080	-1.328	0.514
1098.500	643.445	80.004	19.995	103.874	20.078	-1.183	0.540
1099.000	643.677	80.007	19.994	103.876	20.079	-1.276	0.534
1099.500	643.920	80.006	19.994	103.878	20.082	-1.481	0.494
1100.000	644.188	80.004	19.995	103.878	20.079	-1.261	0.493
1100.500	644.444	80.005	19.992	103.878	20.081	-1.422	0.517
1101.000	644.715	80.005	19.993	103.878	20.079	-1.283	0.525
1101.500	644.993	80.004	19.995	103.877	20.078	-1.204	0.538
1102.000	645.220	80.005	19.993	103.875	20.083	-1.535	0.527
1102.500	645.520	80.006	19.993	103.875	20.081	-1.373	0.516
1103.000	645.759	80.006	19.994	103.875	20.077	-1.106	0.533
1103.500	646.009	80.004	19.993	103.872	20.079	-1.285	0.514
1104.000	646.274	80.007	19.993	103.871	20.077	-1.142	0.503
1104.500	646.589	80.005	19.994	103.873	20.089	-1.919	0.548
1105.000	646.854	80.007	19.994	103.874	20.068	-0.521	0.580
1105.500	647.133	80.009	19.994	103.873	20.074	-0.901	0.562
1106.000	647.300	80.009	19.994	103.874	20.090	-2.034	0.495
1106.500	647.650	80.007	19.993	103.874	20.085	-1.660	0.481
1107.000	647.929	80.009	19.993	103.871	20.080	-1.302	0.573
1107.500	648.244	80.007	19.994	103.867	20.078	-1.170	0.611
1108.000	648.431	80.005	19.994	103.867	20.084	-1.575	0.548
1108.500	648.757	80.008	19.994	103.869	20.085	-1.684	0.508
1109.000	648.956	80.008	19.994	103.871	20.078	-1.202	0.519
1109.500	649.227	80.007	19.994	103.871	20.076	-1.048	0.497
1110.000	649.539	80.006	19.994	103.871	20.078	-1.166	0.526
1110.500	649.731	80.007	19.994	103.868	20.080	-1.287	0.544
1111.000	650.081	80.006	19.995	103.868	20.078	-1.204	0.523
1111.500	650.295	80.006	19.994	103.864	20.081	-1.400	0.553
1112.000	650.684	80.008	19.993	103.863	20.079	-1.229	0.583
1112.500	650.833	80.007	19.995	103.867	20.081	-1.381	0.571
1113.000	651.169	80.006	19.994	103.869	20.078	-1.157	0.512
1113.500	651.406	80.007	19.994	103.868	20.078	-1.150	0.529
1114.000	651.607	80.005	19.995	103.870	20.081	-1.389	0.505
1114.500	651.926	80.005	19.994	103.874	20.079	-1.285	0.479
1115.000	652.191	80.007	19.995	103.871	20.078	-1.180	0.552
1115.500	652.401	80.006	19.996	103.871	20.080	-1.328	0.529
1116.000	652.915	80.006	19.995	103.872	20.079	-1.244	0.599
1116.500	652.901	80.006	19.994	103.873	20.080	-1.339	0.612
1117.000	653.223	80.006	19.994	103.873	20.081	-1.362	0.404
1117.500	653.380	80.004	19.995	103.876	20.081	-1.413	0.393
1118.000	653.622	80.009	19.993	103.876	20.079	-1.262	0.439
1118.500	654.562	80.007	19.996	103.875	20.080	-1.345	0.791
1119.000	653.870	80.006	19.994	103.873	20.078	-1.191	0.715
1119.500	653.917	80.004	19.995	103.867	20.079	-1.277	-0.199
1120.000	655.584	80.007	19.993	103.867	20.076	-1.055	0.535
1120.500	655.219	80.008	19.993	103.868	20.075	-1.005	1.508
1121.000	655.381	80.006	19.995	103.870	20.078	-1.202	0.549
1121.500	655.669	80.004	19.995	103.872	20.079	-1.283	0.123
1122.000	656.343	80.007	19.995	103.877	20.079	-1.268	0.706
1122.500	656.130	80.005	19.995	103.876	20.078	-1.202	0.712
1123.000	656.477	80.008	19.994	103.875	20.078	-1.159	0.297
1123.500	656.560	80.007	19.994	103.875	20.080	-1.328	0.282
1124.000	657.186	80.008	19.994	103.873	20.080	-1.353	0.570
1124.501	657.317	80.008	19.993	103.874	20.077	-1.131	0.733
1125.001	657.588	80.005	19.995	103.874	20.080	-1.300	0.580
1125.500	657.815	80.006	19.994	103.871	20.079	-1.251	0.450
1126.000	658.098	80.007	19.995	103.866	20.080	-1.315	0.504
1126.500	658.341	80.006	19.995	103.865	20.077	-1.125	0.518
1127.000	658.600	80.006	19.994	103.862	20.079	-1.274	0.515
1127.500	658.901	80.006	19.995	103.859	20.078	-1.217	0.531
1128.000	659.095	80.008	19.995	103.863	20.079	-1.238	0.527
1128.500	659.392	80.007	19.994	103.866	20.076	-1.080	0.493
1129.000	659.702	80.006	19.994	103.869	20.079	-1.242	0.549
1129.500	659.932	80.009	19.995	103.870	20.078	-1.215	0.573
1130.000	660.198	80.007	19.995	103.869	20.080	-1.328	0.518
1130.500	660.497	80.009	19.994	103.863	20.077	-1.104	0.531
1131.000	660.777	80.007	19.994	103.862	20.080	-1.328	0.572
1131.500	661.001	80.008	19.994	103.862	20.080	-1.306	0.542
1132.000	661.213	80.007	19.995	103.862	20.081	-1.377	0.470
1132.500	661.532	80.008	19.995	103.859	20.077	-1.097	0.483
1133.000	661.751	80.008	19.994	103.859	20.079	-1.223	0.534
1133.501	662.027	80.008	19.993	103.857	20.080	-1.305	0.516
1134.001	662.304	80.008	19.996	103.851	20.083	-1.511	0.524
1134.500	662.514	80.007	19.993	103.850	20.078	-1.163	0.520
1135.000	662.831	80.008	19.994	103.854	20.078	-1.164	0.507
1135.501	663.109	80.007	19.994	103.857	20.079	-1.272	0.561
1136.001	663.375	80.007	19.994	103.860	20.081	-1.418	0.569
1136.500	663.650	80.007	19.994	103.865	20.078	-1.181	0.542
1137.000	663.887	80.007	19.994	103.868	20.080	-1.309	0.526
1137.500	664.135	80.009	19.994	103.872	20.080	-1.328	0.498
1138.000	664.414	80.006	19.995	103.875	20.081	-1.385	0.506
1138.500	664.699	80.004	19.995	103.875	20.083	-1.500	0.546
1139.000	664.975	80.007	19.994	103.874	20.085	-1.680	0.563
1139.500	665.217	80.006	19.994	103.873	20.080	-1.306	0.540
1140.000	665.494	80.009	19.994	103.871	20.081	-1.375	0.519
1140.500	665.718	80.005	19.996	103.870	20.081	-1.394	0.510
1141.000	666.005	80.006	19.995	103.869	20.081	-1.415	0.506
1141.500	666.260	80.008	19.995	103.870	20.080	-1.341	0.526
1142.000	666.508	80.006	19.995	103.869	20.086	-1.708	0.523
1142.500	666.774	80.005	19.995	103.866	20.081	-1.396	0.509
1143.001	667.060	80.006	19.993	103.862	20.082	-1.447	0.533
1143.501	667.318	80.004	19.995	103.855	20.079	-1.281	0.548
1144.000	667.572	80.006	19.994	103.851	20.082	-1.447	0.528
1144.500	667.834	80.005	19.995	103.852	20.081	-1.373	0.514
1145.000	668.081	80.005	19.995	103.856	20.078	-1.187	0.512
1145.500	668.389	80.005	19.995	103.859	20.082	-1.450	0.532
1146.000	668.590	80.004	19.997	103.860	20.082	-1.426	0.532
1146.500	668.859	80.004	19.995	103.859	20.080	-1.309	0.490
1147.000	669.144	80.005	19.994	103.858	20.082	-1.456	0.512
1147.500	669.397	80.005	19.996	103.858	20.081	-1.409	0.546
1148.000	669.661	80.005	19.994	103.860	20.078	-1.212	0.528
1148.500	669.919	80.005	19.996	103.864	20.081	-1.400	0.520
1149.000	670.197	80.004	19.994	103.869	20.079	-1.264	0.529
1149.500	670.448	80.003	19.994	103.871	20.080	-1.325	0.533
1150.000	670.736	80.006	19.995	103.872	20.079	-1.261	0.534
1150.500	670.958	80.004	19.996	103.872	20.081	-1.373	0.525
1151.000	671.255	80.006	19.996	103.873	20.084	-1.561	0.514
1151.500	671.504	80.007	19.996	103.872	20.084	-1.575	0.532
1152.000	671.763	80.004	19.994	103.870	20.079	-1.243	0.527
1152.500	672.054	80.006	19.994	103.868	20.082	-1.486	0.529
1153.000	672.264	80.005	19.994	103.864	20.078	-1.206	0.525
1153.500	672.543	80.005	19.995	103.864	20.080	-1.298	0.495
1154.000	672.811	80.008	19.995	103.860	20.079	-1.253	0.519
1154.500	673.080	80.007	19.993	103.856	20.078	-1.204	0.543
1155.000	673.372	80.004	19.994	103.857	20.079	-1.281	0.549
1155.500	673.614	80.005	19.995	103.859	20.083	-1.528	0.547
1156.000	673.871	80.004	19.995	103.860	20.080	-1.332	0.517
1156.500	674.151	80.006	19.993	103.861	20.082	-1.475	0.518
1157.000	674.382	80.005	19.994	103.867	20.081	-1.377	0.524
1157.500	674.674	80.004	19.994	103.872	20.080	-1.332	0.517
1158.000	674.937	80.005	19.994	103.873	20.082	-1.432	0.539
1158.500	675.213	80.005	19.994	103.873	20.081	-1.400	0.547
1159.000	675.476	80.005	19.995	103.876	20.080	-1.302	0.539
1159.501	675.732	80.006	19.992	103.875	20.080	-1.313	0.529
1160.001	675.981	80.005	19.993	103.873	20.081	-1.381	0.512
1160.501	676.238	80.005	19.994	103.873	20.079	-1.236	0.505
1161.001	676.494	80.005	19.995	103.869	20.081	-1.418	0.510
1161.500	676.783	80.006	19.992	103.863	20.080	-1.309	0.529
1162.000	677.056	80.007	19.994	103.856	20.083	-1.522	0.553
1162.500	677.284	80.004	19.997	103.857	20.081	-1.358	0.531
1163.000	677.543	80.007	19.993	103.856	20.083	-1.514	0.494
1163.500	677.782	80.006	19.992	103.861	20.084	-1.573	0.493
1164.000	678.066	80.006	19.993	103.868	20.082	-1.434	0.511
1164.500	678.351	80.005	19.995	103.871	20.078	-1.195	0.546
1165.000	678.646	80.006	19.994	103.869	20.082	-1.441	0.574
1165.500	678.824	80.006	19.995	103.869	20.082	-1.488	0.527
1166.000	679.133	80.005	19.993	103.868	20.080	-1.355	0.480
1166.500	679.401	80.003	19.995	103.869	20.080	-1.340	0.531
1167.000	679.646	80.006	19.993	103.875	20.079	-1.259	0.545
1167.500	679.897	80.004	19.995	103.880	20.082	-1.430	0.505
1168.000	680.133	80.006	19.993	103.881	20.082	-1.477	0.492
1168.500	680.404	80.005	19.995	103.881	20.082	-1.434	0.497
1169.000	680.709	80.008	19.993	103.875	20.080	-1.317	0.542
1169.500	680.945	80.009	19.994	103.866	20.082	-1.473	0.558
1170.000	681.198	80.007	19.995	103.857	20.082	-1.473	0.515
1170.500	681.449	80.007	19.994	103.854	20.084	-1.624	0.497
1171.000	681.689	80.007	19.995	103.854	20.082	-1.481	0.497
1171.500	681.968	80.006	19.995	103.857	20.082	-1.492	0.505
1172.000	682.254	80.005	19.994	103.859	20.084	-1.582	0.542
1172.500	682.530	80.005	19.994	103.866	20.084	-1.624	0.563
1173.000	682.713	80.004	19.994	103.868	20.082	-1.454	0.511
1173.500	682.956	80.004	19.994	103.864	20.080	-1.323	0.443
1174.000	683.249	80.006	19.994	103.862	20.084	-1.626	0.481
1174.500	683.499	80.005	19.995	103.865	20.084	-1.567	0.539
1175.000	683.767	80.004	19.993	103.860	20.083	-1.558	0.531
1175.500	684.045	80.006	19.994	103.855	20.084	-1.571	0.532
1176.000	684.292	80.004	19.994	103.855	20.082	-1.479	0.535
1176.500	684.558	80.004	19.993	103.861	20.081	-1.366	0.519
1177.000	684.814	80.004	19.993	103.865	20.082	-1.479	0.518
1177.501	685.116	80.005	19.995	103.870	20.083	-1.509	0.540
1178.001	685.352	80.006	19.993	103.875	20.084	-1.577	0.548
1178.500	685.548	80.005	19.994	103.877	20.080	-1.336	0.485
1179.000	685.845	80.003	19.995	103.876	20.082	-1.488	0.463
1179.500	686.085	80.001	19.994	103.875	20.086	-1.765	0.515
1180.000	686.325	80.007	19.994	103.875	20.088	-1.889	0.508
1180.500	686.631	80.006	19.994	103.876	20.080	-1.325	0.513
1181.000	686.896	80.005	19.995	103.877	20.087	-1.825	0.559
1181.500	687.145	80.003	19.993	103.876	20.086	-1.731	0.542
1182.000	687.395	80.006	19.993	103.877	20.085	-1.682	0.506
1182.500	687.644	80.006	19.994	103.877	20.083	-1.537	0.499
1183.000	687.905	80.004	19.995	103.876	20.084	-1.590	0.505
1183.500	688.163	80.006	19.993	103.876	20.080	-1.296	0.514
1184.000	688.408	80.005	19.993	103.871	20.076	-1.067	0.511
1184.500	688.661	80.005	19.995	103.868	20.079	-1.247	0.500
1185.000	688.996	80.004	19.994	103.868	20.079	-1.276	0.543
1185.500	689.233	80.007	19.994	103.865	20.079	-1.279	0.580
1186.000	689.487	80.006	19.993	103.865	20.082	-1.466	0.532
1186.500	689.759	80.006	19.994	103.871	20.082	-1.473	0.509
1187.000	689.985	80.008	19.993	103.873	20.080	-1.319	0.512
1187.500	690.233	80.007	19.993	103.874	20.083	-1.507	0.486
1188.000	690.482	80.008	19.994	103.877	20.085	-1.639	0.485
1188.500	690.743	80.010	19.994	103.877	20.081	-1.372	0.504
1189.000	691.026	80.007	19.992	103.875	20.084	-1.562	0.527
1189.500	691.272	80.007	19.994	103.875	20.080	-1.330	0.537
1190.000	691.532	80.007	19.993	103.874	20.081	-1.377	0.518
1190.500	691.748	80.007	19.994	103.873	20.085	-1.660	0.491
1191.000	692.052	80.008	19.992	103.873	20.082	-1.471	0.498
1191.501	692.292	80.006	19.994	103.874	20.082	-1.468	0.532
1192.001	692.524	80.009	19.993	103.872	20.083	-1.498	0.508
1192.500	692.706	80.006	19.995	103.869	20.082	-1.477	0.443
1193.000	693.059	80.007	19.993	103.868	20.079	-1.285	0.474
1193.500	693.273	80.007	19.993	103.866	20.081	-1.402	0.551
1194.000	693.990	80.006	19.994	103.863	20.081	-1.404	0.749
1194.500	693.894	80.008	19.994	103.865	20.085	-1.639	0.776
1195.001	694.159	80.007	19.995	103.867	20.082	-1.430	0.395
1195.501	694.432	80.004	19.994	103.867	20.081	-1.402	0.354
1196.000	694.591	80.006	19.993	103.869	20.082	-1.428	0.485
1196.500	694.847	80.007	19.994	103.873	20.082	-1.464	0.423
1197.000	695.134	80.006	19.996	103.873	20.083	-1.547	0.479
1197.500	695.491	80.005	19.995	103.873	20.082	-1.469	0.593
1198.000	695.349	80.004	19.994	103.874	20.081	-1.413	0.429
1198.501	695.874	80.006	19.995	103.873	20.084	-1.597	0.299
1199.001	696.131	80.006	19.993	103.873	20.081	-1.403	0.583
1199.500	696.380	80.007	19.995	103.874	20.083	-1.531	0.644
1200.000	696.655	80.007	19.994	103.874	20.084	-1.571	0.515
1200.500	696.931	80.007	19.994	103.875	20.081	-1.388	0.537
1201.000	697.167	80.007	19.993	103.876	20.078	-1.151	0.531
1201.500	697.408	80.007	19.994	103.876	20.081	-1.422	0.494
1202.000	697.688	80.006	19.994	103.875	20.079	-1.253	0.499
1202.500	697.921	80.006	19.995	103.875	20.080	-1.323	0.517
1203.000	698.171	80.006	19.994	103.871	20.081	-1.390	0.498
1203.500	698.415	80.007	19.994	103.868	20.084	-1.573	0.489
1204.000	698.689	80.004	19.995	103.867	20.081	-1.387	0.506
1204.500	698.953	80.007	19.995	103.869	20.083	-1.520	0.528
1205.000	699.214	80.005	19.995	103.868	20.080	-1.345	0.532
1205.500	699.479	80.006	19.994	103.872	20.084	-1.593	0.526
1206.000	699.725	80.005	19.996	103.875	20.079	-1.258	0.519
1206.500	699.956	80.006	19.994	103.875	20.084	-1.563	0.494
1207.000	700.204	80.006	19.996	103.872	20.084	-1.582	0.478
1207.500	700.487	80.008	19.994	103.871	20.081	-1.400	0.505
1208.000	700.703	80.006	19.995	103.871	20.084	-1.563	0.515
1208.500	700.978	80.005	19.994	103.870	20.083	-1.520	0.495
1209.000	701.251	80.006	19.994	103.866	20.080	-1.330	0.519
1209.500	701.475	80.005	19.995	103.864	20.086	-1.718	0.522
1210.000	701.742	80.006	19.997	103.858	20.083	-1.494	0.494
1210.500	701.972	80.008	19.993	103.854	20.083	-1.505	0.494
1211.000	702.254	80.006	19.995	103.853	20.086	-1.699	0.505
1211.500	702.504	80.008	19.994	103.856	20.084	-1.601	0.522
1212.000	702.711	80.007	19.994	103.859	20.084	-1.561	0.495
1212.500	702.965	80.007	19.995	103.865	20.085	-1.667	0.459
1213.000	703.265	80.008	19.994	103.869	20.086	-1.729	0.508
1213.500	703.483	80.007	19.996	103.869	20.083	-1.550	0.536
1214.000	703.727	80.009	19.994	103.871	20.085	-1.671	0.490
1214.500	703.933	80.009	19.995	103.871	20.084	-1.597	0.456
1215.000	704.144	80.008	19.995	103.870	20.084	-1.567	0.434
1215.500	704.362	80.008	19.994	103.863	20.085	-1.633	0.423
1216.000	704.735	80.009	19.995	103.857	20.084	-1.567	0.509
1216.500	704.963	80.008	19.994	103.855	20.079	-1.270	0.596
1217.000	705.216	80.008	19.994	103.851	20.084	-1.614	0.541
1217.500	705.516	80.007	19.994	103.848	20.083	-1.543	0.517
1218.000	705.732	80.008	19.994	103.849	20.081	-1.422	0.534
1218.500	706.000	80.008	19.995	103.855	20.081	-1.373	0.500
1219.000	706.218	80.009	19.993	103.857	20.082	-1.462	0.485
1219.500	706.443	80.007	19.995	103.858	20.083	-1.529	0.465
1220.000	706.730	80.008	19.993	103.860	20.082	-1.473	0.478
1220.500	706.955	80.008	19.994	103.859	20.081	-1.418	0.512
1221.000	707.230	80.008	19.993	103.855	20.083	-1.501	0.506
1221.500	707.482	80.008	19.995	103.852	20.085	-1.655	0.513
1222.000	707.698	80.007	19.994	103.852	20.082	-1.454	0.498
1222.500	707.974	80.008	19.993	103.855	20.085	-1.640	0.480
1223.000	708.202	80.006	19.994	103.863	20.083	-1.509	0.497
1223.500	708.470	80.006	19.994	103.868	20.082	-1.482	0.500
1224.000	708.730	80.006	19.993	103.868	20.083	-1.520	0.512
1224.500	708.988	80.006	19.994	103.869	20.082	-1.452	0.523
1225.000	709.225	80.005	19.995	103.868	20.083	-1.524	0.507
1225.500	709.514	80.005	19.995	103.865	20.084	-1.618	0.511
1226.000	709.731	80.006	19.995	103.863	20.081	-1.390	0.516
1226.500	709.990	80.006	19.995	103.865	20.079	-1.274	0.491
1227.000	710.217	80.005	19.995	103.866	20.082	-1.488	0.481
1227.500	710.492	80.005	19.995	103.868	20.083	-1.530	0.494
1228.000	710.708	80.005	19.995	103.871	20.081	-1.372	0.497
1228.500	710.961	80.004	19.994	103.873	20.079	-1.268	0.480
1229.000	711.239	80.004	19.994	103.872	20.079	-1.244	0.500
1229.500	711.466	80.005	19.995	103.870	20.081	-1.390	0.518
1230.000	711.732	80.005	19.995	103.866	20.081	-1.400	0.499
1230.500	711.961	80.004	19.995	103.861	20.081	-1.402	0.494
1231.000	712.243	80.004	19.995	103.853	20.080	-1.321	0.503
1231.500	712.471	80.004	19.995	103.850	20.079	-1.259	0.510
1232.000	712.747	80.005	19.995	103.848	20.076	-1.061	0.507
1232.500	712.979	80.005	19.996	103.849	20.080	-1.347	0.506
1233.000	713.237	80.004	19.995	103.852	20.080	-1.298	0.499
1233.500	713.471	80.003	19.996	103.857	20.079	-1.257	0.491
1234.000	713.733	80.005	19.996	103.860	20.080	-1.308	0.494
1234.500	714.012	80.005	19.995	103.864	20.081	-1.381	0.518
1235.000	714.248	80.005	19.996	103.866	20.080	-1.353	0.528
1235.500	714.493	80.005	19.995	103.868	20.079	-1.270	0.498
1236.000	714.753	80.004	19.995	103.870	20.079	-1.285	0.493
1236.500	714.994	80.004	19.996	103.871	20.079	-1.281	0.503
1237.000	715.285	80.004	19.997	103.871	20.080	-1.298	0.517
1237.500	715.504	80.006	19.996	103.871	20.085	-1.682	0.521
1238.000	715.790	80.004	19.994	103.872	20.083	-1.505	0.508
1238.500	716.060	80.004	19.996	103.871	20.084	-1.576	0.530
1239.000	716.301	80.004	19.996	103.866	20.080	-1.306	0.533
1239.500	716.540	80.004	19.995	103.868	20.079	-1.242	0.495
1240.000	716.762	80.005	19.996	103.867	20.083	-1.548	0.471
1240.500	717.053	80.004	19.995	103.865	20.081	-1.387	0.487
1241.000	717.288	80.005	19.995	103.864	20.083	-1.556	0.520
1241.500	717.539	80.003	19.996	103.870	20.083	-1.500	0.506
1242.000	717.845	80.005	19.996	103.871	20.085	-1.691	0.521
1242.500	718.018	80.004	19.995	103.874	20.080	-1.311	0.518
1243.000	718.290	80.006	19.994	103.873	20.080	-1.328	0.461
1243.500	718.545	80.003	19.994	103.875	20.082	-1.458	0.486
1244.000	718.804	80.005	19.995	103.876	20.085	-1.680	0.521
1244.500	719.032	80.005	19.995	103.875	20.083	-1.496	0.501
1245.000	719.279	80.003	19.995	103.873	20.083	-1.541	0.481
1245.500	719.544	80.005	19.995	103.875	20.083	-1.503	0.493
1246.000	719.836	80.005	19.997	103.875	20.081	-1.370	0.535
1246.500	720.055	80.006	19.995	103.876	20.081	-1.400	0.534
1247.000	720.303	80.004	19.995	103.875	20.080	-1.322	0.489
1247.500	720.598	80.005	19.996	103.869	20.081	-1.371	0.505
1248.000	720.836	80.005	19.993	103.863	20.080	-1.354	0.538
1248.500	721.052	80.005	19.994	103.858	20.081	-1.360	0.494
1249.000	721.323	80.004	19.994	103.850	20.079	-1.230	0.471
1249.500	721.550	80.005	19.994	103.851	20.081	-1.364	0.493
1250.001	721.784	80.004	19.994	103.857	20.083	-1.533	0.479
1250.501	722.067	80.004	19.996	103.864	20.080	-1.292	0.489
1251.000	722.319	80.005	19.993	103.869	20.081	-1.362	0.526
1251.500	722.585	80.007	19.994	103.875	20.080	-1.304	0.526
1252.000	722.829	80.006	19.995	103.876	20.080	-1.343	0.514
1252.500	723.072	80.007	19.995	103.876	20.079	-1.260	0.498
1253.000	723.337	80.005	19.993	103.873	20.079	-1.272	0.498
1253.500	723.585	80.005	19.995	103.866	20.077	-1.087	0.510
1254.000	723.816	80.004	19.994	103.864	20.083	-1.514	0.496
1254.500	724.078	80.005	19.994	103.864	20.082	-1.450	0.486
1255.000	724.355	80.004	19.994	103.864	20.082	-1.441	0.516
1255.500	724.621	80.005	19.995	103.866	20.079	-1.240	0.541
1256.000	724.821	80.005	19.994	103.873	20.081	-1.362	0.505
1256.500	725.088	80.004	19.994	103.871	20.082	-1.465	0.466
1257.000	725.353	80.008	19.995	103.870	20.082	-1.435	0.499
1257.500	725.602	80.004	19.995	103.865	20.080	-1.353	0.523
1258.001	725.807	80.005	19.995	103.857	20.081	-1.388	0.484
1258.501	726.081	80.008	19.994	103.850	20.079	-1.283	0.467
1259.000	726.340	80.004	19.994	103.851	20.080	-1.291	0.506
1259.500	726.576	80.005	19.993	103.845	20.081	-1.379	0.513
1260.000	726.818	80.004	19.994	103.842	20.082	-1.471	0.486
1260.500	727.092	80.006	19.994	103.841	20.079	-1.257	0.497
1261.000	727.346	80.008	19.994	103.841	20.080	-1.296	0.522
1261.500	727.584	80.004	19.994	103.840	20.080	-1.352	0.510
1262.000	727.881	80.005	19.995	103.841	20.080	-1.288	0.513
1262.500	728.088	80.005	19.995	103.847	20.080	-1.349	0.520
1263.000	728.354	80.006	19.994	103.854	20.079	-1.245	0.489
1263.500	728.617	80.006	19.994	103.862	20.081	-1.394	0.501
1264.000	728.872	80.005	19.994	103.864	20.082	-1.458	0.524
1264.500	729.120	80.008	19.994	103.865	20.076	-1.059	0.511
1265.000	729.389	80.006	19.994	103.864	20.078	-1.215	0.509
1265.500	729.651	80.004	19.994	103.859	20.081	-1.413	0.524
1266.000	729.918	80.006	19.994	103.855	20.077	-1.132	0.530
1266.500	730.140	80.006	19.997	103.854	20.081	-1.360	0.510
1267.000	730.397	80.008	19.993	103.854	20.080	-1.304	0.484
1267.500	730.640	80.006	19.993	103.851	20.078	-1.208	0.489
1268.000	730.886	80.006	19.993	103.854	20.082	-1.450	0.494
1268.500	731.143	80.007	19.995	103.856	20.082	-1.463	0.496
1269.000	731.436	80.006	19.993	103.857	20.080	-1.288	0.527
1269.500	731.684	80.006	19.994	103.861	20.082	-1.460	0.546
1270.000	731.943	80.008	19.996	103.864	20.080	-1.296	0.524
1270.500	732.192	80.007	19.997	103.860	20.078	-1.213	0.507
1271.000	732.440	80.007	19.996	103.854	20.078	-1.204	0.502
1271.500	732.702	80.009	19.995	103.848	20.079	-1.260	0.504
1272.000	732.953	80.008	19.994	103.843	20.084	-1.603	0.511
1272.500	733.218	80.008	19.995	103.839	20.078	-1.208	0.514
1273.000	733.452	80.006	19.994	103.840	20.082	-1.428	0.507
1273.500	733.746	80.008	19.994	103.841	20.079	-1.253	0.514
1274.000	733.958	80.008	19.994	103.845	20.077	-1.100	0.517
1274.500	734.232	80.006	19.995	103.848	20.080	-1.313	0.496
1275.000	734.471	80.006	19.994	103.849	20.080	-1.334	0.499
1275.500	734.750	80.007	19.994	103.848	20.080	-1.345	0.515
1276.000	734.959	80.008	19.994	103.853	20.082	-1.475	0.503
1276.500	735.233	80.006	19.994	103.852	20.084	-1.567	0.486
1277.000	735.476	80.006	19.994	103.847	20.082	-1.492	0.500
1277.500	735.718	80.007	19.994	103.846	20.079	-1.223	0.501
1278.000	735.986	80.006	19.993	103.847	20.080	-1.339	0.498
1278.500	736.228	80.008	19.993	103.841	20.079	-1.247	0.510
1279.001	736.484	80.007	19.993	103.838	20.081	-1.364	0.504
1279.501	736.732	80.006	19.993	103.838	20.081	-1.401	0.501
1280.000	736.957	80.006	19.995	103.838	20.081	-1.392	0.488
1280.500	737.231	80.007	19.994	103.845	20.079	-1.285	0.486
1281.000	737.511	80.007	19.993	103.850	20.077	-1.132	0.527
1281.500	737.771	80.006	19.994	103.854	20.077	-1.134	0.547
1282.000	738.037	80.005	19.994	103.860	20.079	-1.257	0.533
1282.500	738.262	80.007	19.994	103.865	20.078	-1.210	0.509
1283.000	738.546	80.007	19.993	103.864	20.080	-1.311	0.500
1283.500	738.760	80.007	19.994	103.858	20.080	-1.345	0.503
1284.000	739.016	80.007	19.993	103.853	20.080	-1.294	0.484
1284.500	739.303	80.006	19.993	103.848	20.079	-1.276	0.506
1285.000	739.538	80.007	19.994	103.844	20.082	-1.430	0.533
1285.500	739.788	80.007	19.993	103.844	20.079	-1.278	0.503
1286.000	740.097	80.006	19.995	103.850	20.081	-1.405	0.522
1286.500	740.322	80.006	19.994	103.852	20.080	-1.325	0.546
1287.000	740.590	80.007	19.994	103.856	20.082	-1.434	0.514
1287.500	740.863	80.008	19.994	103.858	20.079	-1.238	0.517
1288.000	741.103	80.006	19.995	103.854	20.078	-1.195	0.527
1288.500	741.356	80.008	19.993	103.848	20.077	-1.104	0.503
1289.000	741.627	80.007	19.993	103.851	20.079	-1.240	0.508
1289.500	741.897	80.007	19.995	103.853	20.080	-1.319	0.533
1290.000	742.117	80.007	19.994	103.850	20.079	-1.270	0.516
1290.500	742.375	80.006	19.994	103.850	20.080	-1.345	0.484
1291.000	742.634	80.007	19.994	103.850	20.081	-1.364	0.497
1291.500	742.912	80.004	19.995	103.851	20.080	-1.296	0.527
1292.000	743.163	80.009	19.993	103.853	20.080	-1.298	0.533
1292.500	743.417	80.007	19.995	103.859	20.082	-1.465	0.517
