Sample ID:	C:\MCC\MCC Cal\Test\Nylon_Carpet_LowPile_MCC_30K_min_211028_R1.txt
Sample Weight (mg):	4.7
Heating Rate (C/s):	0.5
Combustor Temp (C):	900
N2 Flow Rate (cc/min):	80
O2 Flow Rate (cc/min):	20
Calibration File:	C:\MCC\MCC Cal\Coeff1 JN10440_30_210304.txt.txt
T Correction Coefficients:	0	1.024463	0
Time Shift (s):	14
*
Time (s)	Temperature (C)	N2 flow rate (cc/min)	O2 flow rate (cc/min)	Flow Rate (cc/min)	Oxygen (%)	HRR (W/g)	Heating rate (C/s)
0.000	109.149	79.998	19.995	102.960	20.069	0.102	-0.029
0.500	109.176	79.999	19.995	102.960	20.067	0.209	-0.004
1.000	109.193	79.997	19.995	102.960	20.068	0.117	0.036
1.500	109.168	79.997	19.994	102.960	20.069	0.057	0.017
2.000	109.169	79.998	19.995	102.960	20.069	0.102	-0.016
2.500	109.156	79.999	19.994	102.960	20.069	0.074	-0.017
3.000	109.167	79.998	19.995	102.959	20.068	0.121	-0.007
3.500	109.158	80.002	19.994	102.960	20.069	0.098	-0.001
4.000	109.160	79.998	19.996	102.960	20.071	-0.043	-0.003
4.500	109.124	79.994	19.995	102.961	20.066	0.270	-0.020
5.000	109.148	80.000	19.994	102.960	20.067	0.237	-0.022
5.500	109.138	79.994	19.995	102.961	20.069	0.057	0.001
6.000	109.130	79.999	19.994	102.960	20.069	0.070	-0.002
6.500	109.133	80.000	19.994	102.959	20.067	0.228	-0.012
7.000	109.134	80.003	19.994	102.960	20.069	0.045	-0.000
7.500	109.142	80.001	19.995	102.962	20.066	0.271	0.007
8.000	109.126	80.000	19.994	102.963	20.067	0.213	0.001
8.500	109.128	79.997	19.994	102.965	20.068	0.109	-0.011
9.000	109.151	80.003	19.993	102.966	20.069	0.102	0.005
9.500	109.103	80.000	19.994	102.967	20.068	0.153	-0.000
10.000	109.148	79.995	19.995	102.967	20.070	-0.002	-0.014
10.500	109.126	79.998	19.994	102.965	20.067	0.232	0.010
11.000	109.130	80.000	19.993	102.963	20.069	0.096	0.003
11.500	109.114	80.000	19.995	102.963	20.065	0.315	-0.015
12.000	109.123	79.998	19.994	102.961	20.067	0.207	-0.009
12.500	109.146	80.000	19.994	102.960	20.068	0.153	0.013
13.000	109.094	80.000	19.994	102.960	20.067	0.189	0.001
13.500	109.096	80.001	19.994	102.961	20.069	0.040	-0.040
14.000	109.104	80.002	19.994	102.962	20.070	0.008	-0.020
14.500	109.078	80.001	19.995	102.961	20.069	0.055	-0.004
15.000	109.080	79.998	19.995	102.962	20.069	0.092	-0.021
15.500	109.079	79.998	19.993	102.962	20.068	0.164	-0.011
16.000	109.092	79.999	19.995	102.962	20.069	0.092	0.007
16.500	109.073	79.997	19.994	102.963	20.070	0.017	0.003
17.000	109.083	80.000	19.995	102.963	20.069	0.075	-0.007
17.500	109.073	79.998	19.994	102.964	20.068	0.155	-0.005
18.000	109.027	79.998	19.994	102.964	20.067	0.175	-0.028
18.500	109.042	79.999	19.995	102.964	20.069	0.104	-0.043
19.000	109.061	79.999	19.994	102.963	20.067	0.234	0.001
19.500	109.025	79.998	19.995	102.962	20.068	0.151	0.008
20.000	109.036	79.997	19.994	102.962	20.068	0.172	-0.021
20.500	109.036	79.997	19.994	102.963	20.069	0.100	-0.007
21.000	109.018	79.998	19.994	102.963	20.068	0.168	-0.004
21.500	109.028	79.998	19.994	102.965	20.067	0.221	-0.013
22.000	109.000	79.998	19.993	102.966	20.070	0.009	-0.013
22.500	109.025	79.999	19.994	102.967	20.070	-0.015	-0.011
23.000	109.007	79.996	19.995	102.966	20.067	0.198	0.002
23.500	109.010	79.998	19.994	102.972	20.067	0.177	-0.004
24.000	109.025	79.997	19.995	102.973	20.069	0.085	0.001
24.500	109.008	79.999	19.994	102.974	20.067	0.238	0.008
25.000	109.011	79.999	19.995	102.975	20.067	0.206	-0.008
25.500	109.026	79.999	19.994	102.975	20.070	0.032	0.002
26.000	108.978	79.997	19.994	102.970	20.068	0.170	-0.007
26.500	109.007	79.997	19.996	102.970	20.068	0.159	-0.026
27.000	108.998	80.000	19.994	102.968	20.070	0.013	0.000
27.500	109.005	79.998	19.994	102.967	20.067	0.208	0.009
28.000	109.038	79.999	19.995	102.968	20.070	0.025	0.019
28.500	108.992	79.996	19.996	102.966	20.066	0.276	0.013
29.000	109.010	79.999	19.992	102.962	20.067	0.240	-0.020
29.500	108.965	80.000	19.994	102.965	20.066	0.308	-0.027
30.000	108.985	79.999	19.994	102.965	20.063	0.478	-0.026
30.500	108.969	80.001	19.995	102.964	20.066	0.259	-0.011
31.000	108.974	80.001	19.993	102.965	20.063	0.459	-0.003
31.500	108.973	79.999	19.994	102.968	20.062	0.541	-0.003
32.000	108.985	79.999	19.994	102.975	20.059	0.739	0.008
32.500	108.994	79.999	19.994	102.996	20.054	1.094	0.016
33.000	108.954	79.999	19.995	103.027	20.052	1.251	-0.005
33.500	108.988	80.001	19.994	103.063	20.053	1.140	-0.018
34.000	108.952	79.998	19.995	103.100	20.047	1.584	-0.004
34.500	109.010	80.002	19.993	103.132	20.050	1.355	0.009
35.000	109.027	79.998	19.996	103.157	20.043	1.888	0.049
35.500	109.022	80.000	19.994	103.173	20.043	1.877	0.044
36.000	109.035	80.000	19.994	103.185	20.040	2.030	0.010
36.500	109.083	79.999	19.994	103.192	20.039	2.137	0.034
37.000	109.056	79.999	19.994	103.199	20.038	2.192	0.041
37.500	109.102	80.001	19.994	103.199	20.036	2.311	0.020
38.000	109.127	80.000	19.993	103.200	20.034	2.497	0.045
38.500	109.166	79.999	19.995	103.202	20.031	2.676	0.068
39.000	109.187	79.999	19.994	103.206	20.029	2.803	0.062
39.500	109.251	80.003	19.993	103.213	20.029	2.825	0.072
40.000	109.289	79.998	19.994	103.221	20.028	2.888	0.093
40.500	109.335	79.996	19.994	103.231	20.025	3.077	0.093
41.000	109.378	79.997	19.994	103.237	20.025	3.065	0.087
41.500	109.455	79.999	19.995	103.241	20.025	3.101	0.104
42.000	109.495	80.001	19.994	103.244	20.023	3.228	0.118
42.500	109.517	79.997	19.993	103.248	20.023	3.256	0.089
43.000	109.615	79.998	19.994	103.247	20.021	3.377	0.091
43.500	109.671	80.000	19.994	103.248	20.017	3.649	0.137
44.000	109.725	79.996	19.995	103.248	20.020	3.449	0.132
44.500	109.809	79.999	19.994	103.245	20.019	3.479	0.124
45.000	109.883	79.996	19.994	103.240	20.020	3.439	0.148
45.500	109.952	79.996	19.997	103.238	20.021	3.337	0.150
46.000	110.023	80.000	19.994	103.236	20.019	3.509	0.142
46.500	110.092	79.989	19.995	103.236	20.016	3.706	0.140
47.000	110.199	79.998	19.994	103.237	20.017	3.628	0.158
47.500	110.269	80.000	19.996	103.238	20.018	3.540	0.177
48.000	110.350	80.002	19.994	103.237	20.016	3.719	0.164
48.500	110.468	79.998	19.995	103.239	20.019	3.502	0.175
49.000	110.573	79.994	19.995	103.239	20.019	3.505	0.211
49.500	110.624	80.001	19.993	103.237	20.020	3.422	0.190
50.000	110.750	79.995	19.995	103.236	20.018	3.547	0.167
50.500	110.885	79.998	19.996	103.236	20.017	3.643	0.219
51.000	110.953	79.995	19.995	103.234	20.017	3.632	0.232
51.500	111.069	79.997	19.995	103.234	20.018	3.586	0.194
52.000	111.168	79.997	19.995	103.234	20.015	3.762	0.199
52.500	111.319	79.994	19.995	103.233	20.016	3.724	0.232
53.001	111.383	79.999	19.996	103.234	20.016	3.719	0.233
53.501	111.502	79.996	19.996	103.233	20.016	3.679	0.199
54.000	111.619	79.998	19.995	103.232	20.017	3.659	0.210
54.500	111.704	79.995	19.995	103.232	20.017	3.641	0.219
55.000	111.866	79.997	19.994	103.232	20.016	3.670	0.224
55.500	111.955	79.997	19.995	103.232	20.018	3.596	0.248
56.000	112.056	79.996	19.995	103.232	20.018	3.564	0.221
56.500	112.201	79.995	19.996	103.233	20.018	3.554	0.218
57.000	112.334	79.999	19.995	103.233	20.016	3.702	0.262
57.500	112.459	79.999	19.996	103.232	20.017	3.656	0.268
58.000	112.586	79.997	19.996	103.233	20.013	3.910	0.255
58.500	112.686	79.998	19.994	103.233	20.014	3.857	0.239
59.000	112.847	79.994	19.996	103.233	20.014	3.849	0.244
59.500	112.979	80.001	19.995	103.233	20.014	3.810	0.277
60.000	113.070	79.994	19.994	103.233	20.017	3.632	0.258
60.500	113.216	80.000	19.996	103.232	20.015	3.766	0.230
61.000	113.379	79.999	19.996	103.227	20.016	3.679	0.273
61.500	113.541	79.999	19.995	103.221	20.016	3.691	0.317
62.000	113.663	79.996	19.996	103.221	20.017	3.628	0.305
62.500	113.815	79.997	19.995	103.221	20.017	3.617	0.279
63.000	113.965	79.997	19.996	103.221	20.016	3.706	0.288
63.500	114.112	79.998	19.995	103.225	20.013	3.880	0.299
64.001	114.230	79.998	19.995	103.232	20.015	3.745	0.281
64.501	114.341	79.997	19.995	103.233	20.014	3.842	0.247
65.000	114.518	80.001	19.996	103.231	20.019	3.521	0.259
65.500	114.671	80.000	19.996	103.229	20.016	3.713	0.309
66.001	114.841	79.996	19.995	103.228	20.020	3.445	0.327
66.501	114.960	79.998	19.996	103.226	20.019	3.488	0.306
67.000	115.096	79.998	19.997	103.223	20.017	3.617	0.272
67.500	115.247	79.998	19.996	103.222	20.015	3.740	0.271
68.000	115.429	79.996	19.995	103.225	20.017	3.628	0.310
68.500	115.570	80.000	19.995	103.226	20.017	3.653	0.328
69.001	115.713	79.994	19.994	103.227	20.019	3.509	0.303
69.501	115.912	79.998	19.994	103.230	20.015	3.804	0.313
70.000	116.063	79.997	19.995	103.233	20.015	3.761	0.346
70.500	116.209	79.997	19.995	103.233	20.016	3.712	0.323
71.000	116.372	79.999	19.995	103.233	20.017	3.629	0.303
71.500	116.528	79.995	19.996	103.233	20.017	3.659	0.315
72.000	116.668	79.997	19.995	103.232	20.016	3.729	0.308
72.500	116.859	79.999	19.995	103.232	20.013	3.876	0.313
73.000	117.050	79.999	19.995	103.232	20.012	3.965	0.356
73.500	117.192	79.997	19.996	103.232	20.014	3.816	0.357
74.000	117.356	79.997	19.996	103.232	20.016	3.693	0.320
74.500	117.522	80.000	19.996	103.232	20.017	3.665	0.319
75.000	117.695	80.001	19.996	103.232	20.014	3.850	0.334
75.500	117.885	79.997	19.996	103.232	20.016	3.714	0.351
76.000	118.063	79.997	19.996	103.231	20.013	3.906	0.366
76.500	118.211	79.997	19.997	103.231	20.016	3.731	0.347
77.000	118.409	79.998	19.996	103.231	20.017	3.629	0.335
77.500	118.564	79.992	19.996	103.232	20.013	3.942	0.349
78.000	118.735	79.998	19.996	103.233	20.015	3.797	0.340
78.500	118.940	79.995	19.996	103.235	20.016	3.732	0.351
79.000	119.118	79.997	19.996	103.236	20.013	3.882	0.380
79.500	119.283	79.996	19.997	103.236	20.016	3.711	0.363
80.000	119.510	79.998	19.996	103.236	20.018	3.549	0.368
80.500	119.679	79.996	19.996	103.235	20.017	3.626	0.394
81.000	119.866	79.995	19.995	103.239	20.018	3.594	0.376
81.500	120.014	79.997	19.996	103.239	20.016	3.683	0.345
82.000	120.251	79.994	19.997	103.240	20.016	3.698	0.360
82.500	120.420	79.996	19.997	103.242	20.012	3.999	0.396
83.000	120.604	79.999	19.994	103.246	20.015	3.776	0.379
83.500	120.807	80.000	19.996	103.249	20.014	3.857	0.370
84.001	120.969	79.997	19.996	103.249	20.016	3.732	0.376
84.501	121.179	79.997	19.996	103.249	20.014	3.855	0.369
85.000	121.370	79.998	19.996	103.248	20.014	3.827	0.387
85.500	121.576	79.996	19.996	103.243	20.014	3.851	0.399
86.000	121.740	79.999	19.997	103.236	20.015	3.783	0.384
86.500	121.922	79.997	19.997	103.239	20.010	4.139	0.358
87.000	122.147	79.999	19.995	103.239	20.016	3.732	0.376
87.500	122.350	79.998	19.995	103.239	20.012	3.989	0.417
88.000	122.511	79.999	19.996	103.239	20.012	4.006	0.396
88.500	122.729	79.995	19.996	103.239	20.014	3.850	0.372
89.000	122.909	80.000	19.995	103.234	20.013	3.906	0.388
89.500	123.180	79.996	19.995	103.234	20.011	4.056	0.425
90.000	123.364	79.999	19.995	103.233	20.013	3.876	0.454
90.500	123.538	79.997	19.995	103.233	20.013	3.884	0.407
91.000	123.775	80.001	19.995	103.232	20.014	3.833	0.384
91.500	123.933	80.003	19.994	103.233	20.011	4.039	0.403
92.000	124.121	79.996	19.995	103.235	20.017	3.666	0.371
92.500	124.375	80.000	19.994	103.236	20.011	4.073	0.394
93.000	124.562	80.001	19.993	103.236	20.015	3.795	0.441
93.500	124.782	79.995	19.995	103.238	20.012	3.997	0.424
94.000	124.987	79.998	19.993	103.236	20.012	3.944	0.416
94.500	125.244	79.998	19.993	103.233	20.014	3.822	0.443
95.000	125.399	80.000	19.994	103.233	20.012	3.996	0.437
95.500	125.632	79.993	19.995	103.234	20.015	3.761	0.400
96.000	125.809	79.998	19.995	103.232	20.013	3.890	0.399
96.500	126.034	79.999	19.995	103.234	20.015	3.786	0.406
97.000	126.213	79.998	19.995	103.235	20.015	3.776	0.403
97.500	126.432	79.999	19.995	103.237	20.013	3.895	0.401
98.000	126.663	79.997	19.994	103.237	20.013	3.876	0.423
98.500	126.859	80.001	19.995	103.238	20.013	3.931	0.438
99.000	127.067	80.002	19.995	103.238	20.013	3.914	0.415
99.500	127.286	80.003	19.993	103.238	20.014	3.833	0.416
100.000	127.490	80.001	19.994	103.238	20.015	3.766	0.425
100.500	127.689	80.000	19.996	103.240	20.012	3.948	0.413
101.000	127.923	79.999	19.994	103.241	20.015	3.772	0.418
101.500	128.134	80.004	19.995	103.241	20.014	3.820	0.439
102.000	128.376	79.999	19.996	103.242	20.011	4.018	0.449
102.500	128.588	80.002	19.995	103.239	20.015	3.759	0.453
103.000	128.782	79.996	19.995	103.237	20.018	3.587	0.430
103.500	129.021	79.998	19.994	103.236	20.015	3.786	0.420
104.000	129.193	79.998	19.994	103.239	20.016	3.723	0.422
104.500	129.450	79.998	19.995	103.243	20.014	3.835	0.420
105.000	129.648	79.998	19.995	103.247	20.013	3.918	0.442
105.500	129.885	79.999	19.995	103.250	20.014	3.855	0.445
106.000	130.104	79.999	19.996	103.251	20.013	3.904	0.445
106.500	130.320	79.998	19.994	103.248	20.013	3.925	0.445
107.000	130.560	79.998	19.994	103.244	20.015	3.774	0.446
107.500	130.751	80.000	19.996	103.242	20.012	3.974	0.444
108.000	130.981	80.000	19.994	103.240	20.015	3.776	0.426
108.500	131.210	79.999	19.994	103.242	20.012	4.003	0.440
109.000	131.448	79.999	19.995	103.244	20.012	3.967	0.463
109.500	131.669	79.998	19.995	103.244	20.011	4.035	0.462
110.000	131.898	79.999	19.995	103.242	20.014	3.872	0.454
110.500	132.082	80.001	19.994	103.241	20.011	4.076	0.432
111.000	132.343	79.999	19.996	103.238	20.013	3.918	0.430
111.500	132.605	80.000	19.994	103.236	20.010	4.091	0.484
112.000	132.846	79.999	19.995	103.239	20.015	3.772	0.513
112.500	133.056	79.998	19.995	103.241	20.015	3.787	0.477
113.000	133.267	80.001	19.994	103.247	20.016	3.680	0.436
113.500	133.473	79.999	19.994	103.251	20.016	3.719	0.419
114.000	133.768	79.999	19.994	103.249	20.014	3.827	0.459
114.500	133.948	79.999	19.996	103.248	20.016	3.733	0.488
115.000	134.206	79.999	19.994	103.246	20.012	3.986	0.457
115.500	134.428	80.001	19.995	103.242	20.014	3.846	0.459
116.000	134.672	80.002	19.994	103.238	20.013	3.906	0.473
116.500	134.901	80.000	19.995	103.240	20.013	3.906	0.469
117.000	135.136	80.001	19.995	103.238	20.013	3.921	0.469
117.500	135.388	79.998	19.996	103.238	20.019	3.524	0.476
118.000	135.593	80.002	19.995	103.236	20.014	3.867	0.472
118.500	135.851	80.004	19.993	103.237	20.016	3.704	0.460
119.000	136.060	79.999	19.995	103.238	20.018	3.551	0.464
119.500	136.306	80.003	19.994	103.240	20.017	3.630	0.461
120.000	136.540	79.998	19.996	103.239	20.017	3.649	0.468
120.500	136.811	79.998	19.994	103.242	20.012	3.950	0.493
121.000	137.020	80.000	19.995	103.241	20.015	3.770	0.492
121.501	137.253	79.999	19.995	103.238	20.016	3.710	0.461
122.001	137.509	80.000	19.994	103.236	20.016	3.672	0.466
122.500	137.754	80.000	19.994	103.237	20.016	3.738	0.495
123.000	137.972	79.998	19.995	103.236	20.013	3.938	0.482
123.500	138.238	79.999	19.995	103.242	20.015	3.763	0.474
124.000	138.416	79.999	19.994	103.244	20.015	3.763	0.464
124.500	138.668	79.998	19.995	103.244	20.014	3.840	0.437
125.001	138.938	79.999	19.995	103.242	20.013	3.935	0.476
125.501	139.169	79.998	19.995	103.240	20.013	3.940	0.511
126.000	139.395	79.996	19.996	103.238	20.013	3.929	0.479
126.500	139.631	79.998	19.994	103.236	20.016	3.715	0.459
127.001	139.934	79.998	19.994	103.235	20.013	3.929	0.500
127.501	140.147	79.999	19.995	103.236	20.016	3.702	0.528
128.000	140.407	79.998	19.996	103.237	20.013	3.923	0.495
128.500	140.625	79.999	19.995	103.235	20.015	3.806	0.476
129.000	140.874	79.998	19.995	103.236	20.017	3.644	0.473
129.500	141.097	79.998	19.994	103.238	20.015	3.768	0.469
130.000	141.361	79.998	19.995	103.239	20.015	3.749	0.479
130.500	141.609	79.997	19.996	103.239	20.016	3.695	0.500
131.000	141.826	79.998	19.995	103.240	20.011	4.078	0.489
131.500	142.058	80.000	19.994	103.238	20.013	3.902	0.457
132.000	142.340	79.996	19.995	103.237	20.013	3.912	0.481
132.500	142.543	79.998	19.995	103.236	20.014	3.810	0.499
133.000	142.836	79.996	19.996	103.234	20.014	3.838	0.490
133.500	143.066	79.999	19.994	103.234	20.017	3.645	0.510
134.000	143.342	79.999	19.995	103.235	20.016	3.717	0.515
134.500	143.547	80.000	19.994	103.235	20.015	3.781	0.494
135.000	143.809	79.997	19.995	103.235	20.012	3.999	0.474
135.500	144.045	79.999	19.995	103.235	20.018	3.587	0.483
136.000	144.289	79.998	19.995	103.235	20.012	3.993	0.489
136.500	144.551	80.000	19.994	103.236	20.013	3.891	0.493
137.000	144.777	79.998	19.994	103.237	20.015	3.785	0.497
137.500	145.044	79.996	19.997	103.237	20.011	4.018	0.491
138.000	145.294	79.998	19.997	103.236	20.014	3.831	0.505
138.500	145.537	79.999	19.995	103.236	20.014	3.861	0.505
139.000	145.816	79.999	19.995	103.237	20.013	3.925	0.507
139.500	146.037	79.995	19.996	103.236	20.011	4.044	0.511
140.000	146.258	79.996	19.996	103.236	20.013	3.933	0.471
140.500	146.517	79.996	19.995	103.236	20.009	4.169	0.461
141.000	146.777	79.998	19.995	103.235	20.012	3.950	0.499
141.500	147.037	79.998	19.996	103.235	20.010	4.084	0.520
142.000	147.254	79.998	19.995	103.234	20.010	4.103	0.499
142.500	147.492	79.996	19.996	103.234	20.012	3.991	0.466
143.000	147.762	79.998	19.995	103.235	20.010	4.105	0.481
143.500	147.989	79.998	19.996	103.235	20.012	3.950	0.502
144.000	148.267	79.997	19.995	103.235	20.014	3.825	0.501
144.500	148.495	79.998	19.997	103.235	20.013	3.912	0.506
145.000	148.768	79.998	19.995	103.235	20.011	4.065	0.504
145.500	149.012	79.995	19.996	103.235	20.012	3.949	0.509
146.000	149.270	79.994	19.995	103.235	20.014	3.868	0.509
146.500	149.541	79.997	19.995	103.235	20.012	4.002	0.516
147.000	149.764	79.997	19.995	103.235	20.012	3.981	0.511
147.500	150.011	80.007	19.994	103.234	20.011	4.021	0.482
148.000	150.244	79.995	19.997	103.236	20.012	3.957	0.475
148.500	150.496	79.997	19.995	103.235	20.013	3.936	0.483
149.000	150.743	79.999	19.995	103.235	20.011	4.029	0.492
149.500	151.013	80.009	19.993	103.237	20.012	3.983	0.508
150.001	151.248	80.000	19.995	103.239	20.012	3.947	0.511
150.500	151.504	79.991	19.995	103.238	20.013	3.889	0.498
151.000	151.776	79.996	19.995	103.239	20.012	3.976	0.510
151.500	152.018	79.998	19.996	103.236	20.011	4.027	0.521
152.000	152.253	79.996	19.995	103.234	20.014	3.838	0.496
152.500	152.528	79.994	19.996	103.232	20.015	3.764	0.493
153.000	152.758	79.995	19.996	103.232	20.017	3.643	0.507
153.500	153.018	79.996	19.996	103.232	20.016	3.707	0.498
154.000	153.252	79.998	19.995	103.235	20.017	3.634	0.492
154.500	153.505	79.998	19.995	103.236	20.011	4.048	0.490
155.000	153.750	79.997	19.996	103.235	20.012	4.006	0.492
155.500	153.972	79.997	19.995	103.235	20.018	3.589	0.483
156.000	154.254	79.997	19.995	103.232	20.017	3.634	0.486
156.500	154.471	79.997	19.995	103.229	20.015	3.762	0.501
157.000	154.736	79.995	19.996	103.228	20.015	3.796	0.491
157.500	155.000	79.996	19.996	103.224	20.017	3.626	0.505
158.000	155.279	79.998	19.994	103.222	20.017	3.626	0.536
158.500	155.482	79.994	19.995	103.223	20.017	3.665	0.513
159.000	155.713	79.994	19.995	103.225	20.016	3.673	0.458
159.500	156.011	79.996	19.995	103.225	20.018	3.558	0.481
160.000	156.269	79.996	19.996	103.228	20.016	3.732	0.542
160.500	156.492	79.998	19.996	103.226	20.015	3.762	0.519
161.000	156.753	79.996	19.995	103.225	20.016	3.713	0.483
161.500	156.999	79.996	19.994	103.224	20.016	3.705	0.496
162.000	157.253	79.997	19.995	103.223	20.015	3.743	0.503
162.500	157.501	79.996	19.995	103.221	20.015	3.760	0.501
163.000	157.782	79.997	19.995	103.225	20.016	3.697	0.516
163.500	158.048	79.995	19.994	103.223	20.017	3.627	0.538
164.000	158.266	79.997	19.995	103.224	20.016	3.726	0.516
164.500	158.498	79.996	19.995	103.224	20.016	3.682	0.467
165.000	158.749	79.999	19.996	103.225	20.017	3.612	0.466
165.500	159.003	79.995	19.996	103.227	20.015	3.792	0.494
166.000	159.294	79.997	19.996	103.232	20.016	3.669	0.525
166.500	159.528	79.996	19.995	103.232	20.013	3.933	0.535
167.000	159.807	79.997	19.996	103.230	20.017	3.619	0.519
167.500	160.001	79.996	19.995	103.229	20.015	3.801	0.493
168.000	160.289	79.998	19.995	103.224	20.018	3.536	0.477
168.500	160.514	79.998	19.995	103.221	20.017	3.602	0.498
169.000	160.771	79.998	19.994	103.218	20.015	3.755	0.498
169.500	161.046	79.997	19.996	103.215	20.016	3.729	0.507
170.000	161.285	79.998	19.996	103.211	20.016	3.714	0.523
170.500	161.558	79.998	19.996	103.214	20.013	3.880	0.513
171.000	161.817	79.998	19.996	103.215	20.015	3.763	0.522
171.500	162.062	79.998	19.995	103.220	20.015	3.787	0.518
172.000	162.268	79.998	19.996	103.224	20.017	3.663	0.477
172.500	162.546	79.998	19.996	103.221	20.015	3.799	0.467
173.000	162.798	79.999	19.997	103.214	20.018	3.551	0.507
173.500	163.036	79.998	19.996	103.213	20.014	3.823	0.510
174.000	163.335	79.999	19.996	103.207	20.017	3.621	0.514
174.500	163.542	79.998	19.997	103.204	20.014	3.831	0.521
175.000	163.810	79.997	19.996	103.206	20.016	3.670	0.491
175.500	164.072	79.999	19.996	103.210	20.017	3.602	0.503
176.000	164.286	79.997	19.996	103.208	20.017	3.606	0.503
176.500	164.592	79.999	19.996	103.205	20.016	3.722	0.498
177.000	164.867	79.999	19.997	103.203	20.014	3.824	0.550
177.500	165.096	79.999	19.996	103.200	20.016	3.678	0.542
178.000	165.351	79.998	19.997	103.197	20.015	3.738	0.494
178.500	165.603	79.997	19.996	103.193	20.016	3.678	0.496
179.000	165.839	79.996	19.997	103.194	20.019	3.489	0.498
179.500	166.113	79.998	19.996	103.194	20.019	3.502	0.499
180.000	166.317	79.997	19.996	103.194	20.019	3.523	0.494
180.500	166.598	79.998	19.995	103.193	20.018	3.548	0.481
181.000	166.845	79.999	19.995	103.193	20.019	3.472	0.507
181.500	167.086	79.998	19.995	103.193	20.022	3.276	0.508
182.000	167.342	79.998	19.996	103.193	20.020	3.408	0.492
182.500	167.586	79.998	19.995	103.193	20.020	3.446	0.499
183.000	167.817	79.999	19.994	103.193	20.019	3.493	0.487
183.500	168.083	79.998	19.996	103.193	20.020	3.425	0.486
184.000	168.314	79.998	19.995	103.193	20.017	3.650	0.497
184.500	168.577	79.998	19.995	103.193	20.019	3.478	0.496
185.000	168.795	79.999	19.993	103.193	20.019	3.497	0.488
185.500	169.080	79.997	19.994	103.193	20.017	3.638	0.492
186.000	169.350	80.000	19.994	103.193	20.021	3.391	0.528
186.500	169.627	79.998	19.995	103.193	20.019	3.476	0.551
187.000	169.850	79.999	19.994	103.196	20.022	3.259	0.524
187.500	170.086	79.999	19.995	103.196	20.021	3.379	0.480
188.000	170.326	79.997	19.993	103.197	20.021	3.374	0.468
188.500	170.587	79.999	19.996	103.196	20.020	3.421	0.489
189.000	170.793	79.998	19.995	103.196	20.020	3.398	0.484
189.500	171.059	79.999	19.994	103.193	20.019	3.481	0.469
190.000	171.286	79.998	19.994	103.193	20.019	3.476	0.482
190.500	171.581	80.001	19.994	103.192	20.021	3.340	0.507
191.000	171.845	79.999	19.995	103.193	20.021	3.385	0.540
191.500	172.047	80.000	19.994	103.193	20.020	3.404	0.512
192.000	172.297	80.000	19.995	103.192	20.017	3.633	0.459
192.500	172.536	79.999	19.995	103.192	20.021	3.380	0.471
193.000	172.854	79.999	19.995	103.192	20.019	3.499	0.523
193.500	173.047	80.000	19.995	103.192	20.019	3.470	0.534
194.000	173.319	80.001	19.995	103.193	20.019	3.523	0.488
194.500	173.604	80.002	19.995	103.193	20.021	3.365	0.511
195.000	173.839	80.001	19.995	103.193	20.019	3.531	0.538
195.500	174.068	80.002	19.994	103.193	20.019	3.476	0.492
196.000	174.338	80.000	19.995	103.193	20.018	3.572	0.482
196.500	174.586	80.006	19.994	103.192	20.023	3.215	0.509
197.000	174.786	79.999	19.994	103.193	20.019	3.502	0.483
197.500	175.062	79.998	19.995	103.194	20.021	3.361	0.462
198.000	175.295	80.000	19.995	103.194	20.018	3.536	0.493
198.500	175.551	79.999	19.995	103.194	20.021	3.376	0.499
199.000	175.799	80.000	19.994	103.194	20.020	3.423	0.496
199.500	176.054	80.001	19.994	103.193	20.020	3.461	0.503
200.000	176.327	79.997	19.996	103.192	20.018	3.563	0.515
200.500	176.564	79.999	19.994	103.192	20.019	3.527	0.520
201.000	176.802	80.001	19.996	103.191	20.020	3.461	0.493
201.500	177.049	79.999	19.995	103.191	20.023	3.202	0.480
202.000	177.270	79.997	19.996	103.193	20.018	3.553	0.476
202.500	177.556	80.003	19.994	103.191	20.018	3.563	0.487
203.000	177.819	80.016	19.992	103.191	20.019	3.468	0.528
203.500	178.057	79.998	19.995	103.196	20.021	3.370	0.525
204.000	178.275	80.001	19.994	103.198	20.020	3.423	0.478
204.500	178.575	79.997	19.995	103.197	20.022	3.279	0.487
205.000	178.784	80.001	19.995	103.198	20.023	3.236	0.514
205.500	179.003	80.001	19.997	103.199	20.021	3.368	0.468
206.000	179.278	79.997	19.996	103.196	20.022	3.277	0.461
206.500	179.526	79.998	19.996	103.198	20.022	3.311	0.509
207.000	179.747	79.987	20.000	103.198	20.022	3.264	0.496
207.500	180.020	80.001	19.995	103.194	20.026	3.007	0.482
208.000	180.254	79.994	19.995	103.194	20.023	3.251	0.501
208.500	180.497	79.996	19.996	103.192	20.020	3.438	0.492
209.000	180.728	80.002	19.995	103.189	20.024	3.125	0.475
209.500	180.979	79.999	19.995	103.191	20.026	2.988	0.478
210.000	181.236	79.988	19.997	103.194	20.024	3.153	0.495
210.500	181.482	79.999	19.995	103.191	20.027	2.975	0.506
211.000	181.757	79.998	19.995	103.192	20.026	3.019	0.512
211.500	181.987	79.997	19.994	103.192	20.026	3.034	0.513
212.000	182.258	79.997	19.995	103.189	20.024	3.132	0.503
212.500	182.492	79.996	19.995	103.190	20.028	2.892	0.503
213.000	182.698	79.997	19.994	103.193	20.026	3.013	0.472
213.500	182.974	79.995	19.994	103.193	20.027	2.945	0.461
214.000	183.248	80.001	19.993	103.192	20.025	3.083	0.516
214.500	183.455	79.998	19.994	103.195	20.025	3.053	0.516
215.000	183.702	79.999	19.995	103.195	20.025	3.117	0.468
215.500	183.952	79.999	19.995	103.195	20.028	2.879	0.476
216.000	184.177	79.996	19.993	103.193	20.025	3.075	0.486
216.500	184.442	79.997	19.994	103.191	20.026	3.039	0.482
217.000	184.703	79.998	19.994	103.191	20.025	3.072	0.508
217.500	184.997	80.000	19.994	103.191	20.024	3.149	0.541
218.000	185.202	79.982	19.996	103.193	20.027	2.968	0.527
218.500	185.436	79.992	19.996	103.193	20.028	2.886	0.469
219.000	185.735	79.993	19.994	103.196	20.024	3.143	0.486
219.500	185.966	80.000	19.993	103.195	20.025	3.070	0.532
220.000	186.272	79.998	19.993	103.195	20.025	3.075	0.533
220.500	186.492	79.995	19.995	103.193	20.027	2.932	0.531
221.000	186.782	79.994	19.995	103.194	20.026	3.038	0.518
221.500	187.008	80.000	19.994	103.193	20.027	2.953	0.513
222.000	187.244	79.998	19.994	103.194	20.026	2.996	0.489
222.500	187.497	79.996	19.995	103.194	20.028	2.877	0.476
223.000	187.756	79.996	19.994	103.194	20.026	3.049	0.501
223.500	188.000	79.997	19.995	103.197	20.027	2.930	0.507
224.000	188.256	79.999	19.995	103.197	20.027	2.917	0.502
224.500	188.457	79.999	19.994	103.197	20.025	3.100	0.479
225.000	188.745	79.997	19.995	103.197	20.026	2.998	0.473
225.500	188.978	79.997	19.994	103.196	20.024	3.132	0.505
226.000	189.215	79.998	19.994	103.196	20.027	2.935	0.495
226.500	189.482	80.000	19.994	103.195	20.025	3.056	0.487
227.000	189.743	79.996	19.995	103.195	20.027	2.954	0.516
227.500	189.962	80.003	19.995	103.194	20.027	2.924	0.504
228.000	190.235	79.996	19.994	103.193	20.026	3.034	0.486
228.500	190.458	80.002	19.994	103.195	20.028	2.913	0.494
229.000	190.730	80.000	19.995	103.196	20.024	3.128	0.496
229.500	190.983	79.998	19.995	103.195	20.024	3.128	0.510
230.000	191.225	79.998	19.994	103.195	20.025	3.098	0.510
230.500	191.427	79.999	19.994	103.196	20.025	3.113	0.470
231.000	191.712	79.994	19.994	103.196	20.027	2.920	0.466
231.500	191.943	79.997	19.995	103.196	20.026	2.992	0.501
232.000	192.202	79.997	19.995	103.197	20.027	2.983	0.503
232.500	192.466	79.995	19.996	103.199	20.024	3.138	0.507
233.000	192.719	79.998	19.996	103.198	20.025	3.113	0.519
233.500	192.922	79.994	19.994	103.199	20.027	2.981	0.487
234.000	193.157	79.997	19.994	103.199	20.027	2.969	0.447
234.500	193.421	79.998	19.994	103.199	20.026	3.007	0.468
235.000	193.679	79.997	19.996	103.198	20.024	3.147	0.511
235.500	193.909	79.997	19.996	103.197	20.024	3.169	0.505
236.000	194.148	79.995	19.996	103.197	20.025	3.084	0.478
236.500	194.434	79.996	19.996	103.192	20.027	2.975	0.497
237.000	194.699	79.999	19.995	103.191	20.024	3.150	0.538
237.500	194.872	79.996	19.995	103.190	20.026	3.046	0.495
238.000	195.172	79.996	19.996	103.191	20.025	3.073	0.456
238.500	195.375	80.000	19.996	103.190	20.029	2.780	0.488
239.000	195.643	79.998	19.996	103.190	20.024	3.156	0.487
239.500	195.852	79.996	19.996	103.184	20.024	3.132	0.474
240.000	196.101	79.996	19.996	103.181	20.024	3.122	0.467
240.500	196.346	79.997	19.996	103.180	20.027	2.971	0.475
241.000	196.596	79.997	19.996	103.179	20.025	3.064	0.494
241.500	196.847	79.998	19.997	103.181	20.027	2.946	0.498
242.000	197.078	80.000	19.997	103.185	20.027	2.944	0.491
242.500	197.368	79.999	19.996	103.189	20.026	3.039	0.502
243.000	197.503	79.996	19.997	103.190	20.022	3.301	0.473
243.500	197.797	79.998	19.996	103.189	20.024	3.188	0.427
244.000	198.044	79.998	19.997	103.187	20.025	3.097	0.485
244.500	198.292	79.997	19.996	103.186	20.025	3.090	0.518
245.000	198.519	80.000	19.996	103.183	20.025	3.054	0.485
245.500	198.808	79.997	19.996	103.182	20.027	2.958	0.495
246.000	199.023	79.996	19.996	103.181	20.028	2.909	0.510
246.500	199.283	79.999	19.995	103.180	20.026	3.015	0.490
247.000	199.524	79.998	19.996	103.179	20.025	3.094	0.488
247.500	199.724	80.000	19.996	103.175	20.027	2.973	0.471
248.000	200.026	80.000	19.996	103.172	20.023	3.195	0.471
248.500	200.240	79.999	19.995	103.173	20.027	2.959	0.508
249.000	200.470	80.000	19.996	103.174	20.026	3.020	0.480
249.500	200.727	80.000	19.997	103.173	20.026	3.037	0.466
250.000	200.953	80.002	19.997	103.179	20.026	2.999	0.485
250.500	201.213	79.999	19.996	103.183	20.024	3.150	0.485
251.000	201.445	79.998	19.997	103.183	20.022	3.264	0.489
251.501	201.700	80.000	19.996	103.182	20.029	2.805	0.490
252.001	201.972	80.001	19.997	103.178	20.024	3.186	0.507
252.500	202.188	80.001	19.995	103.175	20.023	3.202	0.507
253.000	202.470	80.001	19.997	103.173	20.024	3.179	0.493
253.500	202.663	79.998	19.996	103.171	20.026	3.048	0.486
254.000	202.926	79.998	19.996	103.170	20.025	3.067	0.466
254.500	203.182	80.000	19.996	103.172	20.025	3.088	0.487
255.000	203.427	80.001	19.995	103.175	20.025	3.054	0.510
255.500	203.682	80.000	19.997	103.178	20.024	3.184	0.501
256.000	203.900	80.000	19.995	103.180	20.027	2.939	0.487
256.500	204.186	80.000	19.996	103.187	20.024	3.151	0.489
257.000	204.395	80.002	19.995	103.190	20.028	2.914	0.500
257.500	204.646	79.999	19.996	103.186	20.026	3.011	0.477
258.000	204.851	79.999	19.996	103.178	20.029	2.810	0.458
258.500	205.117	80.000	19.995	103.170	20.028	2.886	0.463
259.000	205.340	79.998	19.997	103.165	20.026	2.986	0.480
259.500	205.624	80.001	19.996	103.161	20.025	3.079	0.498
260.000	205.887	79.998	19.997	103.164	20.026	3.009	0.527
260.500	206.112	80.000	19.997	103.165	20.024	3.183	0.518
261.000	206.373	80.000	19.996	103.169	20.024	3.169	0.486
261.500	206.589	80.000	19.996	103.172	20.025	3.056	0.481
262.000	206.883	79.998	19.997	103.177	20.026	2.997	0.494
262.500	207.084	80.001	19.995	103.177	20.026	2.999	0.503
263.000	207.370	79.997	19.997	103.181	20.024	3.133	0.491
263.500	207.592	79.997	19.997	103.182	20.027	2.959	0.497
264.000	207.855	79.999	19.996	103.177	20.028	2.858	0.497
264.500	208.130	79.998	19.997	103.172	20.025	3.071	0.511
265.000	208.340	80.000	19.997	103.166	20.026	3.022	0.511
265.500	208.581	79.999	19.996	103.164	20.025	3.109	0.468
266.000	208.790	79.999	19.998	103.163	20.023	3.249	0.451
266.500	209.061	79.998	19.997	103.170	20.024	3.173	0.466
267.000	209.311	79.998	19.997	103.177	20.026	3.020	0.501
267.500	209.586	79.998	19.997	103.182	20.024	3.135	0.523
268.000	209.825	79.999	19.996	103.181	20.026	3.046	0.519
268.500	210.085	79.999	19.997	103.178	20.023	3.248	0.507
269.000	210.299	79.999	19.996	103.174	20.025	3.114	0.487
269.500	210.585	79.998	19.996	103.173	20.024	3.169	0.487
270.000	210.815	79.999	19.996	103.172	20.022	3.278	0.508
270.500	211.057	79.998	19.996	103.176	20.025	3.069	0.494
271.000	211.328	80.000	19.995	103.179	20.022	3.303	0.492
271.500	211.606	79.996	19.996	103.181	20.026	2.986	0.531
272.000	211.863	79.998	19.996	103.179	20.024	3.150	0.542
272.500	212.059	80.003	19.994	103.177	20.022	3.275	0.494
273.000	212.322	79.998	19.996	103.172	20.025	3.090	0.456
273.500	212.557	79.999	19.995	103.170	20.025	3.095	0.479
274.000	212.815	80.000	19.995	103.169	20.023	3.248	0.496
274.500	213.074	80.000	19.994	103.168	20.021	3.331	0.505
275.000	213.307	79.999	19.995	103.172	20.024	3.169	0.504
275.500	213.576	80.001	19.995	103.175	20.023	3.235	0.497
276.000	213.816	80.001	19.995	103.176	20.023	3.212	0.506
276.500	214.056	80.000	19.995	103.173	20.024	3.146	0.495
277.000	214.316	80.000	19.995	103.176	20.025	3.108	0.490
277.500	214.568	80.000	19.994	103.171	20.028	2.908	0.505
278.000	214.831	80.000	19.993	103.169	20.027	2.971	0.514
278.500	215.062	80.000	19.993	103.167	20.026	3.020	0.505
279.000	215.312	80.000	19.993	103.164	20.026	3.008	0.488
279.500	215.567	80.001	19.994	103.162	20.026	3.003	0.493
280.000	215.796	80.001	19.994	103.163	20.025	3.054	0.494
280.500	216.043	80.001	19.995	103.164	20.027	2.955	0.480
281.000	216.324	80.000	19.994	103.165	20.028	2.891	0.502
281.500	216.556	80.001	19.994	103.167	20.027	2.940	0.520
282.000	216.795	80.000	19.993	103.171	20.027	2.950	0.492
282.500	217.037	79.999	19.994	103.172	20.026	3.027	0.476
283.000	217.265	80.000	19.995	103.171	20.026	2.986	0.476
283.500	217.538	80.000	19.994	103.176	20.024	3.120	0.486
284.000	217.779	80.001	19.995	103.176	20.026	3.041	0.507
284.500	218.049	79.999	19.993	103.170	20.025	3.103	0.513
285.000	218.310	79.998	19.995	103.168	20.027	2.963	0.521
285.500	218.522	79.998	19.993	103.168	20.028	2.871	0.501
286.000	218.755	79.998	19.994	103.163	20.023	3.199	0.459
286.500	219.037	79.997	19.995	103.164	20.025	3.105	0.481
287.000	219.265	79.997	19.994	103.163	20.026	3.020	0.513
287.500	219.518	79.997	19.994	103.165	20.025	3.105	0.496
288.000	219.765	79.998	19.996	103.165	20.024	3.131	0.491
288.500	219.940	79.996	19.995	103.164	20.026	2.989	0.461
289.000	220.250	79.998	19.994	103.161	20.025	3.074	0.454
289.500	220.475	79.998	19.995	103.161	20.026	3.042	0.510
290.000	220.713	79.998	19.993	103.160	20.026	2.984	0.498
290.500	221.022	79.999	19.994	103.160	20.027	2.965	0.505
291.000	221.270	79.997	19.995	103.160	20.026	2.995	0.552
291.500	221.524	79.998	19.994	103.161	20.026	3.046	0.529
292.000	221.746	79.998	19.995	103.161	20.028	2.874	0.489
292.500	222.016	79.998	19.993	103.161	20.025	3.072	0.485
293.000	222.294	79.999	19.995	103.160	20.028	2.884	0.520
293.500	222.547	79.998	19.994	103.160	20.025	3.063	0.539
294.000	222.774	79.997	19.995	103.163	20.027	2.952	0.506
294.500	223.043	79.998	19.994	103.165	20.027	2.952	0.489
295.000	223.267	79.998	19.993	103.165	20.028	2.891	0.495
295.500	223.516	79.997	19.994	103.165	20.024	3.144	0.483
296.000	223.775	79.998	19.996	103.165	20.028	2.883	0.490
296.500	224.003	79.997	19.995	103.168	20.029	2.789	0.498
297.000	224.262	79.999	19.994	103.165	20.028	2.855	0.487
297.500	224.502	79.997	19.995	103.165	20.027	2.953	0.493
298.000	224.748	79.998	19.994	103.165	20.027	2.929	0.492
298.500	224.994	79.999	19.994	103.166	20.028	2.878	0.489
299.000	225.277	79.998	19.995	103.160	20.026	2.997	0.511
299.500	225.509	79.999	19.994	103.161	20.026	3.025	0.522
300.000	225.783	79.999	19.996	103.163	20.027	2.921	0.510
300.500	225.992	79.997	19.995	103.163	20.027	2.919	0.494
301.000	226.219	79.998	19.994	103.162	20.028	2.893	0.459
301.500	226.500	79.999	19.995	103.161	20.028	2.855	0.472
302.000	226.742	79.998	19.995	103.160	20.026	2.991	0.516
302.500	227.004	79.999	19.995	103.159	20.030	2.729	0.513
303.000	227.248	79.997	19.995	103.158	20.025	3.052	0.505
303.500	227.504	79.999	19.994	103.158	20.031	2.689	0.503
304.000	227.758	79.999	19.995	103.158	20.029	2.795	0.505
304.500	228.024	79.998	19.994	103.158	20.027	2.963	0.515
305.000	228.250	79.998	19.995	103.156	20.028	2.910	0.506
305.500	228.531	79.997	19.996	103.157	20.027	2.961	0.499
306.000	228.759	79.999	19.994	103.156	20.029	2.802	0.509
306.500	229.014	79.997	19.994	103.155	20.030	2.774	0.496
307.000	229.228	79.998	19.995	103.155	20.028	2.859	0.475
307.500	229.508	79.998	19.994	103.155	20.028	2.904	0.481
308.000	229.718	79.998	19.994	103.155	20.028	2.855	0.493
308.500	230.006	80.000	19.994	103.156	20.031	2.689	0.494
309.000	230.227	80.000	19.994	103.156	20.028	2.866	0.503
309.500	230.499	79.998	19.995	103.156	20.031	2.706	0.501
310.000	230.748	79.998	19.995	103.156	20.029	2.842	0.507
310.500	230.993	79.998	19.996	103.157	20.027	2.942	0.507
311.000	231.235	79.998	19.995	103.157	20.030	2.774	0.490
311.500	231.481	79.999	19.995	103.157	20.028	2.908	0.488
312.000	231.697	79.998	19.994	103.157	20.029	2.787	0.475
312.501	232.017	79.999	19.994	103.157	20.026	2.985	0.499
313.000	232.204	79.996	19.995	103.156	20.025	3.108	0.521
313.500	232.436	79.999	19.995	103.156	20.026	2.983	0.463
314.000	232.683	79.997	19.995	103.156	20.026	3.002	0.449
314.500	232.912	79.998	19.995	103.155	20.030	2.749	0.477
315.000	233.210	79.998	19.995	103.154	20.028	2.912	0.502
315.500	233.404	79.999	19.995	103.153	20.026	2.987	0.509
316.000	233.688	79.998	19.994	103.150	20.024	3.152	0.485
316.500	233.924	79.999	19.995	103.148	20.026	3.027	0.499
317.000	234.165	79.998	19.995	103.149	20.026	3.042	0.499
317.500	234.436	79.995	19.995	103.150	20.029	2.804	0.494
318.000	234.691	80.000	19.994	103.151	20.030	2.753	0.519
318.500	234.886	79.996	19.995	103.152	20.027	2.927	0.488
319.000	235.121	79.999	19.995	103.154	20.027	2.935	0.440
319.500	235.398	79.997	19.995	103.154	20.030	2.761	0.471
320.000	235.607	79.999	19.995	103.153	20.029	2.783	0.499
320.500	235.829	79.998	19.994	103.154	20.030	2.727	0.458
321.000	236.119	79.997	19.994	103.156	20.031	2.689	0.471
321.500	236.361	79.999	19.995	103.156	20.029	2.833	0.522
322.000	236.614	79.998	19.994	103.155	20.032	2.576	0.514
322.500	236.829	79.996	19.995	103.155	20.030	2.753	0.481
323.000	237.074	79.998	19.995	103.152	20.030	2.774	0.464
323.500	237.329	79.997	19.995	103.153	20.028	2.855	0.480
324.000	237.560	79.997	19.996	103.153	20.031	2.677	0.493
324.500	237.795	79.998	19.994	103.153	20.031	2.672	0.476
325.000	238.033	79.998	19.994	103.154	20.032	2.623	0.470
325.500	238.258	79.996	19.994	103.156	20.029	2.829	0.468
326.000	238.515	79.998	19.997	103.156	20.030	2.776	0.472
326.500	238.759	79.997	19.996	103.156	20.028	2.900	0.491
327.000	238.989	79.998	19.997	103.156	20.031	2.642	0.487
327.500	239.224	79.999	19.995	103.156	20.027	2.927	0.469
328.000	239.433	79.998	19.995	103.156	20.029	2.797	0.454
328.500	239.704	79.997	19.996	103.155	20.029	2.844	0.462
329.000	239.924	79.999	19.995	103.155	20.029	2.840	0.486
329.500	240.131	79.999	19.995	103.155	20.026	3.014	0.459
330.000	240.405	79.998	19.996	103.156	20.026	3.036	0.454
330.500	240.624	79.998	19.997	103.158	20.029	2.838	0.487
331.000	240.881	79.999	19.996	103.158	20.027	2.978	0.484
331.500	241.117	79.999	19.995	103.158	20.026	3.006	0.484
332.000	241.391	80.001	19.995	103.158	20.027	2.925	0.502
332.500	241.607	79.999	19.995	103.156	20.025	3.087	0.500
333.000	241.893	79.999	19.996	103.155	20.027	2.925	0.496
333.500	242.085	80.000	19.995	103.155	20.026	2.995	0.490
334.000	242.401	79.998	19.995	103.154	20.026	3.035	0.493
334.500	242.656	80.000	19.995	103.153	20.025	3.110	0.539
335.000	242.885	79.999	19.995	103.149	20.028	2.904	0.528
335.500	243.153	79.998	19.995	103.148	20.028	2.880	0.491
336.000	243.375	79.999	19.996	103.148	20.028	2.846	0.493
336.500	243.633	79.999	19.996	103.150	20.031	2.649	0.485
337.000	243.837	80.000	19.996	103.151	20.025	3.086	0.471
337.500	244.091	79.999	19.995	103.155	20.028	2.884	0.460
338.000	244.321	79.998	19.995	103.156	20.029	2.784	0.471
338.500	244.578	79.999	19.994	103.154	20.028	2.893	0.486
339.000	244.808	80.000	19.995	103.151	20.026	3.046	0.487
339.500	245.104	80.000	19.995	103.151	20.027	2.921	0.506
340.000	245.281	80.000	19.995	103.152	20.029	2.802	0.500
340.500	245.539	79.998	19.995	103.151	20.028	2.870	0.454
341.000	245.779	79.999	19.994	103.149	20.027	2.936	0.466
341.500	246.032	79.998	19.995	103.150	20.028	2.848	0.495
342.000	246.273	79.998	19.995	103.149	20.027	2.961	0.494
342.500	246.494	79.998	19.995	103.148	20.028	2.897	0.479
343.000	246.753	79.998	19.995	103.149	20.030	2.721	0.471
343.500	246.989	79.996	19.994	103.153	20.030	2.721	0.487
344.000	247.194	80.001	19.994	103.155	20.026	3.021	0.468
344.500	247.494	79.998	19.995	103.155	20.026	2.989	0.473
345.000	247.720	79.999	19.995	103.156	20.026	3.015	0.515
345.500	247.977	79.999	19.996	103.157	20.027	2.972	0.505
346.000	248.215	79.998	19.995	103.156	20.030	2.759	0.489
346.500	248.455	79.999	19.995	103.155	20.028	2.912	0.486
347.000	248.700	79.998	19.995	103.157	20.027	2.961	0.481
347.500	248.964	79.997	19.996	103.157	20.029	2.787	0.497
348.000	249.201	79.998	19.995	103.157	20.030	2.776	0.505
348.500	249.476	79.999	19.995	103.159	20.022	3.257	0.507
349.000	249.714	80.000	19.994	103.159	20.029	2.834	0.513
349.500	249.992	79.997	19.994	103.158	20.027	2.931	0.514
350.000	250.227	79.998	19.995	103.156	20.029	2.812	0.514
350.500	250.485	80.000	19.995	103.155	20.028	2.906	0.503
351.000	250.709	79.999	19.995	103.152	20.028	2.857	0.488
351.500	250.988	79.999	19.995	103.152	20.025	3.076	0.493
352.000	251.223	79.998	19.995	103.152	20.025	3.053	0.508
352.500	251.490	79.998	19.995	103.153	20.025	3.106	0.508
353.000	251.716	79.999	19.995	103.154	20.025	3.106	0.497
353.500	252.009	79.998	19.995	103.156	20.027	2.982	0.506
354.000	252.259	79.999	19.996	103.156	20.025	3.114	0.531
354.500	252.472	79.998	19.995	103.155	20.025	3.076	0.503
355.000	252.722	79.998	19.995	103.151	20.023	3.195	0.463
355.500	252.991	80.001	19.995	103.149	20.027	2.946	0.491
356.000	253.240	79.999	19.995	103.145	20.028	2.906	0.519
356.500	253.492	80.000	19.995	103.145	20.026	3.038	0.510
357.000	253.742	79.999	19.995	103.145	20.024	3.123	0.502
357.500	253.951	80.000	19.995	103.150	20.027	2.953	0.481
358.000	254.193	79.999	19.996	103.152	20.027	2.957	0.455
358.500	254.458	79.999	19.995	103.153	20.025	3.070	0.479
359.000	254.686	79.999	19.995	103.152	20.026	3.044	0.500
359.500	254.945	80.000	19.994	103.152	20.028	2.866	0.490
360.000	255.197	80.000	19.994	103.151	20.027	2.965	0.499
360.500	255.465	80.000	19.995	103.151	20.024	3.120	0.516
361.000	255.707	80.001	19.994	103.153	20.024	3.144	0.515
361.500	255.962	80.000	19.995	103.155	20.027	2.963	0.503
362.000	256.262	80.000	19.995	103.156	20.025	3.055	0.526
362.500	256.480	79.999	19.996	103.156	20.025	3.106	0.536
363.000	256.728	80.000	19.994	103.157	20.026	3.046	0.492
363.500	256.975	79.999	19.996	103.157	20.027	2.965	0.481
364.000	257.213	79.998	19.994	103.156	20.029	2.814	0.490
364.500	257.425	79.998	19.995	103.156	20.026	3.023	0.467
365.000	257.726	80.001	19.995	103.156	20.030	2.765	0.482
365.500	257.942	79.999	19.994	103.156	20.026	3.029	0.515
366.000	258.198	79.997	19.996	103.155	20.028	2.914	0.494
366.500	258.431	79.998	19.996	103.154	20.027	2.974	0.480
367.000	258.724	80.000	19.995	103.153	20.028	2.887	0.507
367.500	258.982	79.999	19.994	103.153	20.028	2.895	0.539
368.000	259.233	79.997	19.996	103.153	20.028	2.878	0.530
368.500	259.498	79.998	19.995	103.153	20.029	2.793	0.512
369.000	259.727	79.998	19.994	103.154	20.029	2.800	0.505
369.500	259.967	79.997	19.995	103.155	20.028	2.914	0.482
370.000	260.269	79.999	19.995	103.155	20.031	2.706	0.506
370.500	260.487	79.998	19.994	103.155	20.030	2.768	0.531
371.000	260.729	79.997	19.996	103.154	20.027	2.942	0.490
371.500	261.028	79.999	19.995	103.155	20.028	2.861	0.501
372.000	261.271	79.997	19.995	103.155	20.025	3.095	0.541
372.500	261.549	79.997	19.996	103.155	20.025	3.053	0.531
373.000	261.762	79.998	19.995	103.155	20.025	3.085	0.506
373.500	262.033	79.997	19.995	103.153	20.029	2.791	0.487
374.000	262.276	79.996	19.994	103.153	20.026	3.017	0.499
374.500	262.510	79.998	19.994	103.153	20.029	2.789	0.495
375.000	262.792	79.998	19.995	103.154	20.026	3.050	0.497
375.500	263.048	79.996	19.994	103.154	20.025	3.099	0.528
376.000	263.306	79.997	19.994	103.155	20.026	3.042	0.526
376.500	263.550	79.998	19.994	103.155	20.026	3.021	0.508
377.000	263.835	79.999	19.994	103.155	20.029	2.789	0.516
377.500	264.076	79.998	19.994	103.154	20.028	2.885	0.527
378.000	264.364	79.997	19.995	103.153	20.028	2.851	0.527
378.500	264.610	79.996	19.995	103.153	20.028	2.878	0.532
379.000	264.879	80.000	19.994	103.153	20.026	3.038	0.525
379.500	265.151	79.999	19.995	103.154	20.028	2.885	0.528
380.000	265.370	79.997	19.995	103.154	20.027	2.919	0.516
380.500	265.640	79.998	19.994	103.154	20.026	3.025	0.490
381.000	265.908	79.998	19.995	103.155	20.029	2.812	0.514
381.500	266.166	79.998	19.995	103.153	20.026	2.987	0.532
382.000	266.424	79.997	19.995	103.153	20.028	2.847	0.521
382.500	266.691	79.999	19.995	103.152	20.027	2.979	0.520
383.000	266.969	79.997	19.995	103.150	20.026	3.036	0.535
383.500	267.215	79.998	19.994	103.148	20.028	2.909	0.534
384.000	267.464	79.999	19.995	103.149	20.027	2.930	0.510
384.500	267.728	79.998	19.994	103.149	20.026	3.038	0.504
385.000	267.990	79.999	19.996	103.149	20.024	3.170	0.519
385.500	268.262	79.997	19.995	103.151	20.027	2.966	0.530
386.000	268.491	79.997	19.995	103.152	20.025	3.098	0.517
386.500	268.769	79.999	19.993	103.152	20.028	2.876	0.504
387.000	269.029	79.999	19.995	103.148	20.027	2.938	0.523
387.500	269.287	79.998	19.995	103.147	20.028	2.856	0.528
388.000	269.548	79.998	19.996	103.147	20.026	3.026	0.518
388.500	269.787	80.000	19.996	103.145	20.029	2.811	0.509
389.000	270.059	79.999	19.996	103.144	20.029	2.804	0.505
389.500	270.344	79.996	19.997	103.147	20.028	2.877	0.534
390.000	270.597	79.999	19.995	103.149	20.029	2.832	0.548
390.500	270.821	79.997	19.996	103.148	20.028	2.856	0.508
391.000	271.097	79.999	19.994	103.148	20.026	3.032	0.488
391.500	271.397	79.999	19.995	103.146	20.030	2.726	0.538
392.000	271.671	79.998	19.995	103.147	20.029	2.790	0.576
392.500	271.924	79.998	19.995	103.144	20.025	3.068	0.550
393.000	272.167	79.997	19.996	103.142	20.025	3.113	0.511
393.500	272.426	79.997	19.996	103.143	20.028	2.906	0.499
394.000	272.711	80.000	19.996	103.139	20.026	3.030	0.523
394.500	272.951	79.997	19.995	103.139	20.027	2.974	0.534
395.000	273.231	79.999	19.995	103.142	20.027	2.949	0.522
395.500	273.507	79.999	19.995	103.144	20.028	2.870	0.538
396.000	273.708	80.000	19.994	103.146	20.026	3.006	0.516
396.500	273.983	79.998	19.995	103.150	20.026	2.993	0.477
397.000	274.254	79.997	19.995	103.143	20.024	3.180	0.512
397.500	274.505	79.998	19.995	103.142	20.023	3.246	0.534
398.000	274.773	79.999	19.995	103.142	20.027	2.921	0.520
398.500	275.009	79.999	19.994	103.135	20.025	3.075	0.511
399.000	275.305	79.998	19.995	103.134	20.026	3.043	0.518
399.500	275.535	79.998	19.994	103.140	20.025	3.053	0.529
400.000	275.803	79.997	19.995	103.139	20.023	3.196	0.512
400.500	276.053	79.999	19.995	103.135	20.029	2.807	0.508
401.000	276.338	79.997	19.994	103.137	20.026	3.026	0.527
401.500	276.572	79.996	19.994	103.134	20.029	2.832	0.527
402.000	276.867	79.999	19.995	103.128	20.029	2.809	0.524
402.500	277.109	79.996	19.995	103.124	20.027	2.962	0.533
403.000	277.370	79.999	19.994	103.127	20.025	3.088	0.520
403.500	277.648	79.999	19.995	103.131	20.028	2.907	0.522
404.000	277.899	79.996	19.995	103.136	20.025	3.103	0.534
404.500	278.139	79.998	19.995	103.141	20.024	3.128	0.509
405.000	278.419	79.997	19.994	103.141	20.026	2.996	0.505
405.500	278.652	79.997	19.994	103.137	20.025	3.085	0.517
406.000	278.934	79.997	19.994	103.139	20.027	2.930	0.514
406.500	279.205	79.997	19.994	103.140	20.026	2.996	0.534
407.000	279.433	79.998	19.994	103.138	20.028	2.875	0.525
407.500	279.700	79.996	19.995	103.142	20.032	2.607	0.497
408.000	279.970	79.999	19.995	103.146	20.030	2.713	0.516
408.500	280.244	79.999	19.995	103.138	20.031	2.652	0.540
409.000	280.480	79.999	19.995	103.133	20.028	2.884	0.527
409.500	280.782	80.001	19.994	103.133	20.025	3.094	0.524
410.000	281.014	79.997	19.995	103.135	20.027	2.973	0.537
410.500	281.269	80.000	19.994	103.130	20.028	2.854	0.511
411.000	281.509	79.997	19.995	103.129	20.026	3.013	0.491
411.500	281.752	80.000	19.996	103.130	20.028	2.871	0.489
412.000	282.024	80.001	19.994	103.130	20.028	2.898	0.499
412.500	282.235	79.999	19.994	103.127	20.028	2.894	0.499
413.000	282.557	79.998	19.994	103.127	20.028	2.885	0.508
413.500	282.772	79.999	19.994	103.128	20.028	2.866	0.535
414.000	283.040	79.999	19.995	103.127	20.028	2.845	0.510
414.500	283.327	79.999	19.995	103.126	20.029	2.809	0.519
415.000	283.576	79.998	19.995	103.124	20.031	2.686	0.545
415.500	283.857	80.001	19.994	103.124	20.030	2.771	0.533
416.000	284.103	79.998	19.996	103.124	20.031	2.698	0.529
416.500	284.384	79.999	19.994	103.124	20.028	2.892	0.527
417.000	284.591	79.998	19.995	103.123	20.027	2.926	0.507
417.500	284.853	79.999	19.995	103.122	20.027	2.943	0.478
418.000	285.092	80.000	19.994	103.119	20.025	3.066	0.485
418.500	285.373	79.998	19.995	103.119	20.025	3.075	0.510
419.000	285.640	79.999	19.994	103.122	20.028	2.905	0.534
419.500	285.884	79.998	19.995	103.122	20.030	2.711	0.530
420.000	286.130	79.999	19.995	103.123	20.028	2.858	0.501
420.500	286.393	79.997	19.996	103.125	20.027	2.945	0.499
421.000	286.698	79.999	19.996	103.125	20.029	2.820	0.538
421.500	286.948	79.998	19.995	103.122	20.027	2.952	0.562
422.000	287.208	80.000	19.995	103.123	20.031	2.707	0.533
422.500	287.410	79.999	19.995	103.123	20.030	2.737	0.486
423.000	287.715	79.998	19.995	103.123	20.029	2.822	0.484
423.500	287.926	79.997	19.995	103.128	20.026	3.001	0.512
424.000	288.180	79.997	19.996	103.128	20.031	2.663	0.491
424.500	288.412	80.000	19.995	103.130	20.026	3.011	0.476
425.000	288.665	79.998	19.996	103.130	20.028	2.847	0.486
425.500	288.960	79.997	19.995	103.128	20.028	2.903	0.517
426.000	289.210	79.998	19.995	103.123	20.025	3.060	0.546
426.500	289.471	79.998	19.996	103.123	20.026	3.003	0.527
427.000	289.737	79.999	19.995	103.122	20.030	2.750	0.519
427.500	289.982	79.997	19.996	103.121	20.026	2.983	0.519
428.000	290.223	79.997	19.994	103.121	20.029	2.805	0.498
428.500	290.495	79.999	19.996	103.121	20.029	2.835	0.499
429.000	290.769	79.998	19.996	103.121	20.030	2.758	0.530
429.500	291.018	79.999	19.995	103.121	20.027	2.969	0.534
430.000	291.277	80.000	19.994	103.120	20.026	3.011	0.516
430.500	291.527	79.999	19.994	103.121	20.025	3.105	0.509
431.000	291.734	79.999	19.994	103.122	20.024	3.169	0.483
431.500	291.990	80.001	19.994	103.121	20.025	3.111	0.460
432.000	292.255	79.997	19.995	103.120	20.026	3.037	0.492
432.500	292.502	80.000	19.995	103.119	20.025	3.082	0.517
433.001	292.773	79.999	19.995	103.118	20.024	3.135	0.515
433.500	293.042	79.998	19.995	103.115	20.026	3.031	0.529
434.000	293.287	80.000	19.995	103.115	20.025	3.081	0.527
434.500	293.543	79.998	19.995	103.114	20.024	3.173	0.507
435.000	293.787	80.000	19.995	103.114	20.025	3.097	0.501
435.500	294.032	79.998	19.995	103.115	20.022	3.256	0.495
436.000	294.332	79.999	19.995	103.116	20.025	3.103	0.517
436.500	294.567	79.999	19.995	103.118	20.023	3.252	0.540
437.000	294.823	80.001	19.994	103.121	20.024	3.156	0.513
437.500	295.087	80.000	19.996	103.121	20.024	3.162	0.506
438.000	295.347	80.000	19.994	103.120	20.024	3.173	0.522
438.500	295.585	80.000	19.995	103.119	20.024	3.184	0.511
439.000	295.826	80.001	19.995	103.117	20.025	3.101	0.488
439.500	296.076	79.999	19.994	103.115	20.022	3.288	0.485
440.000	296.333	80.000	19.996	103.115	20.023	3.215	0.499
440.500	296.621	80.001	19.994	103.115	20.022	3.292	0.526
441.000	296.833	80.001	19.994	103.115	20.022	3.315	0.522
441.500	297.091	80.001	19.996	103.115	20.020	3.449	0.485
442.000	297.337	80.000	19.995	103.114	20.023	3.232	0.487
442.500	297.612	79.999	19.996	103.113	20.025	3.090	0.513
443.000	297.865	80.000	19.995	103.113	20.020	3.430	0.525
443.500	298.117	80.000	19.995	103.114	20.020	3.456	0.517
444.000	298.382	80.000	19.995	103.114	20.018	3.530	0.511
444.500	298.591	79.999	19.996	103.114	20.021	3.362	0.495
445.000	298.884	79.999	19.996	103.114	20.019	3.471	0.488
445.500	299.105	79.997	19.994	103.114	20.017	3.613	0.508
446.000	299.394	80.000	19.996	103.113	20.017	3.656	0.512
446.500	299.608	79.998	19.995	103.114	20.018	3.552	0.507
447.000	299.884	80.000	19.996	103.115	20.019	3.520	0.496
447.500	300.122	79.997	19.996	103.115	20.018	3.549	0.501
448.000	300.388	79.997	19.996	103.115	20.018	3.588	0.509
448.500	300.640	79.999	19.996	103.115	20.012	3.954	0.511
449.000	300.870	79.998	19.997	103.114	20.015	3.800	0.500
449.500	301.164	79.998	19.997	103.114	20.016	3.709	0.504
450.000	301.375	79.997	19.996	103.114	20.014	3.834	0.514
450.500	301.634	79.997	19.995	103.113	20.013	3.909	0.487
451.000	301.907	79.997	19.997	103.113	20.012	3.949	0.501
451.500	302.164	79.997	19.996	103.113	20.014	3.868	0.531
452.000	302.390	79.997	19.995	103.114	20.013	3.937	0.507
452.500	302.612	79.996	19.996	103.114	20.010	4.081	0.465
453.000	302.899	79.998	19.996	103.116	20.012	3.956	0.478
453.500	303.105	79.997	19.996	103.117	20.011	4.053	0.501
454.000	303.416	79.997	19.997	103.118	20.012	3.979	0.505
454.500	303.628	79.997	19.996	103.117	20.014	3.804	0.519
455.000	303.873	79.996	19.995	103.116	20.010	4.081	0.490
455.500	304.164	79.996	19.996	103.116	20.010	4.106	0.497
456.000	304.415	79.998	19.995	103.115	20.009	4.191	0.539
456.500	304.645	79.997	19.995	103.114	20.012	4.004	0.511
457.000	304.901	79.997	19.995	103.115	20.013	3.887	0.483
457.500	305.151	79.996	19.995	103.114	20.010	4.124	0.496
458.000	305.422	79.999	19.995	103.115	20.009	4.153	0.514
458.500	305.644	79.997	19.996	103.114	20.009	4.200	0.507
459.000	305.938	79.998	19.995	103.114	20.009	4.189	0.504
459.500	306.171	79.996	19.995	103.114	20.007	4.334	0.521
460.000	306.382	79.996	19.996	103.117	20.009	4.198	0.485
460.500	306.659	79.998	19.995	103.117	20.008	4.245	0.466
461.000	306.919	79.997	19.995	103.117	20.009	4.162	0.513
461.501	307.192	79.996	19.995	103.117	20.005	4.479	0.535
462.000	307.457	79.998	19.995	103.116	20.004	4.519	0.535
462.500	307.687	79.997	19.995	103.114	20.005	4.453	0.516
463.000	307.921	79.997	19.995	103.113	20.005	4.485	0.479
463.500	308.208	79.998	19.995	103.112	20.007	4.334	0.492
464.000	308.444	79.998	19.995	103.115	20.005	4.472	0.522
464.500	308.692	79.998	19.995	103.118	20.004	4.508	0.503
465.000	308.930	79.998	19.995	103.119	20.004	4.508	0.485
465.500	309.190	79.998	19.995	103.120	20.004	4.506	0.492
466.000	309.410	79.997	19.996	103.121	20.003	4.561	0.489
466.500	309.668	79.997	19.995	103.119	20.001	4.697	0.478
467.000	309.933	79.999	19.995	103.118	20.002	4.661	0.500
467.500	310.171	79.998	19.994	103.118	20.001	4.755	0.513
468.000	310.436	79.998	19.994	103.118	19.998	4.910	0.503
468.500	310.708	79.998	19.994	103.117	19.999	4.836	0.521
469.000	310.907	79.997	19.995	103.118	20.000	4.793	0.504
469.500	311.184	79.998	19.995	103.118	20.001	4.727	0.473
470.000	311.444	80.000	19.994	103.118	20.000	4.827	0.506
470.500	311.746	79.998	19.995	103.116	20.002	4.691	0.550
471.000	311.990	79.997	19.994	103.111	19.997	5.025	0.554
471.500	312.263	79.997	19.995	103.108	19.996	5.040	0.531
472.000	312.505	79.998	19.996	103.107	19.997	5.032	0.516
472.500	312.743	79.999	19.994	103.107	19.995	5.140	0.497
473.000	313.001	79.999	19.994	103.109	19.994	5.185	0.488
473.500	313.280	79.998	19.995	103.115	19.993	5.285	0.517
474.000	313.551	79.997	19.995	103.118	19.993	5.263	0.544
474.500	313.748	79.998	19.994	103.119	19.995	5.155	0.509
475.000	314.002	79.999	19.995	103.118	19.995	5.151	0.460
475.500	314.220	79.997	19.996	103.118	19.995	5.170	0.461
476.000	314.511	79.997	19.995	103.118	19.992	5.314	0.490
476.500	314.753	79.997	19.995	103.118	19.991	5.440	0.521
477.000	314.982	79.999	19.995	103.118	19.990	5.446	0.501
477.500	315.258	79.998	19.995	103.119	19.992	5.346	0.488
478.000	315.461	79.997	19.995	103.120	19.992	5.330	0.492
478.500	315.725	79.998	19.995	103.120	19.988	5.619	0.473
479.000	315.973	79.997	19.996	103.120	19.989	5.535	0.490
479.500	316.248	79.997	19.996	103.120	19.988	5.612	0.517
480.000	316.465	79.997	19.995	103.120	19.986	5.750	0.508
480.500	316.709	79.999	19.995	103.119	19.985	5.854	0.477
481.000	316.988	79.997	19.994	103.118	19.984	5.859	0.492
481.500	317.216	79.997	19.995	103.118	19.985	5.849	0.515
482.000	317.481	79.996	19.995	103.117	19.982	6.015	0.500
482.500	317.721	79.996	19.994	103.115	19.981	6.075	0.499
483.000	317.947	79.996	19.995	103.113	19.984	5.874	0.485
483.500	318.210	79.999	19.995	103.112	19.981	6.125	0.477
484.000	318.471	79.996	19.995	103.113	19.981	6.117	0.506
484.500	318.695	79.995	19.994	103.113	19.979	6.236	0.505
485.000	318.924	79.997	19.995	103.114	19.977	6.374	0.470
485.500	319.171	79.996	19.995	103.117	19.977	6.403	0.465
486.000	319.436	79.997	19.994	103.118	19.977	6.369	0.494
486.500	319.659	79.997	19.995	103.117	19.976	6.442	0.500
487.000	319.914	79.998	19.995	103.115	19.976	6.423	0.483
487.500	320.186	79.998	19.995	103.113	19.972	6.705	0.503
488.000	320.442	79.996	19.995	103.112	19.974	6.590	0.528
488.500	320.677	79.998	19.994	103.112	19.971	6.809	0.510
489.000	320.920	79.997	19.994	103.113	19.970	6.835	0.484
489.500	321.178	79.997	19.995	103.116	19.971	6.748	0.489
490.000	321.426	79.998	19.995	103.119	19.969	6.884	0.504
490.500	321.661	79.998	19.994	103.121	19.965	7.195	0.494
491.000	321.912	79.997	19.994	103.121	19.967	7.029	0.484
491.500	322.116	79.998	19.994	103.117	19.964	7.288	0.471
492.000	322.388	79.998	19.994	103.115	19.966	7.154	0.466
492.500	322.629	79.997	19.995	103.111	19.965	7.180	0.495
493.000	322.849	79.997	19.994	103.104	19.965	7.190	0.487
493.500	323.137	79.998	19.995	103.103	19.962	7.381	0.484
494.000	323.347	79.998	19.994	103.104	19.962	7.411	0.503
494.500	323.574	79.999	19.995	103.105	19.959	7.594	0.467
495.000	323.817	80.000	19.995	103.107	19.957	7.760	0.454
495.500	324.055	80.000	19.995	103.112	19.956	7.785	0.476
496.000	324.308	79.999	19.994	103.112	19.956	7.796	0.486
496.500	324.533	79.999	19.995	103.112	19.955	7.843	0.485
497.000	324.769	80.001	19.994	103.111	19.954	7.973	0.470
497.500	325.054	80.000	19.994	103.113	19.953	8.035	0.490
498.000	325.275	79.999	19.995	103.114	19.952	8.066	0.513
498.500	325.500	79.999	19.995	103.115	19.948	8.381	0.476
499.000	325.777	80.000	19.994	103.116	19.949	8.281	0.474
499.500	325.996	79.999	19.993	103.116	19.947	8.417	0.499
500.000	326.246	79.998	19.995	103.116	19.948	8.334	0.483
500.500	326.488	80.000	19.994	103.114	19.948	8.371	0.481
501.000	326.702	80.000	19.994	103.114	19.947	8.447	0.474
501.500	327.014	79.997	19.995	103.114	19.946	8.486	0.491
502.000	327.206	80.000	19.995	103.113	19.942	8.771	0.515
502.500	327.476	79.997	19.994	103.113	19.940	8.875	0.483
503.000	327.670	79.998	19.994	103.114	19.940	8.917	0.463
503.500	327.932	79.999	19.994	103.114	19.941	8.813	0.460
504.000	328.183	79.998	19.996	103.114	19.938	9.030	0.485
504.500	328.437	79.999	19.995	103.115	19.937	9.104	0.509
505.000	328.656	79.997	19.994	103.116	19.935	9.244	0.489
505.500	328.928	79.998	19.995	103.116	19.933	9.370	0.482
506.000	329.170	79.998	19.995	103.116	19.933	9.402	0.502
506.500	329.393	79.999	19.994	103.116	19.930	9.576	0.490
507.000	329.622	79.998	19.995	103.117	19.930	9.583	0.459
507.500	329.876	79.996	19.995	103.117	19.929	9.628	0.468
508.000	330.150	79.997	19.996	103.116	19.926	9.853	0.506
508.500	330.396	79.997	19.995	103.115	19.924	10.013	0.524
509.000	330.616	79.998	19.996	103.113	19.921	10.196	0.492
509.500	330.850	79.997	19.996	103.113	19.920	10.276	0.460
510.000	331.104	79.998	19.996	103.113	19.920	10.238	0.471
510.500	331.333	79.998	19.995	103.114	19.918	10.412	0.486
511.000	331.621	79.999	19.995	103.114	19.919	10.368	0.500
511.500	331.828	79.998	19.997	103.112	19.914	10.670	0.506
512.000	332.087	79.998	19.995	103.110	19.912	10.833	0.480
512.500	332.345	80.000	19.995	103.107	19.912	10.800	0.491
513.001	332.596	79.999	19.995	103.105	19.910	10.951	0.513
513.500	332.866	79.999	19.996	103.104	19.909	11.052	0.515
514.000	333.100	79.998	19.996	103.109	19.906	11.224	0.512
514.500	333.335	79.999	19.996	103.111	19.903	11.451	0.486
515.000	333.599	79.999	19.996	103.113	19.901	11.570	0.484
515.500	333.852	79.999	19.996	103.116	19.904	11.352	0.508
516.000	334.116	79.999	19.995	103.116	19.900	11.671	0.517
516.500	334.328	79.998	19.995	103.116	19.900	11.656	0.496
517.000	334.598	80.000	19.995	103.116	19.898	11.809	0.480
517.500	334.864	80.000	19.996	103.115	19.893	12.112	0.509
518.000	335.111	80.000	19.996	103.114	19.892	12.175	0.524
518.500	335.368	80.001	19.995	103.113	19.891	12.282	0.508
519.000	335.605	80.000	19.995	103.112	19.890	12.298	0.499
519.500	335.830	80.000	19.995	103.112	19.884	12.766	0.478
520.000	336.114	80.000	19.995	103.112	19.887	12.554	0.485
520.500	336.316	80.001	19.995	103.113	19.879	13.089	0.498
521.000	336.569	80.000	19.995	103.113	19.883	12.813	0.471
521.500	336.836	80.000	19.995	103.114	19.875	13.334	0.487
522.000	337.050	79.999	19.995	103.114	19.876	13.308	0.500
522.500	337.283	80.001	19.995	103.114	19.876	13.310	0.464
523.000	337.540	79.999	19.994	103.111	19.877	13.219	0.469
523.500	337.801	79.999	19.995	103.105	19.871	13.621	0.504
524.000	338.050	80.000	19.995	103.103	19.869	13.763	0.514
524.500	338.286	80.000	19.995	103.101	19.862	14.265	0.498
525.000	338.538	79.998	19.995	103.101	19.862	14.210	0.487
525.500	338.761	79.997	19.995	103.104	19.859	14.465	0.482
526.000	339.009	80.000	19.994	103.110	19.860	14.410	0.473
526.500	339.269	79.998	19.996	103.112	19.855	14.716	0.489
527.000	339.493	79.999	19.995	103.113	19.854	14.820	0.496
527.500	339.783	79.997	19.995	103.113	19.851	15.028	0.499
528.000	339.969	79.997	19.995	103.113	19.850	15.029	0.495
528.500	340.237	79.998	19.995	103.112	19.847	15.269	0.465
529.000	340.510	79.997	19.995	103.112	19.846	15.356	0.498
529.500	340.777	79.996	19.994	103.113	19.843	15.573	0.541
530.000	341.021	79.998	19.995	103.113	19.838	15.903	0.526
530.500	341.237	79.997	19.995	103.114	19.837	15.964	0.485
531.000	341.487	79.997	19.996	103.115	19.835	16.107	0.463
531.500	341.716	79.996	19.995	103.116	19.833	16.200	0.472
532.000	341.968	79.996	19.995	103.117	19.829	16.506	0.480
532.500	342.219	79.999	19.995	103.118	19.828	16.583	0.493
533.000	342.460	79.997	19.996	103.118	19.827	16.656	0.498
533.500	342.697	79.995	19.996	103.118	19.826	16.711	0.485
534.000	342.939	79.996	19.996	103.118	19.824	16.811	0.478
534.500	343.189	79.996	19.996	103.118	19.821	17.049	0.486
535.000	343.439	79.996	19.996	103.117	19.818	17.225	0.496
535.500	343.638	79.996	19.995	103.117	19.813	17.572	0.474
536.000	343.879	79.996	19.996	103.117	19.811	17.747	0.445
536.500	344.161	79.996	19.995	103.117	19.807	17.983	0.482
537.000	344.384	79.996	19.995	103.117	19.806	18.099	0.514
537.500	344.651	79.995	19.996	103.117	19.804	18.186	0.497
538.000	344.883	79.997	19.995	103.117	19.797	18.720	0.494
538.500	345.134	79.994	19.996	103.118	19.798	18.599	0.491
539.000	345.353	79.998	19.996	103.118	19.796	18.773	0.476
539.500	345.609	79.996	19.996	103.118	19.791	19.112	0.473
540.000	345.872	79.997	19.996	103.117	19.789	19.264	0.497
540.500	346.105	79.998	19.996	103.117	19.785	19.488	0.507
541.000	346.338	79.997	19.996	103.116	19.784	19.596	0.481
541.500	346.597	79.995	19.996	103.118	19.780	19.859	0.479
542.000	346.847	79.997	19.996	103.117	19.777	20.075	0.501
542.500	347.084	79.996	19.996	103.118	19.777	20.063	0.498
543.000	347.377	79.997	19.995	103.118	19.767	20.734	0.508
543.500	347.585	79.996	19.996	103.117	19.768	20.692	0.515
544.000	347.838	79.995	19.996	103.116	19.765	20.855	0.481
544.500	348.081	79.997	19.996	103.116	19.764	20.977	0.478
545.000	348.347	79.995	19.996	103.116	19.755	21.565	0.503
545.500	348.606	79.998	19.996	103.116	19.754	21.661	0.517
546.001	348.825	79.997	19.996	103.117	19.750	21.902	0.501
546.500	349.089	79.998	19.995	103.117	19.748	22.035	0.480
547.000	349.323	79.998	19.995	103.117	19.745	22.267	0.491
547.500	349.591	79.996	19.996	103.117	19.742	22.437	0.500
548.000	349.836	79.996	19.995	103.119	19.741	22.558	0.507
548.500	350.107	79.996	19.995	103.119	19.734	22.975	0.515
549.000	350.360	79.996	19.994	103.119	19.732	23.156	0.520
549.500	350.576	79.997	19.994	103.119	19.728	23.396	0.496
550.000	350.856	79.996	19.995	103.120	19.724	23.721	0.483
550.500	351.084	79.997	19.995	103.118	19.721	23.874	0.502
551.000	351.337	79.997	19.995	103.121	19.716	24.202	0.494
551.500	351.594	79.996	19.996	103.125	19.711	24.591	0.496
552.000	351.841	79.997	19.995	103.132	19.708	24.793	0.507
552.500	352.086	79.996	19.994	103.135	19.706	24.944	0.498
553.000	352.369	79.997	19.994	103.135	19.701	25.271	0.510
553.500	352.620	79.998	19.995	103.133	19.699	25.367	0.531
554.000	352.875	79.997	19.994	103.129	19.696	25.616	0.520
554.500	353.134	79.997	19.994	103.125	19.692	25.867	0.510
555.000	353.406	79.996	19.995	103.127	19.687	26.226	0.523
555.500	353.642	79.995	19.995	103.127	19.682	26.572	0.519
556.000	353.906	79.997	19.994	103.127	19.679	26.796	0.504
556.500	354.155	79.996	19.994	103.128	19.676	26.966	0.506
557.001	354.371	79.996	19.994	103.125	19.672	27.234	0.489
557.500	354.621	79.997	19.993	103.121	19.669	27.458	0.466
558.000	354.875	79.997	19.995	103.120	19.665	27.756	0.485
558.500	355.154	79.998	19.994	103.120	19.661	27.988	0.519
559.000	355.410	79.997	19.995	103.119	19.657	28.255	0.534
559.500	355.675	79.998	19.995	103.119	19.651	28.667	0.527
560.000	355.920	79.998	19.994	103.120	19.649	28.840	0.516
560.500	356.149	79.996	19.995	103.121	19.644	29.142	0.493
561.000	356.410	79.998	19.993	103.121	19.640	29.452	0.482
561.500	356.653	79.997	19.995	103.121	19.636	29.739	0.497
562.000	356.878	79.996	19.996	103.121	19.633	29.904	0.486
562.500	357.143	79.997	19.994	103.120	19.628	30.270	0.479
563.000	357.418	79.996	19.995	103.119	19.624	30.553	0.515
563.500	357.699	79.996	19.995	103.120	19.623	30.596	0.548
564.000	357.910	79.996	19.995	103.121	19.614	31.230	0.524
564.500	358.146	79.996	19.995	103.121	19.612	31.349	0.470
565.000	358.466	79.996	19.994	103.120	19.607	31.700	0.502
565.500	358.691	79.995	19.995	103.120	19.600	32.182	0.550
566.000	358.938	79.996	19.996	103.120	19.595	32.491	0.509
566.500	359.190	79.996	19.995	103.122	19.590	32.867	0.486
567.000	359.422	79.998	19.995	103.122	19.589	32.948	0.491
567.500	359.675	79.995	19.995	103.122	19.579	33.596	0.484
568.000	359.923	79.996	19.996	103.122	19.576	33.851	0.493
568.500	360.188	79.996	19.996	103.120	19.570	34.202	0.507
569.000	360.422	79.997	19.995	103.117	19.564	34.626	0.506
569.500	360.717	79.996	19.996	103.116	19.560	34.894	0.514
570.000	360.943	79.997	19.996	103.114	19.556	35.217	0.525
570.500	361.229	79.999	19.996	103.114	19.549	35.687	0.517
571.000	361.479	79.997	19.995	103.114	19.543	36.101	0.524
571.500	361.733	80.000	19.995	103.114	19.539	36.329	0.520
572.000	361.979	79.998	19.995	103.114	19.533	36.750	0.502
572.500	362.203	80.000	19.996	103.116	19.523	37.447	0.485
573.000	362.468	79.998	19.994	103.116	19.519	37.700	0.479
573.500	362.742	79.999	19.994	103.116	19.512	38.198	0.514
574.000	362.957	79.998	19.995	103.116	19.508	38.502	0.514
574.500	363.275	79.999	19.995	103.115	19.498	39.129	0.511
575.000	363.473	79.999	19.995	103.115	19.498	39.151	0.524
575.500	363.742	79.997	19.995	103.115	19.488	39.862	0.492
576.000	363.979	80.000	19.994	103.115	19.484	40.144	0.487
576.500	364.243	80.000	19.995	103.115	19.477	40.572	0.504
577.000	364.529	79.999	19.995	103.116	19.469	41.160	0.525
577.500	364.739	80.001	19.995	103.116	19.465	41.430	0.523
578.000	365.050	80.000	19.994	103.116	19.461	41.705	0.508
578.500	365.291	80.000	19.994	103.117	19.456	42.025	0.537
579.000	365.558	80.000	19.995	103.117	19.452	42.274	0.530
579.500	365.781	79.999	19.996	103.116	19.445	42.786	0.499
580.000	366.055	80.001	19.994	103.116	19.438	43.281	0.493
580.500	366.266	79.998	19.995	103.115	19.433	43.607	0.491
581.000	366.538	79.997	19.994	103.115	19.425	44.172	0.484
581.500	366.795	79.999	19.995	103.116	19.420	44.519	0.506
582.000	367.033	79.998	19.994	103.116	19.415	44.866	0.512
582.500	367.298	79.998	19.995	103.116	19.411	45.082	0.499
583.000	367.580	79.997	19.994	103.117	19.404	45.566	0.525
583.500	367.873	79.997	19.996	103.118	19.399	45.951	0.561
584.000	368.096	79.998	19.996	103.118	19.391	46.503	0.545
584.500	368.354	79.999	19.994	103.118	19.389	46.628	0.498
585.000	368.585	79.998	19.994	103.117	19.381	47.166	0.485
585.500	368.844	79.998	19.994	103.117	19.375	47.563	0.489
586.000	369.057	79.998	19.995	103.116	19.371	47.855	0.481
586.500	369.320	79.999	19.994	103.115	19.365	48.289	0.474
587.000	369.568	79.998	19.995	103.116	19.356	48.898	0.494
587.500	369.825	79.998	19.995	103.116	19.352	49.157	0.508
588.000	370.070	79.997	19.995	103.116	19.347	49.473	0.503
588.500	370.301	79.998	19.995	103.117	19.341	49.884	0.489
589.000	370.560	79.998	19.995	103.117	19.336	50.244	0.483
589.500	370.796	79.998	19.994	103.117	19.329	50.708	0.493
590.000	371.045	79.998	19.994	103.118	19.323	51.147	0.490
590.500	371.307	79.999	19.994	103.119	19.317	51.525	0.498
591.001	371.560	79.998	19.995	103.119	19.311	51.960	0.513
591.501	371.823	79.998	19.995	103.120	19.302	52.597	0.516
592.000	372.059	79.999	19.995	103.119	19.298	52.843	0.508
592.500	372.336	79.998	19.994	103.119	19.290	53.428	0.506
593.000	372.600	79.998	19.995	103.118	19.288	53.557	0.527
593.500	372.872	79.998	19.995	103.121	19.282	53.948	0.538
594.000	373.091	79.998	19.995	103.122	19.277	54.296	0.513
594.500	373.372	79.998	19.995	103.126	19.270	54.798	0.495
595.000	373.615	79.999	19.995	103.127	19.261	55.358	0.512
595.500	373.872	79.999	19.994	103.133	19.254	55.877	0.512
596.000	374.115	80.000	19.995	103.134	19.250	56.138	0.500
596.500	374.383	79.999	19.995	103.134	19.241	56.785	0.505
597.000	374.619	79.998	19.994	103.133	19.234	57.220	0.508
597.500	374.841	79.998	19.995	103.132	19.228	57.631	0.481
598.000	375.129	79.999	19.994	103.127	19.218	58.346	0.484
598.500	375.378	79.999	19.995	103.124	19.210	58.907	0.523
599.000	375.624	79.997	19.995	103.125	19.205	59.207	0.516
599.500	375.863	80.000	19.995	103.123	19.198	59.681	0.490
600.000	376.115	79.999	19.995	103.127	19.190	60.245	0.489
600.500	376.372	79.999	19.996	103.130	19.185	60.593	0.500
601.000	376.611	79.999	19.995	103.135	19.176	61.211	0.502
601.500	376.881	79.999	19.995	103.135	19.172	61.478	0.502
602.000	377.158	79.999	19.994	103.137	19.164	62.040	0.528
602.500	377.389	80.001	19.995	103.136	19.158	62.416	0.528
603.000	377.671	80.000	19.995	103.136	19.151	62.915	0.511
603.500	377.883	80.000	19.995	103.132	19.143	63.477	0.503
604.000	378.152	80.000	19.994	103.130	19.133	64.172	0.487
604.500	378.395	79.999	19.994	103.131	19.127	64.537	0.497
605.000	378.637	79.999	19.995	103.132	19.116	65.321	0.498
605.500	378.870	79.999	19.995	103.135	19.113	65.547	0.480
606.000	379.160	79.999	19.995	103.137	19.107	65.926	0.499
606.500	379.363	79.999	19.996	103.139	19.098	66.549	0.508
607.000	379.655	79.999	19.995	103.142	19.089	67.161	0.494
607.500	379.923	79.999	19.995	103.140	19.081	67.725	0.527
608.000	380.159	79.997	19.995	103.139	19.074	68.198	0.532
608.500	380.409	79.998	19.995	103.137	19.066	68.723	0.495
609.000	380.652	79.998	19.995	103.140	19.057	69.365	0.489
609.500	380.900	79.997	19.995	103.142	19.050	69.858	0.492
610.000	381.162	79.998	19.996	103.146	19.042	70.396	0.500
610.500	381.427	79.997	19.996	103.146	19.031	71.140	0.519
611.000	381.685	79.999	19.995	103.149	19.026	71.498	0.525
611.500	381.902	79.997	19.995	103.145	19.022	71.786	0.499
612.000	382.162	79.999	19.995	103.144	19.010	72.561	0.476
612.500	382.410	79.997	19.995	103.142	19.001	73.207	0.493
613.000	382.644	79.998	19.995	103.141	18.996	73.537	0.495
613.500	382.880	79.997	19.995	103.142	18.984	74.373	0.476
614.000	383.139	79.997	19.994	103.145	18.976	74.893	0.483
614.500	383.436	79.996	19.995	103.142	18.966	75.565	0.525
615.000	383.663	79.997	19.995	103.142	18.958	76.152	0.540
615.500	383.929	79.996	19.995	103.145	18.951	76.594	0.508
616.000	384.165	79.998	19.996	103.145	18.942	77.256	0.497
616.500	384.417	79.997	19.995	103.143	18.932	77.938	0.495
617.000	384.670	79.996	19.996	103.148	18.922	78.624	0.496
617.500	384.944	79.998	19.995	103.147	18.915	79.089	0.516
618.000	385.174	79.997	19.995	103.145	18.906	79.686	0.516
618.500	385.436	79.996	19.995	103.144	18.895	80.433	0.499
619.000	385.643	79.997	19.996	103.145	18.884	81.222	0.481
619.500	385.915	79.997	19.995	103.143	18.878	81.587	0.474
620.000	386.147	79.998	19.995	103.145	18.870	82.176	0.491
620.500	386.395	79.996	19.995	103.146	18.861	82.751	0.492
621.000	386.672	79.996	19.995	103.149	18.849	83.569	0.503
621.500	386.891	79.997	19.996	103.150	18.841	84.155	0.510
622.000	387.144	79.998	19.995	103.150	18.838	84.377	0.483
622.500	387.400	79.996	19.996	103.151	18.823	85.376	0.490
623.000	387.680	79.998	19.995	103.153	18.816	85.857	0.523
623.500	387.927	79.996	19.996	103.152	18.806	86.546	0.532
624.000	388.183	79.997	19.997	103.154	18.796	87.221	0.515
624.500	388.440	79.999	19.995	103.154	18.786	87.891	0.508
625.000	388.657	79.997	19.996	103.147	18.777	88.496	0.493
625.500	388.930	79.999	19.996	103.142	18.769	89.071	0.482
626.000	389.181	79.998	19.996	103.141	18.760	89.692	0.507
626.500	389.427	79.998	19.997	103.141	18.748	90.514	0.511
627.000	389.661	79.998	19.996	103.143	18.741	90.970	0.489
627.500	389.947	79.997	19.997	103.146	18.732	91.640	0.500
628.000	390.180	79.998	19.996	103.152	18.718	92.585	0.519
628.500	390.435	79.998	19.998	103.150	18.715	92.775	0.503
629.000	390.648	79.997	19.995	103.146	18.706	93.403	0.477
629.500	390.896	79.997	19.997	103.145	18.693	94.260	0.464
630.000	391.177	79.998	19.996	103.144	18.681	95.112	0.495
630.500	391.380	79.998	19.996	103.140	18.676	95.419	0.507
631.000	391.611	79.997	19.997	103.139	18.668	95.988	0.459
631.500	391.844	79.998	19.996	103.137	18.659	96.601	0.449
632.000	392.099	79.997	19.997	103.136	18.648	97.348	0.476
632.500	392.345	79.997	19.996	103.133	18.638	98.041	0.494
633.000	392.586	79.998	19.996	103.131	18.628	98.691	0.494
633.500	392.875	79.998	19.995	103.129	18.619	99.307	0.509
634.000	393.090	79.998	19.996	103.128	18.610	99.971	0.517
634.500	393.366	79.997	19.997	103.124	18.601	100.574	0.497
635.000	393.598	79.998	19.996	103.125	18.594	101.071	0.499
635.500	393.898	79.996	19.995	103.127	18.586	101.594	0.520
636.000	394.098	79.997	19.995	103.128	18.576	102.296	0.516
636.500	394.341	79.996	19.996	103.129	18.568	102.803	0.472
637.000	394.589	79.999	19.996	103.131	18.560	103.386	0.468
637.500	394.834	79.997	19.996	103.132	18.556	103.611	0.492
638.000	395.102	79.996	19.997	103.133	18.547	104.240	0.503
638.500	395.342	79.998	19.996	103.135	18.538	104.908	0.510
639.000	395.613	79.998	19.995	103.138	18.528	105.523	0.509
639.500	395.855	79.997	19.996	103.136	18.522	105.951	0.512
640.000	396.103	79.997	19.996	103.136	18.514	106.485	0.502
640.500	396.348	79.997	19.996	103.136	18.506	107.053	0.492
641.000	396.600	79.999	19.996	103.138	18.503	107.233	0.495
641.500	396.854	79.998	19.995	103.133	18.496	107.764	0.502
642.000	397.073	79.997	19.995	103.133	18.490	108.182	0.489
642.500	397.345	79.997	19.996	103.129	18.481	108.758	0.482
643.000	397.601	79.996	19.995	103.128	18.477	109.020	0.510
643.500	397.859	79.996	19.995	103.124	18.472	109.410	0.521
644.000	398.096	79.998	19.994	103.124	18.463	110.001	0.504
644.500	398.351	79.998	19.995	103.123	18.457	110.415	0.493
645.000	398.612	79.997	19.996	103.125	18.453	110.705	0.504
645.500	398.867	79.998	19.996	103.122	18.441	111.491	0.516
646.000	399.093	79.999	19.995	103.120	18.440	111.566	0.498
646.500	399.342	79.999	19.995	103.121	18.435	111.904	0.478
647.000	399.575	79.998	19.995	103.120	18.429	112.278	0.479
647.500	399.847	79.998	19.995	103.121	18.426	112.505	0.494
648.000	400.063	79.998	19.995	103.121	18.422	112.803	0.497
648.500	400.352	79.999	19.995	103.121	18.419	112.992	0.496
649.000	400.619	79.997	19.995	103.120	18.413	113.421	0.531
649.500	400.875	79.999	19.996	103.120	18.410	113.562	0.539
650.000	401.108	79.998	19.996	103.118	18.410	113.609	0.506
650.500	401.364	79.999	19.995	103.117	18.403	114.063	0.489
651.000	401.637	79.997	19.995	103.117	18.399	114.319	0.509
651.500	401.881	79.998	19.996	103.116	18.400	114.280	0.523
652.000	402.138	79.997	19.996	103.116	18.402	114.140	0.509
652.500	402.442	79.999	19.995	103.114	18.397	114.464	0.530
653.000	402.683	79.999	19.996	103.111	18.393	114.766	0.552
653.500	402.943	79.999	19.995	103.108	18.395	114.642	0.523
654.000	403.181	80.001	19.994	103.106	18.392	114.841	0.500
654.500	403.484	79.999	19.995	103.105	18.393	114.776	0.519
655.000	403.766	79.999	19.995	103.105	18.393	114.734	0.563
655.500	403.986	79.998	19.995	103.106	18.395	114.561	0.544
656.000	404.272	80.001	19.994	103.107	18.395	114.562	0.505
656.500	404.551	80.000	19.994	103.105	18.396	114.503	0.536
657.000	404.806	80.000	19.994	103.099	18.398	114.347	0.549
657.500	405.088	79.999	19.995	103.093	18.398	114.339	0.535
658.000	405.346	80.000	19.994	103.088	18.404	113.991	0.539
658.500	405.624	80.000	19.994	103.082	18.407	113.754	0.538
659.000	405.852	80.000	19.995	103.080	18.407	113.772	0.521
659.500	406.123	80.000	19.995	103.080	18.412	113.445	0.503
660.000	406.382	79.999	19.994	103.080	18.412	113.434	0.514
660.500	406.611	79.998	19.994	103.079	18.421	112.827	0.509
661.000	406.924	79.999	19.995	103.079	18.423	112.668	0.515
661.500	407.180	80.000	19.995	103.078	18.429	112.260	0.556
662.000	407.461	79.999	19.995	103.078	18.434	111.899	0.553
662.500	407.690	79.999	19.995	103.077	18.444	111.233	0.523
663.000	408.011	80.000	19.995	103.076	18.449	110.855	0.530
663.500	408.296	79.999	19.995	103.075	18.458	110.259	0.578
664.000	408.530	79.999	19.995	103.075	18.464	109.828	0.562
664.500	408.817	79.998	19.995	103.073	18.473	109.250	0.520
665.000	409.089	79.999	19.994	103.072	18.487	108.256	0.540
665.500	409.336	79.999	19.995	103.068	18.491	108.016	0.539
666.000	409.619	79.999	19.995	103.062	18.501	107.314	0.524
666.500	409.886	79.998	19.995	103.054	18.513	106.530	0.540
667.000	410.163	79.997	19.995	103.049	18.522	105.853	0.547
667.500	410.431	79.999	19.995	103.043	18.537	104.842	0.544
668.000	410.703	79.998	19.994	103.042	18.547	104.166	0.542
668.500	410.972	79.998	19.994	103.044	18.558	103.443	0.541
669.000	411.249	79.997	19.995	103.044	18.568	102.760	0.544
669.500	411.516	79.997	19.994	103.044	18.583	101.747	0.545
670.000	411.798	79.998	19.995	103.044	18.597	100.729	0.546
670.500	412.054	79.998	19.996	103.041	18.610	99.858	0.544
671.000	412.328	79.998	19.995	103.040	18.625	98.824	0.534
671.500	412.596	79.998	19.996	103.041	18.639	97.864	0.536
672.000	412.836	79.998	19.994	103.040	18.652	97.028	0.526
672.500	413.174	79.998	19.995	103.040	18.671	95.678	0.543
673.000	413.403	79.997	19.995	103.040	18.682	94.954	0.572
673.500	413.669	79.999	19.995	103.038	18.700	93.739	0.531
674.000	413.925	80.000	19.995	103.038	18.714	92.725	0.509
674.500	414.222	80.000	19.995	103.038	18.732	91.560	0.537
675.000	414.446	79.999	19.994	103.038	18.746	90.589	0.537
675.500	414.693	79.999	19.995	103.038	18.763	89.403	0.496
676.000	414.993	79.999	19.995	103.038	18.779	88.338	0.509
676.500	415.252	79.999	19.995	103.038	18.799	86.933	0.553
677.000	415.538	79.997	19.995	103.037	18.813	85.983	0.552
677.500	415.799	79.999	19.994	103.036	18.829	84.865	0.546
678.000	416.077	79.999	19.994	103.036	18.846	83.701	0.543
678.500	416.378	80.000	19.995	103.038	18.861	82.684	0.559
679.000	416.658	80.000	19.994	103.038	18.878	81.536	0.580
679.500	416.907	80.000	19.995	103.039	18.897	80.236	0.555
680.000	417.212	79.999	19.994	103.040	18.913	79.158	0.541
680.500	417.466	79.999	19.996	103.040	18.928	78.119	0.556
681.000	417.725	79.999	19.994	103.041	18.946	76.913	0.536
681.500	418.050	80.000	19.995	103.041	18.962	75.804	0.549
682.000	418.368	80.001	19.994	103.041	18.976	74.808	0.614
682.500	418.569	80.000	19.995	103.041	18.994	73.608	0.581
683.000	418.856	79.999	19.994	103.041	19.008	72.666	0.504
683.500	419.118	80.001	19.994	103.041	19.024	71.540	0.518
684.000	419.410	80.000	19.994	103.041	19.040	70.443	0.551
684.500	419.718	80.000	19.995	103.042	19.050	69.770	0.577
685.000	419.966	80.000	19.994	103.044	19.068	68.545	0.578
685.500	420.252	79.999	19.995	103.045	19.083	67.553	0.545
686.000	420.509	80.000	19.994	103.045	19.088	67.152	0.539
686.500	420.794	80.000	19.995	103.046	19.106	65.933	0.542
687.000	421.071	80.000	19.994	103.045	19.120	64.993	0.552
687.500	421.310	79.999	19.995	103.043	19.132	64.143	0.539
688.000	421.602	80.000	19.995	103.042	19.145	63.312	0.524
688.500	421.863	79.999	19.995	103.043	19.155	62.594	0.542
689.000	422.136	79.999	19.995	103.042	19.170	61.573	0.544
689.500	422.403	79.998	19.995	103.042	19.179	60.983	0.537
690.000	422.689	79.997	19.996	103.042	19.194	59.947	0.547
690.500	422.961	79.997	19.995	103.044	19.200	59.493	0.555
691.000	423.216	79.999	19.996	103.046	19.211	58.743	0.542
691.500	423.498	80.000	19.996	103.049	19.221	58.084	0.532
692.000	423.778	79.998	19.996	103.051	19.231	57.416	0.549
692.500	424.048	79.997	19.997	103.051	19.240	56.821	0.556
693.000	424.341	79.999	19.995	103.051	19.247	56.290	0.557
693.500	424.629	79.998	19.996	103.050	19.259	55.462	0.572
694.000	424.910	79.999	19.996	103.052	19.267	54.973	0.575
694.500	425.145	79.998	19.996	103.055	19.275	54.410	0.543
695.000	425.417	79.998	19.996	103.057	19.282	53.938	0.512
695.500	425.717	79.997	19.996	103.057	19.289	53.437	0.539
696.000	425.990	79.998	19.995	103.057	19.296	52.961	0.573
696.500	426.233	79.997	19.996	103.054	19.303	52.506	0.544
697.000	426.529	79.998	19.996	103.050	19.309	52.099	0.527
697.500	426.801	79.998	19.996	103.049	19.317	51.528	0.553
698.000	427.080	79.998	19.997	103.048	19.322	51.171	0.559
698.500	427.352	79.998	19.996	103.047	19.326	50.915	0.551
699.000	427.600	79.998	19.996	103.047	19.330	50.639	0.536
699.500	427.883	79.998	19.995	103.051	19.335	50.257	0.525
700.000	428.124	79.997	19.995	103.054	19.340	49.929	0.528
700.500	428.459	79.998	19.995	103.055	19.346	49.534	0.550
701.000	428.678	79.998	19.996	103.055	19.351	49.225	0.565
701.500	428.994	79.997	19.996	103.056	19.354	48.988	0.544
702.000	429.219	79.998	19.995	103.054	19.361	48.482	0.538
702.500	429.500	79.997	19.996	103.055	19.366	48.189	0.524
703.000	429.783	80.000	19.995	103.058	19.369	47.966	0.535
703.500	430.026	79.998	19.996	103.061	19.371	47.833	0.545
704.000	430.318	79.998	19.995	103.060	19.375	47.532	0.531
704.500	430.563	79.998	19.996	103.060	19.375	47.566	0.536
705.000	430.831	79.999	19.995	103.059	19.378	47.321	0.525
705.500	431.110	79.997	19.996	103.061	19.382	47.052	0.530
706.000	431.334	80.000	19.995	103.064	19.386	46.783	0.526
706.500	431.627	79.999	19.997	103.067	19.387	46.725	0.510
707.000	431.908	79.998	19.996	103.069	19.392	46.376	0.545
707.500	432.188	79.999	19.995	103.069	19.393	46.322	0.568
708.000	432.456	79.998	19.996	103.065	19.398	45.991	0.554
708.500	432.719	80.000	19.995	103.067	19.398	45.964	0.539
709.000	432.983	79.999	19.995	103.070	19.399	45.896	0.529
709.500	433.273	79.998	19.995	103.066	19.405	45.478	0.541
710.000	433.537	79.999	19.996	103.062	19.404	45.542	0.554
710.500	433.825	79.999	19.995	103.060	19.406	45.438	0.553
711.000	434.080	79.999	19.995	103.057	19.407	45.340	0.547
711.500	434.319	80.000	19.995	103.056	19.408	45.269	0.518
712.000	434.618	79.999	19.995	103.059	19.408	45.271	0.516
712.500	434.875	79.998	19.996	103.059	19.411	45.097	0.547
713.000	435.129	79.997	19.996	103.057	19.413	44.957	0.533
713.500	435.364	79.998	19.995	103.055	19.409	45.251	0.500
714.000	435.693	79.999	19.996	103.051	19.412	45.041	0.526
714.500	435.955	79.998	19.996	103.044	19.415	44.825	0.577
715.000	436.211	79.998	19.995	103.045	19.418	44.631	0.554
715.500	436.466	79.997	19.996	103.046	19.419	44.527	0.515
716.000	436.756	79.998	19.995	103.042	19.419	44.533	0.528
716.500	436.998	79.999	19.996	103.041	19.420	44.467	0.538
717.000	437.264	79.999	19.997	103.041	19.418	44.592	0.520
717.500	437.525	79.998	19.997	103.039	19.419	44.546	0.518
718.000	437.822	79.997	19.995	103.039	19.421	44.418	0.543
718.500	438.046	79.998	19.995	103.040	19.424	44.177	0.540
719.000	438.328	79.998	19.997	103.041	19.417	44.645	0.513
719.500	438.604	79.998	19.995	103.041	19.421	44.380	0.532
720.000	438.846	79.998	19.995	103.041	19.424	44.169	0.538
720.500	439.126	79.998	19.996	103.042	19.424	44.163	0.521
721.000	439.377	79.996	19.996	103.042	19.425	44.153	0.527
721.500	439.637	79.997	19.996	103.041	19.421	44.383	0.521
722.000	439.908	79.999	19.996	103.042	19.422	44.329	0.521
722.500	440.160	79.998	19.996	103.043	19.423	44.226	0.527
723.000	440.458	79.997	19.996	103.044	19.422	44.311	0.536
723.500	440.700	79.997	19.996	103.046	19.420	44.445	0.545
724.000	440.927	79.998	19.996	103.046	19.424	44.190	0.505
724.500	441.180	79.997	19.996	103.045	19.422	44.320	0.475
725.000	441.466	79.998	19.997	103.044	19.423	44.275	0.509
725.500	441.739	79.996	19.997	103.042	19.422	44.298	0.549
726.000	441.954	79.999	19.996	103.043	19.423	44.285	0.524
726.500	442.213	79.998	19.996	103.043	19.424	44.164	0.481
727.000	442.512	79.999	19.996	103.043	19.424	44.181	0.516
727.500	442.762	79.997	19.996	103.043	19.420	44.451	0.554
728.000	443.024	79.997	19.996	103.043	19.420	44.472	0.531
728.500	443.265	79.997	19.996	103.041	19.419	44.514	0.508
729.000	443.521	79.998	19.996	103.042	19.423	44.261	0.500
729.500	443.803	79.998	19.995	103.044	19.420	44.457	0.517
730.000	444.049	79.996	19.997	103.044	19.420	44.446	0.533
730.500	444.279	79.997	19.996	103.047	19.420	44.498	0.503
731.000	444.587	79.998	19.996	103.047	19.417	44.675	0.508
731.500	444.837	79.998	19.995	103.046	19.418	44.577	0.548
732.000	445.093	79.998	19.996	103.045	19.415	44.783	0.532
732.500	445.366	79.999	19.996	103.044	19.417	44.702	0.517
733.000	445.603	80.000	19.995	103.041	19.415	44.773	0.519
733.500	445.854	79.998	19.995	103.040	19.416	44.706	0.499
734.000	446.137	80.000	19.995	103.040	19.416	44.706	0.511
734.500	446.410	79.999	19.995	103.039	19.414	44.858	0.545
735.000	446.645	79.998	19.995	103.039	19.415	44.826	0.532
735.500	446.911	79.999	19.994	103.039	19.413	44.950	0.504
736.000	447.162	79.998	19.994	103.040	19.414	44.878	0.509
736.500	447.431	80.000	19.994	103.040	19.410	45.148	0.519
737.000	447.674	79.999	19.995	103.040	19.412	45.026	0.516
737.500	447.933	80.000	19.994	103.040	19.411	45.102	0.507
738.000	448.201	79.998	19.995	103.040	19.409	45.195	0.515
738.500	448.454	80.000	19.994	103.040	19.410	45.158	0.524
739.000	448.723	80.000	19.994	103.042	19.407	45.318	0.522
739.500	448.987	79.999	19.994	103.042	19.409	45.233	0.528
740.000	449.228	80.000	19.994	103.042	19.408	45.263	0.519
740.500	449.456	79.999	19.994	103.042	19.408	45.287	0.486
741.000	449.734	79.998	19.994	103.043	19.405	45.484	0.487
741.500	450.000	79.999	19.993	103.040	19.404	45.575	0.525
742.000	450.268	79.998	19.994	103.040	19.404	45.546	0.539
742.500	450.465	79.999	19.995	103.040	19.404	45.542	0.500
743.000	450.729	79.999	19.994	103.040	19.404	45.587	0.463
743.500	451.039	80.000	19.994	103.040	19.404	45.549	0.517
744.000	451.289	79.999	19.994	103.040	19.401	45.761	0.567
744.500	451.567	79.998	19.995	103.040	19.398	45.947	0.544
745.000	451.819	79.999	19.994	103.041	19.399	45.856	0.529
745.500	452.058	79.998	19.995	103.040	19.399	45.861	0.511
746.000	452.282	79.998	19.996	103.039	19.397	46.058	0.477
746.500	452.559	79.999	19.994	103.039	19.398	45.953	0.483
747.000	452.802	79.999	19.995	103.039	19.393	46.283	0.511
747.500	453.078	79.999	19.995	103.039	19.393	46.279	0.519
748.000	453.321	79.997	19.995	103.041	19.395	46.155	0.519
748.500	453.580	79.999	19.995	103.041	19.393	46.309	0.510
749.000	453.862	79.999	19.995	103.041	19.392	46.346	0.521
749.500	454.086	79.999	19.994	103.040	19.392	46.352	0.523
750.000	454.345	79.999	19.995	103.035	19.390	46.510	0.494
750.500	454.583	79.999	19.995	103.035	19.392	46.351	0.490
751.000	454.859	79.999	19.995	103.030	19.389	46.557	0.505
751.500	455.138	79.998	19.995	103.024	19.388	46.629	0.535
752.000	455.356	79.999	19.994	103.023	19.386	46.792	0.526
752.500	455.627	79.999	19.995	103.026	19.385	46.840	0.493
753.000	455.888	79.997	19.995	103.026	19.386	46.777	0.510
753.500	456.152	79.998	19.996	103.029	19.384	46.906	0.529
754.000	456.403	80.000	19.995	103.028	19.385	46.854	0.520
754.500	456.672	80.000	19.996	103.027	19.383	46.969	0.518
755.000	456.918	80.000	19.995	103.025	19.382	47.060	0.517
755.500	457.188	80.001	19.995	103.019	19.382	47.036	0.515
756.000	457.421	80.000	19.994	103.015	19.381	47.115	0.509
756.500	457.708	79.999	19.995	103.016	19.379	47.273	0.511
757.000	457.921	80.000	19.994	103.012	19.382	47.067	0.510
757.500	458.202	80.001	19.996	103.008	19.376	47.431	0.498
758.000	458.446	79.999	19.995	103.009	19.376	47.467	0.509
758.500	458.711	80.001	19.994	103.008	19.374	47.562	0.517
759.000	458.951	80.000	19.994	103.008	19.375	47.513	0.507
759.500	459.252	80.002	19.995	103.011	19.373	47.672	0.523
760.000	459.446	80.000	19.994	103.013	19.371	47.805	0.518
760.500	459.754	80.001	19.995	103.010	19.372	47.739	0.498
761.000	459.997	80.002	19.995	103.010	19.369	47.930	0.526
761.500	460.182	80.003	19.994	103.012	19.369	47.934	0.490
762.000	460.466	80.001	19.994	103.010	19.372	47.708	0.449
762.500	460.755	80.001	19.995	103.006	19.371	47.790	0.521
763.000	460.998	80.001	19.994	103.007	19.372	47.748	0.552
763.500	461.243	80.002	19.995	103.006	19.369	47.940	0.510
764.000	461.491	80.003	19.994	103.001	19.365	48.187	0.490
764.500	461.782	80.003	19.994	102.998	19.367	48.087	0.516
765.000	462.018	80.002	19.993	102.999	19.369	47.900	0.533
765.500	462.265	80.001	19.995	103.000	19.365	48.219	0.505
766.000	462.514	80.002	19.995	103.000	19.366	48.115	0.490
766.500	462.761	80.002	19.994	103.000	19.366	48.161	0.496
767.000	463.020	80.001	19.995	103.000	19.364	48.250	0.501
767.500	463.272	80.001	19.994	102.999	19.366	48.126	0.509
768.000	463.483	80.002	19.995	102.998	19.363	48.370	0.487
768.500	463.795	80.001	19.994	102.999	19.364	48.300	0.493
769.000	464.015	80.000	19.994	102.999	19.363	48.338	0.527
769.500	464.274	79.999	19.994	102.998	19.365	48.205	0.505
770.000	464.525	79.999	19.994	102.998	19.366	48.162	0.495
770.500	464.770	79.999	19.995	102.997	19.363	48.314	0.503
771.000	465.029	80.000	19.995	102.997	19.364	48.242	0.500
771.500	465.259	79.999	19.996	102.997	19.362	48.389	0.496
772.000	465.491	79.999	19.995	102.998	19.361	48.489	0.475
772.500	465.796	79.998	19.995	102.999	19.361	48.494	0.500
773.000	466.061	79.999	19.994	103.000	19.363	48.353	0.554
773.500	466.280	79.999	19.995	103.000	19.362	48.428	0.527
774.000	466.538	80.000	19.995	103.000	19.366	48.135	0.480
774.500	466.773	79.999	19.994	102.999	19.362	48.432	0.485
775.000	467.032	79.999	19.996	103.000	19.364	48.297	0.494
775.500	467.320	79.999	19.995	102.999	19.363	48.313	0.521
776.000	467.568	79.999	19.995	102.999	19.364	48.283	0.541
776.500	467.827	79.999	19.996	102.999	19.363	48.325	0.521
777.000	468.058	80.001	19.995	102.999	19.365	48.170	0.499
777.500	468.291	79.997	19.995	102.995	19.364	48.257	0.477
778.000	468.531	79.998	19.994	102.992	19.364	48.244	0.468
778.500	468.802	79.998	19.995	102.990	19.366	48.103	0.492
779.000	469.046	79.999	19.995	102.987	19.364	48.239	0.513
779.500	469.291	80.000	19.996	102.988	19.367	48.060	0.503
780.000	469.542	79.999	19.995	102.991	19.367	48.039	0.493
780.500	469.835	79.998	19.996	102.993	19.366	48.119	0.520
781.000	470.041	79.998	19.996	102.993	19.368	47.979	0.522
781.500	470.288	79.999	19.995	102.993	19.372	47.711	0.476
782.000	470.572	79.998	19.994	102.992	19.371	47.781	0.492
782.500	470.810	79.999	19.995	102.988	19.375	47.500	0.527
783.000	471.063	79.999	19.995	102.983	19.374	47.569	0.506
783.500	471.322	80.000	19.996	102.983	19.377	47.373	0.502
784.000	471.552	79.999	19.996	102.986	19.380	47.171	0.501
784.500	471.794	79.999	19.995	102.985	19.380	47.191	0.480
785.000	472.046	79.998	19.996	102.989	19.382	47.012	0.483
785.500	472.286	79.998	19.995	102.995	19.386	46.789	0.493
786.000	472.580	79.999	19.995	102.996	19.385	46.853	0.513
786.500	472.810	79.999	19.996	102.993	19.387	46.671	0.529
787.000	473.040	79.999	19.996	102.994	19.389	46.549	0.492
787.500	473.349	80.000	19.996	102.992	19.390	46.456	0.499
788.000	473.560	79.998	19.996	102.987	19.392	46.327	0.529
788.500	473.819	79.999	19.995	102.983	19.398	45.972	0.495
789.000	474.102	79.998	19.995	102.985	19.399	45.886	0.506
789.500	474.378	79.999	19.995	102.984	19.404	45.548	0.550
790.000	474.582	80.000	19.996	102.985	19.408	45.229	0.520
790.500	474.842	79.998	19.995	102.988	19.412	45.011	0.472
791.000	475.131	79.999	19.995	102.989	19.417	44.655	0.506
791.500	475.351	79.999	19.994	102.987	19.424	44.153	0.529
792.000	475.576	79.999	19.995	102.985	19.424	44.200	0.477
792.500	475.869	80.000	19.995	102.984	19.428	43.884	0.482
793.000	476.122	79.999	19.996	102.986	19.435	43.400	0.532
793.500	476.354	79.999	19.996	102.990	19.440	43.068	0.515
794.000	476.626	79.999	19.995	102.992	19.447	42.602	0.494
794.500	476.881	79.998	19.995	102.989	19.450	42.399	0.516
795.000	477.121	79.999	19.995	102.984	19.457	41.894	0.511
795.500	477.377	79.998	19.995	102.977	19.464	41.419	0.496
796.000	477.606	80.000	19.995	102.969	19.473	40.789	0.490
796.500	477.896	79.998	19.996	102.968	19.479	40.405	0.502
797.000	478.134	79.999	19.995	102.972	19.487	39.871	0.524
797.500	478.418	79.998	19.995	102.977	19.493	39.426	0.525
798.000	478.653	79.998	19.995	102.978	19.502	38.839	0.521
798.500	478.913	79.999	19.995	102.981	19.509	38.330	0.507
799.000	479.171	79.998	19.994	102.979	19.517	37.785	0.506
799.500	479.393	79.999	19.994	102.975	19.526	37.178	0.499
800.000	479.659	79.998	19.995	102.971	19.535	36.568	0.484
800.500	479.868	79.999	19.994	102.970	19.547	35.814	0.481
801.000	480.109	79.996	19.995	102.970	19.555	35.239	0.463
801.500	480.414	80.000	19.995	102.975	19.566	34.505	0.499
802.000	480.619	79.999	19.995	102.981	19.576	33.803	0.528
802.500	480.922	79.997	19.994	102.984	19.587	33.042	0.509
803.000	481.146	79.997	19.995	102.988	19.594	32.528	0.517
803.500	481.407	79.999	19.995	102.990	19.606	31.720	0.506
804.000	481.652	79.998	19.996	102.985	19.620	30.769	0.496
804.500	481.910	79.997	19.995	102.985	19.630	30.071	0.505
805.000	482.135	79.997	19.995	102.988	19.641	29.314	0.493
805.500	482.414	79.997	19.994	102.991	19.651	28.681	0.493
806.000	482.671	79.997	19.996	102.991	19.665	27.733	0.520
806.500	482.925	79.998	19.996	102.997	19.677	26.905	0.524
807.000	483.125	79.998	19.996	102.997	19.686	26.254	0.483
807.500	483.405	79.998	19.995	102.984	19.698	25.434	0.467
808.000	483.633	79.997	19.995	102.963	19.710	24.608	0.493
808.501	483.941	79.998	19.996	102.951	19.722	23.790	0.522
809.000	484.139	79.997	19.995	102.945	19.734	23.014	0.521
809.500	484.413	79.998	19.997	102.945	19.747	22.097	0.489
810.000	484.654	79.997	19.996	102.958	19.761	21.154	0.494
810.500	484.913	79.998	19.995	102.989	19.772	20.379	0.507
811.000	485.140	79.997	19.996	103.040	19.782	19.714	0.493
811.500	485.382	79.997	19.996	103.058	19.795	18.841	0.477
812.000	485.671	79.999	19.995	103.059	19.806	18.096	0.500
812.500	485.928	79.998	19.995	103.063	19.815	17.457	0.538
813.000	486.197	80.000	19.995	103.056	19.827	16.600	0.536
813.500	486.420	79.999	19.996	103.026	19.839	15.793	0.509
814.000	486.721	79.998	19.997	103.022	19.847	15.267	0.508
814.500	486.940	79.998	19.997	103.027	19.855	14.687	0.522
815.000	487.200	79.999	19.996	103.030	19.865	14.029	0.500
815.500	487.487	79.998	19.996	103.035	19.876	13.249	0.513
816.000	487.720	79.999	19.995	103.036	19.885	12.643	0.534
816.500	487.998	80.000	19.996	103.038	19.890	12.308	0.516
817.000	488.214	79.998	19.997	103.039	19.898	11.780	0.502
817.500	488.483	79.999	19.996	103.038	19.909	11.049	0.489
818.000	488.746	79.999	19.996	103.040	19.919	10.310	0.508
818.500	489.009	80.001	19.995	103.042	19.928	9.745	0.529
819.000	489.234	79.999	19.995	103.042	19.934	9.330	0.507
819.500	489.538	79.999	19.996	103.042	19.943	8.701	0.509
820.000	489.764	79.999	19.996	103.042	19.948	8.341	0.530
820.500	490.016	80.000	19.995	103.039	19.954	7.964	0.504
821.000	490.286	80.000	19.995	103.038	19.959	7.611	0.500
821.500	490.539	80.000	19.995	103.039	19.965	7.198	0.523
822.000	490.798	80.000	19.995	103.043	19.973	6.607	0.517
822.500	491.044	79.998	19.996	103.046	19.976	6.406	0.508
823.000	491.336	80.001	19.995	103.049	19.983	5.970	0.521
823.500	491.583	79.999	19.995	103.048	19.988	5.592	0.538
824.000	491.821	79.999	19.995	103.049	19.988	5.621	0.512
824.500	492.078	80.000	19.995	103.050	19.996	5.072	0.490
825.000	492.344	80.001	19.994	103.053	20.002	4.628	0.509
825.500	492.617	80.000	19.996	103.057	20.001	4.719	0.531
826.000	492.864	80.000	19.996	103.063	20.007	4.298	0.530
826.500	493.108	79.999	19.995	103.068	20.012	3.964	0.505
827.000	493.375	80.000	19.995	103.070	20.014	3.815	0.501
827.500	493.616	79.999	19.995	103.073	20.017	3.624	0.510
828.000	493.881	79.999	19.995	103.074	20.020	3.413	0.507
828.500	494.117	79.998	19.995	103.074	20.021	3.360	0.503
829.000	494.384	80.000	19.995	103.073	20.023	3.228	0.502
829.500	494.601	80.000	19.995	103.069	20.022	3.264	0.494
830.000	494.913	79.999	19.994	103.068	20.026	3.035	0.507
830.500	495.145	80.000	19.995	103.066	20.029	2.819	0.536
831.000	495.417	79.999	19.995	103.064	20.032	2.634	0.524
831.500	495.690	79.999	19.994	103.066	20.031	2.658	0.524
832.000	495.958	80.001	19.994	103.069	20.032	2.572	0.543
832.500	496.165	79.999	19.996	103.067	20.030	2.753	0.508
833.000	496.470	79.999	19.995	103.066	20.036	2.340	0.493
833.500	496.691	80.000	19.995	103.069	20.036	2.342	0.519
834.000	496.910	80.000	19.996	103.067	20.037	2.266	0.483
834.500	497.211	80.001	19.995	103.067	20.040	2.055	0.480
835.000	497.430	80.000	19.996	103.070	20.039	2.134	0.520
835.500	497.709	79.999	19.995	103.073	20.041	1.992	0.509
836.000	497.957	80.000	19.995	103.073	20.042	1.939	0.513
836.500	498.197	80.000	19.994	103.074	20.041	2.007	0.508
837.000	498.465	80.000	19.995	103.073	20.044	1.777	0.498
837.500	498.763	80.000	19.996	103.071	20.048	1.492	0.537
838.000	498.987	80.000	19.995	103.070	20.047	1.604	0.544
838.500	499.223	80.000	19.995	103.068	20.048	1.506	0.491
839.000	499.539	80.001	19.994	103.063	20.047	1.545	0.506
839.500	499.711	80.001	19.994	103.065	20.044	1.792	0.520
840.000	500.009	80.001	19.996	103.066	20.045	1.683	0.479
840.500	500.270	80.001	19.996	103.060	20.050	1.373	0.514
841.000	500.506	80.000	19.995	103.059	20.045	1.683	0.528
841.500	500.802	80.001	19.995	103.062	20.049	1.445	0.514
842.000	501.069	80.003	19.995	103.060	20.050	1.392	0.547
842.500	501.301	80.001	19.994	103.059	20.049	1.441	0.531
843.000	501.588	80.001	19.995	103.065	20.048	1.515	0.509
843.500	501.805	80.003	19.995	103.067	20.051	1.319	0.512
844.000	502.038	80.001	19.995	103.068	20.048	1.485	0.477
844.500	502.332	80.002	19.995	103.071	20.050	1.400	0.489
845.000	502.584	80.001	19.995	103.073	20.050	1.402	0.536
845.500	502.794	80.001	19.995	103.073	20.049	1.472	0.504
846.000	503.119	80.001	19.995	103.070	20.060	0.708	0.499
846.500	503.332	80.002	19.995	103.065	20.043	1.828	0.537
847.000	503.643	80.001	19.995	103.060	20.044	1.813	0.531
847.500	503.830	80.001	19.995	103.058	20.047	1.607	0.511
848.000	504.067	80.001	19.995	103.059	20.045	1.717	0.461
848.500	504.301	80.000	19.995	103.063	20.049	1.441	0.448
849.000	504.703	80.000	19.995	103.068	20.051	1.311	0.554
849.500	504.831	80.000	19.995	103.072	20.044	1.779	0.583
850.000	505.120	79.999	19.995	103.071	20.060	0.706	0.474
850.500	505.427	79.999	19.995	103.066	20.052	1.226	0.507
851.000	505.667	80.000	19.996	103.064	20.062	0.553	0.571
851.500	505.919	80.000	19.994	103.064	20.054	1.085	0.519
852.000	506.150	79.998	19.995	103.065	20.051	1.298	0.488
852.500	506.334	79.998	19.995	103.068	20.055	1.021	0.449
853.000	506.760	79.997	19.995	103.069	20.057	0.919	0.512
853.500	506.900	79.999	19.995	103.068	20.057	0.896	0.588
854.000	507.098	79.999	19.994	103.067	20.054	1.066	0.452
854.500	507.488	79.997	19.995	103.067	20.056	0.994	0.463
855.000	507.555	79.997	19.994	103.069	20.058	0.830	0.522
855.500	507.975	79.998	19.995	103.072	20.051	1.289	0.472
856.000	508.183	79.998	19.995	103.076	20.057	0.917	0.558
856.500	508.425	79.998	19.994	103.077	20.056	0.962	0.539
857.000	508.610	79.999	19.995	103.071	20.053	1.138	0.438
857.500	508.977	79.998	19.994	103.068	20.057	0.909	0.489
858.000	509.261	79.998	19.995	103.064	20.057	0.887	0.602
858.500	509.396	79.998	19.994	103.061	20.056	0.953	0.535
859.000	510.054	79.998	19.995	103.060	20.057	0.915	0.606
859.500	509.917	79.999	19.994	103.064	20.055	1.026	0.658
860.001	510.365	79.998	19.994	103.068	20.056	0.962	0.417
860.500	509.951	79.998	19.995	103.072	20.058	0.853	0.172
861.000	510.233	79.997	19.994	103.075	20.055	1.006	-0.049
861.500	510.554	79.998	19.993	103.076	20.058	0.843	0.235
862.000	511.117	79.999	19.994	103.077	20.054	1.132	0.743
862.500	511.618	80.000	19.994	103.076	20.056	0.930	0.974
863.000	512.043	79.998	19.994	103.075	20.058	0.791	0.995
863.500	511.809	79.998	19.994	103.074	20.054	1.109	0.558
864.000	512.196	79.998	19.995	103.075	20.059	0.781	0.172
864.500	512.562	79.998	19.994	103.075	20.056	0.977	0.453
865.000	512.921	79.997	19.995	103.075	20.053	1.149	0.739
865.500	512.971	79.999	19.993	103.075	20.057	0.889	0.567
866.000	513.207	79.998	19.994	103.075	20.058	0.808	0.348
866.500	513.641	79.999	19.996	103.074	20.054	1.070	0.478
867.000	513.817	79.999	19.995	103.075	20.057	0.919	0.640
867.500	514.088	79.999	19.995	103.075	20.058	0.798	0.529
868.000	514.248	79.998	19.994	103.077	20.057	0.872	0.439
868.500	514.503	79.999	19.994	103.078	20.057	0.923	0.423
869.000	514.949	79.998	19.994	103.079	20.058	0.821	0.558
869.500	515.187	79.999	19.995	103.079	20.056	0.947	0.692
870.000	515.283	79.999	19.995	103.079	20.058	0.792	0.509
870.500	515.738	79.998	19.995	103.076	20.059	0.736	0.443
871.000	515.769	80.000	19.994	103.075	20.058	0.794	0.519
871.500	516.135	79.999	19.995	103.073	20.059	0.764	0.441
872.000	516.359	79.999	19.995	103.072	20.060	0.700	0.493
872.500	516.670	79.996	19.996	103.072	20.060	0.700	0.562
873.000	516.932	79.998	19.996	103.074	20.056	0.989	0.554
873.500	517.145	79.998	19.996	103.074	20.059	0.728	0.525
874.000	517.465	79.999	19.995	103.074	20.058	0.811	0.504
874.500	517.723	79.999	19.996	103.074	20.059	0.723	0.555
875.000	517.934	79.997	19.996	103.073	20.060	0.660	0.523
875.500	518.200	79.999	19.996	103.074	20.059	0.787	0.473
876.000	518.405	79.998	19.995	103.074	20.060	0.658	0.474
876.500	518.677	79.997	19.996	103.073	20.059	0.730	0.474
877.000	518.983	80.000	19.995	103.074	20.061	0.641	0.528
877.500	519.113	79.999	19.995	103.074	20.060	0.715	0.507
878.000	519.528	79.999	19.996	103.074	20.058	0.790	0.490
878.500	519.718	79.998	19.996	103.075	20.059	0.732	0.575
879.000	519.969	79.998	19.995	103.078	20.061	0.630	0.523
879.500	520.189	79.997	19.997	103.076	20.057	0.877	0.456
880.000	520.484	79.999	19.996	103.077	20.058	0.819	0.493
880.500	520.686	79.997	19.996	103.077	20.059	0.783	0.506
881.000	520.999	79.997	19.996	103.072	20.060	0.658	0.506
881.500	521.284	79.997	19.997	103.069	20.061	0.626	0.557
882.000	521.445	80.000	19.996	103.067	20.058	0.807	0.522
882.500	521.768	79.998	19.996	103.063	20.059	0.723	0.465
883.000	521.959	79.998	19.996	103.059	20.060	0.668	0.499
883.500	522.237	79.997	19.997	103.061	20.059	0.753	0.492
884.000	522.494	79.999	19.996	103.059	20.060	0.657	0.502
884.500	522.740	79.999	19.995	103.057	20.061	0.653	0.519
885.000	522.980	79.998	19.997	103.058	20.062	0.570	0.494
885.500	523.300	79.999	19.996	103.058	20.061	0.623	0.523
886.000	523.511	79.998	19.996	103.057	20.059	0.764	0.546
886.500	523.830	79.998	19.996	103.058	20.064	0.445	0.530
887.000	523.971	80.000	19.996	103.061	20.062	0.560	0.495
887.500	524.256	79.999	19.996	103.061	20.062	0.577	0.444
888.000	524.493	79.998	19.996	103.062	20.063	0.502	0.474
888.500	524.706	79.997	19.995	103.058	20.060	0.668	0.486
889.000	525.018	79.998	19.995	103.059	20.062	0.541	0.487
889.500	525.232	79.999	19.995	103.056	20.061	0.611	0.525
890.000	525.477	79.999	19.995	103.054	20.059	0.760	0.492
890.500	525.722	79.998	19.995	103.049	20.062	0.568	0.475
891.000	525.966	80.000	19.995	103.049	20.060	0.662	0.490
891.500	526.243	79.998	19.995	103.046	20.060	0.683	0.505
892.000	526.476	79.999	19.996	103.046	20.061	0.628	0.515
892.500	526.691	79.999	19.996	103.051	20.061	0.587	0.479
893.000	526.975	79.998	19.997	103.057	20.062	0.551	0.473
893.500	527.164	79.999	19.995	103.062	20.062	0.523	0.486
894.000	527.443	79.999	19.996	103.068	20.064	0.434	0.471
894.500	527.682	80.000	19.996	103.073	20.064	0.381	0.492
895.000	527.896	80.000	19.996	103.071	20.063	0.509	0.485
895.500	528.182	79.999	19.997	103.065	20.066	0.291	0.477
896.000	528.427	80.000	19.995	103.062	20.061	0.626	0.515
896.500	528.678	80.001	19.995	103.057	20.063	0.451	0.513
897.000	528.912	80.000	19.995	103.051	20.066	0.308	0.491
897.500	529.161	79.999	19.996	103.048	20.064	0.421	0.484
898.000	529.402	79.999	19.996	103.054	20.064	0.419	0.486
898.500	529.654	79.999	19.996	103.058	20.062	0.517	0.492
899.000	529.895	79.999	19.995	103.059	20.062	0.575	0.493
899.500	530.107	80.001	19.996	103.063	20.063	0.453	0.472
900.000	530.383	80.001	19.996	103.067	20.061	0.621	0.470
900.500	530.613	80.001	19.996	103.066	20.063	0.483	0.498
901.000	530.872	79.999	19.995	103.065	20.060	0.689	0.498
901.500	531.157	80.000	19.997	103.066	20.062	0.523	0.516
902.000	531.358	80.000	19.996	103.063	20.061	0.607	0.515
902.500	531.633	80.000	19.996	103.060	20.060	0.655	0.481
903.000	531.849	80.000	19.996	103.062	20.062	0.517	0.483
903.500	532.147	79.999	19.997	103.063	20.063	0.466	0.503
904.000	532.377	80.002	19.996	103.064	20.058	0.845	0.521
904.500	532.577	79.999	19.996	103.070	20.064	0.408	0.479
905.000	532.869	79.999	19.996	103.073	20.061	0.598	0.461
905.500	533.114	79.999	19.996	103.068	20.062	0.570	0.515
906.000	533.343	80.000	19.996	103.066	20.061	0.606	0.506
906.500	533.614	79.999	19.997	103.060	20.062	0.547	0.487
907.000	533.858	80.000	19.997	103.058	20.060	0.677	0.507
907.500	534.165	79.999	19.996	103.054	20.062	0.562	0.533
908.000	534.376	80.001	19.996	103.057	20.062	0.568	0.535
908.500	534.650	80.000	19.996	103.059	20.062	0.525	0.502
909.000	534.877	79.998	19.997	103.064	20.064	0.436	0.492
909.500	535.148	79.998	19.996	103.066	20.060	0.664	0.499
910.000	535.403	79.999	19.996	103.070	20.063	0.489	0.512
910.500	535.633	79.999	19.996	103.072	20.060	0.717	0.506
911.000	535.891	79.999	19.996	103.072	20.061	0.653	0.487
911.500	536.173	80.000	19.996	103.073	20.063	0.494	0.514
912.000	536.372	80.000	19.996	103.069	20.063	0.494	0.510
912.500	536.672	79.998	19.995	103.063	20.066	0.262	0.490
913.000	536.883	80.000	19.996	103.062	20.063	0.506	0.505
913.500	537.145	80.001	19.995	103.059	20.064	0.400	0.492
914.000	537.391	80.001	19.995	103.059	20.062	0.553	0.491
914.500	537.626	79.999	19.996	103.064	20.064	0.389	0.495
915.000	537.889	80.000	19.996	103.069	20.062	0.545	0.490
915.500	538.134	80.002	19.996	103.069	20.064	0.432	0.503
916.000	538.394	80.000	19.994	103.070	20.064	0.402	0.506
916.500	538.645	80.001	19.995	103.069	20.064	0.391	0.508
917.000	538.858	80.001	19.994	103.068	20.066	0.298	0.487
917.500	539.164	80.000	19.995	103.069	20.062	0.519	0.492
918.000	539.366	80.001	19.995	103.071	20.063	0.506	0.514
918.500	539.638	80.002	19.995	103.071	20.062	0.521	0.491
919.000	539.921	80.000	19.994	103.074	20.064	0.402	0.514
919.500	540.167	80.000	19.994	103.071	20.065	0.332	0.542
920.000	540.404	80.002	19.995	103.071	20.065	0.368	0.506
920.500	540.629	80.001	19.994	103.070	20.067	0.181	0.472
921.000	540.903	80.002	19.994	103.071	20.065	0.328	0.481
921.500	541.128	80.001	19.994	103.071	20.064	0.387	0.499
922.000	541.386	80.001	19.995	103.071	20.066	0.289	0.491
922.500	541.696	80.001	19.993	103.070	20.064	0.436	0.525
923.000	541.907	80.003	19.994	103.070	20.065	0.374	0.545
923.500	542.156	80.000	19.994	103.069	20.065	0.345	0.491
924.000	542.422	80.000	19.995	103.066	20.066	0.249	0.487
924.500	542.676	80.001	19.995	103.067	20.066	0.264	0.517
925.000	542.917	80.001	19.994	103.069	20.065	0.321	0.507
925.500	543.151	80.000	19.994	103.069	20.062	0.540	0.485
926.000	543.405	80.001	19.995	103.070	20.065	0.370	0.482
926.500	543.682	80.001	19.995	103.074	20.063	0.500	0.509
927.000	543.928	80.001	19.995	103.075	20.064	0.419	0.527
927.500	544.218	80.001	19.994	103.075	20.065	0.359	0.530
928.000	544.418	80.000	19.994	103.075	20.063	0.502	0.513
928.500	544.644	80.001	19.994	103.075	20.066	0.283	0.458
929.000	544.912	80.000	19.994	103.073	20.065	0.342	0.460
929.500	545.142	80.000	19.994	103.074	20.064	0.438	0.496
930.000	545.437	80.000	19.994	103.072	20.063	0.487	0.512
930.500	545.688	79.999	19.995	103.071	20.066	0.292	0.536
931.000	545.900	79.998	19.994	103.071	20.065	0.351	0.505
931.500	546.153	80.000	19.995	103.072	20.064	0.428	0.464
932.000	546.458	79.998	19.996	103.071	20.062	0.534	0.511
932.500	546.691	79.998	19.996	103.071	20.062	0.521	0.548
933.000	546.904	79.999	19.995	103.072	20.065	0.334	0.492
933.500	547.198	79.998	19.995	103.069	20.064	0.434	0.477
934.000	547.442	79.998	19.996	103.071	20.064	0.438	0.522
934.500	547.731	79.998	19.995	103.068	20.061	0.651	0.535
935.000	547.972	79.996	19.996	103.071	20.063	0.474	0.531
935.500	548.217	79.999	19.995	103.072	20.065	0.334	0.508
936.000	548.454	79.999	19.995	103.075	20.065	0.364	0.484
936.500	548.663	79.999	19.995	103.076	20.069	0.104	0.464
937.000	548.957	79.998	19.995	103.078	20.065	0.336	0.474
937.500	549.210	79.998	19.994	103.078	20.063	0.494	0.525
938.000	549.473	79.998	19.995	103.077	20.061	0.596	0.532
938.500	549.713	79.998	19.995	103.078	20.063	0.475	0.510
939.000	549.955	79.998	19.995	103.078	20.063	0.494	0.492
939.500	550.199	79.997	19.995	103.078	20.064	0.400	0.484
940.000	550.468	79.998	19.996	103.078	20.067	0.221	0.500
940.500	550.734	79.999	19.994	103.079	20.065	0.351	0.524
941.000	550.931	79.998	19.995	103.074	20.066	0.298	0.499
941.500	551.215	79.999	19.995	103.074	20.063	0.472	0.472
942.000	551.453	79.998	19.995	103.074	20.066	0.292	0.502
942.500	551.757	79.999	19.995	103.075	20.066	0.292	0.532
943.000	551.964	79.998	19.996	103.075	20.064	0.445	0.526
943.500	552.209	80.000	19.995	103.078	20.066	0.268	0.481
944.000	552.464	79.998	19.995	103.077	20.065	0.375	0.476
944.500	552.726	79.999	19.995	103.074	20.064	0.406	0.509
945.000	552.997	80.000	19.995	103.072	20.066	0.292	0.525
945.500	553.236	79.999	19.996	103.071	20.065	0.323	0.521
946.000	553.468	80.000	19.995	103.068	20.063	0.491	0.490
946.500	553.741	79.999	19.995	103.066	20.062	0.540	0.488
947.000	553.962	80.000	19.996	103.068	20.067	0.204	0.500
947.500	554.283	80.000	19.995	103.068	20.064	0.406	0.518
948.000	554.480	79.998	19.996	103.066	20.066	0.294	0.530
948.500	554.755	79.999	19.995	103.069	20.063	0.472	0.494
949.000	555.009	79.999	19.995	103.071	20.068	0.162	0.500
949.500	555.286	80.000	19.995	103.071	20.067	0.225	0.531
950.000	555.531	79.999	19.994	103.070	20.064	0.411	0.527
950.500	555.761	80.001	19.995	103.072	20.066	0.262	0.499
951.000	556.000	80.000	19.996	103.070	20.062	0.534	0.472
951.500	556.302	79.999	19.995	103.070	20.062	0.572	0.505
952.000	556.523	80.001	19.994	103.071	20.062	0.530	0.532
952.500	556.749	79.999	19.997	103.073	20.063	0.513	0.485
953.000	557.002	79.998	19.995	103.073	20.063	0.472	0.463
953.500	557.245	79.998	19.995	103.073	20.063	0.487	0.487
954.000	557.503	79.999	19.995	103.071	20.065	0.319	0.498
954.500	557.752	80.000	19.995	103.069	20.067	0.230	0.504
955.000	558.050	79.998	19.995	103.067	20.063	0.477	0.528
955.500	558.269	79.999	19.996	103.067	20.066	0.277	0.532
956.000	558.526	79.999	19.995	103.069	20.065	0.379	0.496
956.500	558.796	79.997	19.995	103.071	20.065	0.347	0.501
957.000	559.026	79.998	19.995	103.072	20.064	0.447	0.514
957.500	559.249	79.999	19.995	103.073	20.062	0.538	0.476
958.000	559.554	80.000	19.995	103.073	20.062	0.528	0.490
958.500	559.754	79.999	19.996	103.073	20.064	0.445	0.516
959.000	560.012	79.999	19.994	103.072	20.064	0.432	0.482
959.500	560.238	79.999	19.995	103.072	20.062	0.566	0.472
960.000	560.543	79.998	19.995	103.068	20.065	0.341	0.508
960.500	560.773	79.999	19.995	103.067	20.066	0.266	0.533
961.000	561.037	79.999	19.995	103.066	20.065	0.370	0.514
961.500	561.242	79.999	19.996	103.068	20.063	0.494	0.481
962.000	561.553	79.997	19.995	103.070	20.065	0.315	0.492
962.500	561.790	79.999	19.995	103.073	20.064	0.438	0.532
963.000	562.050	79.998	19.995	103.074	20.063	0.487	0.523
963.500	562.304	79.999	19.995	103.075	20.066	0.281	0.506
964.000	562.540	79.998	19.996	103.075	20.065	0.347	0.502
964.500	562.787	79.998	19.996	103.075	20.062	0.523	0.486
965.000	563.035	79.997	19.996	103.076	20.062	0.525	0.489
965.500	563.273	79.997	19.995	103.077	20.064	0.443	0.490
966.000	563.542	79.996	19.997	103.077	20.064	0.385	0.496
966.500	563.758	79.999	19.995	103.076	20.065	0.362	0.496
967.000	564.012	79.997	19.996	103.076	20.064	0.443	0.477
967.500	564.250	79.998	19.996	103.076	20.063	0.506	0.481
968.000	564.512	79.998	19.997	103.076	20.062	0.540	0.496
968.500	564.763	79.999	19.996	103.076	20.063	0.498	0.506
969.000	565.012	79.999	19.996	103.077	20.062	0.532	0.507
969.500	565.269	79.998	19.996	103.076	20.064	0.419	0.503
970.000	565.486	79.998	19.996	103.074	20.062	0.519	0.490
970.500	565.759	79.998	19.996	103.068	20.064	0.411	0.482
971.000	566.009	80.000	19.996	103.065	20.067	0.181	0.507
971.500	566.251	79.997	19.997	103.065	20.064	0.421	0.508
972.000	566.506	79.999	19.995	103.065	20.065	0.349	0.494
972.500	566.786	79.999	19.997	103.067	20.064	0.425	0.516
973.000	567.007	80.000	19.995	103.073	20.064	0.434	0.518
973.500	567.257	79.999	19.997	103.076	20.064	0.406	0.486
974.000	567.509	79.998	19.994	103.071	20.066	0.274	0.486
974.500	567.718	79.999	19.995	103.070	20.066	0.279	0.481
975.000	568.009	79.999	19.995	103.069	20.065	0.370	0.481
975.500	568.221	80.001	19.996	103.070	20.063	0.487	0.502
976.000	568.489	80.000	19.996	103.068	20.065	0.349	0.492
976.500	568.765	79.999	19.996	103.073	20.064	0.426	0.512
977.000	569.002	80.002	19.996	103.071	20.064	0.425	0.528
977.500	569.238	79.999	19.995	103.069	20.067	0.225	0.493
978.000	569.495	80.001	19.994	103.068	20.065	0.330	0.483
978.500	569.737	80.000	19.995	103.070	20.066	0.298	0.495
979.000	570.008	80.000	19.995	103.069	20.063	0.474	0.506
979.500	570.207	80.000	19.995	103.070	20.065	0.345	0.492
980.000	570.501	80.000	19.995	103.074	20.064	0.392	0.482
980.500	570.731	80.000	19.995	103.075	20.065	0.328	0.508
981.000	570.951	79.999	19.996	103.074	20.063	0.470	0.487
981.500	571.219	79.998	19.995	103.075	20.064	0.434	0.469
982.000	571.458	79.999	19.995	103.074	20.062	0.540	0.498
982.500	571.714	79.998	19.995	103.074	20.063	0.457	0.501
983.000	571.976	79.999	19.994	103.074	20.063	0.500	0.506
983.500	572.217	79.998	19.995	103.075	20.063	0.453	0.510
984.000	572.482	79.999	19.995	103.076	20.063	0.468	0.504
984.500	572.698	79.998	19.995	103.077	20.063	0.509	0.494
985.000	573.013	79.999	19.995	103.077	20.065	0.366	0.506
985.500	573.210	79.998	19.995	103.076	20.063	0.485	0.521
986.000	573.504	79.998	19.997	103.076	20.063	0.509	0.502
986.500	573.762	79.999	19.996	103.076	20.066	0.287	0.522
987.000	574.017	79.999	19.995	103.077	20.062	0.517	0.533
987.500	574.309	79.998	19.996	103.078	20.060	0.664	0.530
988.000	574.558	80.000	19.995	103.078	20.064	0.417	0.544
988.500	574.830	79.998	19.996	103.078	20.061	0.608	0.531
989.000	575.089	79.998	19.995	103.078	20.060	0.670	0.527
989.500	575.334	79.998	19.997	103.078	20.062	0.528	0.518
990.000	575.604	79.998	19.996	103.078	20.061	0.638	0.509
990.500	575.844	79.997	19.996	103.078	20.061	0.591	0.512
991.000	576.131	79.998	19.996	103.077	20.060	0.717	0.518
991.500	576.358	79.999	19.996	103.077	20.061	0.602	0.520
992.000	576.591	79.998	19.997	103.077	20.059	0.742	0.487
992.500	576.887	79.998	19.996	103.077	20.060	0.672	0.495
993.000	577.160	79.998	19.996	103.077	20.063	0.492	0.549
993.500	577.418	79.998	19.997	103.077	20.062	0.545	0.550
994.000	577.672	79.998	19.996	103.077	20.060	0.694	0.522
994.500	577.938	79.998	19.996	103.077	20.061	0.626	0.516
995.000	578.185	79.998	19.997	103.077	20.061	0.638	0.517
995.500	578.467	79.997	19.997	103.078	20.061	0.621	0.522
996.000	578.709	79.999	19.995	103.078	20.060	0.700	0.527
996.500	578.974	79.999	19.997	103.077	20.060	0.677	0.515
997.000	579.204	79.999	19.996	103.077	20.058	0.843	0.501
997.500	579.499	79.998	19.995	103.077	20.061	0.638	0.510
998.000	579.778	79.998	19.995	103.077	20.059	0.760	0.550
998.500	580.066	79.998	19.996	103.077	20.059	0.772	0.571
999.000	580.305	79.998	19.995	103.077	20.058	0.847	0.547
999.500	580.577	79.999	19.995	103.077	20.058	0.804	0.519
1000.000	580.825	80.000	19.995	103.077	20.060	0.708	0.515
1000.500	581.094	80.000	19.996	103.077	20.062	0.560	0.518
1001.000	581.360	80.000	19.995	103.076	20.060	0.668	0.526
1001.500	581.643	80.000	19.995	103.076	20.059	0.723	0.542
1002.000	581.891	79.999	19.995	103.075	20.059	0.759	0.540
1002.500	582.165	80.000	19.996	103.075	20.056	0.940	0.527
1003.000	582.396	80.000	19.996	103.074	20.057	0.864	0.514
1003.500	582.702	80.001	19.994	103.075	20.060	0.683	0.521
1004.000	582.957	80.001	19.995	103.074	20.057	0.883	0.549
1004.500	583.180	80.000	19.996	103.075	20.061	0.626	0.520
1005.000	583.486	79.999	19.994	103.075	20.062	0.528	0.503
1005.500	583.731	79.999	19.995	103.075	20.059	0.725	0.540
1006.000	584.011	80.001	19.995	103.075	20.063	0.506	0.538
1006.500	584.273	80.001	19.996	103.077	20.061	0.634	0.533
1007.000	584.539	80.000	19.993	103.077	20.061	0.594	0.535
1007.500	584.829	80.001	19.995	103.077	20.063	0.475	0.542
1008.000	585.045	79.999	19.996	103.077	20.066	0.304	0.531
1008.500	585.392	79.999	19.995	103.076	20.062	0.528	0.535
1009.000	585.618	79.999	19.995	103.075	20.062	0.523	0.568
1009.500	585.895	79.999	19.995	103.075	20.060	0.692	0.538
1010.000	586.146	79.998	19.994	103.077	20.061	0.621	0.515
1010.500	586.390	79.999	19.994	103.078	20.057	0.908	0.512
1011.000	586.691	79.998	19.994	103.079	20.060	0.717	0.520
1011.500	586.992	79.998	19.994	103.079	20.062	0.560	0.573
1012.000	587.230	79.997	19.995	103.079	20.060	0.672	0.571
1012.500	587.505	79.999	19.994	103.077	20.060	0.668	0.526
1013.000	587.778	79.998	19.994	103.075	20.062	0.549	0.530
1013.500	588.043	79.997	19.996	103.076	20.058	0.857	0.543
1014.000	588.306	79.998	19.995	103.076	20.059	0.766	0.534
1014.500	588.631	79.998	19.995	103.076	20.058	0.836	0.558
1015.000	588.868	79.999	19.996	103.077	20.059	0.768	0.575
1015.500	589.126	79.999	19.995	103.077	20.060	0.689	0.528
1016.000	589.415	79.998	19.995	103.076	20.061	0.642	0.521
1016.500	589.642	79.998	19.995	103.076	20.060	0.685	0.531
1017.000	589.925	80.000	19.995	103.076	20.062	0.517	0.513
1017.500	590.174	79.999	19.996	103.076	20.061	0.604	0.522
1018.000	590.486	79.998	19.995	103.076	20.060	0.711	0.547
1018.500	590.757	79.999	19.995	103.077	20.062	0.526	0.572
1019.000	591.067	79.999	19.995	103.077	20.061	0.628	0.582
1019.500	591.285	79.998	19.994	103.077	20.061	0.602	0.555
1020.000	591.610	79.999	19.995	103.077	20.061	0.609	0.535
1020.500	591.849	79.999	19.995	103.077	20.063	0.513	0.553
1021.000	592.135	79.999	19.995	103.077	20.065	0.342	0.544
1021.500	592.399	79.997	19.995	103.076	20.064	0.415	0.538
1022.000	592.670	79.998	19.996	103.075	20.064	0.394	0.543
1022.500	592.951	79.997	19.995	103.076	20.062	0.570	0.543
1023.000	593.226	79.999	19.995	103.077	20.066	0.304	0.554
1023.500	593.484	79.999	19.995	103.079	20.063	0.460	0.545
1024.000	593.760	79.999	19.995	103.081	20.067	0.242	0.533
1024.500	594.008	79.999	19.996	103.081	20.064	0.436	0.529
1025.000	594.309	80.000	19.995	103.082	20.062	0.536	0.537
1025.500	594.566	79.998	19.997	103.080	20.065	0.360	0.554
1026.000	594.862	79.999	19.995	103.078	20.065	0.328	0.555
1026.500	595.110	79.999	19.995	103.077	20.060	0.685	0.549
1027.000	595.362	79.998	19.996	103.078	20.062	0.576	0.522
1027.500	595.675	79.999	19.996	103.079	20.062	0.562	0.532
1028.000	595.955	79.997	19.995	103.081	20.059	0.774	0.579
1028.500	596.210	79.998	19.995	103.081	20.059	0.726	0.564
1029.000	596.480	79.999	19.995	103.081	20.063	0.506	0.530
1029.500	596.767	79.997	19.995	103.080	20.064	0.381	0.542
1030.000	597.029	79.998	19.996	103.078	20.064	0.442	0.553
1030.500	597.299	79.999	19.995	103.076	20.064	0.404	0.540
1031.000	597.555	79.999	19.995	103.076	20.063	0.515	0.529
1031.501	597.864	79.999	19.995	103.076	20.059	0.762	0.546
1032.001	598.099	79.999	19.995	103.077	20.061	0.594	0.554
1032.500	598.407	79.999	19.996	103.078	20.059	0.723	0.543
1033.000	598.645	80.000	19.995	103.080	20.061	0.638	0.544
1033.500	598.917	79.999	19.996	103.081	20.060	0.668	0.528
1034.000	599.204	79.999	19.995	103.082	20.062	0.572	0.535
1034.500	599.474	79.998	19.996	103.081	20.063	0.474	0.558
1035.000	599.713	79.999	19.995	103.081	20.061	0.642	0.533
1035.500	600.000	80.000	19.995	103.079	20.059	0.776	0.518
1036.000	600.288	79.999	19.997	103.077	20.056	0.979	0.551
1036.500	600.555	79.999	19.995	103.077	20.060	0.717	0.564
1037.000	600.809	79.998	19.995	103.078	20.059	0.749	0.538
1037.500	601.071	80.000	19.995	103.080	20.059	0.753	0.519
1038.000	601.333	79.998	19.996	103.080	20.059	0.777	0.520
1038.500	601.613	79.998	19.995	103.080	20.058	0.853	0.533
1039.000	601.881	79.999	19.995	103.081	20.060	0.706	0.545
1039.500	602.145	79.999	19.994	103.080	20.059	0.774	0.541
1040.000	602.356	79.999	19.994	103.078	20.062	0.549	0.504
1040.500	602.626	79.998	19.994	103.079	20.059	0.727	0.478
1041.001	602.885	79.998	19.994	103.079	20.056	0.993	0.505
1041.501	603.160	79.998	19.995	103.079	20.058	0.796	0.532
1042.000	603.412	79.999	19.995	103.079	20.061	0.615	0.531
1042.500	603.668	79.998	19.994	103.079	20.058	0.842	0.517
1043.000	603.939	79.998	19.995	103.079	20.060	0.672	0.518
1043.500	604.212	79.999	19.995	103.079	20.058	0.806	0.536
1044.000	604.475	79.998	19.995	103.079	20.059	0.723	0.540
1044.500	604.739	79.998	19.996	103.079	20.058	0.819	0.532
1045.000	605.043	79.997	19.994	103.079	20.061	0.653	0.548
1045.500	605.276	79.998	19.995	103.080	20.061	0.636	0.552
1046.000	605.521	79.997	19.996	103.081	20.062	0.585	0.507
1046.500	605.782	79.999	19.995	103.082	20.061	0.609	0.492
1047.000	606.055	79.997	19.995	103.084	20.060	0.717	0.521
1047.500	606.300	79.998	19.995	103.084	20.056	0.932	0.526
1048.000	606.579	79.998	19.995	103.084	20.061	0.621	0.521
1048.500	606.840	79.998	19.996	103.083	20.059	0.776	0.532
1049.001	607.084	79.999	19.994	103.083	20.057	0.921	0.523
1049.501	607.357	79.998	19.996	103.083	20.062	0.570	0.511
1050.000	607.619	79.998	19.995	103.085	20.059	0.734	0.526
1050.500	607.868	79.998	19.996	103.085	20.060	0.683	0.523
1051.000	608.147	80.000	19.995	103.086	20.059	0.742	0.519
1051.500	608.397	79.998	19.995	103.084	20.061	0.638	0.529
1052.000	608.669	80.000	19.996	103.086	20.058	0.791	0.526
1052.500	608.920	79.999	19.994	103.087	20.061	0.617	0.522
1053.000	609.203	79.999	19.994	103.088	20.059	0.757	0.528
1053.500	609.456	79.999	19.996	103.088	20.058	0.855	0.535
1054.000	609.703	79.998	19.995	103.089	20.061	0.625	0.519
1054.500	609.949	79.999	19.996	103.086	20.057	0.876	0.496
1055.000	610.216	79.998	19.995	103.083	20.057	0.923	0.503
1055.500	610.502	79.999	19.996	103.083	20.059	0.753	0.533
1056.000	610.768	80.000	19.995	103.081	20.058	0.836	0.553
1056.500	611.039	79.999	19.995	103.080	20.059	0.785	0.544
1057.000	611.253	79.999	19.995	103.080	20.058	0.806	0.511
1057.500	611.545	79.999	19.996	103.077	20.060	0.710	0.496
1058.000	611.794	80.000	19.996	103.079	20.060	0.655	0.523
1058.501	612.067	79.998	19.995	103.079	20.059	0.738	0.531
1059.001	612.299	80.000	19.995	103.083	20.057	0.878	0.513
1059.501	612.573	79.999	19.995	103.087	20.060	0.719	0.505
1060.001	612.844	79.998	19.995	103.089	20.056	0.930	0.526
1060.500	613.106	79.998	19.995	103.087	20.057	0.868	0.539
1061.000	613.362	80.000	19.995	103.087	20.057	0.908	0.525
1061.500	613.592	79.999	19.995	103.086	20.060	0.708	0.502
1062.000	613.906	80.001	19.996	103.082	20.060	0.666	0.516
1062.500	614.134	80.000	19.996	103.083	20.056	0.968	0.543
1063.000	614.410	80.000	19.994	103.086	20.059	0.747	0.523
1063.500	614.627	80.000	19.995	103.090	20.059	0.783	0.498
1064.000	614.907	79.999	19.995	103.088	20.059	0.774	0.495
1064.500	615.228	79.999	19.995	103.089	20.059	0.772	0.549
1065.000	615.457	79.999	19.995	103.088	20.059	0.762	0.575
1065.500	615.701	80.000	19.995	103.085	20.058	0.842	0.511
1066.000	615.961	79.998	19.995	103.081	20.063	0.496	0.489
1066.500	616.231	79.998	19.995	103.080	20.059	0.789	0.517
1067.000	616.450	79.999	19.996	103.081	20.061	0.610	0.510
1067.500	616.759	79.998	19.995	103.081	20.058	0.840	0.508
1068.000	616.999	79.999	19.995	103.083	20.058	0.842	0.538
1068.500	617.253	79.999	19.995	103.085	20.059	0.779	0.521
1069.000	617.475	79.999	19.995	103.085	20.060	0.687	0.485
1069.500	617.731	79.998	19.995	103.086	20.060	0.672	0.477
1070.000	618.014	79.998	19.995	103.093	20.059	0.761	0.508
1070.500	618.271	79.998	19.995	103.094	20.061	0.644	0.540
1071.000	618.545	79.998	19.996	103.092	20.059	0.723	0.536
1071.500	618.789	79.999	19.996	103.092	20.064	0.436	0.524
1072.000	619.055	79.999	19.994	103.092	20.061	0.602	0.514
1072.500	619.309	80.000	19.995	103.085	20.061	0.628	0.515
1073.000	619.567	79.998	19.995	103.083	20.060	0.702	0.516
1073.500	619.828	80.001	19.996	103.084	20.057	0.885	0.515
1074.000	620.079	79.999	19.996	103.089	20.058	0.843	0.515
1074.500	620.350	79.998	19.996	103.091	20.059	0.745	0.517
1075.000	620.586	79.999	19.995	103.091	20.059	0.772	0.515
1075.500	620.827	80.000	19.997	103.092	20.059	0.727	0.493
1076.000	621.093	80.001	19.996	103.090	20.060	0.659	0.492
1076.500	621.360	80.000	19.996	103.088	20.060	0.660	0.520
1077.000	621.615	80.000	19.995	103.085	20.063	0.508	0.527
1077.500	621.863	80.000	19.996	103.084	20.059	0.728	0.512
1078.000	622.138	79.999	19.995	103.084	20.062	0.562	0.513
1078.500	622.373	80.001	19.995	103.084	20.058	0.800	0.517
1079.000	622.642	80.001	19.995	103.086	20.062	0.536	0.507
1079.500	622.886	79.999	19.997	103.090	20.056	0.951	0.508
1080.000	623.136	80.001	19.996	103.090	20.058	0.859	0.503
1080.500	623.401	80.002	19.996	103.089	20.058	0.802	0.504
1081.000	623.665	80.000	19.996	103.090	20.057	0.874	0.522
1081.500	623.895	80.000	19.996	103.091	20.056	0.966	0.511
1082.000	624.161	80.001	19.996	103.092	20.060	0.689	0.495
1082.500	624.401	80.000	19.995	103.093	20.059	0.728	0.501
1083.000	624.660	80.000	19.996	103.095	20.056	0.942	0.503
1083.500	624.924	80.000	19.996	103.094	20.054	1.112	0.511
1084.000	625.175	80.002	19.995	103.088	20.055	1.046	0.519
1084.500	625.459	79.999	19.996	103.084	20.057	0.885	0.525
1085.000	625.678	79.999	19.995	103.083	20.060	0.679	0.519
1085.500	625.948	80.001	19.995	103.085	20.058	0.810	0.496
1086.000	626.174	79.999	19.995	103.086	20.056	0.963	0.492
1086.500	626.436	80.000	19.996	103.085	20.054	1.066	0.492
1087.000	626.703	79.999	19.996	103.084	20.058	0.800	0.509
1087.500	626.938	80.000	19.996	103.082	20.057	0.925	0.516
1088.000	627.149	80.000	19.997	103.078	20.058	0.849	0.474
1088.500	627.452	79.999	19.995	103.076	20.057	0.866	0.480
1089.000	627.724	79.998	19.997	103.078	20.059	0.785	0.544
1089.500	627.952	79.999	19.996	103.077	20.060	0.713	0.537
1090.000	628.193	79.998	19.996	103.078	20.059	0.761	0.484
1090.500	628.467	79.999	19.996	103.078	20.057	0.912	0.492
1091.000	628.707	79.997	19.995	103.078	20.061	0.612	0.515
1091.500	628.973	79.998	19.996	103.079	20.062	0.574	0.510
1092.000	629.232	79.998	19.996	103.081	20.055	1.061	0.515
1092.500	629.491	79.998	19.997	103.086	20.056	0.931	0.522
1093.000	629.690	79.999	19.996	103.093	20.059	0.789	0.488
1093.500	629.985	79.998	19.996	103.099	20.058	0.815	0.476
1094.000	630.211	79.998	19.996	103.104	20.056	0.976	0.507
1094.500	630.501	79.998	19.995	103.107	20.063	0.495	0.519
1095.000	630.722	79.997	19.996	103.108	20.059	0.757	0.514
1095.500	630.982	79.999	19.995	103.107	20.059	0.764	0.496
1096.000	631.238	79.999	19.996	103.107	20.056	0.961	0.498
1096.500	631.486	80.000	19.995	103.107	20.056	0.976	0.510
1097.000	631.739	79.999	19.994	103.108	20.057	0.908	0.503
1097.500	631.973	79.997	19.996	103.103	20.059	0.755	0.494
1098.001	632.270	79.999	19.995	103.102	20.058	0.832	0.509
1098.501	632.487	79.999	19.995	103.102	20.057	0.883	0.523
1099.000	632.752	79.999	19.995	103.101	20.057	0.904	0.499
1099.500	632.976	80.000	19.994	103.102	20.055	1.019	0.486
1100.001	633.238	79.998	19.996	103.105	20.057	0.880	0.488
1100.501	633.487	79.998	19.995	103.108	20.054	1.114	0.498
1101.000	633.768	80.000	19.995	103.106	20.056	0.942	0.520
1101.500	634.014	79.999	19.996	103.104	20.053	1.189	0.528
1102.000	634.295	79.999	19.994	103.103	20.055	1.053	0.527
1102.500	634.553	79.999	19.995	103.105	20.057	0.906	0.534
1103.000	634.814	79.998	19.996	103.106	20.056	0.942	0.529
1103.500	635.052	80.000	19.996	103.109	20.059	0.781	0.508
1104.000	635.351	80.000	19.995	103.111	20.054	1.123	0.518
1104.500	635.603	79.997	19.993	103.113	20.057	0.880	0.544
1105.000	635.877	79.998	19.995	103.112	20.058	0.851	0.538
1105.500	636.109	80.013	19.999	103.112	20.057	0.887	0.516
1106.000	636.349	80.017	20.000	103.114	20.057	0.868	0.489
1106.500	636.605	80.018	20.002	103.115	20.057	0.880	0.484
1107.000	636.858	80.012	20.001	103.118	20.059	0.763	0.503
1107.500	637.120	80.000	20.000	103.119	20.060	0.698	0.513
1108.000	637.326	80.000	19.997	103.120	20.058	0.804	0.492
1108.500	637.606	79.999	19.998	103.119	20.059	0.766	0.477
1109.000	637.888	79.999	19.995	103.118	20.057	0.914	0.524
1109.500	638.141	79.999	19.997	103.117	20.055	1.019	0.548
1110.000	638.376	79.998	19.996	103.117	20.057	0.904	0.512
1110.500	638.589	79.999	19.996	103.117	20.057	0.923	0.468
1111.000	638.892	79.998	19.995	103.116	20.054	1.099	0.482
1111.500	639.151	79.998	19.994	103.116	20.056	0.978	0.539
1112.000	639.391	79.997	19.995	103.116	20.055	1.027	0.530
1112.500	639.636	79.999	19.995	103.116	20.053	1.180	0.492
1113.000	639.901	80.000	19.995	103.116	20.055	1.042	0.498
1113.500	640.152	79.999	19.996	103.116	20.054	1.070	0.513
1114.000	640.409	79.999	19.995	103.117	20.053	1.168	0.512
1114.500	640.640	79.997	19.995	103.116	20.052	1.227	0.498
1115.000	640.883	80.000	19.996	103.115	20.053	1.155	0.481
1115.500	641.152	79.999	19.996	103.116	20.054	1.080	0.493
1116.000	641.404	79.998	19.995	103.116	20.050	1.344	0.517
1116.500	641.655	79.998	19.996	103.116	20.053	1.180	0.512
1117.000	641.922	79.998	19.994	103.118	20.053	1.170	0.510
1117.500	642.157	79.998	19.996	103.117	20.053	1.146	0.510
1118.000	642.393	80.000	19.995	103.117	20.052	1.227	0.486
1118.500	642.682	79.998	19.996	103.116	20.051	1.270	0.498
1119.001	642.901	79.998	19.995	103.117	20.055	1.014	0.516
1119.501	643.187	79.997	19.996	103.117	20.054	1.070	0.506
1120.000	643.437	79.997	19.996	103.117	20.051	1.297	0.521
1120.501	643.691	79.998	19.995	103.116	20.051	1.310	0.520
1121.001	643.944	79.998	19.996	103.115	20.050	1.397	0.506
1121.500	644.179	79.998	19.995	103.115	20.053	1.169	0.498
1122.001	644.458	79.998	19.995	103.115	20.055	0.999	0.501
1122.501	644.654	79.998	19.996	103.116	20.049	1.435	0.494
1123.000	644.924	79.999	19.995	103.117	20.051	1.289	0.470
1123.500	645.143	79.997	19.995	103.118	20.052	1.236	0.477
1124.000	645.446	79.998	19.994	103.118	20.055	1.025	0.505
1124.500	645.678	79.998	19.994	103.119	20.052	1.235	0.528
1125.000	645.920	79.998	19.996	103.119	20.054	1.100	0.505
1125.500	646.156	79.998	19.996	103.119	20.052	1.204	0.476
1126.000	646.438	79.996	19.995	103.120	20.050	1.397	0.498
1126.500	646.676	79.997	19.995	103.119	20.050	1.378	0.519
1127.000	646.903	79.999	19.995	103.119	20.052	1.221	0.492
1127.500	647.147	79.998	19.994	103.119	20.050	1.370	0.468
1128.000	647.411	79.997	19.996	103.119	20.050	1.389	0.490
1128.500	647.677	79.997	19.994	103.120	20.051	1.323	0.520
1129.000	647.954	79.997	19.995	103.120	20.055	1.040	0.537
1129.500	648.161	79.998	19.994	103.121	20.050	1.346	0.513
1130.000	648.412	79.998	19.994	103.120	20.049	1.474	0.471
1130.500	648.647	79.998	19.994	103.120	20.054	1.099	0.472
1131.000	648.911	79.999	19.995	103.120	20.051	1.325	0.493
1131.501	649.177	79.997	19.995	103.121	20.049	1.475	0.515
1132.001	649.463	79.998	19.995	103.122	20.052	1.216	0.541
1132.501	649.695	80.000	19.994	103.122	20.051	1.305	0.535
1133.001	649.975	79.998	19.995	103.122	20.051	1.274	0.515
1133.500	650.198	79.999	19.995	103.122	20.053	1.167	0.507
1134.000	650.451	80.000	19.996	103.121	20.052	1.261	0.489
1134.500	650.699	79.999	19.995	103.119	20.052	1.218	0.489
1135.000	650.946	80.000	19.994	103.119	20.050	1.344	0.498
1135.500	651.197	79.999	19.995	103.119	20.052	1.265	0.496
1136.000	651.457	79.999	19.995	103.118	20.050	1.388	0.504
1136.500	651.700	80.000	19.995	103.118	20.052	1.246	0.507
1137.000	651.956	80.000	19.995	103.119	20.051	1.329	0.501
1137.500	652.185	80.000	19.995	103.119	20.049	1.418	0.492
1138.000	652.440	80.001	19.995	103.119	20.049	1.448	0.485
1138.500	652.695	80.002	19.994	103.119	20.048	1.518	0.497
1139.000	652.950	80.000	19.994	103.119	20.054	1.089	0.510
1139.500	653.209	80.001	19.995	103.117	20.049	1.433	0.512
1140.000	653.459	80.000	19.995	103.118	20.048	1.535	0.512
1140.500	653.703	80.000	19.995	103.121	20.049	1.424	0.502
1141.000	653.961	80.000	19.995	103.124	20.045	1.737	0.498
1141.500	654.222	80.000	19.994	103.130	20.047	1.556	0.511
1142.000	654.472	80.000	19.995	103.138	20.048	1.499	0.515
1142.500	654.733	79.999	19.995	103.143	20.049	1.412	0.511
1143.000	654.935	80.000	19.995	103.143	20.046	1.629	0.487
1143.500	655.201	80.001	19.995	103.141	20.047	1.561	0.465
1144.000	655.473	79.999	19.995	103.138	20.048	1.514	0.503
1144.500	655.709	79.998	19.996	103.136	20.051	1.326	0.523
1145.000	656.004	79.998	19.996	103.137	20.051	1.290	0.520
1145.500	656.222	79.998	19.995	103.141	20.046	1.631	0.522
1146.000	656.455	79.999	19.996	103.144	20.048	1.518	0.482
1146.500	656.709	80.000	19.996	103.143	20.049	1.416	0.469
1147.000	656.994	79.999	19.996	103.140	20.049	1.445	0.513
1147.500	657.216	79.998	19.996	103.134	20.053	1.167	0.523
1148.000	657.513	79.999	19.996	103.132	20.050	1.346	0.514
1148.500	657.681	79.997	19.995	103.135	20.047	1.607	0.492
1149.000	657.999	79.998	19.996	103.137	20.045	1.703	0.475
1149.500	658.184	79.999	19.995	103.139	20.045	1.739	0.494
1150.000	658.470	79.999	19.996	103.142	20.055	1.063	0.487
1150.500	658.697	79.998	19.996	103.142	20.065	0.366	0.492
1151.000	658.988	79.997	19.996	103.141	20.048	1.482	0.515
1151.501	659.241	79.998	19.995	103.144	20.051	1.273	0.531
1152.001	659.461	79.998	19.996	103.147	20.047	1.554	0.508
1152.500	659.715	79.999	19.996	103.144	20.044	1.800	0.474
1153.000	659.983	79.999	19.996	103.142	20.046	1.616	0.498
1153.500	660.236	79.999	19.997	103.143	20.045	1.694	0.521
1154.000	660.478	80.000	19.996	103.143	20.047	1.556	0.508
1154.500	660.719	80.000	19.995	103.144	20.048	1.505	0.489
1155.000	660.961	79.999	19.997	103.148	20.046	1.677	0.483
1155.500	661.258	79.999	19.996	103.151	20.047	1.547	0.511
1156.000	661.479	80.000	19.996	103.151	20.047	1.613	0.528
1156.500	661.656	80.000	19.995	103.151	20.045	1.730	0.458
1157.000	662.031	80.001	19.995	103.151	20.046	1.675	0.476
1157.500	662.221	79.999	19.996	103.152	20.042	1.951	0.559
1158.000	662.436	80.001	19.996	103.152	20.044	1.815	0.485
1158.500	662.772	80.001	19.995	103.152	20.044	1.796	0.478
1159.000	662.967	80.002	19.996	103.152	20.045	1.703	0.541
1159.500	663.421	80.002	19.996	103.152	20.043	1.819	0.590
1160.000	663.360	80.001	19.995	103.152	20.045	1.722	0.521
1160.500	663.793	80.002	19.996	103.153	20.044	1.790	0.382
1161.000	664.146	80.000	19.996	103.152	20.043	1.819	0.579
1161.500	664.530	80.000	19.995	103.153	20.043	1.832	0.762
1162.000	665.095	80.003	19.995	103.151	20.043	1.834	0.843
1162.500	664.230	80.001	19.995	103.151	20.042	1.905	0.325
1163.000	664.371	79.999	19.996	103.151	20.043	1.879	-0.512
1163.500	665.565	80.001	19.995	103.151	20.043	1.822	0.305
1164.000	665.447	80.001	19.994	103.150	20.043	1.849	1.205
1164.500	666.413	80.004	19.994	103.153	20.042	1.898	0.962
1165.000	665.508	79.999	19.997	103.153	20.040	2.025	0.455
1165.500	665.973	79.999	19.995	103.153	20.042	1.896	-0.189
1166.000	666.647	80.002	19.997	103.153	20.042	1.915	0.350
1166.500	666.676	80.001	19.996	103.155	20.043	1.836	0.921
1167.000	667.132	80.001	19.995	103.154	20.040	2.087	0.594
1167.500	667.169	80.001	19.996	103.155	20.040	2.089	0.489
1168.000	667.516	80.001	19.995	103.155	20.039	2.144	0.438
1168.500	667.787	80.000	19.995	103.156	20.038	2.186	0.501
1169.000	667.950	80.000	19.996	103.157	20.039	2.153	0.526
1169.500	668.190	79.999	19.996	103.161	20.038	2.201	0.419
1170.000	668.551	79.998	19.995	103.168	20.039	2.119	0.502
1170.500	668.830	79.998	19.996	103.171	20.037	2.244	0.620
1171.001	669.031	79.998	19.997	103.171	20.041	2.004	0.560
1171.501	669.276	79.999	19.996	103.169	20.039	2.153	0.463
1172.000	669.512	79.998	19.995	103.166	20.038	2.206	0.464
1172.500	669.791	79.998	19.995	103.161	20.039	2.159	0.498
1173.000	670.065	79.998	19.996	103.159	20.036	2.350	0.534
1173.500	670.282	79.998	19.995	103.160	20.038	2.176	0.522
1174.000	670.571	79.998	19.997	103.161	20.039	2.159	0.498
1174.500	670.804	79.998	19.996	103.163	20.035	2.380	0.514
1175.000	671.078	79.997	19.996	103.163	20.036	2.303	0.515
1175.500	671.284	79.997	19.996	103.165	20.036	2.322	0.494
1176.000	671.576	79.999	19.997	103.169	20.037	2.288	0.489
1176.500	671.823	79.998	19.998	103.171	20.036	2.339	0.518
1177.000	672.093	79.999	19.995	103.173	20.035	2.414	0.528
1177.500	672.344	79.998	19.996	103.179	20.034	2.463	0.519
1178.000	672.597	79.997	19.998	103.184	20.034	2.478	0.512
1178.500	672.874	79.998	19.997	103.187	20.032	2.596	0.517
1179.000	673.078	79.997	19.997	103.192	20.038	2.210	0.506
1179.500	673.377	79.997	19.997	103.194	20.033	2.539	0.492
1180.000	673.587	79.999	19.996	103.192	20.036	2.365	0.506
1180.500	673.897	79.997	19.996	103.193	20.035	2.401	0.515
1181.001	674.130	79.998	19.996	103.192	20.033	2.554	0.531
1181.501	674.388	79.998	19.996	103.192	20.036	2.303	0.517
1182.000	674.644	79.998	19.996	103.192	20.036	2.335	0.503
1182.500	674.933	79.998	19.996	103.193	20.034	2.469	0.530
1183.000	675.163	79.998	19.997	103.194	20.030	2.711	0.532
1183.500	675.432	79.997	19.996	103.194	20.034	2.480	0.509
1184.000	675.700	79.998	19.995	103.193	20.032	2.577	0.518
1184.500	675.950	79.998	19.995	103.191	20.034	2.465	0.528
1185.000	676.202	80.000	19.995	103.191	20.034	2.469	0.510
1185.500	676.488	79.998	19.996	103.190	20.033	2.536	0.520
1186.000	676.739	79.997	19.997	103.190	20.033	2.519	0.537
1186.500	676.996	79.997	19.996	103.192	20.030	2.726	0.523
1187.000	677.248	80.000	19.995	103.193	20.035	2.407	0.509
1187.501	677.516	79.998	19.995	103.193	20.030	2.771	0.515
1188.001	677.759	79.998	19.994	103.195	20.028	2.849	0.515
1188.500	678.042	79.998	19.994	103.195	20.031	2.686	0.518
1189.000	678.179	79.999	19.995	103.195	20.030	2.758	0.473
1189.500	678.570	79.998	19.994	103.196	20.031	2.684	0.474
1190.000	678.792	79.998	19.994	103.197	20.033	2.556	0.570
1190.500	679.080	79.996	19.996	103.198	20.034	2.494	0.561
1191.000	679.343	79.998	19.996	103.199	20.031	2.664	0.531
1191.500	679.555	79.998	19.995	103.201	20.028	2.860	0.513
1192.000	679.814	79.999	19.994	103.202	20.030	2.737	0.473
1192.500	680.095	79.997	19.995	103.202	20.028	2.855	0.505
1193.000	680.353	80.000	19.994	103.201	20.033	2.543	0.540
1193.500	680.622	79.999	19.995	103.200	20.031	2.703	0.533
1194.000	680.829	79.999	19.994	103.198	20.030	2.715	0.501
1194.500	681.152	79.999	19.994	103.197	20.030	2.724	0.503
1195.001	681.405	79.998	19.995	103.200	20.030	2.753	0.553
1195.501	681.697	79.999	19.994	103.204	20.030	2.713	0.560
1196.000	681.923	79.998	19.995	103.209	20.030	2.761	0.531
1196.500	682.188	79.998	19.995	103.211	20.028	2.916	0.505
1197.000	682.452	79.998	19.994	103.213	20.029	2.806	0.510
1197.501	682.707	80.000	19.994	103.211	20.030	2.742	0.524
1198.001	682.957	79.998	19.995	103.207	20.028	2.884	0.512
1198.500	683.229	79.997	19.995	103.202	20.027	2.982	0.514
1199.000	683.507	79.999	19.994	103.200	20.027	2.961	0.536
1199.500	683.768	79.998	19.994	103.198	20.029	2.785	0.545
1200.000	684.011	79.998	19.996	103.197	20.030	2.717	0.522
1200.501	684.240	79.998	19.995	103.198	20.028	2.905	0.488
1201.001	684.532	79.998	19.995	103.198	20.029	2.829	0.496
1201.500	684.766	79.997	19.997	103.197	20.030	2.717	0.523
1202.000	684.998	79.998	19.995	103.199	20.028	2.855	0.496
1202.500	685.306	79.997	19.996	103.200	20.030	2.716	0.503
1203.000	685.551	79.997	19.996	103.200	20.030	2.729	0.547
1203.500	685.802	79.998	19.995	103.200	20.027	2.956	0.525
1204.000	686.088	79.997	19.995	103.201	20.027	2.961	0.516
1204.500	686.364	79.998	19.995	103.202	20.025	3.078	0.549
1205.000	686.586	79.997	19.995	103.203	20.026	3.048	0.530
1205.500	686.859	79.997	19.996	103.207	20.027	2.922	0.497
1206.000	687.097	79.998	19.994	103.214	20.024	3.167	0.503
1206.500	687.375	79.997	19.995	103.221	20.028	2.850	0.513
1207.000	687.651	79.999	19.996	103.225	20.026	3.010	0.535
1207.500	687.878	79.999	19.995	103.229	20.024	3.126	0.529
1208.001	688.145	79.997	19.995	103.229	20.024	3.139	0.499
1208.501	688.412	79.998	19.995	103.229	20.027	2.933	0.514
1209.000	688.690	79.998	19.995	103.228	20.022	3.262	0.540
1209.501	688.925	79.998	19.994	103.229	20.023	3.192	0.529
1210.001	689.203	79.998	19.995	103.230	20.027	2.958	0.513
1210.500	689.425	79.999	19.994	103.231	20.023	3.230	0.506
1211.000	689.729	79.999	19.995	103.232	20.025	3.099	0.513
1211.500	689.973	80.000	19.995	103.233	20.023	3.224	0.537
1212.001	690.226	79.999	19.995	103.232	20.025	3.056	0.523
1212.501	690.432	80.000	19.995	103.232	20.023	3.205	0.478
1213.000	690.707	80.000	19.995	103.231	20.024	3.152	0.470
1213.500	690.977	80.000	19.994	103.231	20.024	3.126	0.513
1214.000	691.214	79.999	19.995	103.230	20.021	3.391	0.526
1214.500	691.532	80.000	19.995	103.231	20.024	3.171	0.531
1215.000	691.783	79.999	19.995	103.233	20.022	3.260	0.562
1215.500	692.020	80.001	19.995	103.233	20.023	3.219	0.529
1216.000	692.268	80.000	19.995	103.232	20.021	3.340	0.487
1216.500	692.540	79.999	19.995	103.234	20.023	3.244	0.502
1217.000	692.770	79.999	19.995	103.233	20.023	3.255	0.511
1217.500	693.069	80.000	19.995	103.233	20.023	3.234	0.516
1218.000	693.294	80.001	19.995	103.234	20.024	3.144	0.527
1218.500	693.535	80.001	19.995	103.234	20.024	3.170	0.495
1219.000	693.814	80.000	19.995	103.235	20.021	3.342	0.492
1219.500	694.051	80.001	19.995	103.236	20.024	3.159	0.518
1220.000	694.287	80.000	19.996	103.236	20.022	3.267	0.495
1220.500	694.595	80.000	19.994	103.235	20.021	3.344	0.509
1221.000	694.819	80.001	19.994	103.235	20.018	3.562	0.538
1221.500	695.053	80.001	19.994	103.234	20.019	3.512	0.495
1222.000	695.347	80.000	19.995	103.235	20.022	3.276	0.493
1222.500	695.566	80.000	19.995	103.235	20.021	3.374	0.520
1223.000	695.829	80.001	19.995	103.238	20.018	3.541	0.497
1223.500	696.104	80.000	19.994	103.243	20.020	3.416	0.510
1224.000	696.375	79.999	19.995	103.244	20.020	3.442	0.542
1224.500	696.621	80.000	19.994	103.243	20.020	3.460	0.532
1225.000	696.868	80.000	19.994	103.244	20.019	3.499	0.505
1225.501	697.138	80.000	19.995	103.245	20.020	3.397	0.505
1226.001	697.356	79.999	19.996	103.244	20.019	3.505	0.503
1226.500	697.633	80.000	19.995	103.250	20.020	3.431	0.491
1227.000	697.870	79.999	19.995	103.256	20.019	3.534	0.505
1227.500	698.169	80.000	19.996	103.261	20.018	3.571	0.525
1228.000	698.401	80.000	19.995	103.265	20.020	3.462	0.533
1228.500	698.638	79.999	19.994	103.268	20.021	3.371	0.500
1229.000	698.886	80.000	19.996	103.268	20.018	3.547	0.477
1229.501	699.166	79.997	19.995	103.269	20.018	3.571	0.506
1230.001	699.370	80.000	19.994	103.271	20.016	3.702	0.506
1230.500	699.655	80.000	19.994	103.271	20.020	3.405	0.487
1231.000	699.947	79.998	19.995	103.271	20.021	3.378	0.533
1231.500	700.177	79.999	19.997	103.271	20.017	3.636	0.549
1232.000	700.448	79.999	19.995	103.270	20.017	3.639	0.511
1232.500	700.709	79.999	19.995	103.270	20.017	3.645	0.516
1233.000	700.964	79.999	19.996	103.270	20.015	3.791	0.524
1233.500	701.189	80.000	19.995	103.269	20.017	3.636	0.498
1234.000	701.487	79.999	19.995	103.270	20.016	3.715	0.501
1234.500	701.707	80.000	19.995	103.270	20.018	3.577	0.520
1235.000	701.961	80.000	19.994	103.270	20.015	3.806	0.496
1235.500	702.217	80.000	19.996	103.270	20.014	3.846	0.492
1236.000	702.459	80.000	19.996	103.272	20.018	3.593	0.504
1236.500	702.707	79.999	19.996	103.273	20.015	3.751	0.494
1237.000	702.944	80.000	19.995	103.278	20.018	3.581	0.487
1237.501	703.212	80.000	19.996	103.279	20.014	3.827	0.495
1238.001	703.469	80.001	19.995	103.279	20.014	3.810	0.515
1238.500	703.728	80.000	19.995	103.279	20.017	3.614	0.520
1239.000	704.008	80.001	19.994	103.279	20.019	3.529	0.527
1239.500	704.213	80.000	19.996	103.277	20.015	3.793	0.512
1240.000	704.487	80.001	19.995	103.278	20.018	3.578	0.482
1240.500	704.735	80.001	19.995	103.278	20.016	3.735	0.500
1241.000	704.996	79.999	19.996	103.278	20.017	3.614	0.515
1241.500	705.219	80.000	19.996	103.278	20.017	3.654	0.497
1242.001	705.464	80.001	19.996	103.275	20.016	3.707	0.476
1242.501	705.706	80.001	19.996	103.276	20.015	3.792	0.478
1243.000	705.988	80.001	19.995	103.279	20.018	3.555	0.506
1243.500	706.218	80.002	19.995	103.283	20.014	3.843	0.518
1244.000	706.470	80.000	19.995	103.283	20.016	3.692	0.496
1244.500	706.709	80.002	19.995	103.285	20.017	3.622	0.486
1245.000	707.014	80.001	19.995	103.286	20.016	3.735	0.517
1245.500	707.220	80.001	19.995	103.284	20.014	3.864	0.527
1246.000	707.425	80.000	19.996	103.285	20.014	3.815	0.461
1246.500	707.694	80.000	19.995	103.290	20.014	3.845	0.443
1247.000	707.958	80.000	19.994	103.291	20.014	3.847	0.503
1247.500	708.242	80.001	19.995	103.293	20.015	3.805	0.541
1248.000	708.485	80.000	19.995	103.299	20.016	3.701	0.538
1248.500	708.718	80.000	19.995	103.299	20.014	3.824	0.501
1249.000	708.989	80.000	19.995	103.299	20.014	3.853	0.490
1249.500	709.207	80.000	19.995	103.300	20.012	3.955	0.496
1250.000	709.482	80.000	19.995	103.302	20.013	3.900	0.491
1250.500	709.745	79.999	19.995	103.303	20.013	3.883	0.516
1251.000	709.963	79.999	19.995	103.307	20.014	3.843	0.510
1251.500	710.229	79.997	19.995	103.308	20.014	3.815	0.482
1252.000	710.485	79.997	19.996	103.308	20.014	3.825	0.503
1252.500	710.715	79.999	19.994	103.309	20.015	3.789	0.504
1253.000	710.979	79.998	19.995	103.309	20.014	3.876	0.490
1253.500	711.243	79.999	19.995	103.309	20.014	3.813	0.511
1254.000	711.484	79.998	19.995	103.310	20.016	3.730	0.516
1254.500	711.738	79.997	19.996	103.314	20.011	4.035	0.500
1255.000	711.946	79.999	19.995	103.314	20.013	3.891	0.479
1255.500	712.216	79.997	19.996	103.314	20.014	3.865	0.470
1256.000	712.521	79.998	19.996	103.314	20.010	4.096	0.526
1256.500	712.736	79.998	19.994	103.313	20.013	3.935	0.548
1257.000	712.971	79.999	19.995	103.313	20.010	4.130	0.485
1257.500	713.247	79.999	19.995	103.315	20.013	3.927	0.481
1258.000	713.460	79.996	19.995	103.315	20.009	4.194	0.500
1258.500	713.725	79.998	19.995	103.316	20.014	3.842	0.483
1259.000	713.969	79.998	19.995	103.317	20.012	3.980	0.493
1259.500	714.229	79.999	19.996	103.317	20.010	4.099	0.507
1260.001	714.458	79.997	19.995	103.316	20.015	3.808	0.497
1260.501	714.744	79.998	19.996	103.316	20.011	4.079	0.502
1261.000	714.972	79.997	19.995	103.318	20.011	4.047	0.515
1261.500	715.245	79.997	19.996	103.322	20.012	4.016	0.508
1262.000	715.457	79.998	19.995	103.325	20.010	4.128	0.493
1262.501	715.739	79.999	19.995	103.325	20.010	4.094	0.489
1263.001	715.998	79.999	19.996	103.326	20.011	4.066	0.517
1263.501	716.211	79.998	19.996	103.330	20.011	4.022	0.506
1264.001	716.473	79.997	19.996	103.327	20.009	4.206	0.474
1264.501	716.734	79.997	19.996	103.323	20.013	3.941	0.499
1265.000	717.026	79.998	19.997	103.325	20.009	4.187	0.538
1265.500	717.253	79.998	19.996	103.332	20.008	4.272	0.536
1266.000	717.534	79.997	19.996	103.333	20.010	4.115	0.514
1266.500	717.723	79.998	19.996	103.337	20.006	4.361	0.489
1267.001	718.040	79.997	19.996	103.342	20.006	4.423	0.488
1267.501	718.258	79.998	19.995	103.346	20.009	4.190	0.520
1268.000	718.476	79.998	19.996	103.344	20.011	4.066	0.486
1268.500	718.745	79.997	19.996	103.343	20.009	4.213	0.462
1269.000	718.964	79.999	19.996	103.344	20.007	4.338	0.487
1269.500	719.225	80.000	19.995	103.343	20.010	4.107	0.484
1270.000	719.508	79.997	19.996	103.341	20.010	4.119	0.512
1270.501	719.738	79.998	19.996	103.342	20.009	4.202	0.528
1271.001	719.985	79.999	19.996	103.341	20.010	4.149	0.495
1271.500	720.243	79.998	19.996	103.341	20.007	4.312	0.491
1272.000	720.497	79.998	19.997	103.343	20.009	4.200	0.509
1272.500	720.740	79.999	19.997	103.345	20.007	4.329	0.505
1273.000	721.010	79.998	19.996	103.347	20.008	4.236	0.505
1273.500	721.235	80.000	19.996	103.348	20.009	4.216	0.503
1274.000	721.502	79.999	19.995	103.348	20.010	4.131	0.493
1274.501	721.727	79.997	19.996	103.348	20.008	4.244	0.492
1275.001	722.004	79.999	19.997	103.348	20.011	4.083	0.498
1275.500	722.227	80.000	19.997	103.348	20.012	4.015	0.501
1276.000	722.473	79.999	19.997	103.348	20.009	4.167	0.484
1276.500	722.715	79.999	19.995	103.348	20.010	4.093	0.478
1277.000	722.941	80.001	19.996	103.348	20.011	4.061	0.478
1277.500	723.198	79.998	19.996	103.349	20.010	4.116	0.475
1278.000	723.436	79.998	19.996	103.349	20.006	4.396	0.489
1278.500	723.689	80.000	19.995	103.348	20.009	4.161	0.493
1279.000	723.925	79.998	19.995	103.349	20.012	3.985	0.490
1279.500	724.188	80.000	19.996	103.349	20.008	4.229	0.494
1280.001	724.419	79.998	19.995	103.349	20.008	4.282	0.496
1280.501	724.648	79.998	19.995	103.350	20.008	4.248	0.477
1281.000	724.908	79.998	19.996	103.351	20.007	4.297	0.475
1281.500	725.158	79.997	19.996	103.351	20.009	4.176	0.500
1282.000	725.403	79.999	19.996	103.351	20.006	4.392	0.503
1282.500	725.669	79.997	19.995	103.351	20.009	4.157	0.503
1283.000	725.901	79.997	19.995	103.351	20.010	4.152	0.505
1283.500	726.172	79.997	19.996	103.354	20.011	4.085	0.500
1284.000	726.409	79.997	19.996	103.359	20.010	4.123	0.505
1284.500	726.644	79.996	19.996	103.361	20.010	4.140	0.490
1285.001	726.921	79.996	19.997	103.366	20.008	4.254	0.492
1285.501	727.166	79.997	19.996	103.368	20.008	4.288	0.517
1286.000	727.413	79.998	19.997	103.368	20.010	4.118	0.507
1286.500	727.664	79.996	19.997	103.366	20.008	4.231	0.495
1287.000	727.916	79.998	19.996	103.369	20.007	4.335	0.501
1287.500	728.148	79.998	19.996	103.371	20.008	4.268	0.494
1288.000	728.421	79.996	19.995	103.376	20.008	4.274	0.494
1288.500	728.689	79.999	19.996	103.377	20.003	4.569	0.523
1289.001	728.948	79.997	19.995	103.375	20.008	4.268	0.535
1289.501	729.162	79.997	19.996	103.374	20.008	4.288	0.500
1290.000	729.452	79.998	19.995	103.370	20.007	4.335	0.488
1290.500	729.682	79.997	19.996	103.366	20.006	4.415	0.511
1291.000	729.930	79.998	19.996	103.368	20.005	4.494	0.499
1291.500	730.187	79.998	19.996	103.370	20.008	4.284	0.492
1292.000	730.425	79.998	19.995	103.372	20.008	4.244	0.500
1292.500	730.662	79.999	19.996	103.375	20.005	4.445	0.485
1293.001	730.947	79.998	19.996	103.376	20.007	4.293	0.498
1293.501	731.173	80.000	19.995	103.373	20.005	4.469	0.516
1294.000	731.420	79.998	19.996	103.370	20.008	4.259	0.492
1294.500	731.672	80.000	19.996	103.365	20.009	4.160	0.487
1295.000	731.936	79.999	19.995	103.362	20.007	4.357	0.507
1295.500	732.205	80.001	19.994	103.363	20.005	4.493	0.524
1296.000	732.421	79.999	19.995	103.368	20.008	4.243	0.509
1296.500	732.678	79.999	19.995	103.368	20.008	4.288	0.479
1297.000	732.945	79.998	19.996	103.371	20.006	4.381	0.499
1297.500	733.205	80.000	19.995	103.368	20.008	4.290	0.525
1298.000	733.443	80.000	19.996	103.363	20.007	4.354	0.512
1298.501	733.698	80.000	19.996	103.356	20.006	4.394	0.495
1299.001	733.901	80.001	19.995	103.355	20.006	4.406	0.476
1299.500	734.191	80.000	19.994	103.353	20.008	4.260	0.476
1300.001	734.456	80.000	19.996	103.357	20.009	4.183	0.525
1300.501	734.664	79.999	19.995	103.362	20.007	4.349	0.514
1301.001	734.894	79.998	19.994	103.369	20.006	4.400	0.455
1301.501	735.195	79.998	19.995	103.375	20.007	4.299	0.485
1302.000	735.437	79.998	19.995	103.377	20.008	4.290	0.537
1302.500	735.675	79.999	19.995	103.374	20.005	4.484	0.511
1303.000	735.912	79.998	19.996	103.368	20.010	4.152	0.477
1303.500	736.172	79.998	19.994	103.361	20.009	4.201	0.486
1304.000	736.414	79.997	19.995	103.354	20.010	4.108	0.500
1304.500	736.678	79.998	19.994	103.352	20.008	4.252	0.504
1305.000	736.919	79.999	19.995	103.351	20.009	4.187	0.506
1305.500	737.162	79.999	19.996	103.351	20.010	4.113	0.495
1306.000	737.413	79.998	19.995	103.351	20.011	4.064	0.489
1306.500	737.672	79.997	19.995	103.350	20.011	4.081	0.502
1307.000	737.931	79.998	19.997	103.343	20.013	3.934	0.514
1307.500	738.181	79.999	19.994	103.337	20.006	4.381	0.513
1308.000	738.435	79.997	19.994	103.333	20.009	4.156	0.506
1308.500	738.673	79.998	19.996	103.333	20.012	4.001	0.498
1309.000	738.910	79.998	19.995	103.334	20.013	3.921	0.483
1309.500	739.186	79.998	19.995	103.338	20.012	4.002	0.494
1310.000	739.469	79.998	19.995	103.342	20.015	3.808	0.536
1310.500	739.701	79.999	19.995	103.341	20.011	4.046	0.537
1311.000	739.923	79.999	19.995	103.338	20.010	4.108	0.485
1311.500	740.227	79.998	19.994	103.335	20.010	4.148	0.490
1312.000	740.462	79.998	19.996	103.331	20.010	4.138	0.533
1312.500	740.745	79.998	19.995	103.325	20.012	4.013	0.529
1313.000	740.979	79.999	19.995	103.324	20.012	3.981	0.517
1313.500	741.240	80.000	19.996	103.322	20.011	4.060	0.506
1314.000	741.477	80.000	19.995	103.321	20.014	3.835	0.497
1314.500	741.759	79.999	19.994	103.321	20.014	3.842	0.508
1315.000	741.978	79.999	19.995	103.320	20.010	4.090	0.510
1315.500	742.285	79.999	19.995	103.320	20.012	3.983	0.514
1316.000	742.507	80.002	19.996	103.316	20.016	3.671	0.527
1316.500	742.774	80.001	19.995	103.314	20.015	3.786	0.509
1317.000	743.017	80.000	19.995	103.314	20.015	3.778	0.500
1317.500	743.289	80.001	19.994	103.311	20.015	3.757	0.512
1318.000	743.561	80.000	19.995	103.307	20.015	3.772	0.529
