Sample ID:	C:\MCC\MCC Cal\Test\Oak_HWF_MCC_30K_min_211104_R2.txt
Sample Weight (mg):	4.83
Heating Rate (C/s):	1
Combustor Temp (C):	900
N2 Flow Rate (cc/min):	80
O2 Flow Rate (cc/min):	20
Calibration File:	C:\MCC\MCC Cal\Coeff1 JN10440_30_210304.txt.txt
T Correction Coefficients:	0	1.024463	0
Time Shift (s):	14
*
Time (s)	Temperature (C)	N2 flow rate (cc/min)	O2 flow rate (cc/min)	Flow Rate (cc/min)	Oxygen (%)	HRR (W/g)	Heating rate (C/s)
0.000	107.445	80.007	19.993	103.071	19.920	-0.338	0.001
0.500	107.430	80.005	19.994	103.074	19.920	-0.323	0.017
1.000	107.438	80.007	19.993	103.072	19.914	0.088	-0.002
1.500	107.435	80.007	19.993	103.072	19.915	-0.007	-0.001
2.000	107.413	80.005	19.994	103.071	19.918	-0.214	-0.009
2.500	107.424	80.007	19.994	103.067	19.914	0.084	-0.018
3.000	107.405	80.007	19.994	103.065	19.914	0.025	-0.010
3.500	107.452	80.004	19.995	103.064	19.913	0.113	0.009
4.000	107.439	80.006	19.994	103.061	19.915	-0.014	0.031
4.500	107.418	80.004	19.995	103.066	19.916	-0.089	0.000
5.000	107.395	80.005	19.995	103.068	19.914	0.041	-0.039
5.500	107.380	80.005	19.996	103.067	19.916	-0.061	-0.041
6.000	107.390	80.005	19.996	103.070	19.912	0.161	-0.022
6.500	107.365	80.004	19.995	103.075	19.913	0.106	-0.010
7.000	107.393	80.005	19.995	103.077	19.912	0.172	-0.006
7.500	107.390	80.003	19.995	103.084	19.912	0.220	0.014
8.001	107.365	80.005	19.995	103.092	19.912	0.179	-0.001
8.500	107.406	80.003	19.994	103.103	19.909	0.381	-0.006
9.000	107.385	80.003	19.995	103.112	19.907	0.531	0.018
9.500	107.404	80.003	19.995	103.126	19.902	0.850	0.009
10.000	107.411	80.005	19.994	103.146	19.901	0.950	0.012
10.500	107.424	80.005	19.994	103.175	19.899	1.052	0.023
11.000	107.446	80.004	19.995	103.199	19.896	1.224	0.028
11.500	107.410	80.004	19.994	103.223	19.893	1.455	0.010
12.000	107.433	80.005	19.995	103.240	19.892	1.502	-0.014
12.500	107.460	80.005	19.994	103.252	19.892	1.514	0.018
13.000	107.525	80.006	19.995	103.258	19.884	2.051	0.071
13.500	107.537	80.004	19.995	103.268	19.881	2.243	0.084
14.000	107.538	80.004	19.995	103.284	19.881	2.282	0.045
14.500	107.571	80.004	19.996	103.300	19.880	2.323	0.024
15.000	107.623	80.005	19.995	103.320	19.878	2.438	0.059
15.500	107.626	80.006	19.995	103.335	19.875	2.669	0.070
16.000	107.671	80.005	19.995	103.344	19.874	2.735	0.052
16.500	107.687	80.005	19.995	103.352	19.871	2.937	0.054
17.000	107.748	80.003	19.995	103.359	19.869	3.066	0.069
17.500	107.835	80.005	19.994	103.362	19.871	2.955	0.112
18.000	107.837	80.003	19.995	103.366	19.868	3.125	0.118
18.500	107.936	80.004	19.995	103.370	19.868	3.154	0.095
19.000	107.980	80.005	19.995	103.370	19.865	3.330	0.123
19.500	108.037	80.003	19.995	103.370	19.865	3.344	0.122
20.000	108.091	80.005	19.995	103.369	19.864	3.407	0.106
20.500	108.146	80.005	19.995	103.371	19.860	3.672	0.110
21.000	108.269	80.005	19.995	103.373	19.863	3.441	0.144
21.500	108.339	80.005	19.994	103.380	19.861	3.615	0.185
22.000	108.416	80.004	19.995	103.384	19.862	3.524	0.170
22.500	108.502	80.004	19.995	103.392	19.863	3.490	0.155
23.000	108.578	80.006	19.995	103.396	19.863	3.476	0.162
23.500	108.663	80.005	19.994	103.396	19.858	3.823	0.161
24.000	108.739	80.006	19.995	103.395	19.860	3.694	0.161
24.500	108.836	80.005	19.995	103.398	19.858	3.781	0.167
25.000	108.978	80.007	19.996	103.398	19.857	3.895	0.206
25.500	109.076	80.005	19.995	103.401	19.857	3.858	0.240
26.000	109.184	80.004	19.995	103.407	19.856	3.954	0.223
26.500	109.319	80.005	19.995	103.407	19.853	4.135	0.225
27.000	109.388	80.005	19.995	103.401	19.851	4.295	0.224
27.500	109.490	80.005	19.995	103.401	19.853	4.150	0.187
28.000	109.614	80.003	19.995	103.400	19.851	4.247	0.198
28.500	109.761	80.004	19.995	103.400	19.853	4.141	0.248
29.000	109.872	80.006	19.996	103.404	19.853	4.158	0.264
29.500	109.988	80.006	19.995	103.411	19.851	4.254	0.243
30.000	110.127	80.006	19.994	103.416	19.850	4.324	0.241
30.500	110.246	80.005	19.993	103.422	19.847	4.511	0.256
31.000	110.404	80.005	19.994	103.421	19.847	4.532	0.268
31.500	110.568	80.006	19.995	103.423	19.849	4.428	0.300
32.000	110.684	80.006	19.995	103.428	19.845	4.639	0.301
32.501	110.869	80.004	19.994	103.431	19.846	4.609	0.290
33.001	110.947	80.006	19.994	103.434	19.851	4.280	0.282
33.500	111.155	80.004	19.993	103.441	19.844	4.762	0.275
34.000	111.304	80.004	19.994	103.446	19.846	4.604	0.322
34.500	111.447	80.004	19.993	103.448	19.843	4.773	0.324
35.000	111.610	80.006	19.995	103.453	19.845	4.680	0.299
35.500	111.796	80.006	19.995	103.458	19.842	4.875	0.327
36.000	111.970	80.004	19.994	103.462	19.839	5.097	0.354
36.500	112.134	80.007	19.994	103.462	19.840	5.033	0.349
37.000	112.305	80.006	19.994	103.461	19.840	4.993	0.336
37.501	112.445	80.004	19.994	103.458	19.839	5.089	0.323
38.001	112.652	80.004	19.994	103.459	19.836	5.261	0.329
38.501	112.796	80.004	19.995	103.463	19.841	4.933	0.349
39.001	112.981	80.004	19.994	103.470	19.836	5.277	0.340
39.501	113.175	80.005	19.995	103.478	19.839	5.082	0.355
40.000	113.406	80.006	19.994	103.484	19.844	4.740	0.402
40.500	113.611	80.006	19.994	103.485	19.834	5.387	0.430
41.000	113.804	80.005	19.994	103.484	19.836	5.285	0.417
41.500	114.003	80.004	19.994	103.483	19.837	5.233	0.395
42.000	114.217	80.008	19.995	103.483	19.834	5.374	0.402
42.501	114.376	80.004	19.994	103.483	19.835	5.364	0.393
43.001	114.620	80.005	19.994	103.483	19.837	5.211	0.388
43.500	114.823	80.007	19.995	103.484	19.836	5.303	0.425
44.000	115.041	80.006	19.994	103.487	19.832	5.529	0.434
44.500	115.246	80.003	19.994	103.491	19.834	5.419	0.422
45.001	115.469	80.005	19.993	103.496	19.834	5.423	0.426
45.501	115.705	80.006	19.994	103.500	19.834	5.410	0.443
46.000	115.869	80.006	19.994	103.502	19.832	5.543	0.429
46.501	116.128	80.004	19.994	103.503	19.836	5.299	0.412
47.001	116.403	80.007	19.995	103.502	19.834	5.437	0.478
47.500	116.637	80.007	19.994	103.503	19.833	5.451	0.521
48.000	116.849	80.006	19.995	103.505	19.833	5.439	0.477
48.501	117.075	80.006	19.994	103.511	19.832	5.552	0.442
49.001	117.368	80.007	19.994	103.516	19.830	5.654	0.479
49.500	117.572	80.007	19.995	103.520	19.831	5.636	0.508
50.000	117.831	80.006	19.994	103.522	19.830	5.688	0.479
50.500	118.092	80.007	19.995	103.522	19.832	5.548	0.491
51.000	118.332	80.008	19.995	103.523	19.829	5.720	0.511
51.500	118.640	80.007	19.995	103.523	19.830	5.686	0.525
52.000	118.840	80.007	19.994	103.523	19.830	5.697	0.528
52.500	119.144	80.008	19.996	103.523	19.832	5.541	0.506
53.000	119.361	80.007	19.995	103.524	19.833	5.477	0.513
53.500	119.671	80.009	19.994	103.525	19.825	6.013	0.524
54.000	119.930	80.008	19.994	103.529	19.827	5.861	0.548
54.500	120.217	80.009	19.994	103.529	19.827	5.881	0.558
55.000	120.523	80.007	19.995	103.529	19.827	5.858	0.570
55.500	120.795	80.007	19.993	103.528	19.828	5.822	0.585
56.000	121.082	80.007	19.993	103.527	19.828	5.838	0.568
56.501	121.347	80.008	19.994	103.523	19.830	5.684	0.556
57.001	121.634	80.006	19.995	103.523	19.826	5.946	0.552
57.500	121.949	80.008	19.994	103.523	19.829	5.744	0.577
58.001	122.219	80.007	19.994	103.523	19.825	6.031	0.593
58.501	122.532	80.007	19.994	103.523	19.825	5.979	0.584
59.000	122.820	80.007	19.994	103.523	19.828	5.781	0.592
59.500	123.157	80.006	19.995	103.523	19.827	5.900	0.613
60.000	123.430	80.006	19.993	103.524	19.825	6.018	0.617
60.500	123.748	80.006	19.994	103.524	19.829	5.740	0.601
61.000	124.041	80.007	19.995	103.526	19.828	5.792	0.601
61.500	124.376	80.007	19.995	103.529	19.823	6.132	0.619
62.000	124.702	80.007	19.995	103.531	19.825	5.976	0.644
62.500	124.992	80.006	19.993	103.531	19.824	6.068	0.638
63.000	125.338	80.007	19.994	103.531	19.826	5.939	0.626
63.500	125.638	80.006	19.994	103.530	19.826	5.955	0.641
64.000	125.971	80.006	19.994	103.533	19.824	6.073	0.639
64.500	126.286	80.007	19.995	103.535	19.828	5.824	0.641
65.001	126.610	80.006	19.994	103.535	19.822	6.226	0.644
65.501	126.918	80.007	19.994	103.542	19.826	5.928	0.636
66.000	127.297	80.008	19.994	103.550	19.824	6.059	0.660
66.500	127.602	80.005	19.994	103.550	19.823	6.129	0.685
67.000	127.989	80.007	19.995	103.552	19.827	5.866	0.687
67.500	128.285	80.006	19.994	103.559	19.823	6.117	0.687
68.000	128.606	80.007	19.995	103.560	19.827	5.899	0.651
68.500	128.978	80.005	19.994	103.559	19.823	6.115	0.656
69.000	129.301	80.007	19.994	103.561	19.827	5.854	0.694
69.500	129.675	80.006	19.994	103.563	19.826	5.914	0.696
70.000	129.972	80.006	19.994	103.563	19.827	5.855	0.684
70.500	130.349	80.007	19.995	103.564	19.824	6.064	0.672
71.000	130.674	80.008	19.993	103.560	19.823	6.150	0.688
71.500	131.047	80.008	19.994	103.557	19.827	5.906	0.701
72.000	131.395	80.007	19.993	103.557	19.826	5.951	0.710
72.500	131.761	80.007	19.993	103.557	19.825	5.994	0.717
73.000	132.135	80.008	19.993	103.554	19.824	6.042	0.726
73.500	132.487	80.007	19.995	103.557	19.827	5.881	0.733
74.000	132.865	80.007	19.993	103.559	19.826	5.971	0.728
74.500	133.220	80.007	19.993	103.554	19.825	6.041	0.731
75.001	133.571	80.008	19.994	103.552	19.821	6.271	0.720
75.501	133.930	80.008	19.993	103.554	19.823	6.143	0.708
76.000	134.347	80.009	19.994	103.555	19.823	6.122	0.743
76.500	134.703	80.008	19.993	103.556	19.820	6.347	0.775
77.001	135.097	80.008	19.993	103.557	19.823	6.139	0.761
77.501	135.464	80.008	19.993	103.552	19.821	6.308	0.755
78.000	135.851	80.008	19.994	103.545	19.820	6.310	0.757
78.500	136.230	80.007	19.994	103.543	19.819	6.424	0.760
79.000	136.581	80.007	19.994	103.543	19.820	6.351	0.748
79.500	136.985	80.009	19.995	103.542	19.824	6.082	0.743
80.000	137.417	80.008	19.994	103.548	19.824	6.080	0.796
80.501	137.783	80.007	19.994	103.554	19.826	5.908	0.817
81.001	138.219	80.007	19.995	103.557	19.821	6.252	0.800
81.501	138.570	80.008	19.994	103.556	19.822	6.204	0.795
82.000	138.932	80.008	19.995	103.555	19.823	6.128	0.750
82.500	139.377	80.007	19.994	103.552	19.826	5.946	0.760
83.000	139.770	80.007	19.993	103.550	19.826	5.962	0.823
83.501	140.166	80.008	19.995	103.547	19.822	6.193	0.813
84.001	140.587	80.007	19.995	103.546	19.825	6.012	0.802
84.500	140.951	80.006	19.994	103.551	19.822	6.227	0.801
85.000	141.397	80.006	19.994	103.554	19.822	6.218	0.798
85.500	141.796	80.005	19.994	103.557	19.821	6.297	0.828
86.000	142.211	80.007	19.994	103.559	19.824	6.070	0.830
86.500	142.619	80.007	19.995	103.559	19.825	6.041	0.818
87.000	142.990	80.006	19.994	103.558	19.825	6.028	0.800
87.500	143.431	80.005	19.995	103.556	19.825	5.990	0.795
88.000	143.871	80.005	19.995	103.555	19.821	6.243	0.847
88.500	144.249	80.005	19.994	103.551	19.829	5.743	0.850
89.000	144.677	80.005	19.994	103.553	19.821	6.272	0.812
89.500	145.089	80.004	19.995	103.554	19.823	6.141	0.823
90.000	145.552	80.005	19.995	103.555	19.820	6.333	0.857
90.500	145.963	80.004	19.994	103.555	19.823	6.114	0.874
91.000	146.364	80.005	19.995	103.556	19.819	6.399	0.843
91.500	146.775	80.007	19.995	103.556	19.819	6.399	0.812
92.000	147.167	80.006	19.995	103.555	19.824	6.084	0.807
92.500	147.643	80.005	19.994	103.555	19.824	6.069	0.835
93.000	148.048	80.006	19.994	103.550	19.823	6.169	0.875
93.500	148.510	80.006	19.995	103.550	19.823	6.146	0.874
94.000	148.963	80.006	19.994	103.550	19.822	6.239	0.891
94.500	149.401	80.005	19.995	103.550	19.823	6.140	0.903
95.000	149.860	80.006	19.994	103.550	19.820	6.314	0.894
95.500	150.250	80.005	19.995	103.555	19.823	6.153	0.873
96.000	150.732	80.005	19.995	103.557	19.821	6.307	0.861
96.500	151.186	80.006	19.995	103.558	19.818	6.492	0.904
97.000	151.585	80.005	19.993	103.556	19.822	6.178	0.894
97.500	152.024	80.007	19.995	103.556	19.824	6.051	0.845
98.000	152.502	80.007	19.995	103.553	19.823	6.165	0.878
98.500	152.920	80.006	19.994	103.551	19.820	6.326	0.906
99.000	153.382	80.007	19.995	103.549	19.824	6.055	0.888
99.500	153.801	80.007	19.995	103.550	19.821	6.249	0.881
100.000	154.288	80.006	19.996	103.551	19.822	6.179	0.893
100.500	154.719	80.006	19.996	103.554	19.822	6.223	0.912
101.000	155.147	80.005	19.995	103.555	19.824	6.046	0.889
101.500	155.589	80.006	19.995	103.553	19.828	5.826	0.864
102.000	156.008	80.005	19.994	103.552	19.827	5.885	0.865
102.500	156.491	80.006	19.995	103.550	19.822	6.191	0.881
103.000	156.971	80.005	19.994	103.550	19.820	6.328	0.932
103.500	157.423	80.005	19.995	103.545	19.828	5.829	0.948
104.000	157.884	80.005	19.994	103.542	19.823	6.138	0.923
104.500	158.325	80.007	19.996	103.538	19.818	6.448	0.908
105.000	158.765	80.005	19.995	103.534	19.822	6.229	0.891
105.500	159.225	80.005	19.994	103.532	19.823	6.172	0.890
106.000	159.719	80.005	19.995	103.534	19.823	6.130	0.927
106.500	160.199	80.005	19.995	103.536	19.826	5.926	0.964
107.000	160.661	80.006	19.994	103.539	19.826	5.937	0.957
107.500	161.133	80.006	19.994	103.540	19.824	6.089	0.938
108.000	161.583	80.006	19.994	103.538	19.825	5.983	0.928
108.500	162.032	80.005	19.996	103.536	19.825	5.992	0.911
109.000	162.504	80.007	19.996	103.535	19.829	5.743	0.911
109.500	163.011	80.006	19.997	103.530	19.827	5.867	0.950
110.001	163.453	80.004	19.995	103.527	19.826	5.908	0.964
110.501	163.949	80.004	19.994	103.522	19.828	5.813	0.944
111.000	164.418	80.006	19.994	103.522	19.824	6.092	0.951
111.500	164.922	80.005	19.996	103.521	19.830	5.693	0.969
112.001	165.420	80.006	19.995	103.522	19.828	5.834	0.987
112.502	165.880	80.004	19.995	103.522	19.827	5.886	0.980
113.001	166.352	80.006	19.995	103.523	19.826	5.954	0.946
113.500	166.867	80.005	19.996	103.523	19.829	5.725	0.960
114.000	167.308	80.006	19.996	103.524	19.826	5.940	0.971
114.500	167.816	80.004	19.994	103.524	19.825	5.980	0.952
115.000	168.263	80.006	19.995	103.523	19.824	6.053	0.952
115.500	168.792	80.005	19.996	103.523	19.823	6.145	0.965
116.001	169.262	80.006	19.996	103.523	19.827	5.871	0.988
116.501	169.725	80.006	19.996	103.523	19.828	5.835	0.966
117.000	170.190	80.005	19.994	103.523	19.826	5.913	0.930
117.500	170.717	80.005	19.997	103.523	19.824	6.071	0.960
118.000	171.210	80.005	19.996	103.523	19.827	5.904	1.006
118.500	171.657	80.006	19.995	103.522	19.824	6.085	0.980
119.000	172.118	80.005	19.996	103.522	19.828	5.775	0.924
119.500	172.649	80.006	19.996	103.520	19.829	5.748	0.950
120.000	173.142	80.005	19.995	103.520	19.828	5.786	1.008
120.500	173.682	80.006	19.996	103.519	19.828	5.803	1.028
121.000	174.147	80.007	19.995	103.519	19.830	5.669	1.019
121.500	174.610	80.005	19.995	103.519	19.826	5.909	0.967
122.000	175.107	80.005	19.995	103.518	19.828	5.834	0.944
122.500	175.633	80.006	19.995	103.517	19.828	5.813	0.991
123.000	176.105	80.007	19.995	103.513	19.830	5.682	1.011
123.500	176.591	80.006	19.995	103.512	19.825	5.982	0.978
124.000	177.108	80.005	19.994	103.513	19.827	5.884	0.980
124.500	177.599	80.006	19.995	103.516	19.825	6.007	1.006
125.000	178.090	80.005	19.995	103.516	19.829	5.735	0.995
125.500	178.619	80.008	19.995	103.520	19.830	5.688	1.001
126.000	179.111	80.007	19.994	103.522	19.831	5.597	1.020
126.500	179.621	80.006	19.994	103.523	19.828	5.801	1.011
127.000	180.087	80.006	19.995	103.523	19.830	5.690	0.989
127.500	180.628	80.008	19.995	103.521	19.828	5.799	0.992
128.000	181.089	80.007	19.994	103.521	19.829	5.758	1.005
128.500	181.624	80.005	19.994	103.518	19.829	5.729	0.999
129.000	182.124	80.005	19.993	103.517	19.826	5.940	1.015
129.500	182.615	80.006	19.994	103.513	19.825	5.988	1.013
130.000	183.130	80.006	19.995	103.514	19.826	5.926	0.999
130.500	183.612	80.008	19.994	103.514	19.829	5.768	1.002
131.000	184.150	80.008	19.994	103.510	19.826	5.917	1.008
131.500	184.662	80.007	19.993	103.507	19.825	5.992	1.035
132.000	185.168	80.008	19.994	103.508	19.827	5.859	1.034
132.500	185.660	80.007	19.993	103.507	19.826	5.917	1.008
133.000	186.207	80.008	19.994	103.505	19.831	5.602	1.019
133.500	186.725	80.007	19.995	103.510	19.826	5.951	1.053
134.000	187.241	80.007	19.994	103.509	19.827	5.876	1.049
134.500	187.734	80.008	19.994	103.506	19.831	5.636	1.021
135.000	188.274	80.008	19.995	103.502	19.826	5.956	1.020
135.500	188.808	80.007	19.993	103.504	19.833	5.457	1.054
136.000	189.297	80.007	19.994	103.502	19.831	5.587	1.049
136.500	189.822	80.008	19.994	103.499	19.831	5.614	1.019
137.000	190.346	80.007	19.994	103.499	19.826	5.919	1.031
137.500	190.859	80.008	19.994	103.498	19.828	5.786	1.043
138.000	191.357	80.008	19.994	103.494	19.826	5.963	1.024
138.500	191.843	80.008	19.993	103.490	19.831	5.578	0.998
139.000	192.419	80.008	19.994	103.490	19.831	5.632	1.023
139.500	192.890	80.006	19.993	103.488	19.829	5.716	1.054
140.000	193.416	80.008	19.994	103.487	19.831	5.628	1.022
140.500	193.935	80.006	19.994	103.485	19.830	5.665	1.021
141.000	194.466	80.007	19.994	103.485	19.828	5.776	1.048
141.500	194.935	80.006	19.994	103.484	19.825	5.977	1.025
142.000	195.469	80.008	19.994	103.484	19.828	5.827	1.001
142.500	195.971	80.008	19.994	103.484	19.833	5.468	1.019
143.000	196.470	80.006	19.994	103.484	19.827	5.837	1.018
143.500	197.012	80.006	19.994	103.485	19.828	5.835	1.021
144.000	197.498	80.006	19.994	103.487	19.828	5.830	1.035
144.500	198.002	80.005	19.995	103.487	19.827	5.865	1.009
145.000	198.566	80.005	19.995	103.487	19.829	5.760	1.029
145.500	199.036	80.006	19.994	103.487	19.830	5.688	1.051
146.000	199.576	80.006	19.995	103.487	19.833	5.493	1.022
146.500	200.076	80.007	19.995	103.487	19.828	5.819	1.025
147.000	200.611	80.007	19.995	103.488	19.829	5.758	1.037
147.500	201.135	80.006	19.993	103.487	19.828	5.790	1.047
148.000	201.649	80.007	19.995	103.487	19.830	5.699	1.049
148.500	202.153	80.008	19.995	103.487	19.830	5.699	1.028
149.000	202.721	80.008	19.993	103.487	19.831	5.618	1.045
149.500	203.219	80.007	19.994	103.485	19.831	5.618	1.069
150.000	203.746	80.007	19.995	103.483	19.831	5.575	1.046
150.500	204.256	80.007	19.995	103.480	19.828	5.815	1.031
151.000	204.763	80.008	19.994	103.478	19.827	5.855	1.027
151.500	205.301	80.007	19.994	103.472	19.830	5.655	1.031
152.000	205.812	80.006	19.993	103.474	19.834	5.392	1.047
152.500	206.349	80.008	19.994	103.475	19.831	5.580	1.048
153.000	206.893	80.008	19.994	103.476	19.826	5.906	1.065
153.500	207.370	80.007	19.994	103.472	19.825	5.972	1.051
154.000	207.946	80.008	19.994	103.471	19.829	5.750	1.037
154.500	208.422	80.008	19.994	103.468	19.832	5.530	1.052
155.000	208.972	80.009	19.994	103.462	19.827	5.858	1.039
155.500	209.486	80.009	19.995	103.460	19.831	5.596	1.045
156.000	209.994	80.009	19.994	103.467	19.824	6.085	1.043
156.501	210.535	80.009	19.994	103.469	19.825	6.031	1.035
157.000	211.054	80.009	19.994	103.466	19.827	5.865	1.054
157.500	211.571	80.009	19.995	103.464	19.826	5.918	1.048
158.001	212.071	80.008	19.994	103.459	19.828	5.811	1.027
158.500	212.614	80.008	19.994	103.457	19.824	6.036	1.030
159.000	213.137	80.009	19.994	103.460	19.825	5.970	1.054
159.500	213.688	80.009	19.994	103.464	19.824	6.078	1.070
160.000	214.196	80.010	19.993	103.464	19.822	6.214	1.067
160.500	214.703	80.009	19.994	103.464	19.823	6.150	1.038
161.000	215.225	80.009	19.993	103.458	19.819	6.395	1.022
161.500	215.745	80.010	19.994	103.451	19.819	6.397	1.035
162.000	216.249	80.009	19.993	103.446	19.820	6.350	1.033
162.501	216.785	80.009	19.994	103.447	19.819	6.373	1.032
163.000	217.293	80.010	19.994	103.448	19.820	6.312	1.042
163.500	217.827	80.010	19.993	103.448	19.819	6.411	1.043
164.000	218.356	80.009	19.993	103.448	19.819	6.380	1.053
164.500	218.873	80.011	19.993	103.451	19.819	6.373	1.055
165.000	219.390	80.008	19.994	103.451	19.814	6.733	1.040
165.500	219.885	80.009	19.993	103.451	19.814	6.710	1.023
166.000	220.430	80.009	19.995	103.452	19.818	6.490	1.026
166.500	220.898	80.008	19.994	103.452	19.816	6.606	1.027
167.000	221.455	80.009	19.993	103.449	19.819	6.436	1.019
167.500	221.972	80.007	19.994	103.448	19.813	6.796	1.049
168.000	222.496	80.008	19.994	103.448	19.814	6.731	1.057
168.500	223.040	80.007	19.994	103.449	19.809	7.045	1.054
169.000	223.561	80.006	19.994	103.449	19.809	7.061	1.066
169.500	224.067	80.008	19.995	103.449	19.811	6.905	1.046
170.000	224.546	80.006	19.994	103.449	19.806	7.288	1.006
170.500	225.066	80.008	19.995	103.449	19.807	7.183	0.992
171.000	225.612	80.007	19.996	103.449	19.806	7.283	1.032
171.500	226.093	80.006	19.994	103.453	19.806	7.255	1.047
172.000	226.600	80.006	19.995	103.453	19.803	7.466	1.008
172.500	227.094	80.006	19.994	103.454	19.801	7.624	0.994
173.000	227.599	80.007	19.994	103.453	19.802	7.514	1.000
173.500	228.174	80.007	19.995	103.452	19.799	7.740	1.039
174.000	228.690	80.006	19.994	103.448	19.798	7.822	1.086
174.500	229.184	80.007	19.995	103.448	19.801	7.620	1.051
175.000	229.741	80.006	19.994	103.448	19.796	7.937	1.030
175.500	230.262	80.005	19.995	103.448	19.793	8.123	1.064
176.000	230.748	80.006	19.994	103.449	19.793	8.119	1.042
176.500	231.274	80.005	19.994	103.450	19.792	8.236	1.010
177.000	231.793	80.005	19.995	103.452	19.789	8.390	1.029
177.500	232.268	80.005	19.995	103.452	19.785	8.704	1.020
178.000	232.796	80.006	19.995	103.451	19.784	8.720	0.998
178.500	233.325	80.007	19.995	103.452	19.785	8.665	1.030
179.000	233.848	80.005	19.995	103.452	19.783	8.820	1.055
179.501	234.390	80.006	19.995	103.450	19.780	9.038	1.059
180.000	234.919	80.005	19.995	103.450	19.780	9.031	1.068
180.500	235.416	80.007	19.995	103.452	19.773	9.444	1.048
181.000	235.915	80.006	19.996	103.451	19.775	9.369	1.011
181.500	236.443	80.005	19.995	103.452	19.770	9.679	1.012
182.000	236.948	80.004	19.995	103.455	19.773	9.504	1.030
182.500	237.451	80.005	19.995	103.456	19.770	9.670	1.020
183.000	237.979	80.007	19.994	103.453	19.764	10.095	1.020
183.501	238.476	80.005	19.995	103.456	19.763	10.137	1.028
184.001	238.997	80.005	19.994	103.456	19.764	10.098	1.021
184.500	239.478	80.006	19.994	103.452	19.760	10.376	1.010
185.000	239.948	80.007	19.995	103.453	19.762	10.234	0.977
185.500	240.477	80.007	19.994	103.455	19.761	10.272	0.975
186.000	241.011	80.006	19.994	103.453	19.764	10.107	1.031
186.500	241.504	80.006	19.995	103.452	19.762	10.245	1.045
187.000	241.988	80.007	19.996	103.454	19.757	10.550	1.002
187.500	242.539	80.006	19.995	103.458	19.754	10.764	1.006
188.000	242.995	80.007	19.995	103.459	19.754	10.738	1.021
188.500	243.533	80.007	19.996	103.461	19.751	10.917	1.001
189.000	244.019	80.006	19.995	103.463	19.748	11.181	1.009
189.500	244.548	80.007	19.995	103.462	19.747	11.197	1.019
190.000	245.035	80.006	19.994	103.457	19.742	11.525	1.015
190.500	245.529	80.006	19.994	103.454	19.745	11.337	0.998
191.000	246.076	80.006	19.994	103.451	19.742	11.535	1.011
191.500	246.522	80.007	19.994	103.450	19.739	11.720	1.017
192.000	247.055	80.007	19.995	103.451	19.739	11.742	0.986
192.500	247.541	80.006	19.995	103.452	19.736	11.934	0.999
193.000	248.035	80.008	19.995	103.454	19.735	12.019	1.000
193.500	248.538	80.005	19.995	103.454	19.733	12.176	0.989
194.000	249.073	80.007	19.995	103.453	19.728	12.486	1.017
194.500	249.594	80.006	19.994	103.451	19.732	12.199	1.047
195.000	250.098	80.007	19.994	103.450	19.729	12.432	1.040
195.500	250.573	80.006	19.994	103.451	19.722	12.920	1.002
196.000	251.132	80.005	19.994	103.451	19.720	13.033	1.007
196.500	251.619	80.006	19.993	103.452	19.719	13.115	1.040
197.000	252.116	80.007	19.994	103.454	19.718	13.182	1.015
197.500	252.614	80.005	19.995	103.455	19.718	13.143	0.989
198.000	253.098	80.006	19.993	103.454	19.715	13.337	0.989
198.500	253.570	80.006	19.994	103.453	19.712	13.581	0.969
199.000	254.057	80.005	19.994	103.457	19.710	13.668	0.957
199.500	254.589	80.005	19.994	103.459	19.708	13.797	0.988
200.000	255.074	80.006	19.995	103.460	19.705	14.038	1.018
200.500	255.585	80.005	19.995	103.463	19.704	14.068	1.007
201.000	256.093	80.006	19.993	103.464	19.700	14.391	1.008
201.500	256.591	80.003	19.995	103.463	19.697	14.586	1.013
202.000	257.103	80.006	19.995	103.460	19.699	14.455	1.008
202.500	257.575	80.004	19.995	103.464	19.695	14.726	0.997
203.000	258.091	80.006	19.995	103.469	19.689	15.109	0.986
203.500	258.611	80.005	19.995	103.474	19.687	15.244	1.011
204.000	259.106	80.004	19.995	103.479	19.684	15.455	1.025
204.500	259.587	80.005	19.995	103.484	19.683	15.476	0.996
205.000	260.040	80.004	19.996	103.485	19.679	15.798	0.955
205.500	260.519	80.003	19.995	103.484	19.676	15.999	0.933
206.000	261.014	80.005	19.996	103.483	19.673	16.163	0.953
206.500	261.498	80.004	19.995	103.478	19.666	16.655	0.976
207.000	261.968	80.004	19.995	103.479	19.665	16.702	0.966
207.500	262.510	80.004	19.996	103.480	19.658	17.179	0.983
208.000	263.005	80.004	19.995	103.481	19.654	17.414	1.024
208.500	263.476	80.004	19.995	103.481	19.653	17.490	1.001
209.000	263.976	80.004	19.996	103.489	19.644	18.108	0.969
209.500	264.450	80.005	19.995	103.492	19.646	18.011	0.973
210.000	264.909	80.004	19.996	103.498	19.646	17.963	0.954
210.500	265.416	80.004	19.996	103.502	19.641	18.324	0.950
211.000	265.905	80.003	19.995	103.506	19.629	19.115	0.981
211.500	266.425	80.004	19.996	103.505	19.632	18.934	1.002
212.000	266.968	80.004	19.996	103.506	19.618	19.827	1.036
212.500	267.388	80.006	19.997	103.502	19.615	20.088	1.013
213.000	267.922	80.007	19.996	103.505	19.607	20.598	0.958
213.500	268.420	80.006	19.995	103.509	19.605	20.714	0.993
214.000	268.877	80.007	19.995	103.515	19.600	21.048	0.994
214.500	269.364	80.007	19.996	103.520	19.593	21.536	0.950
215.000	269.924	80.007	19.995	103.526	19.594	21.457	0.996
215.500	270.386	80.008	19.995	103.525	19.589	21.822	1.034
216.000	270.906	80.007	19.995	103.525	19.582	22.275	1.002
216.500	271.393	80.007	19.995	103.526	19.575	22.757	0.994
217.000	271.880	80.007	19.994	103.526	19.569	23.111	0.991
217.500	272.423	80.007	19.995	103.527	19.562	23.640	1.003
218.000	272.891	80.007	19.995	103.528	19.556	24.027	1.021
218.500	273.344	80.008	19.994	103.529	19.551	24.333	0.966
219.000	273.856	80.007	19.994	103.528	19.546	24.664	0.943
219.500	274.324	80.007	19.993	103.533	19.538	25.214	0.972
220.000	274.865	80.007	19.994	103.535	19.532	25.650	0.995
220.500	275.236	80.008	19.994	103.541	19.524	26.144	0.961
221.000	275.887	80.008	19.995	103.545	19.513	26.892	0.967
221.500	276.236	80.007	19.994	103.547	19.509	27.139	1.011
222.000	276.701	80.009	19.994	103.549	19.502	27.656	0.907
222.500	277.325	80.006	19.994	103.554	19.495	28.087	0.951
223.000	277.526	80.007	19.994	103.554	19.485	28.765	0.957
223.500	278.480	80.007	19.994	103.556	19.479	29.190	0.990
224.000	278.751	80.008	19.994	103.561	19.472	29.661	1.190
224.500	279.288	80.007	19.994	103.562	19.468	29.921	1.017
225.000	279.801	80.008	19.994	103.562	19.459	30.541	0.929
225.500	280.161	80.006	19.995	103.566	19.450	31.111	0.962
226.000	280.638	80.008	19.994	103.573	19.442	31.668	0.855
226.500	281.210	80.006	19.993	103.580	19.437	31.981	0.943
227.000	281.577	80.007	19.995	103.583	19.426	32.709	0.994
227.500	282.089	80.007	19.994	103.589	19.420	33.123	0.908
228.000	282.625	80.007	19.994	103.592	19.409	33.878	0.963
228.500	283.066	80.006	19.994	103.595	19.404	34.184	1.012
229.000	283.594	80.008	19.994	103.594	19.394	34.863	0.973
229.500	284.064	80.007	19.995	103.598	19.382	35.660	0.984
230.000	284.542	80.008	19.995	103.600	19.383	35.615	0.973
230.500	284.988	80.007	19.995	103.601	19.369	36.525	0.936
231.000	285.501	80.008	19.994	103.602	19.362	37.052	0.942
231.500	285.980	80.007	19.994	103.604	19.351	37.774	0.976
232.000	286.518	80.006	19.994	103.606	19.341	38.402	1.004
232.500	286.973	80.007	19.994	103.609	19.338	38.639	1.004
233.000	287.488	80.008	19.995	103.617	19.326	39.431	0.981
233.500	287.946	80.008	19.995	103.621	19.318	39.952	0.972
234.000	288.440	80.008	19.995	103.624	19.308	40.644	0.963
234.500	288.941	80.008	19.994	103.626	19.301	41.142	0.973
235.000	289.369	80.006	19.994	103.630	19.292	41.735	0.961
235.500	289.916	80.009	19.995	103.630	19.281	42.442	0.952
236.000	290.392	80.008	19.994	103.632	19.272	43.053	1.000
236.500	290.807	80.009	19.995	103.637	19.261	43.773	0.957
237.000	291.363	80.007	19.995	103.646	19.259	43.935	0.931
237.500	291.864	80.010	19.995	103.649	19.247	44.721	1.014
238.000	292.317	80.009	19.995	103.652	19.233	45.676	1.005
238.500	292.808	80.008	19.995	103.658	19.226	46.148	0.949
239.000	293.309	80.011	19.995	103.661	19.215	46.900	0.968
239.500	293.742	80.009	19.995	103.663	19.208	47.359	0.963
240.000	294.284	80.009	19.995	103.667	19.197	48.112	0.955
240.500	294.794	80.008	19.995	103.672	19.189	48.615	1.013
241.000	295.238	80.008	19.995	103.673	19.173	49.699	1.003
241.500	295.721	80.009	19.994	103.676	19.167	50.131	0.941
242.000	296.209	80.009	19.994	103.677	19.160	50.595	0.949
242.500	296.686	80.009	19.994	103.677	19.149	51.293	0.968
243.000	297.164	80.009	19.994	103.678	19.138	52.032	0.960
243.500	297.671	80.008	19.994	103.678	19.131	52.530	0.969
244.000	298.178	80.008	19.994	103.678	19.122	53.109	0.999
244.500	298.674	80.008	19.994	103.679	19.115	53.608	1.009
245.000	299.099	80.009	19.994	103.679	19.102	54.442	0.962
245.500	299.640	80.009	19.993	103.681	19.092	55.115	0.944
246.000	300.077	80.008	19.993	103.683	19.085	55.603	0.972
246.500	300.617	80.007	19.994	103.686	19.076	56.207	0.977
247.000	301.098	80.008	19.994	103.693	19.067	56.830	0.999
247.500	301.581	80.007	19.994	103.701	19.058	57.432	0.993
248.000	302.046	80.008	19.994	103.707	19.042	58.497	0.957
248.500	302.560	80.008	19.994	103.715	19.037	58.821	0.964
249.000	302.979	80.008	19.994	103.719	19.026	59.578	0.956
249.500	303.521	80.008	19.994	103.718	19.018	60.093	0.947
250.000	304.001	80.008	19.995	103.717	19.005	60.982	0.991
250.500	304.501	80.008	19.994	103.717	18.998	61.469	1.000
251.000	304.969	80.008	19.996	103.714	18.987	62.203	0.974
251.500	305.458	80.007	19.995	103.715	18.984	62.361	0.963
252.000	305.959	80.006	19.995	103.721	18.971	63.236	0.973
252.500	306.418	80.006	19.995	103.724	18.963	63.784	0.975
253.000	306.954	80.008	19.994	103.728	18.957	64.191	0.978
253.500	307.417	80.007	19.995	103.732	18.945	64.980	0.997
254.000	307.865	80.006	19.995	103.737	18.939	65.427	0.955
254.500	308.405	80.009	19.995	103.734	18.926	66.284	0.949
255.000	308.875	80.006	19.994	103.737	18.918	66.833	0.999
255.500	309.383	80.007	19.994	103.739	18.907	67.547	0.994
256.000	309.849	80.007	19.994	103.736	18.903	67.825	0.976
256.500	310.392	80.006	19.994	103.736	18.893	68.501	0.991
257.000	310.835	80.006	19.995	103.738	18.886	68.975	0.997
257.500	311.338	80.005	19.993	103.738	18.877	69.573	0.966
258.000	311.862	80.008	19.994	103.739	18.868	70.138	0.987
258.500	312.336	80.005	19.994	103.747	18.862	70.591	1.013
259.000	312.836	80.007	19.994	103.751	18.856	70.957	0.985
259.500	313.343	80.006	19.994	103.752	18.846	71.627	0.990
260.000	313.844	80.007	19.994	103.756	18.841	71.973	1.008
260.500	314.342	80.005	19.994	103.756	18.831	72.679	1.003
261.000	314.818	80.006	19.995	103.756	18.821	73.306	0.987
261.500	315.304	80.008	19.993	103.757	18.814	73.799	0.968
262.000	315.756	80.007	19.993	103.760	18.809	74.113	0.950
262.500	316.290	80.007	19.994	103.761	18.803	74.524	0.962
263.000	316.793	80.006	19.994	103.762	18.795	75.109	1.012
263.500	317.234	80.006	19.994	103.762	18.784	75.838	0.991
264.000	317.775	80.006	19.993	103.763	18.778	76.219	0.963
264.500	318.223	80.007	19.994	103.765	18.772	76.595	0.985
265.000	318.716	80.007	19.992	103.765	18.767	76.951	0.965
265.500	319.197	80.007	19.995	103.763	18.756	77.700	0.957
266.000	319.745	80.006	19.994	103.764	18.750	78.094	1.002
266.500	320.196	80.005	19.994	103.762	18.743	78.603	1.014
267.000	320.714	80.007	19.994	103.762	18.738	78.936	0.985
267.500	321.177	80.006	19.994	103.762	18.728	79.576	0.975
268.000	321.686	80.005	19.993	103.762	18.725	79.804	0.976
268.500	322.159	80.006	19.993	103.762	18.718	80.277	0.977
269.000	322.659	80.006	19.995	103.764	18.711	80.758	0.978
269.500	323.145	80.006	19.995	103.764	18.701	81.391	0.980
270.000	323.655	80.007	19.995	103.768	18.695	81.839	0.991
270.500	324.134	80.006	19.995	103.776	18.691	82.067	0.993
271.000	324.619	80.007	19.995	103.781	18.684	82.529	0.977
271.500	325.118	80.007	19.994	103.783	18.685	82.482	0.973
272.000	325.629	80.006	19.995	103.788	18.671	83.443	0.996
272.500	326.175	80.006	19.994	103.789	18.663	84.006	1.033
273.000	326.588	80.007	19.994	103.789	18.654	84.573	1.009
273.500	327.095	80.006	19.995	103.791	18.648	84.991	0.940
274.000	327.591	80.006	19.995	103.795	18.645	85.171	0.961
274.500	328.098	80.006	19.995	103.797	18.643	85.307	1.003
275.000	328.596	80.008	19.995	103.800	18.636	85.811	1.004
275.500	329.101	80.007	19.996	103.800	18.626	86.469	1.004
276.001	329.586	80.006	19.995	103.800	18.617	87.050	0.997
276.500	330.094	80.006	19.995	103.803	18.611	87.469	0.992
277.000	330.586	80.007	19.995	103.805	18.604	87.953	0.997
277.500	331.094	80.005	19.996	103.813	18.592	88.731	1.000
278.000	331.544	80.006	19.995	103.820	18.586	89.184	0.979
278.500	332.054	80.006	19.995	103.829	18.585	89.235	0.959
279.000	332.565	80.006	19.995	103.833	18.574	89.976	0.990
279.500	333.098	80.006	19.995	103.831	18.566	90.528	1.032
280.000	333.580	80.006	19.995	103.823	18.557	91.141	1.029
280.500	334.067	80.006	19.996	103.821	18.544	91.988	0.992
281.000	334.572	80.006	19.995	103.821	18.541	92.253	0.980
281.500	335.080	80.005	19.994	103.824	18.529	93.064	1.002
282.000	335.588	80.006	19.995	103.835	18.525	93.299	1.015
282.500	336.088	80.007	19.995	103.844	18.513	94.107	1.013
283.000	336.599	80.005	19.994	103.847	18.509	94.398	1.009
283.500	337.084	80.005	19.996	103.847	18.500	94.969	1.003
284.000	337.572	80.005	19.994	103.850	18.493	95.466	0.985
284.500	338.099	80.005	19.994	103.854	18.477	96.551	0.994
285.000	338.599	80.006	19.995	103.859	18.470	97.008	1.021
285.500	339.098	80.009	19.996	103.864	18.458	97.869	1.013
286.000	339.606	80.008	19.996	103.870	18.445	98.689	1.003
286.500	340.114	80.006	19.994	103.873	18.442	98.934	1.011
287.000	340.595	80.007	19.995	103.874	18.429	99.795	1.002
287.500	341.096	80.007	19.996	103.874	18.419	100.467	0.985
288.000	341.621	80.005	19.995	103.875	18.405	101.435	1.004
288.500	342.118	80.005	19.996	103.881	18.393	102.205	1.024
289.000	342.622	80.005	19.995	103.888	18.387	102.642	1.012
289.500	343.136	80.006	19.995	103.896	18.377	103.312	1.009
290.000	343.584	80.005	19.995	103.904	18.361	104.430	0.990
290.500	344.088	80.006	19.995	103.910	18.348	105.291	0.957
291.000	344.596	80.005	19.994	103.916	18.338	105.958	0.982
291.500	345.100	80.006	19.994	103.921	18.326	106.740	1.012
292.000	345.612	80.006	19.995	103.926	18.315	107.528	1.014
292.500	346.104	80.007	19.996	103.930	18.303	108.324	1.010
293.000	346.590	80.006	19.995	103.938	18.288	109.319	0.991
293.500	347.110	80.007	19.995	103.943	18.278	109.963	0.992
294.000	347.641	80.007	19.995	103.947	18.262	111.076	1.029
294.500	348.134	80.006	19.994	103.949	18.247	112.083	1.038
295.000	348.620	80.007	19.995	103.955	18.234	112.960	1.001
295.500	349.109	80.007	19.995	103.963	18.216	114.140	0.976
296.000	349.643	80.006	19.995	103.971	18.206	114.805	0.999
296.500	350.123	80.007	19.995	103.976	18.188	116.032	1.019
297.000	350.641	80.007	19.995	103.979	18.178	116.708	1.006
297.500	351.140	80.009	19.996	103.983	18.167	117.478	1.007
298.000	351.641	80.008	19.997	103.983	18.153	118.385	1.009
298.500	352.112	80.007	19.995	103.983	18.138	119.401	0.986
299.000	352.673	80.008	19.996	103.987	18.118	120.761	1.002
299.500	353.173	80.007	19.996	103.994	18.109	121.363	1.047
300.000	353.695	80.007	19.994	104.001	18.092	122.513	1.041
300.500	354.211	80.008	19.996	104.008	18.077	123.461	1.030
301.000	354.708	80.007	19.995	104.016	18.064	124.370	1.026
301.500	355.229	80.008	19.995	104.023	18.052	125.166	1.016
302.000	355.719	80.008	19.996	104.026	18.037	126.176	1.015
302.500	356.231	80.007	19.994	104.028	18.023	127.121	1.007
303.000	356.731	80.008	19.995	104.028	18.009	128.009	1.007
303.500	357.249	80.008	19.997	104.028	17.994	129.021	1.015
304.000	357.721	80.007	19.994	104.028	17.983	129.757	1.004
304.500	358.265	80.007	19.996	104.029	17.964	131.041	1.003
305.000	358.765	80.007	19.995	104.029	17.959	131.342	1.030
305.500	359.275	80.008	19.996	104.029	17.947	132.162	1.027
306.000	359.755	80.006	19.996	104.029	17.935	132.897	1.000
306.500	360.238	80.008	19.994	104.030	17.925	133.589	0.977
307.000	360.761	80.005	19.995	104.030	17.911	134.485	0.984
307.500	361.252	80.007	19.997	104.030	17.901	135.154	1.010
308.000	361.764	80.008	19.996	104.030	17.889	135.991	1.009
308.500	362.303	80.006	19.995	104.030	17.880	136.552	1.027
309.000	362.782	80.007	19.996	104.029	17.873	137.020	1.034
309.500	363.264	80.008	19.995	104.027	17.866	137.483	0.989
310.000	363.781	80.007	19.996	104.028	17.855	138.170	0.980
310.500	364.272	80.008	19.996	104.027	17.850	138.495	1.004
311.000	364.790	80.007	19.994	104.026	17.844	138.872	1.008
311.500	365.295	80.008	19.996	104.026	17.837	139.324	1.016
312.000	365.826	80.007	19.996	104.024	17.830	139.782	1.030
312.500	366.353	80.007	19.996	104.019	17.832	139.639	1.047
313.000	366.827	80.008	19.996	104.015	17.821	140.324	1.029
313.500	367.336	80.008	19.995	104.007	17.821	140.327	0.992
314.000	367.833	80.008	19.995	103.999	17.814	140.749	0.995
314.500	368.346	80.008	19.996	103.986	17.819	140.349	1.008
315.000	368.862	80.008	19.995	103.977	17.816	140.552	1.019
315.500	369.332	80.008	19.995	103.966	17.821	140.176	1.008
316.000	369.870	80.007	19.994	103.958	17.825	139.904	0.996
316.500	370.352	80.008	19.994	103.949	17.825	139.848	1.014
317.000	370.872	80.009	19.995	103.942	17.833	139.296	1.011
317.500	371.378	80.007	19.994	103.933	17.834	139.239	1.014
318.000	371.878	80.007	19.994	103.923	17.845	138.436	1.016
318.500	372.422	80.007	19.993	103.910	17.849	138.137	1.025
319.000	372.901	80.006	19.993	103.897	17.858	137.529	1.034
319.500	373.428	80.009	19.995	103.887	17.870	136.679	1.014
320.000	373.961	80.009	19.994	103.874	17.879	136.062	1.033
320.500	374.428	80.009	19.994	103.860	17.898	134.787	1.030
321.001	374.982	80.007	19.993	103.845	17.907	134.170	1.011
321.501	375.459	80.009	19.994	103.830	17.924	132.984	1.026
322.000	375.961	80.010	19.994	103.816	17.941	131.805	1.005
322.500	376.512	80.008	19.993	103.800	17.961	130.465	1.015
323.000	376.995	80.008	19.992	103.784	17.985	128.882	1.044
323.500	377.491	80.008	19.993	103.768	18.002	127.700	1.007
324.000	378.017	80.009	19.992	103.751	18.029	125.892	1.001
324.500	378.507	80.009	19.995	103.729	18.051	124.414	1.019
325.000	379.036	80.008	19.994	103.711	18.079	122.513	1.017
325.500	379.528	80.009	19.993	103.688	18.103	120.893	1.020
326.000	380.032	80.009	19.993	103.667	18.128	119.254	1.009
326.500	380.560	80.008	19.993	103.644	18.160	117.076	1.014
327.000	381.090	80.009	19.994	103.627	18.187	115.290	1.045
327.500	381.557	80.009	19.994	103.605	18.227	112.613	1.027
328.000	382.059	80.008	19.993	103.587	18.258	110.538	0.983
328.500	382.554	80.009	19.994	103.569	18.293	108.222	0.983
329.000	383.082	80.008	19.994	103.552	18.330	105.748	1.010
329.500	383.582	80.009	19.994	103.533	18.366	103.392	1.025
330.000	384.093	80.008	19.993	103.516	18.403	100.917	1.020
330.500	384.608	80.009	19.994	103.492	18.441	98.394	1.019
331.000	385.102	80.010	19.994	103.468	18.477	95.935	1.017
331.500	385.633	80.008	19.994	103.446	18.518	93.202	1.017
332.000	386.138	80.009	19.995	103.424	18.557	90.625	1.031
332.500	386.594	80.006	19.992	103.402	18.600	87.775	0.999
333.000	387.185	80.008	19.993	103.388	18.634	85.474	1.004
333.500	387.654	80.009	19.993	103.380	18.679	82.469	1.053
334.000	388.166	80.007	19.994	103.369	18.717	79.944	1.021
334.500	388.677	80.006	19.993	103.357	18.757	77.265	1.002
335.000	389.186	80.005	19.993	103.348	18.797	74.620	1.021
335.500	389.699	80.006	19.995	103.338	18.839	71.807	1.021
336.000	390.175	80.006	19.995	103.323	18.881	68.995	1.005
336.500	390.744	80.007	19.994	103.311	18.915	66.765	1.017
337.000	391.215	80.006	19.994	103.309	18.949	64.500	1.043
337.500	391.751	80.007	19.994	103.305	18.993	61.552	1.023
338.000	392.242	80.007	19.995	103.300	19.028	59.188	1.017
338.500	392.767	80.006	19.993	103.300	19.061	57.004	1.022
339.000	393.280	80.006	19.994	103.301	19.097	54.610	1.028
339.500	393.811	80.006	19.994	103.304	19.128	52.497	1.041
340.000	394.290	80.005	19.993	103.308	19.159	50.438	1.027
340.500	394.841	80.006	19.993	103.313	19.190	48.357	1.020
341.000	395.350	80.006	19.994	103.318	19.222	46.263	1.045
341.500	395.816	80.005	19.995	103.322	19.247	44.575	1.017
342.000	396.370	80.007	19.994	103.321	19.277	42.577	0.998
342.500	396.847	80.006	19.994	103.321	19.299	41.096	1.026
343.000	397.393	80.005	19.993	103.324	19.326	39.290	1.027
343.500	397.868	80.006	19.994	103.326	19.350	37.691	1.022
344.000	398.365	80.006	19.994	103.330	19.372	36.246	0.997
344.500	398.875	80.007	19.994	103.332	19.399	34.421	0.989
345.000	399.395	80.006	19.993	103.332	19.417	33.208	1.019
345.500	399.920	80.006	19.993	103.333	19.432	32.232	1.038
346.000	400.412	80.006	19.994	103.334	19.450	31.046	1.031
346.500	400.953	80.008	19.996	103.334	19.461	30.255	1.024
347.000	401.430	80.007	19.995	103.335	19.480	28.987	1.025
347.500	401.942	80.007	19.995	103.335	19.493	28.156	1.004
348.000	402.441	80.006	19.994	103.335	19.504	27.400	1.000
348.500	402.916	80.007	19.995	103.334	19.524	26.107	0.993
349.000	403.435	80.007	19.995	103.333	19.535	25.353	0.984
349.500	403.938	80.007	19.995	103.332	19.549	24.429	1.008
350.000	404.466	80.008	19.995	103.332	19.554	24.056	1.027
350.500	404.952	80.008	19.994	103.327	19.559	23.713	1.023
351.000	405.463	80.007	19.994	103.319	19.573	22.790	1.005
351.500	405.985	80.008	19.995	103.316	19.577	22.544	1.015
352.000	406.466	80.008	19.994	103.314	19.581	22.254	1.018
352.500	406.960	80.008	19.994	103.310	19.590	21.684	0.989
353.000	407.456	80.006	19.994	103.307	19.603	20.788	0.982
353.500	408.021	80.007	19.993	103.312	19.607	20.561	1.025
354.000	408.503	80.007	19.993	103.313	19.613	20.125	1.054
354.500	408.992	80.008	19.994	103.312	19.623	19.470	1.009
355.000	409.512	80.007	19.993	103.311	19.625	19.324	0.990
355.501	410.018	80.008	19.994	103.315	19.635	18.700	1.017
356.000	410.477	80.008	19.994	103.313	19.633	18.787	0.995
356.500	411.025	80.007	19.994	103.313	19.636	18.627	0.986
357.000	411.514	80.009	19.993	103.315	19.643	18.125	1.022
357.500	412.008	80.007	19.994	103.318	19.643	18.153	1.010
358.000	412.580	80.006	19.992	103.317	19.657	17.222	1.025
358.500	413.042	80.007	19.994	103.314	19.656	17.266	1.050
359.000	413.530	80.008	19.994	103.309	19.655	17.340	0.992
359.500	414.003	80.008	19.994	103.303	19.660	16.996	0.955
360.000	414.503	80.006	19.993	103.297	19.664	16.719	0.967
360.500	415.010	80.007	19.993	103.292	19.667	16.540	0.990
361.000	415.498	80.007	19.994	103.292	19.672	16.190	1.001
361.500	416.007	80.007	19.994	103.297	19.672	16.173	0.996
362.000	416.494	80.007	19.993	103.301	19.675	16.010	0.996
362.500	417.055	80.008	19.993	103.306	19.681	15.636	1.021
363.000	417.514	80.007	19.993	103.311	19.682	15.525	1.034
363.500	418.023	80.008	19.996	103.314	19.684	15.419	0.994
364.000	418.518	80.007	19.994	103.315	19.686	15.283	0.986
364.500	419.005	80.007	19.993	103.312	19.688	15.113	0.993
365.000	419.511	80.007	19.995	103.306	19.693	14.771	0.987
365.500	419.977	80.006	19.995	103.305	19.697	14.559	0.982
366.000	420.497	80.006	19.993	103.308	19.700	14.328	0.979
366.500	421.014	80.007	19.994	103.309	19.696	14.579	1.012
367.000	421.484	80.006	19.995	103.315	19.696	14.629	1.012
367.500	422.010	80.005	19.994	103.321	19.704	14.075	0.991
368.000	422.504	80.006	19.994	103.322	19.702	14.207	1.008
368.500	423.021	80.006	19.996	103.321	19.706	13.943	1.016
369.000	423.505	80.007	19.994	103.322	19.711	13.634	1.006
369.500	424.017	80.006	19.996	103.319	19.712	13.548	0.999
370.000	424.479	80.006	19.995	103.316	19.705	13.988	0.985
370.500	425.021	80.005	19.995	103.319	19.713	13.490	0.989
371.000	425.525	80.006	19.994	103.320	19.711	13.607	1.025
371.500	426.035	80.006	19.994	103.320	19.716	13.297	1.030
372.000	426.534	80.007	19.995	103.323	19.718	13.143	1.011
372.500	427.042	80.006	19.995	103.322	19.715	13.351	1.008
373.000	427.516	80.006	19.995	103.317	19.720	12.984	0.994
373.500	428.023	80.007	19.995	103.316	19.719	13.093	0.981
374.000	428.524	80.006	19.996	103.314	19.721	12.945	0.995
374.500	429.023	80.008	19.995	103.310	19.723	12.772	1.004
375.000	429.526	80.008	19.995	103.308	19.724	12.763	1.001
375.500	430.012	80.008	19.995	103.309	19.725	12.691	0.995
376.000	430.556	80.008	19.996	103.306	19.731	12.242	1.009
376.500	431.022	80.008	19.996	103.302	19.730	12.352	1.020
377.000	431.542	80.007	19.994	103.300	19.726	12.595	0.998
377.500	432.016	80.007	19.995	103.304	19.730	12.302	0.990
378.000	432.555	80.009	19.994	103.303	19.734	12.092	1.004
378.500	433.040	80.007	19.996	103.302	19.730	12.323	1.018
379.000	433.537	80.007	19.995	103.304	19.731	12.248	1.003
379.500	434.076	80.006	19.994	103.308	19.729	12.387	1.010
380.000	434.621	80.010	19.995	103.308	19.738	11.817	1.060
380.500	435.091	80.008	19.994	103.309	19.736	11.951	1.049
381.000	435.606	80.007	19.994	103.307	19.741	11.599	1.000
381.500	436.085	80.008	19.995	103.302	19.738	11.785	0.990
382.000	436.593	80.007	19.995	103.297	19.743	11.490	0.991
382.500	437.090	80.009	19.995	103.291	19.746	11.268	0.996
383.000	437.636	80.009	19.996	103.289	19.744	11.402	1.024
383.500	438.124	80.009	19.995	103.289	19.745	11.330	1.038
384.000	438.577	80.007	19.995	103.291	19.746	11.261	0.987
384.500	439.122	80.009	19.995	103.290	19.743	11.471	0.970
385.000	439.580	80.008	19.995	103.291	19.747	11.219	1.001
385.500	440.053	80.008	19.996	103.291	19.747	11.198	0.967
386.000	440.640	80.008	19.993	103.292	19.747	11.225	0.995
386.500	441.094	80.007	19.995	103.291	19.751	10.907	1.050
387.000	441.585	80.008	19.995	103.291	19.751	10.903	0.993
387.500	442.062	80.007	19.995	103.293	19.751	10.953	0.957
388.000	442.562	80.008	19.993	103.295	19.750	10.987	0.972
388.500	443.113	80.008	19.994	103.294	19.751	10.899	1.014
389.000	443.562	80.008	19.994	103.294	19.760	10.338	1.026
389.500	444.090	80.006	19.994	103.293	19.756	10.626	0.989
390.000	444.571	80.008	19.996	103.292	19.756	10.628	0.993
390.500	445.038	80.008	19.995	103.289	19.761	10.265	0.978
391.000	445.532	80.007	19.994	103.289	19.760	10.359	0.954
391.500	446.075	80.007	19.995	103.289	19.761	10.281	0.999
392.000	446.523	80.007	19.995	103.290	19.762	10.173	1.014
392.500	446.979	80.007	19.996	103.291	19.765	9.991	0.947
393.000	447.513	80.006	19.995	103.292	19.764	10.086	0.947
393.500	448.017	80.006	19.995	103.292	19.761	10.231	1.014
394.000	448.489	80.008	19.995	103.292	19.770	9.694	1.007
394.500	448.997	80.007	19.995	103.292	19.766	9.928	0.977
395.000	449.499	80.007	19.996	103.290	19.767	9.882	0.995
395.500	449.989	80.005	19.996	103.288	19.770	9.667	1.002
396.001	450.497	80.006	19.995	103.288	19.771	9.591	0.995
396.500	450.969	80.007	19.997	103.288	19.772	9.555	0.989
397.000	451.461	80.008	19.995	103.289	19.774	9.371	0.972
397.500	451.969	80.005	19.995	103.290	19.773	9.465	0.982
398.000	452.461	80.008	19.996	103.289	19.776	9.256	1.000
398.500	452.949	80.007	19.994	103.290	19.773	9.431	0.990
399.000	453.452	80.007	19.995	103.290	19.780	8.974	0.985
399.500	453.933	80.008	19.995	103.290	19.776	9.229	0.987
400.000	454.452	80.007	19.995	103.290	19.776	9.241	0.992
400.500	454.932	80.008	19.997	103.290	19.779	9.089	1.000
401.000	455.411	80.007	19.996	103.290	19.778	9.112	0.979
401.500	455.904	80.006	19.995	103.289	19.780	8.964	0.966
402.000	456.380	80.007	19.996	103.288	19.785	8.656	0.970
402.500	456.918	80.008	19.995	103.287	19.781	8.955	0.991
403.000	457.390	80.009	19.996	103.288	19.787	8.499	1.012
403.500	457.932	80.009	19.994	103.288	19.786	8.576	1.012
404.000	458.342	80.009	19.996	103.288	19.789	8.396	0.982
404.500	458.912	80.009	19.996	103.288	19.790	8.360	0.966
405.000	459.431	80.009	19.994	103.289	19.790	8.360	1.034
405.500	459.916	80.009	19.994	103.289	19.787	8.519	1.047
406.000	460.422	80.009	19.996	103.289	19.792	8.183	0.998
406.500	460.853	80.009	19.995	103.290	19.789	8.369	0.964
407.000	461.342	80.009	19.994	103.290	19.794	8.078	0.928
407.500	461.834	80.009	19.993	103.289	19.792	8.201	0.951
408.000	462.345	80.008	19.996	103.289	19.793	8.124	0.992
408.500	462.869	80.008	19.994	103.289	19.791	8.247	1.020
409.000	463.358	80.010	19.995	103.289	19.794	8.061	1.024
409.500	463.842	80.009	19.994	103.290	19.795	7.977	0.992
410.000	464.326	80.008	19.995	103.289	19.796	7.897	0.970
410.500	464.778	80.009	19.994	103.288	19.795	8.006	0.953
411.000	465.280	80.009	19.995	103.283	19.799	7.745	0.945
411.500	465.800	80.008	19.993	103.281	19.800	7.670	0.988
412.000	466.269	80.009	19.993	103.278	19.801	7.563	1.005
412.500	466.788	80.010	19.994	103.276	19.803	7.468	0.988
413.000	467.271	80.009	19.994	103.274	19.799	7.711	0.995
413.500	467.753	80.009	19.994	103.276	19.805	7.359	0.983
414.000	468.239	80.007	19.994	103.279	19.801	7.583	0.967
414.500	468.733	80.008	19.993	103.282	19.806	7.245	0.974
415.000	469.241	80.008	19.994	103.285	19.806	7.259	0.991
415.500	469.699	80.009	19.994	103.288	19.810	6.991	0.984
416.000	470.191	80.009	19.995	103.286	19.803	7.441	0.958
416.500	470.711	80.008	19.994	103.286	19.808	7.154	0.981
417.000	471.208	80.007	19.994	103.284	19.808	7.146	1.015
417.500	471.683	80.007	19.993	103.284	19.806	7.261	0.995
418.001	472.202	80.007	19.994	103.285	19.805	7.327	0.984
418.500	472.667	80.007	19.994	103.285	19.809	7.043	0.989
419.000	473.183	80.006	19.995	103.285	19.807	7.198	0.982
419.500	473.688	80.007	19.995	103.285	19.810	6.987	1.001
420.000	474.210	80.008	19.995	103.284	19.804	7.361	1.024
420.500	474.675	80.007	19.994	103.284	19.809	7.028	1.007
421.000	475.200	80.006	19.994	103.284	19.813	6.803	0.988
421.500	475.711	80.007	19.994	103.285	19.814	6.748	1.013
422.000	476.178	80.007	19.994	103.283	19.812	6.846	1.007
422.500	476.718	80.007	19.994	103.285	19.811	6.903	0.993
423.000	477.242	80.006	19.995	103.284	19.809	7.053	1.036
423.500	477.680	80.006	19.995	103.285	19.813	6.794	1.013
424.000	478.156	80.007	19.994	103.285	19.813	6.797	0.938
424.500	478.756	80.007	19.994	103.288	19.818	6.470	0.996
425.000	479.164	80.007	19.994	103.288	19.818	6.461	1.042
425.500	479.689	80.008	19.994	103.288	19.816	6.565	0.970
426.000	480.185	80.006	19.994	103.289	19.815	6.674	0.977
426.500	480.732	80.006	19.994	103.289	19.820	6.345	1.032
427.000	481.207	80.006	19.994	103.289	19.820	6.340	1.033
427.500	481.736	80.005	19.996	103.288	19.821	6.282	1.013
428.000	482.243	80.006	19.995	103.289	19.817	6.520	1.019
428.500	482.719	80.008	19.995	103.289	19.822	6.221	1.009
429.000	483.259	80.008	19.994	103.289	19.819	6.364	1.000
429.500	483.761	80.007	19.995	103.289	19.819	6.418	1.029
430.000	484.248	80.007	19.995	103.289	19.824	6.035	1.015
430.500	484.760	80.006	19.994	103.289	19.823	6.139	0.994
431.000	485.255	80.007	19.995	103.287	19.820	6.345	1.003
431.500	485.825	80.006	19.994	103.287	19.821	6.245	1.036
432.000	486.297	80.007	19.994	103.287	19.826	5.895	1.053
432.500	486.793	80.007	19.996	103.287	19.821	6.247	1.005
433.000	487.351	80.007	19.994	103.287	19.822	6.166	1.011
433.500	487.823	80.006	19.994	103.287	19.825	6.005	1.042
434.000	488.338	80.006	19.994	103.287	19.822	6.211	1.009
434.501	488.844	80.007	19.994	103.285	19.821	6.289	1.004
435.001	489.354	80.008	19.994	103.284	19.825	6.000	1.019
435.500	489.917	80.008	19.995	103.285	19.825	5.984	1.044
436.000	490.421	80.008	19.995	103.285	19.827	5.857	1.069
436.500	490.901	80.006	19.994	103.285	19.828	5.761	1.025
437.000	491.433	80.008	19.995	103.285	19.824	6.054	0.998
437.500	491.933	80.008	19.994	103.284	19.825	5.995	1.023
438.000	492.440	80.007	19.994	103.284	19.823	6.095	1.020
438.500	492.937	80.008	19.995	103.281	19.826	5.950	1.005
439.000	493.489	80.008	19.995	103.278	19.829	5.716	1.026
439.500	494.010	80.006	19.994	103.276	19.829	5.757	1.061
440.000	494.555	80.007	19.994	103.277	19.828	5.800	1.070
440.500	495.060	80.008	19.995	103.275	19.827	5.836	1.058
441.000	495.576	80.007	19.995	103.277	19.829	5.719	1.035
441.500	496.082	80.007	19.994	103.280	19.832	5.528	1.021
442.000	496.620	80.007	19.994	103.284	19.830	5.664	1.033
442.500	497.113	80.009	19.996	103.283	19.830	5.655	1.038
443.000	497.652	80.008	19.994	103.283	19.832	5.546	1.032
443.500	498.161	80.006	19.994	103.284	19.826	5.938	1.040
444.000	498.673	80.006	19.994	103.281	19.833	5.450	1.035
444.500	499.222	80.007	19.995	103.279	19.828	5.816	1.041
445.000	499.713	80.008	19.994	103.278	19.828	5.795	1.050
445.500	500.216	80.008	19.994	103.280	19.829	5.727	1.017
446.000	500.732	80.007	19.994	103.280	19.831	5.600	1.007
446.500	501.278	80.005	19.994	103.281	19.829	5.745	1.041
447.000	501.762	80.007	19.994	103.283	19.836	5.280	1.046
447.500	502.257	80.006	19.994	103.285	19.833	5.446	1.004
448.000	502.793	80.008	19.995	103.283	19.838	5.131	1.005
448.500	503.284	80.007	19.994	103.282	19.839	5.041	1.029
449.000	503.794	80.007	19.995	103.282	19.837	5.216	1.014
449.500	504.343	80.006	19.993	103.281	19.831	5.606	1.030
450.000	504.853	80.006	19.995	103.280	19.834	5.400	1.058
450.500	505.399	80.005	19.994	103.280	19.834	5.364	1.058
451.000	505.832	80.006	19.995	103.283	19.834	5.363	1.018
451.500	506.370	80.006	19.995	103.284	19.833	5.456	0.975
452.000	506.874	80.007	19.993	103.285	19.831	5.619	1.007
452.500	507.417	80.008	19.993	103.283	19.837	5.181	1.044
453.000	507.944	80.007	19.995	103.285	19.837	5.168	1.058
453.500	508.446	80.007	19.994	103.285	19.835	5.334	1.049
454.000	508.970	80.006	19.995	103.285	19.839	5.050	1.027
454.500	509.505	80.006	19.995	103.287	19.838	5.093	1.043
455.000	510.043	80.007	19.994	103.289	19.838	5.113	1.066
455.500	510.537	80.008	19.996	103.288	19.836	5.288	1.053
456.000	511.052	80.007	19.995	103.287	19.841	4.934	1.021
456.500	511.590	80.006	19.995	103.287	19.836	5.233	1.031
457.000	512.085	80.005	19.995	103.287	19.839	5.032	1.043
457.500	512.579	80.007	19.995	103.287	19.839	5.059	1.011
458.000	513.082	80.005	19.994	103.289	19.846	4.612	0.993
458.500	513.609	80.007	19.994	103.289	19.842	4.873	1.014
459.000	514.133	80.006	19.995	103.286	19.839	5.085	1.041
459.500	514.662	80.006	19.995	103.278	19.839	5.026	1.052
460.000	515.210	80.008	19.994	103.271	19.842	4.840	1.065
460.500	515.689	80.006	19.995	103.264	19.842	4.874	1.052
461.000	516.217	80.007	19.994	103.262	19.842	4.840	1.017
461.500	516.755	80.008	19.996	103.261	19.843	4.801	1.036
462.000	517.310	80.008	19.995	103.265	19.841	4.944	1.080
462.500	517.840	80.008	19.995	103.272	19.841	4.916	1.089
463.001	518.326	80.008	19.996	103.278	19.839	5.041	1.051
463.500	518.854	80.009	19.994	103.275	19.842	4.875	1.015
464.000	519.362	80.009	19.995	103.271	19.841	4.923	1.025
464.500	519.894	80.008	19.995	103.268	19.844	4.724	1.037
465.000	520.402	80.007	19.995	103.267	19.843	4.767	1.040
465.500	520.891	80.009	19.995	103.266	19.846	4.560	1.019
466.000	521.430	80.008	19.995	103.272	19.842	4.876	1.013
466.500	521.909	80.008	19.994	103.279	19.844	4.721	1.024
467.000	522.463	80.008	19.996	103.283	19.844	4.726	1.025
467.500	522.985	80.006	19.994	103.281	19.845	4.687	1.054
468.000	523.507	80.008	19.995	103.276	19.843	4.758	1.060
468.500	524.000	80.009	19.995	103.272	19.843	4.769	1.030
469.000	524.559	80.008	19.994	103.265	19.840	5.011	1.033
469.500	525.056	80.008	19.994	103.260	19.840	4.988	1.054
470.000	525.589	80.008	19.995	103.257	19.845	4.664	1.043
470.500	526.098	80.009	19.994	103.259	19.841	4.907	1.036
471.000	526.583	80.008	19.995	103.259	19.843	4.792	1.018
471.500	527.158	80.010	19.994	103.258	19.844	4.699	1.027
472.000	527.630	80.009	19.995	103.259	19.846	4.561	1.053
472.500	528.172	80.009	19.994	103.264	19.841	4.953	1.031
473.000	528.679	80.007	19.994	103.263	19.845	4.626	1.032
473.500	529.190	80.008	19.995	103.265	19.845	4.644	1.033
474.000	529.685	80.007	19.994	103.265	19.846	4.583	1.012
474.500	530.182	80.006	19.994	103.264	19.843	4.774	0.999
475.000	530.677	80.008	19.995	103.260	19.843	4.760	0.992
475.500	531.207	80.007	19.994	103.260	19.846	4.563	1.009
476.000	531.719	80.007	19.995	103.257	19.845	4.670	1.033
476.500	532.258	80.007	19.993	103.257	19.847	4.495	1.047
477.000	532.745	80.008	19.995	103.258	19.847	4.499	1.039
477.500	533.261	80.007	19.993	103.260	19.848	4.444	1.014
478.000	533.794	80.008	19.994	103.258	19.846	4.578	1.026
478.500	534.303	80.008	19.994	103.258	19.848	4.424	1.046
479.000	534.808	80.008	19.994	103.261	19.844	4.713	1.028
479.500	535.324	80.008	19.994	103.267	19.845	4.658	1.018
480.000	535.843	80.008	19.994	103.270	19.847	4.498	1.028
480.500	536.347	80.008	19.994	103.274	19.847	4.491	1.029
481.000	536.865	80.008	19.994	103.275	19.850	4.352	1.022
481.500	537.370	80.010	19.995	103.270	19.847	4.556	1.022
482.000	537.878	80.007	19.994	103.262	19.848	4.434	1.018
482.500	538.383	80.008	19.993	103.256	19.851	4.286	1.013
483.000	538.883	80.008	19.995	103.253	19.849	4.386	1.010
483.500	539.402	80.009	19.995	103.253	19.852	4.179	1.012
484.000	539.904	80.008	19.996	103.255	19.852	4.179	1.020
484.500	540.388	80.008	19.995	103.255	19.848	4.441	1.004
485.000	540.868	80.009	19.995	103.254	19.845	4.657	0.975
485.500	541.393	80.008	19.996	103.252	19.849	4.400	0.984
486.000	541.893	80.010	19.995	103.251	19.852	4.170	1.015
486.500	542.405	80.008	19.996	103.249	19.849	4.361	1.019
487.000	542.924	80.008	19.997	103.251	19.851	4.280	1.021
487.500	543.407	80.008	19.995	103.259	19.847	4.497	1.016
488.000	543.915	80.008	19.995	103.263	19.846	4.559	0.996
488.500	544.430	80.010	19.995	103.264	19.851	4.277	1.007
489.000	544.905	80.009	19.997	103.263	19.855	4.018	1.007
489.500	545.404	80.009	19.996	103.260	19.853	4.152	0.982
490.000	545.941	80.008	19.996	103.252	19.852	4.162	1.005
490.500	546.429	80.007	19.996	103.249	19.847	4.534	1.030
491.000	546.947	80.009	19.994	103.248	19.851	4.245	1.016
491.500	547.448	80.009	19.995	103.249	19.851	4.238	1.013
492.000	547.957	80.009	19.995	103.249	19.854	4.052	1.015
492.500	548.469	80.009	19.995	103.249	19.852	4.186	1.015
493.000	548.985	80.010	19.995	103.249	19.849	4.388	1.025
493.500	549.478	80.010	19.996	103.249	19.852	4.184	1.019
494.000	549.954	80.010	19.996	103.248	19.848	4.431	0.989
494.500	550.457	80.009	19.996	103.248	19.855	3.987	0.974
495.000	550.990	80.010	19.995	103.248	19.853	4.132	1.008
495.500	551.455	80.010	19.996	103.247	19.852	4.220	1.018
496.000	551.998	80.009	19.994	103.246	19.850	4.295	1.003
496.500	552.519	80.008	19.996	103.246	19.851	4.257	1.036
497.000	553.018	80.009	19.995	103.247	19.850	4.320	1.042
497.500	553.485	80.008	19.996	103.248	19.851	4.250	0.993
498.001	554.028	80.007	19.995	103.249	19.852	4.157	0.988
498.500	554.505	80.007	19.996	103.250	19.853	4.138	1.015
499.000	555.003	80.006	19.996	103.250	19.857	3.834	0.997
499.500	555.529	80.009	19.996	103.249	19.853	4.143	1.000
500.000	556.008	80.006	19.995	103.248	19.857	3.855	1.015
500.500	556.522	80.006	19.995	103.248	19.855	3.964	0.999
501.000	557.030	80.007	19.996	103.247	19.859	3.735	1.007
501.500	557.499	80.005	19.996	103.248	19.856	3.927	1.000
502.000	557.994	80.005	19.995	103.250	19.859	3.702	0.970
502.500	558.527	80.007	19.995	103.251	19.855	4.013	0.996
503.000	559.022	80.007	19.995	103.251	19.857	3.823	1.028
503.500	559.526	80.007	19.995	103.251	19.857	3.846	1.013
504.000	560.013	80.006	19.996	103.250	19.859	3.698	0.995
504.500	560.471	80.006	19.995	103.249	19.855	3.995	0.968
505.000	560.998	80.007	19.994	103.249	19.859	3.750	0.965
505.500	561.499	80.006	19.995	103.252	19.858	3.776	1.006
506.000	562.000	80.006	19.995	103.253	19.854	4.088	1.015
506.500	562.495	80.006	19.994	103.253	19.854	4.077	0.999
507.001	562.998	80.008	19.995	103.253	19.850	4.334	0.997
507.500	563.507	80.008	19.995	103.254	19.858	3.787	1.005
508.000	563.998	80.006	19.994	103.250	19.853	4.104	1.006
508.500	564.497	80.007	19.994	103.250	19.856	3.905	0.995
509.000	564.941	80.006	19.995	103.250	19.854	4.036	0.966
509.500	565.476	80.006	19.994	103.252	19.856	3.934	0.961
510.000	566.001	80.008	19.995	103.254	19.855	4.004	1.020
510.500	566.482	80.008	19.995	103.253	19.861	3.601	1.033
511.000	566.968	80.005	19.995	103.254	19.857	3.828	0.986
511.500	567.501	80.007	19.995	103.254	19.859	3.748	0.993
512.000	567.982	80.007	19.993	103.252	19.860	3.662	1.017
512.500	568.525	80.008	19.995	103.251	19.857	3.887	1.019
513.000	569.027	80.009	19.995	103.253	19.856	3.900	1.034
513.500	569.530	80.006	19.995	103.253	19.860	3.651	1.025
514.000	570.036	80.007	19.994	103.253	19.860	3.682	1.007
514.500	570.555	80.007	19.994	103.253	19.857	3.832	1.017
515.000	571.035	80.007	19.995	103.253	19.856	3.937	1.012
515.500	571.548	80.007	19.995	103.251	19.858	3.773	0.996
516.000	572.051	80.008	19.994	103.250	19.858	3.775	1.004
516.500	572.550	80.007	19.995	103.250	19.859	3.728	1.008
517.000	573.020	80.007	19.994	103.251	19.856	3.919	0.985
517.500	573.542	80.007	19.995	103.251	19.859	3.750	0.981
518.000	574.037	80.007	19.994	103.251	19.855	3.957	1.005
518.500	574.564	80.007	19.995	103.252	19.857	3.852	1.020
519.000	575.032	80.006	19.995	103.252	19.857	3.823	1.008
519.500	575.571	80.008	19.995	103.251	19.861	3.573	1.001
520.000	576.074	80.008	19.994	103.252	19.854	4.038	1.025
520.500	576.574	80.008	19.996	103.252	19.854	4.039	1.023
521.000	577.034	80.007	19.995	103.252	19.855	3.984	0.981
521.500	577.580	80.008	19.994	103.252	19.854	4.061	0.983
522.000	578.057	80.007	19.994	103.251	19.856	3.909	1.014
522.500	578.587	80.007	19.995	103.251	19.856	3.937	1.015
523.000	579.068	80.006	19.994	103.251	19.855	3.991	1.009
523.500	579.597	80.007	19.994	103.251	19.855	4.016	1.011
524.000	580.068	80.008	19.995	103.251	19.859	3.752	1.005
524.500	580.583	80.007	19.993	103.252	19.855	3.979	0.993
525.000	581.067	80.008	19.994	103.252	19.855	3.961	0.993
525.500	581.610	80.007	19.994	103.252	19.857	3.832	1.013
526.000	582.111	80.006	19.994	103.248	19.855	3.982	1.035
526.500	582.586	80.006	19.995	103.248	19.855	3.998	1.010
527.000	583.109	80.008	19.994	103.248	19.856	3.900	0.987
527.500	583.577	80.007	19.994	103.247	19.856	3.930	0.995
528.000	584.096	80.007	19.994	103.246	19.857	3.878	0.989
528.500	584.606	80.007	19.994	103.251	19.857	3.850	1.008
529.000	585.088	80.008	19.995	103.251	19.853	4.109	1.011
529.500	585.614	80.007	19.994	103.252	19.853	4.125	1.000
530.000	586.101	80.006	19.995	103.252	19.860	3.686	1.010
530.500	586.617	80.006	19.995	103.253	19.857	3.843	1.008
531.000	587.090	80.006	19.994	103.254	19.853	4.109	0.996
531.500	587.579	80.007	19.995	103.253	19.854	4.056	0.976
532.000	588.116	80.007	19.995	103.254	19.854	4.023	0.994
532.500	588.597	80.006	19.995	103.254	19.859	3.727	1.022
533.000	589.085	80.006	19.995	103.253	19.857	3.834	0.994
533.500	589.571	80.006	19.995	103.253	19.853	4.108	0.972
534.000	590.083	80.007	19.994	103.253	19.855	3.959	0.986
534.501	590.589	80.007	19.995	103.253	19.858	3.757	1.008
535.000	591.063	80.007	19.995	103.253	19.858	3.821	0.999
535.500	591.591	80.006	19.994	103.254	19.856	3.927	0.991
536.000	592.083	80.006	19.994	103.254	19.856	3.952	1.011
536.500	592.599	80.006	19.994	103.255	19.862	3.500	1.014
537.000	593.114	80.007	19.994	103.254	19.852	4.200	1.020
537.500	593.608	80.005	19.994	103.255	19.856	3.934	1.020
538.000	594.142	80.006	19.994	103.254	19.850	4.341	1.018
538.500	594.640	80.007	19.994	103.253	19.856	3.916	1.030
539.000	595.155	80.007	19.996	103.252	19.852	4.159	1.023
539.500	595.654	80.006	19.994	103.252	19.856	3.903	1.013
540.000	596.144	80.006	19.994	103.252	19.855	4.009	1.002
540.500	596.665	80.007	19.995	103.254	19.854	4.053	1.000
541.000	597.121	80.007	19.994	103.255	19.855	4.016	0.994
541.500	597.649	80.007	19.994	103.256	19.853	4.152	0.980
542.000	598.165	80.006	19.995	103.256	19.857	3.880	1.014
542.500	598.676	80.007	19.994	103.256	19.857	3.826	1.035
543.000	599.160	80.008	19.994	103.255	19.855	4.009	1.011
543.500	599.646	80.008	19.994	103.257	19.854	4.034	0.983
544.000	600.115	80.008	19.994	103.260	19.855	3.975	0.963
544.500	600.651	80.007	19.994	103.260	19.852	4.202	0.980
545.000	601.140	80.007	19.994	103.259	19.857	3.832	1.015
545.500	601.664	80.006	19.994	103.259	19.853	4.152	1.019
546.000	602.156	80.008	19.994	103.257	19.856	3.902	1.014
546.500	602.658	80.009	19.994	103.257	19.856	3.921	1.005
547.000	603.179	80.009	19.995	103.258	19.859	3.751	1.008
547.500	603.700	80.008	19.995	103.258	19.853	4.130	1.033
548.000	604.162	80.008	19.994	103.257	19.860	3.646	1.013
548.500	604.684	80.010	19.994	103.256	19.861	3.620	0.983
549.000	605.167	80.009	19.994	103.253	19.857	3.863	0.994
549.500	605.654	80.009	19.994	103.251	19.860	3.653	0.987
550.000	606.181	80.009	19.995	103.250	19.857	3.863	0.993
550.500	606.657	80.009	19.994	103.250	19.853	4.101	1.009
551.000	607.149	80.008	19.994	103.251	19.858	3.766	0.985
551.500	607.666	80.009	19.995	103.249	19.860	3.667	0.989
552.000	608.133	80.009	19.995	103.249	19.859	3.744	0.996
552.500	608.686	80.008	19.993	103.248	19.857	3.876	1.002
553.000	609.173	80.008	19.993	103.246	19.858	3.782	1.030
553.500	609.675	80.009	19.995	103.245	19.856	3.914	1.015
554.000	610.160	80.009	19.995	103.246	19.859	3.750	0.988
554.500	610.653	80.010	19.995	103.244	19.855	3.961	0.982
555.000	611.179	80.008	19.994	103.244	19.859	3.739	0.998
555.500	611.692	80.007	19.994	103.246	19.856	3.910	1.029
556.000	612.206	80.008	19.995	103.246	19.855	3.973	1.034
556.500	612.760	80.007	19.995	103.246	19.858	3.774	1.048
557.000	613.201	80.007	19.995	103.249	19.857	3.883	1.031
557.500	613.726	80.009	19.995	103.248	19.862	3.506	0.980
558.000	614.203	80.007	19.995	103.246	19.858	3.758	0.984
558.500	614.703	80.007	19.995	103.244	19.857	3.844	0.990
559.000	615.231	80.006	19.995	103.238	19.857	3.830	1.002
559.500	615.756	80.008	19.995	103.233	19.858	3.792	1.041
560.000	616.252	80.007	19.995	103.231	19.856	3.946	1.037
560.500	616.797	80.007	19.996	103.232	19.858	3.805	1.031
561.000	617.236	80.007	19.996	103.233	19.855	3.973	1.012
561.500	617.791	80.007	19.995	103.239	19.854	4.036	0.989
562.000	618.288	80.009	19.996	103.244	19.857	3.850	1.023
562.500	618.776	80.007	19.996	103.247	19.853	4.139	1.018
563.000	619.294	80.007	19.995	103.247	19.857	3.875	0.995
563.500	619.785	80.008	19.994	103.248	19.858	3.787	1.008
564.000	620.287	80.008	19.995	103.247	19.861	3.610	1.001
564.500	620.761	80.008	19.994	103.248	19.855	4.007	0.985
565.000	621.318	80.008	19.996	103.247	19.859	3.753	1.004
565.500	621.834	80.007	19.994	103.248	19.857	3.859	1.052
566.000	622.304	80.008	19.994	103.248	19.858	3.758	1.029
566.500	622.732	80.008	19.995	103.248	19.858	3.817	0.942
567.000	623.310	80.007	19.995	103.245	19.858	3.776	0.952
567.500	623.838	80.007	19.995	103.243	19.855	4.003	1.056
568.000	624.326	80.010	19.996	103.240	19.858	3.798	1.061
568.500	624.846	80.009	19.995	103.237	19.859	3.724	1.012
569.000	625.307	80.008	19.995	103.236	19.856	3.941	0.995
569.500	625.831	80.011	19.995	103.238	19.857	3.853	0.983
570.000	626.371	80.009	19.994	103.241	19.859	3.705	1.024
570.500	626.866	80.009	19.994	103.244	19.856	3.942	1.049
571.000	627.352	80.008	19.993	103.247	19.852	4.210	1.008
571.500	627.875	80.009	19.995	103.248	19.854	4.046	0.995
572.000	628.403	80.009	19.995	103.248	19.855	4.012	1.030
572.500	628.886	80.011	19.995	103.249	19.856	3.953	1.031
573.000	629.376	80.010	19.994	103.248	19.858	3.792	0.992
573.500	629.889	80.010	19.994	103.247	19.854	4.064	0.988
574.000	630.402	80.008	19.994	103.247	19.855	3.973	1.014
574.500	630.889	80.011	19.994	103.247	19.857	3.874	1.013
575.000	631.401	80.010	19.994	103.247	19.855	4.012	1.000
575.500	631.925	80.011	19.995	103.247	19.854	4.023	1.018
576.000	632.403	80.008	19.995	103.246	19.857	3.841	1.019
576.500	632.938	80.008	19.994	103.244	19.854	4.062	1.007
577.000	633.433	80.009	19.994	103.243	19.856	3.934	1.021
577.500	633.962	80.009	19.995	103.241	19.852	4.163	1.027
578.000	634.492	80.008	19.994	103.241	19.855	3.973	1.041
578.500	635.000	80.010	19.994	103.241	19.855	3.980	1.049
579.000	635.533	80.009	19.994	103.241	19.853	4.141	1.040
579.500	636.049	80.009	19.995	103.241	19.855	4.012	1.045
580.000	636.520	80.007	19.995	103.242	19.860	3.634	1.018
580.500	637.065	80.008	19.994	103.242	19.854	4.082	1.001
581.000	637.571	80.008	19.995	103.241	19.855	3.978	1.033
581.500	638.051	80.008	19.995	103.240	19.853	4.127	1.019
582.000	638.555	80.007	19.994	103.242	19.857	3.848	0.985
582.500	639.081	80.007	19.994	103.243	19.855	3.959	1.007
583.000	639.609	80.007	19.994	103.244	19.855	3.998	1.042
583.500	640.122	80.005	19.995	103.246	19.857	3.826	1.048
584.000	640.577	80.006	19.994	103.245	19.857	3.887	1.004
584.500	641.095	80.007	19.996	103.241	19.856	3.935	0.970
585.000	641.598	80.006	19.996	103.241	19.857	3.831	0.997
585.500	642.107	80.007	19.994	103.241	19.855	3.996	1.017
586.000	642.557	80.007	19.995	103.241	19.855	3.991	0.985
586.500	643.140	80.006	19.995	103.244	19.858	3.810	0.996
587.000	643.626	80.005	19.994	103.250	19.857	3.836	1.051
587.500	644.131	80.006	19.995	103.250	19.856	3.905	1.030
588.000	644.643	80.006	19.995	103.250	19.855	4.012	1.004
588.500	645.130	80.006	19.994	103.251	19.860	3.656	1.008
589.000	645.631	80.006	19.995	103.251	19.856	3.899	0.993
589.500	646.148	80.006	19.995	103.251	19.857	3.848	1.003
590.000	646.669	80.006	19.995	103.251	19.858	3.787	1.028
590.500	647.153	80.006	19.995	103.251	19.859	3.751	1.021
591.000	647.660	80.006	19.995	103.251	19.856	3.899	0.998
591.500	648.134	80.006	19.995	103.251	19.857	3.880	0.986
592.000	648.703	80.004	19.996	103.249	19.857	3.879	1.012
592.500	649.191	80.007	19.996	103.248	19.858	3.788	1.050
593.000	649.689	80.007	19.995	103.246	19.856	3.940	1.021
593.501	650.223	80.007	19.996	103.245	19.858	3.805	1.009
594.001	650.747	80.006	19.995	103.242	19.854	4.078	1.045
594.500	651.260	80.006	19.994	103.241	19.855	3.960	1.047
595.000	651.779	80.006	19.995	103.236	19.857	3.837	1.034
595.500	652.276	80.008	19.996	103.233	19.857	3.849	1.025
596.000	652.758	80.006	19.995	103.234	19.857	3.881	0.998
596.500	653.283	80.007	19.996	103.237	19.853	4.142	0.993
597.000	653.791	80.007	19.996	103.241	19.857	3.833	1.020
597.500	654.300	80.007	19.995	103.247	19.858	3.765	1.025
598.000	654.834	80.007	19.994	103.251	19.855	4.012	1.030
598.500	655.282	80.008	19.995	103.247	19.859	3.723	1.012
599.000	655.819	80.007	19.995	103.240	19.858	3.767	0.984
599.500	656.359	80.006	19.995	103.238	19.858	3.812	1.031
600.000	656.822	80.008	19.995	103.237	19.857	3.837	1.039
600.500	657.375	80.007	19.994	103.238	19.857	3.862	1.009
601.000	657.839	80.007	19.995	103.241	19.858	3.794	1.016
601.500	658.378	80.006	19.995	103.245	19.857	3.854	1.010
602.000	658.881	80.007	19.994	103.240	19.856	3.915	1.023
602.500	659.353	80.007	19.994	103.235	19.858	3.819	1.009
603.000	659.906	80.007	19.994	103.230	19.856	3.928	1.000
603.500	660.359	80.007	19.994	103.228	19.858	3.808	1.015
604.000	660.881	80.006	19.994	103.231	19.857	3.833	0.990
604.500	661.406	80.009	19.994	103.237	19.855	4.021	1.011
605.000	661.879	80.007	19.993	103.243	19.856	3.894	1.023
605.500	662.400	80.008	19.994	103.246	19.858	3.760	0.996
606.000	662.915	80.008	19.994	103.242	19.857	3.874	1.015
606.500	663.366	80.008	19.993	103.234	19.854	4.069	1.002
607.000	663.888	80.006	19.994	103.229	19.854	4.046	0.969
607.500	664.399	80.008	19.995	103.229	19.861	3.585	1.002
608.000	664.904	80.008	19.994	103.231	19.860	3.658	1.024
608.500	665.402	80.008	19.994	103.239	19.857	3.847	1.010
609.000	665.884	80.008	19.994	103.247	19.859	3.744	0.992
609.500	666.386	80.008	19.994	103.252	19.856	3.944	0.982
610.000	666.917	80.008	19.994	103.248	19.859	3.704	1.008
610.500	667.421	80.007	19.994	103.241	19.858	3.763	1.034
611.000	667.901	80.007	19.993	103.233	19.857	3.850	1.010
611.500	668.425	80.007	19.993	103.231	19.858	3.784	0.994
612.000	668.946	80.008	19.994	103.229	19.857	3.826	1.024
612.500	669.457	80.005	19.994	103.233	19.858	3.758	1.038
613.000	669.937	80.006	19.994	103.239	19.855	3.985	1.012
613.500	670.421	80.007	19.994	103.244	19.861	3.613	0.978
614.000	670.973	80.006	19.995	103.245	19.858	3.765	1.000
614.500	671.428	80.007	19.994	103.242	19.858	3.758	1.022
615.000	671.960	80.007	19.994	103.239	19.857	3.824	0.997
615.500	672.434	80.008	19.995	103.239	19.859	3.699	0.997
616.000	672.965	80.006	19.995	103.240	19.858	3.772	1.005
616.500	673.464	80.007	19.994	103.235	19.859	3.713	1.017
617.000	673.992	80.006	19.994	103.237	19.858	3.813	1.028
617.500	674.488	80.006	19.995	103.238	19.857	3.851	1.026
618.000	675.000	80.006	19.994	103.238	19.858	3.790	1.016
618.500	675.512	80.007	19.996	103.237	19.859	3.725	1.016
619.000	675.987	80.006	19.995	103.238	19.860	3.647	1.005
619.500	676.523	80.007	19.994	103.235	19.856	3.910	0.999
620.000	677.035	80.006	19.994	103.229	19.858	3.797	1.029
620.500	677.509	80.007	19.995	103.225	19.855	3.965	1.017
621.000	678.004	80.008	19.995	103.219	19.855	4.021	0.978
621.500	678.562	80.006	19.994	103.218	19.857	3.876	1.012
622.000	679.052	80.008	19.995	103.220	19.855	4.017	1.051
622.500	679.508	80.008	19.995	103.222	19.854	4.028	0.997
623.000	680.041	80.007	19.995	103.223	19.853	4.096	0.967
623.500	680.537	80.007	19.994	103.225	19.853	4.094	1.009
624.000	681.053	80.007	19.996	103.225	19.856	3.944	1.020
624.500	681.497	80.007	19.994	103.223	19.855	3.978	0.986
625.000	682.045	80.006	19.994	103.223	19.854	4.047	0.976
625.500	682.516	80.008	19.995	103.222	19.855	3.999	1.006
626.000	683.074	80.008	19.994	103.225	19.852	4.160	1.024
626.500	683.565	80.009	19.994	103.226	19.855	3.972	1.039
627.000	684.078	80.007	19.995	103.226	19.853	4.106	1.027
627.500	684.542	80.008	19.995	103.227	19.855	3.983	0.991
628.000	685.051	80.008	19.994	103.228	19.856	3.942	0.975
628.500	685.585	80.010	19.995	103.224	19.856	3.904	1.008
629.000	686.084	80.009	19.994	103.225	19.855	3.990	1.038
629.500	686.622	80.010	19.994	103.223	19.853	4.097	1.035
630.000	687.108	80.009	19.994	103.228	19.855	3.970	1.031
630.500	687.609	80.010	19.994	103.227	19.856	3.954	1.005
631.001	688.146	80.010	19.995	103.229	19.856	3.909	1.012
631.501	688.601	80.009	19.994	103.227	19.854	4.077	1.015
632.000	689.119	80.009	19.994	103.229	19.854	4.040	0.983
632.500	689.638	80.010	19.994	103.225	19.853	4.104	1.006
633.000	690.157	80.008	19.994	103.230	19.854	4.022	1.038
633.500	690.656	80.009	19.994	103.228	19.859	3.747	1.028
634.000	691.146	80.010	19.994	103.231	19.858	3.815	1.004
634.500	691.671	80.010	19.993	103.231	19.858	3.801	1.002
635.000	692.164	80.010	19.994	103.230	19.856	3.933	1.016
635.500	692.665	80.009	19.994	103.229	19.856	3.934	1.006
636.000	693.181	80.008	19.995	103.227	19.858	3.784	1.005
636.500	693.696	80.009	19.994	103.227	19.857	3.829	1.024
637.000	694.219	80.009	19.994	103.228	19.856	3.920	1.035
637.500	694.720	80.010	19.994	103.234	19.857	3.870	1.031
638.000	695.229	80.008	19.995	103.233	19.857	3.869	1.017
638.500	695.719	80.008	19.995	103.232	19.858	3.813	1.005
639.000	696.254	80.008	19.994	103.229	19.860	3.627	1.012
639.500	696.791	80.007	19.994	103.226	19.858	3.768	1.049
640.000	697.277	80.008	19.993	103.220	19.863	3.477	1.047
640.500	697.749	80.008	19.995	103.217	19.859	3.741	0.990
641.000	698.291	80.007	19.993	103.216	19.857	3.888	0.986
641.500	698.796	80.009	19.993	103.216	19.858	3.756	1.031
642.000	699.337	80.009	19.993	103.217	19.858	3.798	1.047
642.500	699.792	80.007	19.994	103.216	19.859	3.734	1.021
643.000	700.336	80.008	19.993	103.216	19.858	3.759	0.997
643.500	700.837	80.010	19.993	103.219	19.859	3.697	1.022
644.000	701.393	80.009	19.994	103.221	19.856	3.908	1.051
644.500	701.872	80.008	19.994	103.223	19.854	4.035	1.046
645.000	702.424	80.008	19.994	103.228	19.858	3.790	1.033
645.500	702.956	80.008	19.994	103.228	19.858	3.802	1.058
646.000	703.413	80.008	19.994	103.224	19.857	3.868	1.036
646.500	703.963	80.008	19.995	103.222	19.856	3.929	0.998
647.000	704.444	80.010	19.995	103.221	19.857	3.886	1.019
647.500	704.989	80.008	19.994	103.218	19.857	3.866	1.029
648.000	705.551	80.008	19.994	103.221	19.856	3.932	1.067
648.500	706.031	80.009	19.995	103.227	19.853	4.113	1.075
649.000	706.528	80.008	19.995	103.230	19.858	3.800	1.009
649.500	707.087	80.008	19.994	103.231	19.857	3.851	1.016
650.000	707.605	80.008	19.994	103.229	19.858	3.806	1.066
650.500	708.122	80.009	19.995	103.225	19.857	3.842	1.056
651.000	708.626	80.008	19.994	103.220	19.857	3.838	1.028
651.500	709.192	80.009	19.995	103.217	19.859	3.731	1.045
652.000	709.667	80.010	19.995	103.213	19.853	4.129	1.056
652.500	710.211	80.009	19.995	103.213	19.854	4.027	1.030
653.000	710.706	80.009	19.995	103.214	19.857	3.864	1.029
653.500	711.241	80.010	19.995	103.215	19.854	4.041	1.035
654.000	711.797	80.010	19.994	103.216	19.853	4.099	1.061
654.500	712.297	80.010	19.995	103.221	19.855	4.013	1.073
655.001	712.823	80.009	19.995	103.226	19.854	4.040	1.041
655.500	713.313	80.008	19.995	103.229	19.858	3.797	1.021
656.000	713.881	80.010	19.994	103.228	19.857	3.868	1.037
656.500	714.364	80.009	19.994	103.227	19.854	4.027	1.054
657.000	714.903	80.009	19.995	103.222	19.856	3.915	1.036
657.501	715.415	80.009	19.994	103.216	19.854	4.024	1.036
658.000	715.949	80.010	19.994	103.213	19.857	3.856	1.049
658.500	716.489	80.009	19.994	103.215	19.857	3.836	1.060
659.000	716.996	80.009	19.994	103.216	19.858	3.757	1.060
659.500	717.516	80.011	19.995	103.216	19.857	3.838	1.037
660.000	718.046	80.009	19.994	103.218	19.860	3.688	1.039
660.500	718.550	80.009	19.995	103.222	19.856	3.931	1.042
661.000	719.086	80.009	19.995	103.220	19.857	3.868	1.037
661.500	719.594	80.008	19.994	103.220	19.859	3.732	1.042
662.000	720.110	80.008	19.994	103.220	19.860	3.661	1.034
662.500	720.630	80.008	19.994	103.218	19.859	3.730	1.030
663.000	721.142	80.008	19.994	103.214	19.856	3.904	1.034
663.500	721.657	80.008	19.994	103.214	19.856	3.890	1.030
664.000	722.145	80.006	19.994	103.212	19.858	3.791	1.015
664.500	722.674	80.007	19.995	103.214	19.859	3.732	1.010
665.000	723.190	80.007	19.995	103.213	19.859	3.711	1.031
665.500	723.731	80.006	19.995	103.213	19.858	3.815	1.051
666.000	724.177	80.007	19.995	103.213	19.857	3.857	1.022
666.500	724.724	80.006	19.994	103.214	19.858	3.761	0.990
667.000	725.217	80.007	19.995	103.215	19.857	3.832	1.016
667.500	725.715	80.006	19.994	103.217	19.860	3.677	1.016
668.000	726.230	80.009	19.993	103.216	19.860	3.682	1.002
668.500	726.724	80.008	19.994	103.216	19.860	3.623	1.011
669.000	727.219	80.006	19.994	103.217	19.860	3.664	0.999
669.500	727.737	80.006	19.995	103.216	19.861	3.602	1.001
670.000	728.245	80.006	19.994	103.214	19.861	3.591	1.020
670.500	728.770	80.006	19.995	103.215	19.862	3.545	1.030
671.000	729.271	80.006	19.996	103.216	19.863	3.486	1.030
671.500	729.793	80.007	19.995	103.216	19.863	3.461	1.025
672.000	730.296	80.006	19.995	103.214	19.862	3.552	1.024
672.500	730.770	80.006	19.994	103.211	19.861	3.593	1.001
673.000	731.256	80.005	19.995	103.211	19.863	3.437	0.968
673.500	731.763	80.006	19.995	103.210	19.858	3.791	0.977
674.000	732.314	80.007	19.993	103.212	19.864	3.395	1.026
674.500	732.790	80.006	19.996	103.214	19.860	3.684	1.043
675.001	733.279	80.007	19.995	103.217	19.861	3.564	0.996
675.501	733.801	80.006	19.995	103.217	19.862	3.493	0.988
676.001	734.281	80.008	19.995	103.217	19.860	3.645	1.006
676.500	734.789	80.007	19.995	103.215	19.863	3.468	0.995
677.000	735.273	80.008	19.994	103.214	19.858	3.789	0.990
677.500	735.787	80.006	19.994	103.214	19.862	3.512	0.995
678.000	736.273	80.007	19.995	103.212	19.862	3.550	0.999
678.500	736.749	80.006	19.995	103.212	19.860	3.677	0.981
679.000	737.234	80.005	19.995	103.212	19.863	3.443	0.962
