Sample ID:	C:\MCC\MCC Cal\Test\HWF_MCC_30K_min_211104_R1.txt
Sample Weight (mg):	4.4
Heating Rate (C/s):	1
Combustor Temp (C):	900
N2 Flow Rate (cc/min):	80
O2 Flow Rate (cc/min):	20
Calibration File:	C:\MCC\MCC Cal\Coeff1 JN10440_30_210304.txt.txt
T Correction Coefficients:	0	1.024463	0
Time Shift (s):	14
*
Time (s)	Temperature (C)	N2 flow rate (cc/min)	O2 flow rate (cc/min)	Flow Rate (cc/min)	Oxygen (%)	HRR (W/g)	Heating rate (C/s)
0.000	106.139	80.012	19.994	103.005	20.014	-0.139	0.028
0.500	106.154	80.007	19.995	103.006	20.013	-0.037	0.006
1.000	106.148	80.011	19.993	103.007	20.013	-0.071	0.001
1.500	106.121	80.008	19.995	103.010	20.018	-0.416	-0.012
2.000	106.134	80.009	19.993	103.013	20.012	-0.008	-0.024
2.500	106.159	80.008	19.997	103.015	20.007	0.355	0.012
3.000	106.150	80.010	19.995	103.015	20.012	-0.018	0.027
3.500	106.168	80.011	19.996	103.014	20.014	-0.161	0.012
4.000	106.157	80.011	19.997	103.014	20.014	-0.104	0.008
4.500	106.138	80.010	19.996	103.014	20.012	-0.002	-0.011
5.000	106.129	80.008	19.995	103.014	20.011	0.055	-0.029
5.500	106.164	80.011	19.995	103.013	20.011	0.077	-0.001
6.000	106.139	80.010	19.994	103.014	20.009	0.235	0.019
6.500	106.123	80.010	19.995	103.018	20.011	0.116	-0.016
7.000	106.114	80.009	19.995	103.028	20.009	0.257	-0.033
7.500	106.153	80.010	19.996	103.037	20.007	0.385	0.003
8.000	106.100	80.009	19.994	103.046	20.003	0.663	0.008
8.500	106.116	80.010	19.994	103.060	20.005	0.553	-0.026
9.000	106.106	80.008	19.994	103.074	19.998	1.003	-0.016
9.500	106.140	80.009	19.993	103.091	20.001	0.832	0.015
10.000	106.158	80.007	19.994	103.118	20.000	0.909	0.038
10.500	106.158	80.007	19.994	103.146	19.998	1.058	0.035
11.000	106.154	80.008	19.993	103.171	19.992	1.468	0.007
11.500	106.208	80.006	19.994	103.192	19.992	1.447	0.023
12.000	106.187	80.006	19.995	103.207	19.987	1.822	0.042
12.501	106.254	80.005	19.995	103.214	19.985	1.950	0.039
13.001	106.272	80.006	19.995	103.220	19.983	2.156	0.065
13.501	106.303	80.006	19.994	103.228	19.986	1.911	0.067
14.000	106.323	80.006	19.994	103.233	19.980	2.372	0.050
14.500	106.376	80.008	19.995	103.233	19.985	1.982	0.062
15.000	106.438	80.005	19.995	103.233	19.978	2.529	0.094
15.500	106.479	80.007	19.995	103.236	19.974	2.797	0.109
16.000	106.493	80.006	19.994	103.237	19.972	2.970	0.079
16.500	106.580	80.009	19.995	103.243	19.972	2.919	0.078
17.000	106.577	80.010	19.995	103.256	19.972	2.929	0.092
17.500	106.650	80.007	19.994	103.267	19.971	3.033	0.077
18.000	106.697	80.008	19.995	103.271	19.965	3.432	0.095
18.500	106.762	80.007	19.993	103.275	19.961	3.739	0.117
19.000	106.800	80.008	19.994	103.279	19.963	3.629	0.108
19.500	106.889	80.007	19.995	103.281	19.963	3.621	0.115
20.000	106.939	80.008	19.993	103.284	19.960	3.830	0.133
20.500	107.036	80.006	19.994	103.290	19.964	3.519	0.143
21.000	107.091	80.007	19.995	103.292	19.961	3.767	0.150
21.500	107.180	80.008	19.994	103.292	19.959	3.926	0.148
22.000	107.233	80.005	19.995	103.296	19.956	4.088	0.143
22.500	107.327	80.009	19.994	103.301	19.958	3.992	0.145
23.001	107.418	80.008	19.996	103.310	19.956	4.114	0.166
23.501	107.518	80.008	19.995	103.321	19.954	4.242	0.188
24.000	107.631	80.008	19.994	103.330	19.958	3.967	0.201
24.500	107.752	80.007	19.994	103.341	19.955	4.216	0.224
25.000	107.815	80.009	19.994	103.348	19.948	4.714	0.210
25.500	107.948	80.007	19.996	103.351	19.951	4.489	0.190
26.000	108.045	80.009	19.995	103.353	19.946	4.863	0.213
26.500	108.158	80.007	19.994	103.357	19.945	4.922	0.220
27.000	108.252	80.011	19.994	103.357	19.945	4.902	0.209
27.500	108.405	80.007	19.995	103.364	19.945	4.949	0.227
28.000	108.487	80.011	19.995	103.372	19.943	5.070	0.241
28.500	108.632	80.007	19.994	103.381	19.943	5.100	0.231
29.000	108.779	80.007	19.992	103.390	19.935	5.630	0.260
29.500	108.876	80.006	19.995	103.397	19.943	5.076	0.269
30.000	109.004	80.008	19.994	103.402	19.937	5.495	0.235
30.500	109.125	80.011	19.995	103.405	19.932	5.871	0.237
31.000	109.280	80.008	19.993	103.408	19.939	5.354	0.262
31.500	109.445	80.008	19.994	103.408	19.931	5.930	0.298
32.000	109.571	80.007	19.994	103.409	19.934	5.717	0.306
32.501	109.744	80.006	19.994	103.417	19.932	5.892	0.295
33.001	109.931	80.009	19.994	103.424	19.936	5.590	0.330
33.500	110.080	80.008	19.995	103.430	19.931	5.955	0.348
34.000	110.245	80.010	19.994	103.437	19.930	6.046	0.324
34.500	110.420	80.009	19.996	103.442	19.927	6.211	0.327
35.000	110.539	80.008	19.995	103.443	19.930	5.999	0.317
35.500	110.737	80.009	19.995	103.443	19.929	6.086	0.305
36.000	110.900	80.008	19.994	103.443	19.929	6.078	0.339
36.500	111.107	80.007	19.995	103.443	19.929	6.099	0.366
37.000	111.257	80.007	19.994	103.444	19.929	6.111	0.364
37.500	111.485	80.007	19.996	103.441	19.929	6.103	0.368
38.000	111.684	80.009	19.995	103.435	19.928	6.166	0.402
38.501	111.889	80.007	19.994	103.429	19.929	6.117	0.415
39.001	112.048	80.006	19.995	103.424	19.926	6.337	0.384
39.500	112.252	80.008	19.995	103.419	19.929	6.127	0.364
40.000	112.468	80.007	19.995	103.419	19.926	6.298	0.391
40.500	112.665	80.007	19.995	103.425	19.925	6.360	0.416
41.000	112.862	80.006	19.995	103.431	19.926	6.303	0.404
41.500	113.092	80.007	19.996	103.436	19.924	6.467	0.411
42.001	113.267	80.005	19.996	103.441	19.925	6.390	0.416
42.501	113.517	80.008	19.996	103.441	19.924	6.447	0.415
43.000	113.722	80.006	19.995	103.434	19.926	6.306	0.440
43.501	113.952	80.007	19.995	103.432	19.926	6.290	0.444
44.001	114.198	80.006	19.996	103.432	19.927	6.221	0.455
44.500	114.461	80.009	19.997	103.433	19.926	6.312	0.492
45.000	114.659	80.008	19.995	103.437	19.925	6.420	0.485
45.500	114.873	80.007	19.996	103.443	19.928	6.178	0.437
46.000	115.148	80.006	19.996	103.444	19.923	6.526	0.451
46.500	115.398	80.005	19.996	103.443	19.924	6.497	0.507
47.000	115.591	80.007	19.996	103.441	19.925	6.400	0.484
47.500	115.851	80.008	19.995	103.440	19.924	6.438	0.448
48.000	116.109	80.007	19.996	103.440	19.923	6.503	0.486
48.500	116.361	80.007	19.995	103.441	19.928	6.180	0.514
49.000	116.588	80.006	19.995	103.442	19.924	6.487	0.494
49.500	116.851	80.006	19.995	103.445	19.927	6.273	0.485
50.000	117.121	80.007	19.996	103.446	19.924	6.460	0.511
50.500	117.393	80.007	19.996	103.444	19.926	6.330	0.537
51.000	117.651	80.007	19.995	103.440	19.921	6.653	0.536
51.500	117.930	80.008	19.995	103.439	19.927	6.236	0.534
52.000	118.185	80.007	19.997	103.439	19.927	6.238	0.535
52.500	118.463	80.007	19.995	103.441	19.922	6.604	0.533
53.000	118.751	80.008	19.996	103.443	19.924	6.481	0.550
53.500	118.967	80.007	19.996	103.447	19.925	6.384	0.535
54.000	119.249	80.006	19.994	103.448	19.924	6.481	0.501
54.500	119.555	80.006	19.995	103.448	19.922	6.624	0.543
55.000	119.796	80.007	19.996	103.448	19.926	6.294	0.568
55.500	120.093	80.008	19.995	103.448	19.921	6.685	0.543
56.000	120.376	80.008	19.996	103.449	19.921	6.687	0.559
56.500	120.629	80.007	19.995	103.449	19.929	6.085	0.558
57.000	120.986	80.009	19.996	103.449	19.924	6.496	0.573
57.500	121.280	80.009	19.995	103.449	19.925	6.389	0.630
58.000	121.554	80.009	19.994	103.450	19.923	6.546	0.609
58.500	121.853	80.007	19.996	103.450	19.927	6.232	0.570
59.000	122.152	80.007	19.996	103.450	19.923	6.541	0.586
59.500	122.454	80.009	19.995	103.451	19.919	6.863	0.600
60.000	122.803	80.007	19.996	103.454	19.923	6.555	0.626
60.500	123.061	80.009	19.995	103.454	19.922	6.637	0.629
61.000	123.392	80.009	19.996	103.454	19.923	6.561	0.598
61.501	123.680	80.009	19.996	103.455	19.918	6.922	0.604
62.001	123.977	80.008	19.996	103.457	19.918	6.938	0.602
62.500	124.323	80.010	19.995	103.459	19.920	6.740	0.614
63.000	124.638	80.007	19.995	103.465	19.915	7.115	0.652
63.500	124.974	80.007	19.996	103.472	19.922	6.639	0.656
64.000	125.285	80.008	19.995	103.477	19.917	6.971	0.649
64.500	125.567	80.008	19.996	103.478	19.919	6.795	0.620
65.000	125.914	80.008	19.996	103.475	19.919	6.863	0.611
65.500	126.254	80.007	19.996	103.474	19.921	6.649	0.658
66.000	126.600	80.008	19.995	103.472	19.914	7.208	0.687
66.500	126.910	80.008	19.995	103.471	19.924	6.483	0.671
67.000	127.278	80.007	19.995	103.473	19.913	7.235	0.667
67.500	127.610	80.007	19.996	103.472	19.916	7.045	0.689
68.000	127.941	80.009	19.996	103.467	19.921	6.648	0.682
68.501	128.253	80.007	19.997	103.461	19.919	6.854	0.653
69.001	128.639	80.007	19.995	103.457	19.918	6.870	0.670
69.500	128.960	80.007	19.996	103.454	19.920	6.724	0.702
70.000	129.307	80.006	19.996	103.459	19.920	6.726	0.687
70.500	129.675	80.008	19.997	103.461	19.920	6.751	0.691
71.000	130.034	80.007	19.996	103.465	19.918	6.924	0.721
71.500	130.328	80.007	19.996	103.465	19.921	6.658	0.690
72.000	130.691	80.007	19.995	103.464	19.920	6.771	0.655
72.500	131.079	80.007	19.996	103.463	19.920	6.745	0.704
73.000	131.391	80.008	19.996	103.465	19.916	7.025	0.726
73.500	131.732	80.007	19.996	103.466	19.917	6.944	0.676
74.000	132.108	80.008	19.997	103.468	19.920	6.769	0.684
74.500	132.445	80.007	19.995	103.467	19.916	7.080	0.715
75.000	132.855	80.007	19.996	103.465	19.919	6.820	0.730
75.500	133.179	80.007	19.996	103.466	19.921	6.694	0.741
76.000	133.534	80.008	19.997	103.467	19.919	6.849	0.707
76.500	133.899	80.009	19.996	103.467	19.919	6.794	0.699
77.000	134.281	80.007	19.995	103.470	19.919	6.835	0.734
77.501	134.650	80.008	19.996	103.474	19.916	7.041	0.749
78.001	135.081	80.006	19.995	103.473	19.923	6.532	0.776
78.500	135.459	80.007	19.995	103.474	19.922	6.636	0.804
79.001	135.801	80.006	19.996	103.474	19.917	6.974	0.764
79.501	136.158	80.008	19.996	103.473	19.917	6.949	0.709
80.000	136.535	80.008	19.996	103.471	19.917	6.941	0.717
80.500	136.947	80.008	19.995	103.466	19.922	6.581	0.761
81.000	137.310	80.007	19.995	103.462	19.915	7.147	0.782
81.500	137.696	80.009	19.996	103.460	19.920	6.766	0.762
82.000	138.070	80.008	19.994	103.458	19.917	6.998	0.755
82.500	138.471	80.011	19.996	103.459	19.919	6.839	0.768
83.000	138.840	80.010	19.994	103.460	19.918	6.929	0.772
83.500	139.226	80.009	19.995	103.464	19.914	7.175	0.762
84.000	139.669	80.009	19.995	103.465	19.916	7.038	0.792
84.500	140.040	80.011	19.996	103.467	19.915	7.105	0.821
85.000	140.454	80.010	19.994	103.469	19.913	7.246	0.800
85.501	140.828	80.011	19.996	103.470	19.919	6.855	0.787
86.001	141.234	80.009	19.995	103.464	19.917	6.999	0.784
86.500	141.601	80.009	19.995	103.458	19.923	6.525	0.776
87.000	142.046	80.011	19.996	103.455	19.920	6.766	0.792
87.500	142.408	80.011	19.994	103.449	19.914	7.171	0.810
88.000	142.819	80.008	19.994	103.446	19.916	7.051	0.790
88.500	143.225	80.012	19.995	103.445	19.919	6.794	0.795
89.000	143.599	80.010	19.995	103.448	19.923	6.522	0.799
89.500	144.019	80.011	19.995	103.449	19.922	6.638	0.787
90.000	144.423	80.010	19.994	103.449	19.921	6.660	0.809
90.500	144.854	80.009	19.995	103.450	19.925	6.401	0.829
91.000	145.292	80.009	19.994	103.450	19.920	6.719	0.852
91.500	145.697	80.009	19.994	103.449	19.921	6.688	0.856
92.000	146.123	80.008	19.996	103.448	19.921	6.658	0.837
92.500	146.488	80.008	19.994	103.447	19.918	6.933	0.811
93.000	146.907	80.008	19.995	103.448	19.919	6.863	0.788
93.500	147.302	80.009	19.995	103.451	19.919	6.847	0.798
94.000	147.735	80.009	19.994	103.454	19.919	6.833	0.820
94.500	148.156	80.008	19.995	103.456	19.916	7.065	0.841
95.000	148.587	80.008	19.996	103.458	19.924	6.432	0.853
95.500	148.996	80.006	19.994	103.459	19.915	7.130	0.846
96.000	149.399	80.006	19.996	103.460	19.920	6.786	0.826
96.500	149.856	80.007	19.995	103.457	19.920	6.758	0.836
97.000	150.261	80.007	19.994	103.457	19.918	6.910	0.862
97.500	150.663	80.006	19.997	103.455	19.917	6.979	0.835
98.000	151.091	80.005	19.995	103.456	19.922	6.633	0.818
98.500	151.509	80.007	19.995	103.453	19.919	6.804	0.838
99.000	151.936	80.008	19.996	103.452	19.918	6.904	0.846
99.500	152.376	80.006	19.996	103.450	19.918	6.904	0.856
100.000	152.797	80.009	19.995	103.450	19.919	6.864	0.864
100.500	153.212	80.008	19.995	103.451	19.922	6.591	0.849
101.000	153.663	80.007	19.995	103.453	19.919	6.846	0.851
101.500	154.098	80.007	19.995	103.453	19.917	6.962	0.876
102.000	154.494	80.007	19.994	103.458	19.918	6.878	0.858
102.500	154.942	80.006	19.996	103.459	19.922	6.626	0.837
103.000	155.389	80.007	19.996	103.456	19.917	6.978	0.870
103.500	155.794	80.007	19.995	103.454	19.920	6.770	0.874
104.000	156.213	80.008	19.994	103.458	19.913	7.289	0.838
104.500	156.651	80.007	19.996	103.456	19.917	6.976	0.841
105.000	157.110	80.007	19.996	103.455	19.916	7.049	0.877
105.500	157.555	80.007	19.995	103.457	19.920	6.719	0.900
106.000	157.990	80.009	19.996	103.457	19.917	6.998	0.892
106.500	158.420	80.009	19.995	103.454	19.918	6.935	0.872
107.000	158.845	80.007	19.995	103.451	19.921	6.695	0.860
107.500	159.301	80.008	19.996	103.452	19.918	6.898	0.868
108.000	159.704	80.008	19.996	103.453	19.917	6.982	0.870
108.500	160.180	80.009	19.995	103.452	19.921	6.703	0.869
109.000	160.628	80.008	19.996	103.453	19.918	6.876	0.902
109.500	161.085	80.009	19.996	103.454	19.921	6.697	0.914
110.000	161.514	80.008	19.996	103.453	19.915	7.130	0.895
110.500	161.984	80.008	19.995	103.450	19.920	6.786	0.892
111.000	162.391	80.008	19.995	103.449	19.922	6.579	0.888
111.500	162.871	80.007	19.996	103.449	19.925	6.369	0.882
112.000	163.312	80.007	19.995	103.446	19.916	7.022	0.904
112.500	163.766	80.007	19.994	103.446	19.923	6.522	0.908
113.000	164.235	80.007	19.996	103.446	19.918	6.937	0.909
113.500	164.696	80.008	19.995	103.447	19.923	6.571	0.926
114.000	165.129	80.008	19.996	103.449	19.922	6.613	0.912
114.500	165.595	80.006	19.995	103.449	19.921	6.709	0.897
115.000	166.070	80.008	19.994	103.448	19.918	6.912	0.920
115.500	166.536	80.007	19.995	103.448	19.919	6.803	0.942
116.000	167.013	80.006	19.995	103.449	19.919	6.833	0.942
116.500	167.468	80.008	19.996	103.447	19.920	6.723	0.937
117.000	167.895	80.007	19.994	103.446	19.921	6.687	0.906
117.500	168.357	80.007	19.995	103.447	19.922	6.630	0.885
118.000	168.823	80.008	19.995	103.447	19.921	6.681	0.909
118.501	169.291	80.008	19.994	103.446	19.920	6.738	0.931
119.001	169.762	80.005	19.995	103.447	19.921	6.691	0.937
119.500	170.225	80.006	19.997	103.447	19.922	6.589	0.936
120.000	170.636	80.008	19.993	103.447	19.920	6.790	0.904
120.500	171.112	80.008	19.994	103.447	19.921	6.689	0.880
121.000	171.608	80.006	19.994	103.447	19.919	6.860	0.929
121.500	172.100	80.005	19.994	103.448	19.917	6.994	0.980
122.000	172.558	80.007	19.994	103.448	19.923	6.542	0.969
122.500	173.048	80.006	19.996	103.449	19.917	6.996	0.949
123.000	173.472	80.006	19.995	103.449	19.916	7.028	0.931
123.501	173.976	80.007	19.995	103.449	19.921	6.715	0.921
124.001	174.464	80.007	19.995	103.449	19.916	7.045	0.960
124.501	174.937	80.007	19.993	103.450	19.914	7.216	0.977
125.001	175.403	80.007	19.995	103.451	19.918	6.870	0.950
125.501	175.848	80.008	19.994	103.451	19.919	6.805	0.925
126.001	176.336	80.008	19.995	103.451	19.919	6.829	0.922
126.500	176.755	80.007	19.995	103.451	19.921	6.656	0.920
127.000	177.274	80.007	19.994	103.450	19.919	6.843	0.922
127.500	177.748	80.009	19.997	103.449	19.919	6.829	0.965
128.000	178.249	80.004	19.994	103.449	19.917	6.970	0.984
128.500	178.756	80.008	19.995	103.449	19.918	6.888	0.991
129.000	179.225	80.009	19.995	103.449	19.922	6.583	0.992
129.500	179.710	80.005	19.995	103.449	19.918	6.917	0.965
130.000	180.165	80.008	19.995	103.449	19.919	6.837	0.947
130.500	180.666	80.008	19.995	103.449	19.921	6.652	0.948
131.000	181.122	80.007	19.993	103.449	19.919	6.862	0.957
131.500	181.628	80.008	19.995	103.449	19.920	6.786	0.959
132.000	182.127	80.009	19.995	103.450	19.919	6.797	0.983
132.500	182.586	80.009	19.997	103.449	19.918	6.884	0.981
133.000	183.047	80.006	19.994	103.450	19.923	6.567	0.939
133.500	183.575	80.007	19.995	103.450	19.922	6.608	0.954
134.000	184.061	80.008	19.995	103.450	19.920	6.755	1.001
134.500	184.536	80.006	19.995	103.451	19.922	6.624	0.988
135.000	185.040	80.007	19.996	103.451	19.920	6.783	0.970
135.500	185.545	80.007	19.995	103.450	19.915	7.152	0.994
136.000	186.026	80.007	19.997	103.450	19.917	6.956	0.997
136.500	186.539	80.008	19.994	103.449	19.919	6.826	0.990
137.000	187.035	80.006	19.994	103.448	19.917	6.997	1.001
137.500	187.582	80.007	19.996	103.447	19.921	6.712	1.026
138.000	188.017	80.006	19.996	103.447	19.916	7.062	1.013
138.500	188.506	80.008	19.995	103.445	19.911	7.417	0.953
139.000	189.050	80.007	19.994	103.445	19.920	6.760	0.978
139.500	189.481	80.008	19.995	103.445	19.921	6.705	1.004
140.000	190.028	80.007	19.995	103.446	19.918	6.882	0.977
140.500	190.517	80.006	19.997	103.446	19.918	6.923	1.007
141.000	191.033	80.009	19.995	103.448	19.920	6.772	1.020
141.500	191.520	80.008	19.996	103.448	19.922	6.573	1.004
142.000	191.988	80.008	19.996	103.449	19.918	6.902	0.978
142.500	192.517	80.006	19.997	103.449	19.922	6.595	0.976
143.000	193.013	80.008	19.996	103.447	19.917	6.988	1.011
143.500	193.502	80.009	19.996	103.445	19.919	6.825	1.005
144.000	193.969	80.010	19.996	103.443	19.920	6.789	0.970
144.500	194.545	80.010	19.995	103.437	19.920	6.720	0.999
145.000	195.039	80.008	19.996	103.437	19.920	6.734	1.056
145.500	195.521	80.008	19.995	103.437	19.917	7.010	1.023
146.000	196.001	80.007	19.995	103.437	19.922	6.607	0.969
146.500	196.525	80.008	19.994	103.433	19.916	7.059	0.984
147.000	196.992	80.007	19.995	103.438	19.918	6.906	0.998
147.500	197.493	80.010	19.994	103.439	19.920	6.741	0.979
148.000	197.970	80.009	19.996	103.434	19.919	6.840	0.973
148.500	198.502	80.008	19.994	103.431	19.923	6.528	0.994
149.000	199.023	80.008	19.995	103.434	19.914	7.158	1.031
149.500	199.513	80.009	19.995	103.427	19.918	6.869	1.032
150.000	199.991	80.007	19.995	103.419	19.915	7.121	0.990
150.500	200.498	80.008	19.997	103.417	19.919	6.826	0.977
151.000	201.019	80.009	19.995	103.418	19.913	7.231	1.006
151.500	201.523	80.006	19.996	103.416	19.915	7.098	1.026
152.000	202.050	80.009	19.994	103.416	19.917	6.998	1.028
152.500	202.542	80.009	19.996	103.417	19.912	7.304	1.025
153.000	203.074	80.009	19.996	103.420	19.916	7.062	1.022
153.500	203.564	80.010	19.997	103.419	19.915	7.148	1.023
154.000	204.093	80.008	19.996	103.415	19.916	7.050	1.020
154.500	204.570	80.009	19.995	103.414	19.916	7.051	1.012
155.000	205.118	80.011	19.995	103.416	19.914	7.159	1.016
155.500	205.625	80.008	19.996	103.414	19.913	7.238	1.040
156.000	206.128	80.010	19.996	103.416	19.910	7.519	1.033
156.500	206.673	80.010	19.995	103.423	19.915	7.151	1.030
157.000	207.151	80.008	19.997	103.428	19.917	6.976	1.036
157.500	207.669	80.010	19.998	103.425	19.913	7.244	1.009
158.000	208.221	80.009	19.998	103.423	19.910	7.478	1.033
158.500	208.715	80.008	19.995	103.420	19.911	7.425	1.058
159.000	209.198	80.010	19.996	103.413	19.913	7.272	1.012
159.500	209.710	80.008	19.996	103.408	19.909	7.526	0.986
160.000	210.280	80.009	19.995	103.407	19.908	7.667	1.039
160.500	210.724	80.010	19.995	103.407	19.913	7.292	1.048
161.000	211.291	80.009	19.994	103.407	19.909	7.541	1.012
161.500	211.773	80.009	19.997	103.412	19.913	7.268	1.030
162.000	212.321	80.010	19.997	103.413	19.906	7.750	1.040
162.500	212.810	80.009	19.996	103.414	19.907	7.677	1.034
163.000	213.370	80.009	19.998	103.414	19.910	7.451	1.043
163.500	213.814	80.009	19.995	103.413	19.912	7.316	1.027
164.000	214.333	80.010	19.995	103.408	19.910	7.475	0.983
164.500	214.844	80.010	19.996	103.409	19.906	7.811	0.996
165.000	215.356	80.009	19.996	103.411	19.909	7.534	1.026
165.500	215.874	80.011	19.996	103.414	19.909	7.541	1.027
166.000	216.388	80.008	19.996	103.420	19.910	7.490	1.031
166.500	216.907	80.010	19.997	103.421	19.906	7.765	1.032
167.000	217.441	80.008	19.997	103.419	19.907	7.681	1.044
167.500	217.946	80.010	19.996	103.414	19.905	7.860	1.046
168.000	218.463	80.010	19.996	103.411	19.908	7.609	1.030
168.500	218.995	80.010	19.998	103.405	19.902	8.069	1.036
169.000	219.493	80.009	19.996	103.404	19.900	8.210	1.039
169.500	220.024	80.009	19.995	103.406	19.900	8.198	1.029
170.000	220.516	80.010	19.996	103.407	19.905	7.848	1.026
170.501	221.030	80.010	19.997	103.406	19.900	8.237	1.015
171.000	221.573	80.009	19.995	103.408	19.902	8.076	1.031
171.500	222.083	80.009	19.996	103.408	19.896	8.542	1.055
172.000	222.578	80.010	19.995	103.406	19.891	8.890	1.029
172.500	223.094	80.010	19.995	103.406	19.897	8.426	1.008
173.000	223.584	80.009	19.995	103.407	19.895	8.558	1.008
173.501	224.112	80.008	19.996	103.408	19.891	8.854	1.013
174.000	224.635	80.011	19.997	103.408	19.894	8.654	1.035
174.500	225.111	80.009	19.995	103.409	19.888	9.106	1.025
175.000	225.688	80.008	19.995	103.410	19.890	8.943	1.026
175.500	226.203	80.010	19.995	103.409	19.889	9.053	1.073
176.000	226.711	80.009	19.997	103.408	19.884	9.397	1.058
176.500	227.172	80.007	19.996	103.407	19.891	8.896	0.996
177.000	227.742	80.006	19.994	103.407	19.884	9.385	1.000
177.500	228.269	80.007	19.995	103.408	19.886	9.236	1.064
178.000	228.786	80.007	19.995	103.412	19.885	9.324	1.070
178.500	229.288	80.008	19.995	103.417	19.883	9.467	1.031
179.000	229.833	80.008	19.995	103.418	19.877	9.941	1.033
179.500	230.362	80.008	19.996	103.418	19.880	9.711	1.060
180.000	230.830	80.008	19.996	103.416	19.877	9.876	1.036
180.500	231.360	80.008	19.995	103.412	19.874	10.104	0.998
181.000	231.920	80.007	19.996	103.407	19.875	10.029	1.044
181.500	232.375	80.008	19.995	103.407	19.868	10.568	1.053
182.000	232.868	80.007	19.994	103.407	19.870	10.422	0.981
182.500	233.417	80.007	19.997	103.411	19.870	10.409	0.994
183.000	233.913	80.007	19.995	103.412	19.868	10.585	1.044
183.500	234.480	80.009	19.995	103.412	19.869	10.507	1.054
184.000	234.948	80.007	19.994	103.412	19.861	11.065	1.049
184.500	235.341	80.008	19.995	103.413	19.863	10.921	0.948
185.000	236.238	80.010	19.996	103.409	19.861	11.084	1.075
185.500	236.465	80.008	19.996	103.409	19.858	11.326	1.207
186.000	236.810	80.007	19.996	103.409	19.860	11.161	0.848
186.500	237.280	80.009	19.996	103.410	19.855	11.505	0.694
187.000	238.225	80.008	19.995	103.412	19.861	11.112	1.115
187.500	238.446	80.009	19.994	103.412	19.855	11.495	1.290
188.000	239.031	80.008	19.996	103.413	19.852	11.757	0.986
188.500	239.464	80.009	19.994	103.412	19.849	11.939	0.912
189.000	240.112	80.007	19.994	103.412	19.850	11.902	1.050
189.500	240.543	80.011	19.994	103.410	19.848	12.020	1.080
190.000	241.093	80.009	19.995	103.409	19.847	12.100	1.030
190.500	241.517	80.009	19.995	103.409	19.841	12.527	0.978
191.000	242.099	80.007	19.994	103.410	19.843	12.373	0.990
191.500	242.572	80.007	19.996	103.410	19.836	12.902	1.030
192.000	243.115	80.006	19.993	103.410	19.835	12.983	1.035
192.500	243.622	80.008	19.994	103.412	19.835	12.998	1.033
193.000	244.143	80.009	19.995	103.412	19.838	12.759	1.039
193.500	244.617	80.007	19.995	103.412	19.831	13.277	1.012
194.000	245.155	80.008	19.994	103.412	19.834	13.026	1.003
194.500	245.652	80.006	19.995	103.412	19.830	13.321	1.023
195.000	246.141	80.008	19.995	103.410	19.828	13.476	1.011
195.500	246.649	80.007	19.995	103.409	19.831	13.266	0.992
196.000	247.165	80.006	19.995	103.409	19.827	13.553	1.010
196.500	247.659	80.006	19.995	103.409	19.826	13.673	1.017
197.000	248.178	80.005	19.994	103.410	19.825	13.756	1.011
197.500	248.670	80.009	19.994	103.411	19.817	14.325	1.012
198.000	249.147	80.008	19.996	103.412	19.820	14.086	0.990
198.500	249.693	80.009	19.996	103.412	19.820	14.075	0.996
199.000	250.238	80.008	19.994	103.412	19.819	14.180	1.057
199.500	250.741	80.008	19.996	103.410	19.813	14.607	1.069
200.000	251.273	80.006	19.995	103.409	19.814	14.507	1.041
200.500	251.748	80.006	19.995	103.409	19.809	14.888	1.021
201.000	252.255	80.005	19.996	103.410	19.808	14.952	0.995
201.500	252.768	80.006	19.997	103.410	19.808	14.964	1.001
202.000	253.251	80.007	19.995	103.410	19.809	14.889	1.007
202.500	253.777	80.008	19.995	103.411	19.804	15.272	1.002
203.000	254.263	80.007	19.994	103.410	19.801	15.502	1.010
203.500	254.779	80.006	19.995	103.410	19.801	15.483	1.007
204.000	255.266	80.007	19.995	103.410	19.801	15.503	1.003
204.500	255.756	80.006	19.994	103.410	19.794	15.964	0.990
205.000	256.241	80.005	19.995	103.410	19.796	15.872	0.976
205.500	256.778	80.007	19.996	103.411	19.796	15.854	0.998
206.000	257.266	80.005	19.994	103.412	19.790	16.277	1.024
206.500	257.806	80.005	19.995	103.413	19.788	16.415	1.027
207.000	258.295	80.007	19.996	103.416	19.784	16.701	1.028
207.500	258.794	80.006	19.995	103.416	19.782	16.899	1.009
208.000	259.335	80.005	19.995	103.419	19.774	17.489	1.014
208.500	259.776	80.007	19.996	103.426	19.775	17.385	1.011
209.000	260.322	80.006	19.995	103.432	19.773	17.544	0.985
209.500	260.804	80.006	19.996	103.436	19.768	17.874	1.008
210.000	261.299	80.006	19.994	103.444	19.767	17.962	1.002
210.500	261.789	80.006	19.993	103.449	19.761	18.441	0.981
211.000	262.304	80.007	19.995	103.449	19.762	18.369	0.995
211.500	262.779	80.007	19.995	103.449	19.753	19.012	0.998
212.000	263.311	80.007	19.994	103.444	19.753	18.999	0.999
212.500	263.805	80.007	19.996	103.441	19.749	19.333	1.016
213.000	264.275	80.006	19.997	103.439	19.744	19.674	0.995
213.500	264.782	80.005	19.994	103.438	19.738	20.120	0.970
214.000	265.252	80.008	19.995	103.439	19.735	20.329	0.977
214.501	265.756	80.008	19.996	103.445	19.732	20.585	0.976
215.000	266.248	80.005	19.995	103.447	19.727	20.951	0.985
215.500	266.789	80.007	19.994	103.449	19.726	20.971	1.014
216.000	267.264	80.006	19.994	103.451	19.721	21.348	1.024
216.501	267.746	80.006	19.995	103.451	19.713	21.953	0.986
217.001	268.291	80.007	19.994	103.452	19.709	22.228	0.992
217.500	268.765	80.008	19.997	103.457	19.704	22.584	1.023
218.000	269.237	80.007	19.995	103.465	19.703	22.709	0.983
218.500	269.755	80.007	19.995	103.470	19.698	23.041	0.968
219.000	270.285	80.007	19.996	103.471	19.690	23.655	1.020
219.500	270.806	80.010	19.994	103.472	19.687	23.878	1.049
220.000	271.312	80.009	19.994	103.470	19.677	24.594	1.039
220.500	271.828	80.005	19.994	103.469	19.676	24.644	1.025
221.000	272.333	80.009	19.994	103.468	19.663	25.603	1.022
221.500	272.793	80.009	19.994	103.475	19.666	25.380	0.993
222.000	273.275	80.007	19.993	103.479	19.658	26.008	0.953
222.500	273.789	80.008	19.995	103.482	19.653	26.327	0.969
223.000	274.309	80.009	19.995	103.482	19.645	26.983	1.015
223.500	274.785	80.009	19.995	103.483	19.639	27.372	1.015
224.000	275.248	80.008	19.993	103.484	19.635	27.695	0.967
224.501	275.748	80.009	19.995	103.484	19.627	28.259	0.951
225.001	276.235	80.009	19.995	103.485	19.620	28.794	0.975
225.500	276.744	80.008	19.994	103.487	19.611	29.432	0.992
226.000	277.164	80.009	19.994	103.490	19.609	29.584	0.963
226.500	277.724	80.007	19.994	103.491	19.600	30.228	0.954
227.000	278.224	80.010	19.994	103.499	19.596	30.586	1.020
227.500	278.725	80.009	19.995	103.506	19.585	31.329	1.031
228.000	279.217	80.008	19.994	103.510	19.582	31.587	0.997
228.500	279.693	80.008	19.995	103.514	19.571	32.376	0.980
229.000	280.168	80.007	19.996	103.518	19.571	32.408	0.959
229.500	280.673	80.008	19.995	103.515	19.561	33.098	0.966
230.000	281.203	80.010	19.995	103.515	19.553	33.750	1.008
230.500	281.671	80.008	19.995	103.518	19.547	34.157	1.016
231.000	282.129	80.008	19.996	103.519	19.541	34.596	0.962
231.500	282.673	80.008	19.996	103.521	19.530	35.417	0.964
232.000	283.183	80.011	19.996	103.525	19.524	35.857	1.028
232.500	283.655	80.010	19.997	103.525	19.516	36.430	1.018
233.000	284.166	80.009	19.997	103.526	19.509	36.960	0.982
233.500	284.666	80.009	19.993	103.533	19.500	37.602	0.997
234.000	285.169	80.007	19.997	103.539	19.495	38.020	1.007
234.500	285.595	80.008	19.995	103.543	19.485	38.693	0.966
235.000	286.080	80.008	19.994	103.544	19.480	39.090	0.920
235.500	286.594	80.008	19.995	103.549	19.470	39.810	0.955
236.000	287.090	80.007	19.996	103.548	19.463	40.351	1.004
236.500	287.595	80.009	19.996	103.549	19.458	40.743	1.006
237.000	288.079	80.007	19.995	103.553	19.442	41.884	0.995
237.500	288.579	80.008	19.997	103.560	19.435	42.415	0.987
238.000	289.085	80.012	19.996	103.562	19.430	42.778	0.995
238.500	289.568	80.009	19.995	103.563	19.421	43.468	0.997
239.000	290.051	80.010	19.997	103.563	19.408	44.400	0.977
239.500	290.524	80.008	19.997	103.564	19.397	45.164	0.961
240.000	291.027	80.009	19.995	103.567	19.394	45.399	0.966
240.500	291.566	80.009	19.996	103.571	19.384	46.153	1.009
241.000	292.083	80.009	19.996	103.573	19.378	46.620	1.048
241.500	292.549	80.010	19.995	103.577	19.366	47.446	1.019
242.000	293.056	80.009	19.990	103.584	19.360	47.951	0.978
242.500	293.533	80.010	19.997	103.589	19.347	48.914	0.979
243.000	294.015	80.010	19.996	103.591	19.336	49.679	0.972
243.500	294.560	80.011	19.994	103.594	19.329	50.172	0.993
244.000	295.001	80.010	19.997	103.594	19.319	50.976	1.007
244.500	295.499	80.011	19.993	103.595	19.309	51.666	0.963
245.000	295.988	80.010	19.994	103.596	19.301	52.302	0.963
245.500	296.483	80.009	19.999	103.597	19.293	52.829	0.985
246.000	296.984	80.012	19.993	103.600	19.288	53.223	0.990
246.500	297.492	80.011	19.997	103.603	19.274	54.263	1.002
247.000	297.976	80.011	19.995	103.608	19.267	54.801	1.001
247.500	298.469	80.011	19.996	103.613	19.258	55.425	0.984
248.000	298.977	80.011	19.996	103.616	19.248	56.181	0.989
248.500	299.445	80.010	19.995	103.619	19.239	56.816	0.989
249.000	299.938	80.012	19.994	103.626	19.228	57.624	0.969
249.500	300.412	80.010	19.995	103.629	19.218	58.375	0.964
250.000	300.930	80.011	19.995	103.628	19.207	59.216	0.980
250.500	301.449	80.012	19.994	103.633	19.202	59.523	1.014
251.000	301.886	80.013	19.996	103.639	19.190	60.402	0.997
251.500	302.386	80.009	19.995	103.639	19.181	61.112	0.947
252.000	302.879	80.008	19.994	103.640	19.173	61.707	0.965
252.500	303.393	80.011	19.995	103.642	19.160	62.640	1.000
253.000	303.847	80.008	19.994	103.642	19.155	63.044	0.987
253.500	304.341	80.010	19.994	103.643	19.150	63.354	0.958
254.000	304.847	80.010	19.996	103.645	19.137	64.322	0.974
254.501	305.344	80.009	19.996	103.650	19.128	64.979	1.001
255.000	305.823	80.009	19.996	103.656	19.119	65.656	0.989
255.500	306.325	80.007	19.994	103.656	19.109	66.391	0.978
256.000	306.805	80.008	19.996	103.661	19.102	66.892	0.982
256.500	307.315	80.010	19.994	103.665	19.097	67.302	0.986
257.000	307.788	80.007	19.995	103.663	19.084	68.224	0.986
257.500	308.263	80.006	19.996	103.661	19.075	68.908	0.965
258.001	308.815	80.005	19.997	103.662	19.070	69.294	0.987
258.500	309.254	80.007	19.995	103.658	19.069	69.364	1.009
259.000	309.738	80.009	19.995	103.654	19.054	70.405	0.958
259.500	310.262	80.008	19.995	103.656	19.046	71.063	0.965
260.000	310.776	80.009	19.995	103.660	19.039	71.564	1.022
260.500	311.239	80.008	19.995	103.664	19.032	72.092	1.007
261.001	311.719	80.007	19.997	103.668	19.022	72.813	0.960
261.501	312.252	80.007	19.996	103.670	19.015	73.283	0.978
262.000	312.812	80.009	19.996	103.670	19.009	73.766	1.053
262.500	313.277	80.008	19.996	103.669	18.994	74.830	1.059
263.000	313.783	80.006	19.997	103.672	18.990	75.116	0.998
263.500	314.262	80.007	19.995	103.675	18.984	75.587	0.978
264.000	314.802	80.008	19.995	103.678	18.977	76.124	1.002
264.500	315.255	80.007	19.995	103.679	18.967	76.830	1.006
265.000	315.760	80.006	19.996	103.680	18.964	77.066	0.976
265.500	316.239	80.008	19.995	103.679	18.957	77.592	0.971
266.000	316.694	80.005	19.996	103.680	18.947	78.300	0.959
266.500	317.209	80.005	19.995	103.680	18.940	78.843	0.952
267.000	317.728	80.006	19.996	103.682	18.935	79.247	1.002
267.500	318.225	80.011	19.995	103.682	18.924	80.010	1.025
268.000	318.735	80.005	19.997	103.684	18.921	80.229	1.012
268.500	319.236	80.008	19.995	103.685	18.915	80.701	1.009
269.000	319.718	80.007	19.996	103.685	18.907	81.292	0.997
269.500	320.215	80.006	19.995	103.685	18.899	81.857	0.981
270.000	320.714	80.009	19.995	103.685	18.894	82.217	0.987
270.500	321.236	80.006	19.994	103.685	18.883	83.018	1.009
271.000	321.703	80.007	19.997	103.685	18.879	83.365	1.005
271.500	322.184	80.007	19.996	103.685	18.875	83.614	0.968
272.000	322.703	80.007	19.995	103.685	18.870	83.987	0.974
272.500	323.207	80.005	19.995	103.686	18.857	84.941	1.012
273.000	323.683	80.009	19.994	103.688	18.854	85.216	1.001
273.500	324.198	80.006	19.994	103.688	18.847	85.699	0.986
274.000	324.710	80.008	19.995	103.690	18.839	86.311	1.009
274.500	325.174	80.009	19.994	103.691	18.836	86.551	1.001
275.000	325.691	80.005	19.996	103.697	18.827	87.162	0.978
275.500	326.169	80.006	19.995	103.701	18.821	87.625	0.988
276.000	326.682	80.006	19.995	103.708	18.813	88.244	0.994
276.500	327.150	80.009	19.994	103.711	18.808	88.607	0.986
277.000	327.655	80.008	19.995	103.715	18.801	89.102	0.977
277.500	328.153	80.007	19.994	103.714	18.795	89.541	0.988
278.000	328.666	80.007	19.995	103.716	18.787	90.106	1.007
278.500	329.149	80.010	19.994	103.716	18.783	90.444	1.004
279.000	329.618	80.005	19.995	103.719	18.775	91.029	0.974
279.500	330.142	80.009	19.995	103.722	18.768	91.575	0.973
280.000	330.639	80.009	19.995	103.722	18.762	91.978	1.007
280.500	331.097	80.011	19.995	103.721	18.755	92.537	0.988
281.000	331.615	80.008	19.996	103.721	18.748	93.034	0.966
281.500	332.094	80.010	19.995	103.722	18.740	93.622	0.987
282.000	332.646	80.008	19.995	103.722	18.736	93.937	1.014
282.500	333.138	80.008	19.994	103.725	18.728	94.538	1.038
283.000	333.614	80.008	19.995	103.731	18.719	95.215	1.006
283.500	334.142	80.009	19.993	103.733	18.712	95.729	0.986
284.000	334.662	80.009	19.994	103.735	18.709	95.928	1.026
284.500	335.156	80.006	19.995	103.739	18.698	96.710	1.031
285.001	335.623	80.006	19.995	103.743	18.690	97.355	0.987
285.500	336.155	80.008	19.996	103.742	18.682	97.925	0.980
286.000	336.632	80.007	19.995	103.744	18.677	98.323	1.004
286.500	337.119	80.008	19.995	103.748	18.668	98.947	0.987
287.000	337.618	80.006	19.996	103.751	18.660	99.579	0.975
287.500	338.124	80.009	19.995	103.754	18.651	100.260	0.995
288.000	338.614	80.009	19.995	103.758	18.642	100.889	1.000
288.500	339.121	80.009	19.994	103.762	18.635	101.450	0.997
289.000	339.608	80.009	19.993	103.764	18.630	101.770	0.996
289.500	340.118	80.009	19.994	103.767	18.621	102.452	0.995
290.000	340.609	80.007	19.995	103.770	18.609	103.360	0.999
290.500	341.101	80.011	19.996	103.774	18.602	103.895	0.992
291.000	341.610	80.006	19.994	103.777	18.593	104.549	0.992
291.500	342.143	80.008	19.995	103.783	18.588	104.903	1.022
292.000	342.611	80.007	19.995	103.788	18.573	106.028	1.021
292.500	343.086	80.007	19.995	103.792	18.565	106.625	0.972
293.000	343.579	80.007	19.995	103.796	18.550	107.711	0.955
293.500	344.081	80.005	19.993	103.800	18.543	108.248	0.981
294.000	344.598	80.008	19.997	103.807	18.534	108.883	1.007
294.500	345.104	80.010	19.995	103.814	18.520	109.908	1.021
295.000	345.587	80.005	19.994	103.821	18.512	110.523	1.006
295.500	346.109	80.004	19.999	103.825	18.499	111.507	0.997
296.000	346.594	80.006	19.997	103.830	18.491	112.069	1.006
296.500	347.047	80.008	19.997	103.832	18.476	113.216	0.973
297.000	347.550	80.006	19.997	103.833	18.466	113.969	0.947
297.500	348.043	80.005	19.999	103.836	18.455	114.748	0.976
298.000	348.577	80.005	19.994	103.840	18.441	115.757	1.012
298.500	349.069	80.009	19.995	103.847	18.432	116.426	1.027
299.000	349.569	80.008	19.994	103.854	18.418	117.443	1.009
299.500	350.074	80.009	19.994	103.861	18.407	118.297	0.998
300.000	350.567	80.006	19.995	103.867	18.396	119.132	1.001
300.500	351.063	80.009	19.994	103.873	18.383	120.081	0.994
301.001	351.578	80.009	19.994	103.876	18.373	120.809	1.000
301.500	352.106	80.008	19.995	103.877	18.356	122.023	1.027
302.000	352.611	80.008	19.996	103.879	18.345	122.834	1.038
302.500	353.120	80.009	19.995	103.882	18.331	123.852	1.024
303.000	353.615	80.007	19.995	103.890	18.321	124.658	1.009
303.500	354.123	80.009	19.995	103.894	18.308	125.545	1.003
304.000	354.628	80.007	19.995	103.898	18.293	126.662	1.008
304.500	355.153	80.008	19.994	103.900	18.282	127.499	1.021
305.000	355.661	80.010	19.993	103.900	18.271	128.322	1.032
305.500	356.122	80.011	19.994	103.900	18.260	129.068	1.001
306.000	356.645	80.007	19.996	103.904	18.246	130.118	0.976
306.500	357.148	80.010	19.995	103.911	18.234	131.026	1.005
307.000	357.643	80.008	19.995	103.919	18.222	131.874	1.012
307.500	358.140	80.011	19.995	103.926	18.209	132.847	0.995
308.000	358.650	80.010	19.995	103.929	18.198	133.602	1.000
308.500	359.144	80.008	19.994	103.930	18.188	134.369	1.006
309.000	359.637	80.008	19.995	103.931	18.176	135.230	0.996
309.501	360.114	80.009	19.994	103.930	18.165	136.019	0.979
310.001	360.684	80.009	19.995	103.928	18.154	136.787	1.008
310.500	361.173	80.010	19.995	103.931	18.143	137.580	1.053
311.000	361.697	80.010	19.994	103.933	18.138	137.992	1.036
311.500	362.164	80.009	19.995	103.930	18.128	138.650	1.002
312.000	362.619	80.010	19.995	103.931	18.118	139.418	0.956
312.500	363.146	80.008	19.995	103.932	18.107	140.214	0.952
313.000	363.647	80.009	19.997	103.929	18.103	140.481	1.005
313.500	364.177	80.009	19.994	103.926	18.094	141.159	1.030
314.000	364.661	80.009	19.996	103.929	18.085	141.770	1.023
314.500	365.153	80.009	19.996	103.928	18.082	141.957	0.995
315.000	365.705	80.009	19.995	103.929	18.079	142.207	1.010
315.500	366.210	80.010	19.995	103.927	18.073	142.598	1.050
316.000	366.667	80.007	19.994	103.925	18.070	142.778	1.010
316.500	367.187	80.008	19.994	103.915	18.063	143.247	0.970
317.000	367.676	80.008	19.995	103.906	18.061	143.395	0.993
317.500	368.178	80.009	19.994	103.896	18.062	143.305	1.000
318.000	368.702	80.009	19.994	103.890	18.061	143.344	1.008
318.500	369.248	80.008	19.996	103.883	18.059	143.485	1.047
319.000	369.719	80.007	19.995	103.877	18.060	143.379	1.043
319.500	370.271	80.008	19.994	103.875	18.058	143.466	1.020
320.001	370.747	80.008	19.996	103.867	18.063	143.104	1.026
320.500	371.262	80.009	19.994	103.857	18.066	142.876	1.009
321.000	371.739	80.007	19.997	103.845	18.072	142.377	0.992
321.500	372.275	80.007	19.994	103.832	18.078	141.950	1.003
322.000	372.777	80.007	19.998	103.818	18.082	141.599	1.025
322.500	373.344	80.008	19.995	103.807	18.095	140.648	1.053
323.000	373.825	80.010	19.994	103.797	18.102	140.100	1.059
323.500	374.365	80.006	19.994	103.785	18.108	139.614	1.035
324.000	374.849	80.008	19.995	103.775	18.124	138.452	1.022
324.500	375.384	80.007	19.994	103.765	18.135	137.616	1.021
325.000	375.887	80.008	19.995	103.752	18.151	136.414	1.029
325.500	376.397	80.010	19.995	103.734	18.165	135.383	1.026
326.000	376.892	80.009	19.995	103.721	18.182	134.102	1.009
326.500	377.402	80.011	19.995	103.707	18.202	132.612	1.005
327.000	377.915	80.009	19.994	103.688	18.217	131.503	1.014
327.500	378.419	80.011	19.996	103.672	18.244	129.506	1.020
328.000	378.942	80.009	19.995	103.654	18.267	127.864	1.022
328.500	379.452	80.008	19.995	103.637	18.286	126.457	1.030
329.000	379.943	80.009	19.994	103.615	18.309	124.753	1.016
329.500	380.431	80.009	19.996	103.598	18.335	122.776	0.990
330.000	380.967	80.008	19.995	103.577	18.360	120.937	1.002
330.500	381.499	80.009	19.995	103.562	18.387	118.979	1.046
331.000	381.960	80.010	19.994	103.542	18.420	116.588	1.030
331.500	382.475	80.009	19.994	103.525	18.451	114.273	0.984
332.000	382.977	80.009	19.994	103.507	18.478	112.296	0.996
332.500	383.497	80.008	19.995	103.489	18.510	110.009	1.019
333.000	384.027	80.009	19.996	103.472	18.545	107.434	1.036
333.500	384.526	80.010	19.996	103.454	18.575	105.225	1.040
334.000	385.059	80.009	19.995	103.438	18.610	102.636	1.030
334.500	385.555	80.008	19.994	103.425	18.644	100.176	1.030
335.000	386.050	80.010	19.996	103.410	18.681	97.505	1.010
335.500	386.566	80.010	19.995	103.395	18.716	94.933	1.001
336.000	387.049	80.010	19.995	103.379	18.753	92.216	1.005
336.500	387.579	80.007	19.995	103.360	18.789	89.552	1.006
337.000	388.067	80.008	19.994	103.342	18.824	87.030	1.016
337.500	388.582	80.011	19.995	103.330	18.867	83.859	1.011
338.000	389.078	80.008	19.994	103.316	18.901	81.379	1.007
338.500	389.568	80.009	19.996	103.309	18.938	78.700	0.998
339.000	390.115	80.010	19.995	103.303	18.976	75.865	1.011
339.500	390.605	80.007	19.994	103.293	19.014	73.087	1.037
340.000	391.133	80.007	20.003	103.280	19.048	70.634	1.027
340.500	391.637	80.007	19.993	103.272	19.085	67.925	1.025
341.000	392.129	80.010	19.999	103.265	19.122	65.224	1.014
341.500	392.643	80.007	19.997	103.258	19.149	63.249	1.001
342.000	393.170	80.007	19.995	103.255	19.190	60.202	1.023
342.500	393.666	80.008	19.995	103.257	19.219	58.077	1.032
343.000	394.211	80.008	19.995	103.258	19.247	56.072	1.032
343.500	394.689	80.008	19.995	103.257	19.278	53.777	1.032
344.000	395.233	80.008	19.995	103.258	19.308	51.537	1.022
344.500	395.714	80.007	19.996	103.264	19.334	49.666	1.023
345.000	396.252	80.008	19.993	103.271	19.360	47.753	1.022
345.500	396.777	80.005	19.995	103.276	19.384	45.991	1.041
346.000	397.264	80.005	19.997	103.282	19.414	43.832	1.037
346.500	397.740	80.009	19.995	103.285	19.436	42.157	0.987
347.000	398.239	80.006	19.998	103.286	19.455	40.815	0.969
347.500	398.788	80.008	19.994	103.284	19.480	38.937	1.012
348.000	399.251	80.007	19.995	103.286	19.498	37.610	1.030
348.500	399.797	80.008	19.994	103.286	19.518	36.153	1.011
349.000	400.260	80.005	19.995	103.289	19.535	34.965	1.009
349.500	400.800	80.007	19.995	103.290	19.553	33.608	1.005
350.000	401.315	80.007	19.996	103.292	19.564	32.831	1.029
350.500	401.784	80.006	19.994	103.291	19.579	31.712	1.020
351.000	402.290	80.007	19.993	103.291	19.595	30.553	0.980
351.500	402.830	80.006	19.998	103.291	19.608	29.575	1.011
352.000	403.329	80.002	20.004	103.290	19.615	29.052	1.042
352.500	403.812	80.008	20.000	103.289	19.629	28.029	1.010
353.000	404.360	80.012	19.991	103.288	19.641	27.203	1.006
353.500	404.822	80.008	19.992	103.289	19.651	26.459	1.020
354.000	405.399	80.007	19.995	103.289	19.660	25.796	1.024
354.500	405.889	80.010	19.996	103.289	19.666	25.337	1.053
355.000	406.377	80.007	19.996	103.288	19.677	24.549	1.023
355.500	406.889	80.008	19.997	103.286	19.683	24.097	0.989
356.000	407.412	80.004	20.000	103.278	19.690	23.586	1.017
356.500	407.919	80.012	20.000	103.271	19.695	23.206	1.032
357.000	408.421	80.009	19.995	103.268	19.700	22.817	1.020
357.500	408.900	80.007	20.002	103.268	19.709	22.168	0.995
358.000	409.403	80.009	19.996	103.266	19.711	22.059	0.981
358.500	409.932	80.008	19.997	103.266	19.715	21.718	1.007
359.000	410.443	80.009	19.997	103.270	19.724	21.079	1.036
359.500	410.972	80.012	19.992	103.267	19.721	21.293	1.040
360.000	411.476	80.006	19.995	103.265	19.729	20.693	1.037
360.500	411.960	80.006	19.997	103.264	19.734	20.349	1.011
361.000	412.465	80.007	19.997	103.263	19.738	20.100	0.988
361.500	412.985	80.008	19.996	103.261	19.745	19.553	1.007
362.000	413.489	80.007	19.997	103.262	19.745	19.568	1.024
362.500	414.015	80.008	19.996	103.258	19.748	19.320	1.027
363.000	414.481	80.007	19.996	103.257	19.751	19.091	1.011
363.500	415.007	80.007	19.996	103.259	19.753	18.991	0.992
364.000	415.489	80.008	19.996	103.260	19.756	18.729	1.000
364.500	416.001	80.010	19.996	103.260	19.758	18.578	1.001
365.000	416.487	80.008	19.995	103.260	19.760	18.427	0.996
365.500	416.946	80.008	19.995	103.259	19.762	18.287	0.971
366.000	417.480	80.009	19.997	103.256	19.764	18.136	0.969
366.500	417.972	80.009	19.995	103.251	19.766	18.015	1.010
367.000	418.474	80.008	19.996	103.250	19.770	17.719	1.010
367.500	418.996	80.007	19.997	103.250	19.773	17.518	1.009
368.000	419.485	80.007	19.995	103.250	19.776	17.279	1.017
368.500	420.001	80.009	19.995	103.252	19.774	17.397	1.008
369.000	420.499	80.007	19.995	103.255	19.775	17.322	1.010
369.500	421.007	80.008	19.994	103.256	19.777	17.217	1.010
370.000	421.498	80.008	19.995	103.257	19.779	17.056	1.002
370.500	422.030	80.010	19.995	103.262	19.779	17.077	1.011
371.000	422.521	80.008	19.996	103.263	19.782	16.832	1.023
371.500	423.005	80.008	19.995	103.260	19.780	16.968	0.999
372.000	423.520	80.011	19.996	103.259	19.783	16.746	0.987
372.500	424.025	80.011	19.992	103.262	19.785	16.646	1.010
373.000	424.538	80.009	19.992	103.259	19.786	16.585	1.019
373.500	425.011	80.008	19.994	103.257	19.788	16.430	1.002
374.000	425.530	80.007	19.994	103.258	19.789	16.328	0.989
374.500	426.024	80.009	19.995	103.257	19.790	16.291	1.002
375.000	426.526	80.008	19.994	103.254	19.794	15.971	1.005
375.500	427.047	80.007	19.995	103.252	19.795	15.859	1.010
376.000	427.528	80.008	19.993	103.251	19.798	15.702	1.012
376.500	428.076	80.008	19.999	103.251	19.796	15.843	1.015
377.000	428.535	80.008	19.992	103.251	19.799	15.637	1.018
377.500	429.019	80.010	19.994	103.251	19.797	15.755	0.975
378.000	429.526	80.007	19.994	103.252	19.799	15.613	0.967
378.500	430.034	80.006	19.996	103.252	19.801	15.437	1.003
379.000	430.555	80.008	19.994	103.253	19.803	15.286	1.022
379.500	431.034	80.007	19.995	103.254	19.806	15.072	1.014
380.000	431.552	80.008	19.996	103.253	19.804	15.217	0.999
380.500	432.037	80.008	19.995	103.254	19.806	15.096	1.000
381.000	432.540	80.008	19.995	103.254	19.808	14.911	0.995
381.500	433.079	80.008	19.996	103.254	19.804	15.202	1.015
382.000	433.588	80.008	19.995	103.254	19.809	14.876	1.045
382.500	434.101	80.010	19.993	103.255	19.811	14.711	1.035
383.000	434.583	80.007	19.995	103.255	19.815	14.423	1.009
383.500	435.091	80.006	19.996	103.255	19.813	14.556	0.993
384.000	435.600	80.009	19.994	103.255	19.812	14.637	1.003
384.500	436.080	80.009	19.995	103.254	19.814	14.499	1.003
385.000	436.558	80.008	19.996	103.254	19.817	14.303	0.974
385.500	437.064	80.010	19.996	103.254	19.817	14.270	0.971
386.000	437.573	80.007	19.993	103.254	19.818	14.183	1.000
386.500	438.054	80.007	19.996	103.254	19.816	14.323	1.003
387.000	438.564	80.010	19.994	103.253	19.821	14.018	0.990
387.500	439.066	80.009	19.994	103.253	19.825	13.732	1.001
388.000	439.572	80.007	19.995	103.253	19.822	13.893	1.010
388.500	440.087	80.009	19.995	103.253	19.823	13.814	1.015
389.000	440.579	80.010	19.995	103.251	19.827	13.544	1.015
389.500	441.095	80.009	19.993	103.252	19.827	13.554	1.008
390.000	441.575	80.011	19.993	103.252	19.830	13.365	1.001
390.500	442.074	80.010	19.993	103.252	19.828	13.442	0.988
391.000	442.576	80.009	19.995	103.252	19.830	13.310	0.991
391.500	443.070	80.008	19.996	103.254	19.831	13.263	0.999
392.000	443.556	80.010	19.995	103.255	19.834	13.026	0.988
392.500	444.052	80.008	19.995	103.257	19.840	12.629	0.981
393.000	444.564	80.011	19.995	103.256	19.836	12.906	0.995
393.500	445.047	80.008	19.996	103.256	19.841	12.516	1.002
394.000	445.554	80.007	19.996	103.256	19.838	12.720	0.993
394.500	446.043	80.011	19.994	103.254	19.840	12.616	0.993
395.000	446.526	80.009	19.996	103.254	19.838	12.783	0.984
395.501	447.005	80.009	19.995	103.254	19.839	12.679	0.967
396.000	447.517	80.010	19.995	103.254	19.840	12.590	0.977
396.500	448.000	80.009	19.994	103.254	19.842	12.472	0.993
397.000	448.529	80.010	19.994	103.254	19.840	12.584	1.003
397.500	449.047	80.007	19.995	103.253	19.842	12.466	1.029
398.000	449.512	80.010	19.993	103.253	19.841	12.499	1.015
398.500	450.023	80.007	19.996	103.254	19.843	12.362	0.979
399.000	450.515	80.007	19.995	103.253	19.841	12.511	0.989
399.500	450.967	80.007	19.995	103.253	19.844	12.311	0.974
400.000	451.517	80.011	19.993	103.254	19.845	12.225	0.973
400.500	451.984	80.009	19.994	103.255	19.847	12.081	1.009
401.000	452.488	80.010	19.994	103.254	19.848	11.985	0.994
401.500	453.001	80.007	19.997	103.254	19.849	11.938	0.994
402.000	453.517	80.009	19.995	103.253	19.849	11.962	1.023
402.500	454.001	80.008	19.994	103.253	19.851	11.799	1.014
403.000	454.547	80.003	19.995	103.254	19.852	11.713	1.014
403.500	455.010	80.013	19.992	103.254	19.854	11.593	1.019
404.000	455.532	80.009	19.992	103.255	19.854	11.577	0.997
404.500	456.047	80.011	19.990	103.257	19.854	11.595	1.011
405.000	456.557	80.010	19.994	103.258	19.859	11.237	1.031
405.500	457.011	80.010	19.993	103.257	19.856	11.426	0.994
406.000	457.516	80.008	19.995	103.258	19.855	11.488	0.961
406.501	458.042	80.009	19.995	103.256	19.857	11.345	0.995
407.000	458.554	80.009	19.995	103.255	19.858	11.261	1.035
407.500	459.058	80.011	19.994	103.252	19.856	11.414	1.027
408.000	459.543	80.008	19.995	103.251	19.860	11.163	1.002
408.500	460.048	80.010	19.993	103.250	19.862	10.977	0.989
409.000	460.540	80.009	19.994	103.250	19.861	11.071	0.993
409.500	460.989	80.010	19.993	103.248	19.866	10.708	0.969
410.000	461.517	80.011	19.993	103.248	19.863	10.934	0.959
410.500	462.004	80.009	19.995	103.249	19.861	11.071	0.996
411.000	462.502	80.007	19.994	103.249	19.863	10.891	1.000
411.500	463.017	80.010	19.994	103.248	19.863	10.918	0.999
412.000	463.503	80.011	19.996	103.250	19.864	10.873	1.007
412.500	464.003	80.013	19.993	103.251	19.861	11.027	0.994
413.000	464.483	80.013	19.994	103.251	19.863	10.910	0.983
413.500	464.981	80.011	19.993	103.251	19.865	10.803	0.979
414.000	465.473	80.014	19.993	103.252	19.866	10.700	0.984
414.500	465.980	80.016	19.991	103.252	19.868	10.568	0.994
415.000	466.469	80.014	19.993	103.249	19.868	10.539	0.997
415.500	466.974	80.011	19.992	103.246	19.869	10.512	0.995
416.000	467.463	80.011	19.994	103.245	19.869	10.441	0.994
416.500	467.967	80.012	19.994	103.243	19.874	10.134	0.993
417.000	468.450	80.011	19.994	103.244	19.871	10.309	0.990
417.500	468.932	80.011	19.996	103.246	19.873	10.199	0.976
418.000	469.440	80.011	19.993	103.247	19.869	10.440	0.977
418.500	469.963	80.010	19.994	103.248	19.871	10.358	1.011
419.000	470.477	80.010	19.990	103.249	19.873	10.176	1.034
419.500	470.994	80.013	19.994	103.250	19.875	10.035	1.034
420.000	471.460	80.013	19.994	103.249	19.875	10.027	1.007
420.500	472.000	80.011	19.995	103.250	19.872	10.227	0.994
421.000	472.483	80.009	19.994	103.250	19.873	10.206	1.015
421.500	472.979	80.008	19.993	103.251	19.872	10.290	1.001
422.000	473.501	80.007	19.997	103.250	19.874	10.090	0.998
422.500	473.971	80.009	19.994	103.250	19.876	9.992	1.005
423.000	474.524	80.009	19.995	103.248	19.876	9.992	1.008
423.500	475.016	80.007	19.994	103.244	19.876	9.935	1.034
424.000	475.479	80.007	19.995	103.244	19.879	9.753	1.000
424.500	476.002	80.006	19.996	103.241	19.877	9.864	0.970
425.000	476.524	80.009	19.994	103.242	19.882	9.527	1.016
425.500	477.034	80.007	19.993	103.244	19.882	9.517	1.038
426.000	477.529	80.007	19.997	103.246	19.878	9.841	1.018
426.500	478.008	80.006	19.992	103.245	19.884	9.378	0.990
427.000	478.508	80.004	19.999	103.243	19.881	9.584	0.977
427.500	479.029	80.006	19.997	103.239	19.883	9.441	1.000
428.000	479.492	80.007	19.990	103.237	19.883	9.447	1.003
428.500	480.006	80.011	19.996	103.238	19.882	9.543	0.980
429.000	480.510	80.005	19.999	103.239	19.880	9.664	0.997
429.500	481.045	80.008	19.996	103.243	19.883	9.446	1.028
430.000	481.541	80.008	19.996	103.248	19.885	9.321	1.035
430.500	482.020	80.008	19.995	103.250	19.887	9.172	1.003
431.000	482.560	80.008	19.997	103.250	19.890	8.974	0.997
431.500	483.048	80.011	19.994	103.248	19.887	9.131	1.024
432.000	483.539	80.005	19.995	103.247	19.887	9.176	1.003
432.500	484.013	80.007	19.993	103.244	19.884	9.366	0.972
433.000	484.533	80.007	19.996	103.245	19.887	9.156	0.980
433.500	485.032	80.011	19.998	103.245	19.887	9.135	1.007
434.000	485.539	80.005	19.996	103.244	19.890	8.944	1.012
434.500	486.023	80.011	19.995	103.245	19.886	9.243	0.999
435.000	486.539	80.005	19.994	103.248	19.887	9.146	0.995
435.500	487.018	80.009	19.994	103.247	19.887	9.160	0.997
436.000	487.538	80.009	19.996	103.249	19.893	8.726	0.997
436.500	488.015	80.010	19.999	103.251	19.887	9.172	0.998
437.000	488.525	80.006	19.998	103.251	19.890	8.948	0.992
437.500	489.032	80.004	19.995	103.251	19.890	8.966	1.002
438.000	489.560	80.012	19.996	103.251	19.893	8.693	1.026
438.500	490.043	80.007	19.997	103.249	19.888	9.099	1.023
439.000	490.570	80.007	19.996	103.248	19.887	9.141	1.011
439.500	491.068	80.003	19.993	103.248	19.888	9.081	1.017
440.000	491.564	80.011	19.992	103.244	19.889	9.005	1.009
440.500	492.073	80.007	19.999	103.246	19.891	8.862	1.000
441.000	492.599	80.010	19.994	103.245	19.892	8.826	1.020
441.500	493.094	80.009	19.995	103.247	19.886	9.223	1.027
442.000	493.591	80.009	19.995	103.249	19.891	8.864	1.006
442.500	494.098	80.008	19.996	103.253	19.891	8.872	0.998
443.000	494.595	80.009	19.994	103.251	19.893	8.739	1.004
443.500	495.148	80.008	19.995	103.252	19.890	8.915	1.027
444.000	495.645	80.010	19.994	103.250	19.896	8.525	1.051
444.500	496.134	80.008	19.996	103.250	19.889	8.995	1.018
445.000	496.654	80.009	19.995	103.250	19.890	8.944	0.997
445.500	497.179	80.007	19.994	103.250	19.888	9.099	1.027
446.000	497.654	80.010	19.995	103.249	19.892	8.795	1.023
446.501	498.183	80.005	19.993	103.248	19.891	8.877	1.003
447.001	498.674	80.003	19.998	103.245	19.892	8.807	1.012
447.500	499.193	80.011	19.999	103.244	19.889	9.034	1.015
448.000	499.698	80.007	19.995	103.244	19.892	8.789	1.016
448.500	500.191	80.006	19.996	103.246	19.891	8.872	1.011
449.000	500.717	80.008	19.996	103.247	19.895	8.550	1.008
449.500	501.174	80.004	19.997	103.249	19.898	8.384	1.001
450.000	501.751	80.007	20.000	103.248	19.896	8.497	1.009
450.500	502.201	80.007	19.995	103.245	19.899	8.305	1.031
451.000	502.734	80.006	19.995	103.244	19.895	8.587	1.005
451.500	503.233	79.999	20.005	103.245	19.894	8.661	1.007
452.000	503.755	80.006	20.001	103.244	19.896	8.512	1.026
452.500	504.253	80.006	19.993	103.246	19.896	8.526	1.021
453.000	504.793	80.011	19.990	103.250	19.898	8.336	1.029
453.500	505.277	80.007	19.991	103.252	19.892	8.761	1.031
454.000	505.762	80.007	19.993	103.253	19.897	8.406	0.997
454.500	506.269	80.006	19.995	103.256	19.896	8.506	0.980
455.000	506.801	80.009	19.995	103.254	19.897	8.459	1.015
455.500	507.279	80.006	19.997	103.250	19.898	8.328	1.024
456.000	507.788	80.011	19.999	103.248	19.896	8.510	0.999
456.500	508.356	80.008	19.995	103.245	19.898	8.379	1.032
457.000	508.831	80.010	19.994	103.243	19.896	8.520	1.060
457.500	509.347	80.007	19.995	103.245	19.897	8.412	1.017
458.000	509.899	80.011	19.995	103.244	19.899	8.300	1.030
458.500	510.347	80.007	19.997	103.246	19.900	8.229	1.034
459.000	510.896	80.011	19.995	103.249	19.897	8.406	0.999
459.500	511.381	80.005	19.998	103.249	19.900	8.174	1.016
460.000	511.860	80.009	19.996	103.250	19.900	8.182	0.999
460.500	512.384	80.009	19.993	103.254	19.897	8.435	0.983
461.000	512.893	79.994	19.997	103.252	19.899	8.243	1.018
461.500	513.415	80.014	19.992	103.246	19.901	8.147	1.032
462.000	513.938	80.005	20.004	103.247	19.899	8.245	1.038
462.500	514.442	80.000	19.996	103.243	19.902	8.073	1.036
463.000	515.012	80.005	19.995	103.242	19.901	8.163	1.050
463.500	515.513	80.011	19.997	103.241	19.901	8.100	1.073
464.000	516.028	80.008	19.995	103.243	19.901	8.135	1.044
464.500	516.549	80.009	19.997	103.241	19.900	8.184	1.026
465.000	517.066	80.011	19.993	103.243	19.901	8.139	1.037
465.500	517.529	80.007	19.997	103.243	19.906	7.792	1.009
466.000	518.081	80.007	19.994	103.243	19.905	7.839	0.998
466.501	518.572	80.003	19.992	103.244	19.905	7.831	1.029
467.001	519.095	80.008	19.993	103.242	19.904	7.891	1.028
467.500	519.620	80.003	19.993	103.240	19.904	7.929	1.031
468.000	520.130	80.005	19.998	103.241	19.904	7.949	1.042
468.501	520.631	80.007	19.994	103.235	19.904	7.929	1.023
469.001	521.175	80.008	19.993	103.235	19.905	7.835	1.028
469.500	521.653	80.008	19.991	103.239	19.905	7.809	1.033
470.000	522.162	80.006	19.997	103.241	19.906	7.776	1.004
470.500	522.637	80.017	19.994	103.235	19.909	7.566	0.985
471.000	523.174	80.002	19.995	103.239	19.905	7.874	0.998
471.500	523.696	80.006	19.994	103.236	19.908	7.648	1.036
472.000	524.222	80.007	19.993	103.232	19.907	7.721	1.054
472.500	524.745	80.010	19.992	103.233	19.907	7.658	1.049
473.000	525.253	80.010	19.991	103.238	19.906	7.756	1.040
473.500	525.748	80.008	19.995	103.240	19.907	7.687	1.017
474.000	526.251	80.008	19.994	103.238	19.907	7.728	1.000
474.500	526.752	80.008	19.994	103.242	19.906	7.770	1.001
475.000	527.271	80.008	19.994	103.240	19.902	8.058	1.012
475.500	527.763	80.005	19.990	103.238	19.905	7.874	1.016
476.000	528.299	80.008	19.996	103.236	19.909	7.521	1.020
476.500	528.831	80.009	19.993	103.236	19.907	7.696	1.048
477.000	529.299	80.009	19.995	103.237	19.907	7.656	1.034
477.500	529.835	80.009	19.993	103.233	19.905	7.823	1.002
478.000	530.338	80.008	19.995	103.231	19.908	7.650	1.021
478.500	530.834	80.006	19.994	103.236	19.908	7.595	1.019
479.000	531.344	80.008	19.993	103.240	19.906	7.768	1.003
479.500	531.895	80.008	19.995	103.233	19.907	7.715	1.034
480.000	532.350	80.009	19.992	103.236	19.907	7.707	1.034
480.500	532.893	80.009	19.995	103.236	19.903	7.957	1.002
481.000	533.380	80.007	20.005	103.232	19.904	7.878	1.014
481.500	533.931	80.007	19.990	103.229	19.905	7.838	1.034
482.000	534.432	80.007	19.994	103.236	19.907	7.697	1.045
482.500	534.922	80.010	19.995	103.235	19.907	7.691	1.021
483.000	535.467	80.004	19.992	103.233	19.907	7.675	1.013
483.500	535.964	80.008	20.000	103.232	19.905	7.828	1.038
484.000	536.470	80.007	19.996	103.229	19.907	7.667	1.022
484.500	536.992	80.011	19.994	103.223	19.907	7.726	1.016
485.000	537.519	80.010	19.992	103.225	19.906	7.773	1.039
485.500	537.997	80.005	20.004	103.230	19.906	7.801	1.028
486.000	538.505	80.007	19.991	103.232	19.904	7.942	0.996
486.500	539.008	80.009	19.992	103.233	19.907	7.679	0.998
487.000	539.504	80.006	19.995	103.235	19.904	7.883	1.005
487.500	540.034	80.013	19.992	103.237	19.903	7.958	1.012
488.000	540.507	80.007	19.995	103.232	19.910	7.458	1.014
488.500	541.037	80.008	19.995	103.229	19.908	7.648	1.003
489.000	541.537	80.010	19.993	103.230	19.907	7.661	1.017
489.500	542.034	80.008	19.993	103.231	19.907	7.698	1.014
490.000	542.561	80.010	19.993	103.229	19.911	7.424	1.010
490.500	543.083	80.013	19.993	103.232	19.910	7.453	1.036
491.000	543.591	80.012	19.995	103.237	19.910	7.435	1.040
491.500	544.076	80.008	19.996	103.238	19.907	7.675	1.012
492.000	544.583	80.010	19.995	103.235	19.904	7.928	0.993
492.500	545.081	80.007	19.995	103.230	19.907	7.716	0.998
493.000	545.586	80.011	19.994	103.224	19.908	7.604	1.004
493.500	546.072	80.008	19.996	103.222	19.912	7.298	0.997
494.000	546.574	80.008	19.994	103.221	19.908	7.594	0.989
494.500	547.080	80.013	19.991	103.219	19.906	7.746	0.998
495.000	547.596	80.002	19.998	103.225	19.907	7.686	1.015
495.500	548.120	80.004	19.997	103.227	19.906	7.733	1.031
496.000	548.620	80.020	19.993	103.223	19.906	7.771	1.032
496.500	549.139	80.017	19.993	103.222	19.908	7.648	1.022
497.000	549.638	80.011	19.995	103.224	19.907	7.665	1.019
497.500	550.196	80.009	19.995	103.221	19.910	7.489	1.038
498.000	550.669	80.011	19.993	103.222	19.906	7.798	1.044
498.500	551.182	80.011	19.995	103.227	19.908	7.612	1.008
499.001	551.689	80.015	19.995	103.226	19.908	7.620	1.003
499.500	552.182	80.010	19.994	103.227	19.907	7.663	1.010
500.000	552.706	80.006	19.996	103.223	19.907	7.685	1.008
500.500	553.207	80.012	19.996	103.222	19.908	7.644	1.021
501.000	553.708	80.011	19.994	103.220	19.906	7.762	1.014
501.500	554.242	80.007	19.988	103.219	19.906	7.772	1.019
502.000	554.755	80.008	19.999	103.218	19.908	7.655	1.041
502.500	555.248	80.017	19.993	103.219	19.910	7.488	1.026
503.000	555.792	80.008	19.992	103.223	19.908	7.586	1.022
503.500	556.280	79.996	19.998	103.221	19.909	7.563	1.035
504.000	556.808	80.011	19.988	103.216	19.907	7.715	1.024
504.500	557.297	80.004	20.004	103.216	19.908	7.627	1.016
505.000	557.830	80.003	19.998	103.213	19.906	7.785	1.020
505.500	558.329	80.011	19.995	103.207	19.906	7.750	1.027
506.000	558.839	80.009	19.994	103.206	19.905	7.807	1.020
506.500	559.326	80.006	19.993	103.214	19.905	7.839	1.003
507.000	559.863	80.011	19.996	103.216	19.907	7.702	1.011
507.501	560.346	80.002	20.002	103.223	19.909	7.566	1.022
508.000	560.917	80.009	19.997	103.223	19.907	7.663	1.037
508.500	561.376	80.009	19.995	103.223	19.904	7.934	1.042
509.000	561.907	80.003	19.995	103.216	19.907	7.716	1.011
509.500	562.458	80.005	19.995	103.213	19.905	7.849	1.036
510.000	562.943	80.007	19.995	103.216	19.906	7.793	1.059
510.500	563.472	80.013	19.994	103.222	19.907	7.690	1.025
511.000	563.952	80.008	19.993	103.227	19.905	7.821	1.012
511.500	564.462	80.006	19.999	103.233	19.907	7.687	1.000
512.000	564.990	80.009	19.993	103.237	19.907	7.713	1.014
512.500	565.466	80.007	19.993	103.239	19.903	7.952	1.021
513.000	565.986	80.009	19.994	103.242	19.903	7.954	1.000
513.500	566.505	80.003	19.995	103.241	19.907	7.720	1.017
514.000	567.019	80.009	19.989	103.239	19.904	7.889	1.036
514.500	567.534	80.003	19.993	103.243	19.910	7.455	1.031
515.000	567.972	80.003	19.996	103.236	19.910	7.500	0.992
515.500	568.520	80.004	19.998	103.230	19.905	7.832	0.970
516.000	569.076	80.011	19.993	103.231	19.906	7.761	1.045
516.500	569.542	80.010	19.996	103.233	19.908	7.644	1.063
517.000	570.040	80.008	19.990	103.229	19.906	7.775	0.993
517.500	570.601	80.013	19.990	103.235	19.906	7.734	1.011
518.000	571.075	80.007	19.991	103.237	19.907	7.695	1.047
518.500	571.587	80.009	19.999	103.240	19.905	7.853	1.010
519.000	572.105	80.005	19.994	103.243	19.904	7.877	1.008
519.500	572.637	80.012	19.993	103.245	19.908	7.604	1.040
520.000	573.149	80.006	19.991	103.245	19.909	7.553	1.047
520.500	573.672	80.008	19.993	103.247	19.907	7.700	1.039
521.000	574.194	80.003	19.998	103.247	19.907	7.682	1.040
521.500	574.725	80.005	19.993	103.239	19.908	7.628	1.049
522.000	575.276	80.018	19.993	103.234	19.907	7.711	1.067
522.500	575.757	80.013	19.992	103.229	19.907	7.662	1.057
523.000	576.279	80.009	19.995	103.227	19.910	7.497	1.017
523.500	576.780	79.999	19.996	103.225	19.906	7.774	1.013
524.000	577.249	80.008	19.995	103.224	19.906	7.755	0.997
524.500	577.775	80.013	19.994	103.223	19.909	7.529	0.983
525.000	578.320	80.007	19.996	103.221	19.908	7.650	1.033
525.500	578.823	80.008	19.995	103.217	19.905	7.822	1.060
526.000	579.299	80.017	19.996	103.212	19.908	7.645	1.014
526.500	579.833	80.007	19.994	103.219	19.904	7.879	0.994
527.000	580.345	79.993	19.996	103.219	19.904	7.926	1.027
527.500	580.858	80.014	19.994	103.221	19.904	7.918	1.036
528.000	581.378	80.008	19.991	103.223	19.904	7.941	1.030
528.500	581.901	80.005	19.991	103.224	19.906	7.731	1.038
529.000	582.409	80.010	19.994	103.221	19.904	7.922	1.037
529.500	582.916	80.011	19.997	103.221	19.908	7.642	1.023
530.000	583.410	80.003	19.994	103.219	19.907	7.708	1.008
530.500	583.918	80.004	19.995	103.217	19.909	7.563	1.001
531.000	584.439	80.000	19.994	103.218	19.907	7.703	1.015
531.500	584.973	80.000	19.991	103.216	19.904	7.889	1.042
532.000	585.514	80.007	19.992	103.216	19.904	7.938	1.065
532.500	585.990	80.006	19.991	103.219	19.901	8.099	1.046
533.000	586.515	80.007	19.991	103.226	19.900	8.172	1.009
533.500	587.021	80.009	19.995	103.230	19.903	7.999	1.016
534.000	587.540	80.008	19.994	103.234	19.906	7.742	1.028
534.500	588.053	80.006	19.994	103.239	19.902	8.026	1.029
535.000	588.548	80.004	19.995	103.239	19.905	7.841	1.020
535.500	589.063	80.007	19.993	103.232	19.903	7.990	1.008
536.000	589.589	80.008	19.993	103.227	19.902	8.023	1.026
536.500	590.137	80.008	19.996	103.226	19.905	7.860	1.058
537.000	590.640	80.012	19.994	103.221	19.903	8.004	1.063
537.500	591.116	80.010	19.997	103.220	19.902	8.064	1.015
538.000	591.660	80.006	19.996	103.220	19.902	8.063	0.999
538.500	592.154	80.010	19.994	103.221	19.900	8.200	1.028
539.000	592.662	80.002	20.002	103.219	19.901	8.130	1.020
539.500	593.229	80.008	19.991	103.216	19.903	7.959	1.039
540.000	593.701	80.009	19.995	103.218	19.906	7.765	1.057
540.500	594.243	80.008	19.996	103.221	19.903	8.010	1.026
541.000	594.785	80.004	19.993	103.222	19.903	7.971	1.049
541.500	595.315	80.007	19.996	103.223	19.905	7.802	1.078
542.000	595.806	80.006	19.995	103.224	19.903	7.963	1.046
542.500	596.347	80.010	19.995	103.222	19.902	8.063	1.026
543.000	596.869	80.007	19.994	103.222	19.902	8.050	1.048
543.500	597.362	80.007	19.996	103.222	19.901	8.167	1.039
544.000	597.883	79.998	19.998	103.226	19.905	7.854	1.015
544.500	598.389	80.006	19.995	103.225	19.906	7.775	1.020
545.000	598.854	80.006	19.996	103.223	19.903	8.016	0.999
545.500	599.385	80.006	19.995	103.220	19.902	8.035	0.984
546.000	599.908	80.010	19.994	103.216	19.902	8.037	1.025
546.500	600.393	80.005	19.996	103.211	19.902	8.078	1.030
547.000	600.911	80.009	19.995	103.212	19.908	7.647	1.005
547.500	601.433	80.008	19.995	103.211	19.902	8.088	1.022
548.000	601.947	80.007	19.996	103.211	19.904	7.923	1.038
548.500	602.465	80.010	19.995	103.212	19.905	7.837	1.034
549.000	602.980	80.007	19.998	103.212	19.904	7.888	1.033
549.500	603.488	80.009	19.998	103.213	19.905	7.846	1.028
550.000	603.987	80.007	19.995	103.216	19.904	7.894	1.015
550.500	604.472	80.008	19.992	103.216	19.905	7.859	0.996
551.000	604.987	80.009	19.996	103.217	19.907	7.688	0.992
551.500	605.514	80.007	19.995	103.217	19.903	7.955	1.021
552.000	606.000	80.007	19.994	103.217	19.900	8.190	1.027
552.500	606.511	80.012	19.994	103.213	19.903	7.980	1.005
553.000	607.000	80.009	19.997	103.219	19.905	7.831	0.998
553.500	607.549	80.011	19.997	103.223	19.904	7.931	1.019
554.000	608.045	80.004	19.995	103.224	19.904	7.902	1.041
554.500	608.555	80.019	19.993	103.222	19.902	8.059	1.026
555.000	609.048	80.008	19.996	103.226	19.903	7.996	1.005
555.500	609.544	80.010	19.990	103.221	19.902	8.090	0.996
556.000	610.070	80.005	19.995	103.217	19.902	8.047	1.005
556.500	610.529	80.014	19.996	103.214	19.902	8.072	1.003
557.000	611.050	80.017	19.995	103.215	19.900	8.189	0.982
557.500	611.538	80.007	19.987	103.211	19.903	7.984	0.995
558.001	612.060	80.006	19.998	103.213	19.907	7.715	1.010
558.501	612.601	80.011	20.001	103.210	19.903	7.990	1.036
559.000	613.027	80.003	19.999	103.209	19.902	8.079	1.015
559.500	613.540	80.002	19.995	103.209	19.905	7.810	0.953
560.000	614.061	80.012	19.992	103.208	19.903	7.992	0.987
560.500	614.600	80.015	19.993	103.208	19.903	8.019	1.047
561.000	615.102	80.011	19.996	103.210	19.906	7.784	1.050
561.500	615.611	80.010	19.991	103.214	19.906	7.778	1.026
562.000	616.098	80.003	19.995	103.216	19.903	7.953	1.003
562.500	616.608	80.006	19.995	103.215	19.899	8.277	0.996
563.000	617.120	80.009	19.995	103.214	19.901	8.145	1.010
563.500	617.619	80.012	19.994	103.213	19.904	7.927	1.017
564.000	618.123	80.005	19.998	103.211	19.902	8.086	1.007
564.500	618.644	80.018	19.994	103.209	19.904	7.913	1.014
565.000	619.120	80.014	19.995	103.212	19.902	8.086	1.011
565.501	619.532	80.016	19.995	103.215	19.901	8.098	0.943
566.000	620.088	79.998	19.996	103.215	19.903	7.959	0.928
566.500	620.634	79.991	19.997	103.212	19.901	8.106	1.035
567.000	621.100	80.016	19.993	103.209	19.899	8.255	1.057
567.500	621.619	80.013	19.995	103.208	19.902	8.021	0.998
568.000	622.103	80.021	19.995	103.205	19.901	8.117	0.994
568.500	622.596	80.016	19.993	103.207	19.901	8.153	0.990
569.000	623.145	80.016	19.992	103.212	19.906	7.794	1.009
569.500	623.602	80.003	19.994	103.218	19.900	8.174	1.024
570.000	624.106	79.999	19.995	103.218	19.903	7.963	0.984
570.500	624.661	80.010	19.993	103.220	19.902	8.035	1.010
571.000	625.087	79.999	19.997	103.216	19.904	7.932	1.020
571.500	625.615	80.009	19.994	103.212	19.904	7.902	0.968
572.000	626.094	80.009	19.994	103.210	19.902	8.041	0.980
572.500	626.607	80.003	19.995	103.213	19.902	8.041	0.999
573.000	627.103	80.013	19.994	103.215	19.900	8.177	1.001
573.500	627.593	80.000	19.999	103.216	19.902	8.053	0.998
574.000	628.118	79.997	19.995	103.214	19.899	8.263	1.000
574.500	628.618	80.008	19.993	103.211	19.902	8.065	1.020
575.000	629.140	80.007	19.995	103.209	19.904	7.902	1.023
575.500	629.614	80.013	19.993	103.207	19.900	8.202	1.009
576.000	630.117	80.011	19.995	103.209	19.902	8.045	0.987
576.500	630.626	80.010	19.993	103.214	19.904	7.937	0.995
577.000	631.116	80.005	19.995	103.217	19.905	7.867	1.006
577.500	631.606	80.008	19.995	103.215	19.903	7.994	0.990
578.000	632.109	80.011	19.997	103.214	19.903	7.959	0.986
578.500	632.590	80.015	19.994	103.212	19.902	8.053	0.988
579.000	633.102	80.009	19.996	103.211	19.906	7.776	0.988
579.500	633.642	80.010	19.993	103.211	19.904	7.929	1.023
580.000	634.099	80.008	19.998	103.213	19.904	7.914	1.025
580.500	634.594	80.010	19.995	103.213	19.904	7.892	0.975
581.000	635.155	80.011	19.994	103.216	19.902	8.034	1.004
581.500	635.640	80.014	19.993	103.216	19.904	7.908	1.051
582.000	636.151	80.010	19.994	103.217	19.904	7.917	1.021
582.500	636.650	80.011	19.994	103.218	19.902	8.023	1.003
583.000	637.130	80.010	19.993	103.219	19.902	8.079	0.995
583.500	637.578	80.008	19.994	103.217	19.903	7.981	0.953
584.001	638.095	80.009	19.994	103.215	19.906	7.736	0.947
584.501	638.630	80.008	19.994	103.215	19.903	8.012	1.009
585.000	639.099	80.009	19.996	103.214	19.904	7.945	1.028
585.500	639.595	80.009	19.994	103.214	19.904	7.904	0.984
586.000	640.053	80.008	19.994	103.214	19.902	8.049	0.959
586.500	640.576	80.009	19.995	103.216	19.901	8.161	0.968
587.000	641.090	80.011	19.994	103.216	19.901	8.143	1.009
587.500	641.581	80.008	19.994	103.217	19.901	8.151	1.021
588.000	642.060	80.008	19.995	103.217	19.900	8.171	0.987
588.500	642.559	80.008	19.994	103.217	19.901	8.114	0.974
589.000	643.072	80.006	19.993	103.216	19.897	8.391	0.995
589.500	643.555	80.008	19.995	103.216	19.900	8.196	1.004
590.000	644.069	80.007	19.994	103.216	19.899	8.302	0.996
590.500	644.563	80.007	19.992	103.215	19.898	8.369	1.003
591.000	645.031	80.007	19.993	103.216	19.898	8.314	0.986
591.500	645.552	80.009	19.995	103.216	19.901	8.165	0.975
592.000	646.047	80.015	19.996	103.219	19.898	8.340	1.002
592.500	646.511	80.016	19.998	103.223	19.902	8.093	0.987
593.000	647.030	80.016	19.997	103.228	19.901	8.094	0.971
593.500	647.506	80.011	19.996	103.229	19.900	8.173	0.989
594.000	648.028	80.011	19.997	103.228	19.901	8.118	0.997
594.501	648.498	80.005	19.997	103.225	19.898	8.344	0.995
595.000	648.999	80.008	19.995	103.221	19.899	8.294	0.981
595.500	649.473	80.010	19.996	103.217	19.901	8.157	0.973
596.000	649.986	80.007	19.996	103.215	19.899	8.269	0.982
596.500	650.483	80.006	19.992	103.214	19.898	8.367	0.998
597.000	650.977	80.007	19.997	103.215	19.898	8.342	1.000
597.500	651.509	80.008	19.993	103.215	19.896	8.471	1.009
598.000	651.966	80.008	19.990	103.215	19.897	8.408	1.008
598.500	652.479	80.006	19.993	103.216	19.896	8.475	0.980
599.000	652.964	80.007	19.995	103.217	19.897	8.427	0.984
599.500	653.470	80.007	19.998	103.217	19.899	8.267	0.994
600.000	653.934	80.004	19.995	103.219	19.899	8.304	0.980
600.500	654.461	80.008	19.995	103.219	19.900	8.239	0.980
601.000	654.939	80.009	19.991	103.218	19.900	8.210	0.999
601.500	655.440	80.005	19.993	103.220	19.901	8.159	0.993
602.000	655.913	80.006	19.997	103.220	19.897	8.406	0.976
602.500	656.400	80.011	19.996	103.218	19.899	8.282	0.967
603.000	656.930	80.005	19.990	103.220	19.900	8.172	0.989
603.500	657.437	80.009	19.993	103.221	19.897	8.409	1.027
604.000	657.920	80.008	19.994	103.219	19.897	8.407	1.013
604.500	658.436	80.009	19.993	103.219	19.896	8.523	0.995
605.000	658.917	80.008	19.994	103.220	19.899	8.264	0.998
605.500	659.428	80.010	19.990	103.219	19.896	8.476	0.994
606.000	659.898	80.006	19.993	103.218	19.900	8.182	0.986
606.500	660.419	80.013	19.994	103.219	19.895	8.549	0.986
607.000	660.893	80.010	19.997	103.220	19.899	8.247	0.993
607.500	661.398	80.012	19.996	103.222	19.899	8.258	0.987
608.000	661.900	80.006	19.993	103.220	19.898	8.331	0.993
608.500	662.395	80.008	19.995	103.219	19.895	8.548	1.002
609.000	662.919	80.008	19.995	103.217	19.898	8.325	1.008
609.500	663.387	80.009	19.996	103.214	19.898	8.333	1.006
610.000	663.906	80.007	19.989	103.212	19.900	8.204	0.990
610.500	664.389	80.007	19.994	103.214	19.897	8.439	0.994
611.000	664.894	80.008	19.994	103.213	19.898	8.357	0.995
611.500	665.373	80.008	19.992	103.214	19.903	7.952	0.986
612.000	665.903	80.008	19.995	103.213	19.897	8.445	0.997
612.500	666.393	80.006	19.996	103.212	19.899	8.246	1.014
613.000	666.850	79.999	19.993	103.210	19.898	8.340	0.983
613.500	667.416	80.009	19.996	103.205	19.900	8.221	0.985
614.000	667.861	80.006	19.995	103.203	19.897	8.423	1.018
614.500	668.410	80.009	19.995	103.204	19.897	8.431	1.003
615.000	668.919	80.009	19.994	103.204	19.894	8.610	1.026
615.500	669.444	80.008	19.995	103.206	19.895	8.535	1.046
616.000	669.906	80.007	19.997	103.211	19.900	8.239	1.010
616.500	670.409	80.004	19.991	103.213	19.900	8.202	0.976
617.000	670.917	80.005	19.998	103.215	19.900	8.198	0.988
617.500	671.446	80.007	19.996	103.210	19.903	7.973	1.024
618.000	671.870	80.011	19.997	103.208	19.896	8.484	0.995
618.500	672.402	80.010	19.996	103.206	19.900	8.237	0.955
619.000	672.912	80.005	19.994	103.207	19.896	8.476	0.999
619.500	673.444	80.009	19.991	103.205	19.898	8.323	1.042
620.000	673.891	80.002	19.996	103.212	19.902	8.077	1.010
620.500	674.438	80.008	19.992	103.210	19.903	8.002	0.986
621.000	674.946	80.014	19.995	103.211	19.905	7.863	1.025
621.500	675.446	80.003	19.996	103.212	19.901	8.106	1.031
622.000	675.975	80.000	19.997	103.213	19.902	8.081	1.018
622.500	676.472	80.000	19.996	103.209	19.904	7.938	1.028
623.000	676.980	80.003	19.997	103.209	19.905	7.831	1.015
623.500	677.452	80.010	19.995	103.205	19.902	8.078	0.992
624.000	677.987	80.013	19.995	103.202	19.902	8.030	0.994
624.500	678.499	79.992	19.995	103.203	19.899	8.302	1.027
625.000	678.986	80.009	19.995	103.201	19.901	8.132	1.023
625.500	679.496	80.008	19.995	103.205	19.899	8.240	0.998
626.000	679.988	80.016	19.994	103.211	19.899	8.252	0.999
626.500	680.498	80.009	19.994	103.213	19.903	7.972	1.002
627.000	680.983	80.009	19.995	103.213	19.902	8.088	0.999
627.500	681.473	80.018	19.995	103.217	19.898	8.320	0.985
628.000	681.980	80.018	19.994	103.217	19.897	8.400	0.986
628.500	682.501	80.012	19.994	103.216	19.901	8.117	1.012
629.000	682.965	80.004	19.995	103.215	19.899	8.263	1.006
629.500	683.480	80.004	19.995	103.212	19.901	8.160	0.982
630.000	683.940	80.002	20.001	103.211	19.901	8.142	0.977
630.500	684.488	80.010	19.995	103.204	19.901	8.161	0.992
631.000	685.008	80.008	19.996	103.202	19.902	8.026	1.038
631.500	685.510	80.014	19.992	103.195	19.899	8.285	1.045
632.000	685.969	80.006	19.993	103.193	19.901	8.141	0.991
632.500	686.471	80.011	19.996	103.193	19.901	8.141	0.961
633.000	686.972	80.009	19.994	103.199	19.901	8.151	0.982
633.500	687.474	80.010	19.994	103.201	19.901	8.165	1.003
634.000	687.995	80.009	19.997	103.206	19.902	8.028	1.013
634.500	688.479	80.010	19.993	103.205	19.899	8.303	1.014
635.000	688.972	80.005	19.996	103.200	19.902	8.027	0.991
635.500	689.491	80.008	19.996	103.196	19.901	8.094	0.994
636.000	689.982	80.009	19.994	103.194	19.904	7.896	1.011
636.500	690.484	80.010	19.995	103.195	19.905	7.866	1.002
637.000	691.003	80.009	19.989	103.202	19.905	7.803	1.007
637.500	691.474	80.003	19.998	103.208	19.903	7.986	1.005
638.000	692.021	80.017	19.994	103.212	19.902	8.064	1.004
638.500	692.465	80.021	19.995	103.214	19.903	8.011	1.005
639.000	692.957	80.008	19.993	103.215	19.907	7.700	0.963
639.500	693.461	80.010	19.996	103.211	19.907	7.692	0.966
640.000	693.972	80.020	19.995	103.212	19.902	8.029	1.006
640.501	694.468	80.003	19.998	103.210	19.902	8.064	1.011
641.000	694.979	80.004	19.995	103.202	19.903	8.007	1.006
641.500	695.468	80.009	19.995	103.195	19.903	8.019	1.003
642.000	695.971	80.008	19.996	103.196	19.906	7.745	0.996
642.500	696.469	80.006	19.996	103.192	19.906	7.761	0.997
643.000	696.980	80.008	19.994	103.191	19.903	7.988	1.005
643.500	697.452	80.004	19.995	103.193	19.903	7.960	0.996
644.000	698.014	80.009	19.995	103.191	19.904	7.905	1.009
644.500	698.494	80.004	19.997	103.193	19.905	7.820	1.038
645.000	699.009	80.011	19.994	103.195	19.902	8.055	1.019
645.500	699.485	80.006	19.996	103.199	19.903	7.954	0.993
646.000	700.019	80.002	19.996	103.205	19.902	8.071	1.001
646.500	700.487	80.006	19.995	103.210	19.904	7.911	1.006
647.000	700.983	80.006	19.995	103.209	19.904	7.881	0.983
647.500	701.499	80.010	19.996	103.209	19.905	7.843	0.988
648.000	702.007	80.008	19.997	103.209	19.904	7.878	1.018
648.500	702.505	80.005	19.996	103.210	19.907	7.705	1.015
649.001	703.048	80.007	19.996	103.210	19.904	7.893	1.024
649.500	703.477	80.010	19.997	103.211	19.902	8.089	1.006
650.000	704.024	80.008	19.997	103.212	19.903	8.007	0.974
650.500	704.538	80.006	19.995	103.211	19.903	8.005	1.019
651.000	705.011	80.006	19.996	103.210	19.903	7.954	1.024
651.500	705.550	80.012	19.994	103.209	19.901	8.118	0.999
652.000	706.056	80.014	19.994	103.209	19.907	7.668	1.029
652.500	706.520	80.012	19.993	103.212	19.905	7.852	1.008
653.000	707.014	80.010	19.994	103.213	19.901	8.129	0.964
653.500	707.529	80.009	19.998	103.213	19.903	7.976	0.983
654.000	708.006	80.006	19.996	103.210	19.903	7.982	1.000
654.500	708.538	80.011	19.995	103.204	19.902	8.058	1.001
655.000	709.047	80.008	19.995	103.200	19.904	7.917	1.025
655.500	709.556	79.998	19.993	103.196	19.903	7.949	1.030
656.000	710.056	80.015	19.994	103.191	19.904	7.894	1.013
656.500	710.531	80.015	19.996	103.197	19.907	7.727	0.992
657.000	711.071	80.010	19.992	103.200	19.906	7.778	0.995
657.500	711.548	80.003	19.991	103.202	19.902	8.035	1.016
658.000	712.066	80.008	20.003	103.204	19.906	7.799	1.006
658.500	712.574	80.006	19.997	103.209	19.902	8.058	1.010
659.000	713.050	80.005	19.995	103.205	19.903	8.018	1.005
659.500	713.577	80.016	19.993	103.207	19.902	8.067	0.993
660.000	714.050	80.007	19.997	103.207	19.902	8.030	1.002
660.500	714.587	80.013	19.992	103.205	19.905	7.838	1.005
661.000	715.099	80.006	19.992	103.203	19.902	8.046	1.029
661.500	715.584	80.007	19.995	103.202	19.906	7.758	1.023
662.000	716.092	80.011	19.996	103.200	19.905	7.820	0.995
662.500	716.625	80.016	19.991	103.198	19.904	7.928	1.017
663.000	717.135	80.007	19.994	103.203	19.904	7.881	1.042
663.500	717.599	80.007	19.995	103.202	19.906	7.767	1.008
664.000	718.109	80.002	19.993	103.204	19.901	8.141	0.974
664.500	718.645	80.013	19.993	103.206	19.906	7.783	1.010
665.000	719.123	80.012	19.992	103.208	19.903	7.972	1.029
665.500	719.622	80.006	19.994	103.206	19.906	7.768	0.995
666.000	720.159	80.013	20.004	103.208	19.906	7.799	1.007
666.500	720.646	80.014	19.993	103.208	19.904	7.885	1.030
667.000	721.124	80.015	19.988	103.208	19.906	7.779	0.994
667.500	721.622	80.015	19.991	103.208	19.905	7.825	0.971
668.000	722.147	80.011	19.991	103.208	19.905	7.842	1.000
668.500	722.674	80.011	19.994	103.206	19.903	7.947	1.038
669.000	723.167	80.010	19.994	103.204	19.905	7.833	1.036
669.500	723.682	80.008	19.994	103.202	19.905	7.821	1.014
670.000	724.150	80.009	19.991	103.197	19.906	7.792	0.996
670.500	724.703	80.009	19.994	103.194	19.907	7.669	1.002
671.000	725.155	80.012	19.993	103.195	19.903	7.963	1.013
671.500	725.678	80.005	19.994	103.197	19.909	7.552	0.990
672.000	726.211	80.003	19.995	103.200	19.905	7.854	1.015
672.500	726.667	80.004	19.995	103.200	19.904	7.874	1.023
673.000	727.142	80.006	19.995	103.199	19.905	7.825	0.960
673.500	727.692	80.001	19.995	103.195	19.908	7.609	0.978
674.000	728.167	80.005	19.995	103.192	19.909	7.548	1.025
674.500	728.711	80.008	19.993	103.191	19.907	7.699	1.022
675.000	729.192	80.009	19.994	103.192	19.902	8.070	1.022
675.501	729.700	80.013	19.993	103.197	19.903	7.950	1.007
676.000	730.229	80.005	19.996	103.203	19.904	7.935	1.013
676.500	730.704	80.006	19.994	103.206	19.910	7.464	1.020
677.000	731.222	80.008	19.994	103.201	19.907	7.678	0.998
677.500	731.692	80.007	19.995	103.201	19.906	7.746	0.990
678.000	732.183	79.990	19.996	103.196	19.907	7.714	0.975
678.500	732.698	80.006	19.995	103.186	19.906	7.737	0.983
679.000	733.216	79.991	19.996	103.180	19.902	8.039	1.019
679.500	733.728	80.006	19.995	103.183	19.904	7.906	1.032
680.000	734.248	80.008	19.995	103.180	19.904	7.912	1.032
680.500	734.709	80.010	19.993	103.179	19.906	7.797	1.007
681.000	735.256	80.007	19.993	103.187	19.905	7.817	0.994
681.500	735.728	80.009	19.995	103.195	19.904	7.882	1.013
682.000	736.246	80.005	19.993	103.198	19.904	7.904	1.004
682.500	736.725	80.008	19.995	103.202	19.906	7.798	0.994
683.000	737.211	80.005	19.993	103.208	19.904	7.937	0.981
683.500	737.703	80.014	19.994	103.210	19.907	7.678	0.972
684.000	738.287	80.012	19.993	103.210	19.906	7.768	1.027
684.500	738.728	80.010	19.993	103.209	19.903	8.007	1.050
685.000	739.250	80.005	19.995	103.208	19.903	7.974	0.994
685.501	739.730	80.016	19.993	103.203	19.904	7.931	0.983
686.000	740.277	80.017	19.993	103.203	19.904	7.946	1.015
