Sample ID:	C:\MCC\MCC Cal\Test\Window_Screen_MCC_30K_min_211203_R2.txt
Sample Weight (mg):	4.8
Heating Rate (C/s):	0.5
Combustor Temp (C):	900
N2 Flow Rate (cc/min):	80
O2 Flow Rate (cc/min):	20
Calibration File:	C:\MCC\MCC Cal\Coeff1 JN10440_30_210304.txt.txt
T Correction Coefficients:	0	1.024463	0
Time Shift (s):	14
*
Time (s)	Temperature (C)	N2 flow rate (cc/min)	O2 flow rate (cc/min)	Flow Rate (cc/min)	Oxygen (%)	HRR (W/g)	Heating rate (C/s)
-0.001	111.172	80.005	19.994	103.158	20.237	-0.030	-0.016
0.499	111.151	80.005	19.993	103.159	20.237	-0.035	-0.025
1.000	111.148	80.006	19.995	103.159	20.235	0.080	-0.025
1.500	111.162	80.006	19.993	103.162	20.237	-0.070	-0.006
2.000	111.157	80.005	19.995	103.166	20.234	0.137	0.010
2.500	111.179	80.005	19.994	103.167	20.237	-0.054	0.013
3.000	111.122	80.004	19.993	103.160	20.237	-0.019	-0.010
3.500	111.123	80.006	19.994	103.155	20.239	-0.150	-0.046
4.000	111.125	80.004	19.994	103.151	20.240	-0.209	-0.026
4.500	111.153	80.005	19.994	103.149	20.237	-0.013	0.017
5.000	111.138	80.004	19.994	103.148	20.238	-0.126	0.021
5.500	111.140	80.004	19.994	103.150	20.239	-0.183	-0.000
6.000	111.140	80.006	19.994	103.151	20.240	-0.220	-0.005
6.500	111.130	80.006	19.995	103.152	20.235	0.059	-0.004
7.000	111.134	80.005	19.994	103.151	20.236	0.039	-0.008
7.500	111.110	80.005	19.993	103.148	20.240	-0.222	-0.013
8.000	111.130	80.004	19.994	103.149	20.238	-0.115	-0.012
8.501	111.119	80.005	19.993	103.148	20.237	-0.048	0.002
9.001	111.151	80.004	19.994	103.147	20.237	-0.013	0.015
9.501	111.156	80.005	19.995	103.145	20.237	-0.026	0.029
10.000	111.171	80.006	19.994	103.144	20.236	0.026	0.028
10.500	111.165	80.006	19.994	103.147	20.237	-0.026	0.014
10.999	111.149	80.005	19.994	103.155	20.237	-0.074	-0.007
11.499	111.134	80.005	19.993	103.164	20.240	-0.254	-0.026
11.999	111.123	80.005	19.994	103.172	20.238	-0.083	-0.028
12.499	111.153	80.004	19.994	103.179	20.239	-0.148	-0.004
12.999	111.163	80.005	19.994	103.180	20.234	0.141	0.029
13.499	111.167	80.005	19.995	103.178	20.237	-0.028	0.027
14.000	111.154	80.005	19.994	103.178	20.235	0.098	0.002
14.500	111.151	80.005	19.995	103.176	20.237	-0.017	-0.012
15.000	111.146	80.006	19.995	103.175	20.235	0.069	-0.012
15.500	111.130	80.006	19.994	103.172	20.233	0.237	-0.015
16.000	111.179	80.005	19.995	103.173	20.232	0.311	0.006
16.500	111.143	80.005	19.994	103.172	20.236	0.011	0.023
17.000	111.152	80.004	19.995	103.173	20.234	0.176	-0.007
17.500	111.170	80.006	19.995	103.173	20.231	0.334	0.000
18.000	111.156	80.006	19.995	103.177	20.232	0.298	0.016
18.500	111.198	80.007	19.994	103.178	20.230	0.447	0.016
19.000	111.175	80.006	19.994	103.178	20.235	0.067	0.023
19.500	111.175	80.007	19.994	103.178	20.234	0.193	-0.002
20.000	111.159	80.008	19.994	103.180	20.230	0.443	-0.019
20.500	111.149	80.005	19.994	103.183	20.234	0.176	-0.021
21.000	111.154	80.007	19.994	103.189	20.229	0.510	-0.016
21.500	111.192	80.007	19.994	103.196	20.229	0.526	0.019
22.000	111.166	80.006	19.994	103.204	20.231	0.367	0.028
22.500	111.195	80.007	19.994	103.210	20.227	0.636	0.008
23.000	111.215	80.007	19.994	103.215	20.231	0.365	0.026
23.500	111.190	80.006	19.994	103.217	20.231	0.374	0.022
24.000	111.192	80.007	19.995	103.217	20.228	0.534	-0.014
24.500	111.213	80.008	19.995	103.217	20.229	0.510	-0.000
25.000	111.235	80.007	19.994	103.217	20.225	0.755	0.033
25.500	111.244	80.009	19.994	103.217	20.225	0.741	0.037
26.000	111.268	80.007	19.994	103.217	20.226	0.723	0.033
26.500	111.284	80.008	19.995	103.224	20.223	0.923	0.036
27.000	111.279	80.007	19.994	103.234	20.227	0.614	0.025
27.500	111.288	80.007	19.995	103.242	20.227	0.651	0.008
28.000	111.307	80.008	19.995	103.250	20.225	0.766	0.016
28.500	111.316	80.008	19.994	103.258	20.231	0.351	0.028
29.000	111.326	80.006	19.994	103.258	20.226	0.688	0.023
29.500	111.333	80.007	19.993	103.259	20.224	0.857	0.018
30.000	111.366	80.007	19.994	103.266	20.223	0.866	0.029
30.500	111.388	80.006	19.993	103.274	20.222	0.937	0.048
31.000	111.423	80.007	19.993	103.280	20.220	1.092	0.056
31.500	111.418	80.007	19.994	103.285	20.221	1.052	0.043
32.000	111.469	80.007	19.993	103.283	20.220	1.124	0.038
32.499	111.469	80.007	19.993	103.277	20.218	1.230	0.049
33.000	111.533	80.006	19.995	103.270	20.214	1.489	0.057
33.501	111.578	80.007	19.994	103.270	20.215	1.456	0.086
34.000	111.604	80.007	19.994	103.275	20.210	1.740	0.089
34.499	111.603	80.008	19.994	103.290	20.213	1.562	0.048
34.999	111.647	80.008	19.994	103.303	20.212	1.671	0.034
35.499	111.704	80.009	19.994	103.318	20.212	1.654	0.072
35.999	111.748	80.007	19.993	103.315	20.213	1.575	0.101
36.500	111.821	80.008	19.995	103.302	20.210	1.762	0.109
37.000	111.832	80.008	19.995	103.299	20.208	1.901	0.100
37.499	111.933	80.008	19.995	103.300	20.207	1.979	0.098
38.000	111.970	80.008	19.994	103.306	20.207	1.963	0.125
38.500	112.002	80.007	19.995	103.325	20.206	2.065	0.104
38.999	112.059	80.006	19.994	103.366	20.207	1.981	0.079
39.499	112.104	80.008	19.993	103.398	20.204	2.200	0.096
40.000	112.173	80.007	19.993	103.406	20.201	2.356	0.108
40.500	112.235	80.007	19.995	103.405	20.200	2.424	0.122
40.999	112.303	80.007	19.994	103.405	20.202	2.319	0.130
41.499	112.352	80.007	19.993	103.391	20.203	2.269	0.124
41.999	112.467	80.008	19.993	103.366	20.200	2.463	0.140
42.500	112.522	80.007	19.994	103.362	20.200	2.460	0.167
43.000	112.635	80.008	19.994	103.362	20.196	2.690	0.169
43.499	112.689	80.007	19.994	103.362	20.198	2.549	0.167
43.999	112.760	80.007	19.994	103.362	20.196	2.710	0.146
44.499	112.804	80.007	19.994	103.363	20.196	2.704	0.120
44.999	112.947	80.007	19.993	103.367	20.202	2.316	0.151
45.499	112.976	80.007	19.994	103.368	20.197	2.628	0.179
45.999	113.061	80.009	19.993	103.366	20.199	2.540	0.143
46.499	113.134	80.007	19.993	103.364	20.201	2.377	0.136
46.999	113.224	80.007	19.993	103.365	20.199	2.543	0.160
47.499	113.328	80.008	19.995	103.370	20.198	2.558	0.179
48.000	113.434	80.007	19.995	103.377	20.195	2.764	0.202
48.500	113.483	80.007	19.995	103.383	20.199	2.500	0.182
48.999	113.623	80.008	19.994	103.386	20.195	2.801	0.172
49.499	113.759	80.008	19.995	103.387	20.200	2.445	0.233
49.999	113.826	80.008	19.995	103.382	20.202	2.306	0.239
50.499	113.911	80.008	19.994	103.376	20.200	2.413	0.177
50.999	114.024	80.008	19.994	103.373	20.198	2.575	0.175
51.499	114.147	80.009	19.995	103.373	20.199	2.538	0.217
51.999	114.214	80.009	19.994	103.373	20.200	2.419	0.213
52.500	114.334	80.008	19.994	103.374	20.199	2.489	0.189
53.000	114.437	80.007	19.995	103.377	20.198	2.566	0.205
53.499	114.544	80.008	19.995	103.378	20.199	2.519	0.216
54.000	114.653	80.008	19.995	103.380	20.199	2.545	0.213
54.500	114.766	80.007	19.995	103.380	20.201	2.386	0.219
54.999	114.877	80.007	19.995	103.374	20.197	2.649	0.223
55.500	114.992	80.007	19.995	103.365	20.198	2.565	0.225
56.001	115.130	80.007	19.995	103.356	20.195	2.773	0.239
56.501	115.217	80.006	19.995	103.348	20.194	2.823	0.239
57.000	115.340	80.007	19.995	103.342	20.195	2.807	0.218
57.500	115.432	80.006	19.995	103.347	20.195	2.805	0.212
58.001	115.556	80.005	19.995	103.354	20.197	2.618	0.216
58.500	115.677	80.005	19.995	103.361	20.194	2.874	0.231
58.999	115.830	80.004	19.995	103.367	20.191	3.078	0.259
59.500	115.954	80.005	19.995	103.374	20.193	2.934	0.275
60.000	116.082	80.004	19.995	103.375	20.195	2.811	0.265
60.499	116.244	80.004	19.995	103.376	20.193	2.900	0.271
60.999	116.319	80.007	19.995	103.377	20.194	2.874	0.263
61.499	116.461	80.005	19.996	103.377	20.192	2.987	0.227
62.000	116.572	80.005	19.995	103.377	20.193	2.916	0.235
62.501	116.718	80.005	19.994	103.377	20.190	3.148	0.255
63.000	116.833	80.006	19.994	103.377	20.190	3.109	0.259
63.499	116.940	80.005	19.995	103.382	20.189	3.183	0.242
63.999	117.130	80.005	19.994	103.386	20.189	3.198	0.259
64.499	117.282	80.005	19.995	103.388	20.190	3.122	0.319
64.999	117.404	80.006	19.994	103.388	20.191	3.070	0.308
65.499	117.531	80.005	19.995	103.386	20.191	3.031	0.262
65.999	117.667	80.006	19.995	103.381	20.188	3.230	0.256
66.499	117.808	80.005	19.995	103.377	20.191	3.029	0.270
67.000	117.966	80.006	19.995	103.379	20.192	2.975	0.288
67.500	118.076	80.005	19.995	103.386	20.192	2.949	0.283
67.999	118.262	80.006	19.995	103.395	20.192	3.005	0.282
68.499	118.381	80.005	19.995	103.402	20.193	2.886	0.300
68.999	118.569	80.006	19.995	103.410	20.192	2.977	0.306
69.499	118.721	80.005	19.995	103.414	20.190	3.115	0.324
69.999	118.856	80.006	19.994	103.415	20.191	3.074	0.314
70.499	119.004	80.005	19.994	103.412	20.193	2.920	0.285
70.999	119.122	80.005	19.995	103.409	20.192	2.966	0.274
71.500	119.315	80.004	19.994	103.406	20.190	3.126	0.289
72.000	119.447	80.006	19.995	103.402	20.196	2.732	0.318
72.499	119.641	80.006	19.994	103.395	20.193	2.887	0.325
72.999	119.731	80.005	19.994	103.391	20.194	2.853	0.305
73.499	119.893	80.006	19.995	103.387	20.195	2.801	0.268
74.000	120.049	80.006	19.995	103.388	20.190	3.100	0.285
74.500	120.196	80.006	19.994	103.389	20.191	3.053	0.311
74.999	120.393	80.006	19.995	103.389	20.191	3.068	0.324
75.499	120.507	80.006	19.994	103.389	20.191	3.057	0.327
76.000	120.715	80.005	19.995	103.388	20.191	3.081	0.316
76.500	120.834	80.004	19.996	103.382	20.190	3.114	0.324
76.999	121.024	80.005	19.996	103.380	20.191	3.077	0.318
77.499	121.200	80.005	19.995	103.380	20.190	3.098	0.337
77.999	121.337	80.006	19.994	103.380	20.189	3.181	0.339
78.500	121.514	80.005	19.995	103.381	20.189	3.165	0.314
79.000	121.674	80.005	19.995	103.382	20.189	3.215	0.326
79.499	121.832	80.005	19.996	103.380	20.191	3.030	0.327
80.000	122.010	80.005	19.995	103.384	20.190	3.119	0.327
80.501	122.179	80.004	19.995	103.386	20.188	3.237	0.342
81.000	122.363	80.006	19.996	103.385	20.189	3.180	0.350
81.499	122.590	80.004	19.996	103.384	20.191	3.048	0.382
81.999	122.709	80.006	19.995	103.383	20.192	2.983	0.379
82.499	122.912	80.006	19.996	103.379	20.191	3.044	0.334
83.000	123.079	80.004	19.996	103.379	20.192	3.007	0.346
83.501	123.239	80.006	19.996	103.386	20.191	3.083	0.348
84.000	123.425	80.005	19.995	103.389	20.192	2.977	0.337
84.499	123.609	80.006	19.997	103.389	20.194	2.823	0.358
84.999	123.799	80.005	19.996	103.389	20.192	2.962	0.372
85.499	123.949	80.005	19.995	103.385	20.192	3.007	0.357
85.999	124.113	80.005	19.996	103.380	20.189	3.181	0.327
86.499	124.334	80.003	19.995	103.377	20.190	3.125	0.350
86.999	124.513	80.005	19.995	103.379	20.190	3.094	0.393
87.499	124.689	80.005	19.995	103.378	20.194	2.851	0.378
87.999	124.867	80.004	19.995	103.380	20.194	2.851	0.354
88.499	125.050	80.005	19.995	103.382	20.192	2.951	0.357
89.000	125.210	80.005	19.995	103.381	20.194	2.831	0.352
89.501	125.404	80.004	19.996	103.383	20.189	3.208	0.349
90.001	125.607	80.004	19.996	103.390	20.192	3.002	0.375
90.499	125.759	80.005	19.995	103.393	20.190	3.100	0.375
90.999	125.953	80.005	19.996	103.393	20.191	3.045	0.350
91.499	126.149	80.005	19.995	103.394	20.191	3.025	0.368
92.000	126.298	80.005	19.996	103.390	20.190	3.086	0.368
92.500	126.499	80.006	19.995	103.389	20.189	3.184	0.347
92.999	126.679	80.004	19.995	103.391	20.191	3.035	0.365
93.499	126.895	80.006	19.995	103.390	20.191	3.039	0.389
94.000	127.066	80.005	19.995	103.390	20.188	3.280	0.391
94.500	127.263	80.004	19.995	103.390	20.191	3.072	0.378
94.999	127.455	80.005	19.994	103.384	20.192	2.986	0.379
95.499	127.669	80.006	19.995	103.378	20.193	2.946	0.397
95.999	127.808	80.005	19.994	103.375	20.192	2.994	0.380
96.499	128.040	80.005	19.995	103.375	20.192	2.971	0.362
96.999	128.199	80.005	19.995	103.374	20.189	3.202	0.381
97.500	128.416	80.004	19.994	103.374	20.191	3.055	0.384
98.000	128.624	80.005	19.994	103.376	20.190	3.087	0.401
98.499	128.815	80.006	19.994	103.377	20.186	3.410	0.412
98.999	128.996	80.006	19.994	103.377	20.188	3.250	0.386
99.499	129.215	80.006	19.994	103.379	20.191	3.068	0.386
100.000	129.371	80.005	19.995	103.386	20.187	3.297	0.387
100.500	129.561	80.005	19.994	103.392	20.189	3.169	0.360
100.999	129.760	80.007	19.994	103.398	20.186	3.354	0.367
101.499	130.010	80.006	19.994	103.406	20.188	3.258	0.419
102.000	130.151	80.006	19.993	103.411	20.190	3.109	0.420
102.501	130.370	80.006	19.994	103.411	20.188	3.282	0.375
103.000	130.554	80.006	19.994	103.407	20.189	3.207	0.382
103.499	130.721	80.006	19.994	103.399	20.191	3.072	0.377
103.999	130.976	80.007	19.994	103.391	20.188	3.265	0.387
104.499	131.145	80.008	19.994	103.384	20.190	3.135	0.423
104.999	131.349	80.007	19.994	103.377	20.188	3.280	0.398
105.499	131.569	80.007	19.994	103.374	20.189	3.181	0.398
105.999	131.719	80.007	19.994	103.373	20.193	2.896	0.397
106.501	131.963	80.006	19.993	103.373	20.190	3.093	0.382
107.001	132.148	80.007	19.994	103.371	20.189	3.157	0.412
107.501	132.351	80.007	19.995	103.372	20.187	3.297	0.408
108.000	132.567	80.008	19.995	103.373	20.187	3.286	0.403
108.499	132.766	80.008	19.994	103.377	20.189	3.184	0.417
108.999	132.992	80.008	19.995	103.383	20.186	3.373	0.420
109.499	133.145	80.007	19.995	103.386	20.190	3.095	0.402
109.999	133.371	80.008	19.996	103.385	20.186	3.353	0.379
110.500	133.534	80.006	19.996	103.384	20.190	3.097	0.384
111.000	133.773	80.007	19.995	103.388	20.187	3.312	0.395
111.499	133.995	80.008	19.995	103.388	20.189	3.152	0.432
111.999	134.164	80.008	19.995	103.390	20.188	3.262	0.426
112.499	134.374	80.005	19.994	103.393	20.188	3.278	0.385
113.000	134.570	80.007	19.994	103.395	20.185	3.436	0.393
113.500	134.775	80.007	19.995	103.389	20.188	3.254	0.404
113.999	135.009	80.006	19.994	103.386	20.189	3.178	0.420
114.499	135.220	80.007	19.995	103.386	20.191	3.035	0.442
114.999	135.393	80.006	19.994	103.384	20.188	3.274	0.414
115.499	135.613	80.006	19.995	103.381	20.185	3.434	0.388
116.000	135.804	80.005	19.995	103.381	20.189	3.206	0.402
116.500	136.032	80.005	19.994	103.380	20.188	3.270	0.415
116.999	136.243	80.007	19.994	103.383	20.186	3.417	0.429
117.499	136.496	80.005	19.994	103.388	20.187	3.285	0.452
117.999	136.733	80.005	19.994	103.389	20.187	3.287	0.477
118.499	136.923	80.006	19.994	103.390	20.185	3.471	0.459
118.999	137.154	80.006	19.995	103.393	20.186	3.372	0.423
119.499	137.389	80.006	19.995	103.394	20.188	3.243	0.443
120.000	137.589	80.006	19.995	103.395	20.185	3.441	0.451
120.501	137.810	80.005	19.994	103.400	20.184	3.493	0.428
121.000	137.997	80.006	19.994	103.406	20.186	3.378	0.415
121.500	138.189	80.007	19.994	103.408	20.185	3.480	0.394
122.000	138.375	80.007	19.994	103.402	20.185	3.480	0.379
122.499	138.613	80.007	19.994	103.397	20.186	3.408	0.401
122.999	138.824	80.007	19.994	103.396	20.191	3.041	0.436
123.500	139.041	80.006	19.994	103.391	20.188	3.250	0.438
124.000	139.271	80.007	19.994	103.390	20.188	3.272	0.437
124.500	139.479	80.007	19.994	103.391	20.189	3.196	0.443
125.000	139.719	80.006	19.993	103.389	20.187	3.344	0.443
125.499	139.945	80.006	19.995	103.386	20.184	3.510	0.456
126.000	140.131	80.007	19.995	103.388	20.185	3.442	0.439
126.500	140.347	80.007	19.993	103.385	20.185	3.460	0.407
126.999	140.572	80.006	19.993	103.383	20.185	3.476	0.422
127.499	140.799	80.007	19.993	103.383	20.189	3.204	0.447
127.999	141.022	80.008	19.994	103.382	20.187	3.345	0.451
128.500	141.237	80.007	19.995	103.379	20.188	3.240	0.444
129.000	141.487	80.007	19.993	103.380	20.185	3.467	0.452
129.500	141.686	80.009	19.995	103.381	20.184	3.524	0.457
130.000	141.901	80.008	19.993	103.381	20.185	3.438	0.431
130.500	142.132	80.008	19.993	103.380	20.184	3.544	0.430
131.000	142.350	80.008	19.994	103.382	20.187	3.335	0.448
131.500	142.555	80.008	19.994	103.379	20.185	3.456	0.436
132.000	142.767	80.007	19.993	103.379	20.185	3.432	0.420
132.500	143.018	80.007	19.993	103.385	20.186	3.365	0.440
133.000	143.230	80.007	19.994	103.386	20.185	3.430	0.463
133.500	143.451	80.008	19.993	103.387	20.185	3.450	0.448
134.000	143.688	80.008	19.994	103.387	20.181	3.738	0.445
134.500	143.930	80.008	19.993	103.386	20.179	3.884	0.468
135.000	144.148	80.008	19.993	103.380	20.181	3.712	0.470
135.500	144.335	80.007	19.994	103.379	20.184	3.491	0.433
136.000	144.597	80.007	19.994	103.376	20.186	3.382	0.426
136.500	144.796	80.007	19.993	103.376	20.186	3.385	0.455
137.000	145.026	80.007	19.994	103.357	20.183	3.558	0.445
137.500	145.248	80.009	19.994	103.339	20.183	3.593	0.441
138.000	145.499	80.007	19.993	103.331	20.184	3.537	0.463
138.500	145.664	80.009	19.994	103.330	20.184	3.515	0.444
139.000	145.925	80.006	19.994	103.332	20.186	3.417	0.421
139.500	146.142	80.007	19.993	103.357	20.184	3.498	0.452
140.000	146.371	80.006	19.994	103.387	20.186	3.380	0.462
140.500	146.555	80.005	19.993	103.434	20.185	3.459	0.430
141.000	146.827	80.007	19.994	103.446	20.187	3.294	0.435
141.500	147.031	80.006	19.994	103.448	20.185	3.461	0.466
142.000	147.282	80.005	19.994	103.442	20.183	3.591	0.465
142.500	147.481	80.005	19.994	103.430	20.182	3.661	0.453
143.000	147.742	80.006	19.994	103.391	20.185	3.454	0.455
143.500	147.897	80.007	19.994	103.380	20.184	3.532	0.438
144.001	148.185	80.006	19.993	103.376	20.186	3.406	0.430
144.501	148.393	80.005	19.994	103.375	20.182	3.640	0.470
145.000	148.655	80.005	19.995	103.375	20.185	3.437	0.483
145.500	148.867	80.005	19.994	103.375	20.184	3.553	0.472
146.000	149.115	80.005	19.995	103.375	20.185	3.434	0.467
146.500	149.321	80.006	19.996	103.376	20.185	3.447	0.457
147.000	149.581	80.005	19.994	103.379	20.183	3.620	0.460
147.500	149.798	80.004	19.995	103.380	20.181	3.751	0.471
148.000	150.045	80.004	19.994	103.380	20.181	3.731	0.471
148.500	150.258	80.004	19.995	103.380	20.179	3.841	0.462
149.000	150.499	80.005	19.995	103.378	20.182	3.679	0.457
149.500	150.744	80.004	19.995	103.375	20.179	3.859	0.470
150.000	150.989	80.006	19.995	103.373	20.186	3.408	0.488
150.500	151.226	80.004	19.995	103.375	20.183	3.564	0.486
151.000	151.444	80.005	19.995	103.375	20.182	3.634	0.469
151.500	151.647	80.006	19.995	103.375	20.182	3.653	0.438
152.000	151.897	80.005	19.995	103.375	20.181	3.751	0.437
152.500	152.102	80.005	19.995	103.375	20.185	3.477	0.454
153.000	152.345	80.006	19.995	103.372	20.181	3.694	0.452
153.500	152.559	80.005	19.995	103.372	20.183	3.562	0.452
154.000	152.826	80.006	19.995	103.372	20.185	3.484	0.469
154.500	153.055	80.004	19.994	103.374	20.181	3.691	0.489
155.000	153.300	80.005	19.994	103.377	20.181	3.696	0.485
155.500	153.513	80.004	19.996	103.380	20.184	3.536	0.466
156.000	153.753	80.005	19.995	103.382	20.184	3.538	0.455
156.500	153.967	80.006	19.994	103.386	20.186	3.370	0.453
157.000	154.201	80.005	19.995	103.387	20.181	3.700	0.451
157.500	154.444	80.005	19.994	103.390	20.185	3.452	0.463
158.000	154.679	80.005	19.996	103.394	20.182	3.649	0.478
158.500	154.892	80.005	19.995	103.397	20.181	3.757	0.463
159.000	155.162	80.005	19.995	103.399	20.185	3.460	0.465
159.500	155.398	80.006	19.995	103.401	20.182	3.626	0.494
160.000	155.653	80.007	19.995	103.398	20.186	3.386	0.499
160.500	155.864	80.005	19.995	103.397	20.185	3.463	0.478
161.000	156.093	80.006	19.995	103.396	20.187	3.344	0.453
161.500	156.317	80.006	19.994	103.392	20.186	3.415	0.447
162.000	156.586	80.006	19.995	103.390	20.185	3.435	0.473
162.500	156.779	80.005	19.994	103.393	20.185	3.478	0.477
163.000	157.069	80.007	19.995	103.390	20.184	3.494	0.472
163.500	157.264	80.005	19.995	103.390	20.184	3.544	0.484
164.000	157.549	80.006	19.994	103.391	20.181	3.751	0.483
164.500	157.746	80.003	19.995	103.389	20.181	3.736	0.481
165.000	158.003	80.006	19.995	103.382	20.179	3.881	0.468
165.501	158.258	80.005	19.995	103.376	20.181	3.750	0.483
166.001	158.471	80.006	19.994	103.353	20.178	3.903	0.490
166.500	158.759	80.006	19.994	103.345	20.179	3.842	0.485
167.001	158.971	80.005	19.994	103.347	20.180	3.810	0.500
167.500	159.190	80.006	19.995	103.349	20.181	3.691	0.465
168.000	159.461	80.005	19.994	103.362	20.179	3.847	0.461
168.500	159.682	80.007	19.995	103.417	20.180	3.765	0.491
169.000	159.938	80.006	19.994	103.433	20.179	3.873	0.484
169.501	160.172	80.005	19.995	103.439	20.178	3.933	0.484
170.001	160.437	80.006	19.994	103.439	20.181	3.734	0.495
170.500	160.634	80.005	19.996	103.432	20.180	3.781	0.481
171.000	160.907	80.007	19.995	103.397	20.179	3.855	0.466
171.501	161.175	80.006	19.995	103.385	20.178	3.927	0.505
172.000	161.370	80.005	19.995	103.377	20.177	3.992	0.502
172.500	161.640	80.005	19.994	103.375	20.177	3.959	0.464
173.000	161.916	80.005	19.996	103.374	20.176	4.053	0.506
173.500	162.107	80.005	19.996	103.374	20.173	4.226	0.507
174.001	162.398	80.005	19.995	103.369	20.173	4.248	0.474
174.500	162.628	80.005	19.995	103.347	20.176	4.079	0.502
175.000	162.892	80.004	19.995	103.340	20.178	3.925	0.508
175.500	163.112	80.003	19.996	103.340	20.176	4.031	0.488
176.000	163.389	80.005	19.996	103.339	20.178	3.942	0.490
176.500	163.629	80.005	19.995	103.349	20.175	4.112	0.507
177.000	163.903	80.004	19.996	103.387	20.175	4.127	0.516
177.500	164.116	80.006	19.997	103.425	20.174	4.164	0.501
178.000	164.348	80.004	19.995	103.431	20.172	4.328	0.466
178.500	164.592	80.004	19.995	103.433	20.173	4.257	0.460
179.000	164.827	80.005	19.995	103.429	20.173	4.257	0.477
179.500	165.095	80.005	19.996	103.416	20.176	4.048	0.491
180.000	165.333	80.003	19.996	103.385	20.173	4.231	0.505
180.500	165.582	80.005	19.995	103.382	20.173	4.289	0.497
181.000	165.827	80.005	19.995	103.386	20.174	4.177	0.490
181.500	166.089	80.004	19.996	103.391	20.176	4.042	0.500
182.000	166.349	80.004	19.995	103.392	20.174	4.162	0.514
182.500	166.562	80.004	19.996	103.391	20.176	4.027	0.497
183.000	166.859	80.005	19.996	103.390	20.172	4.296	0.492
183.500	167.094	80.005	19.995	103.387	20.172	4.296	0.521
184.001	167.320	80.006	19.996	103.382	20.174	4.198	0.496
184.501	167.612	80.006	19.995	103.379	20.171	4.365	0.490
185.000	167.817	80.005	19.995	103.383	20.172	4.326	0.508
185.500	168.048	80.005	19.996	103.381	20.173	4.248	0.467
186.001	168.346	80.004	19.996	103.380	20.175	4.124	0.482
186.500	168.610	80.006	19.995	103.382	20.170	4.469	0.545
187.000	168.822	80.006	19.995	103.382	20.170	4.459	0.519
187.500	169.077	80.007	19.995	103.379	20.170	4.467	0.472
188.000	169.315	80.007	19.996	103.378	20.171	4.370	0.480
188.500	169.583	80.008	19.995	103.376	20.172	4.306	0.499
189.001	169.814	80.007	19.995	103.376	20.173	4.248	0.503
189.500	170.102	80.007	19.995	103.376	20.168	4.627	0.509
190.000	170.340	80.006	19.995	103.377	20.172	4.300	0.522
190.500	170.593	80.006	19.994	103.378	20.173	4.252	0.509
191.000	170.849	80.006	19.995	103.381	20.172	4.356	0.500
191.500	171.097	80.007	19.994	103.381	20.170	4.454	0.506
192.001	171.317	80.007	19.994	103.381	20.169	4.513	0.486
192.502	171.527	80.008	19.994	103.379	20.169	4.515	0.449
193.001	171.775	80.009	19.994	103.377	20.167	4.658	0.444
193.500	172.050	80.008	19.994	103.374	20.170	4.468	0.490
194.000	172.324	80.007	19.993	103.373	20.167	4.674	0.536
194.500	172.568	80.006	19.994	103.371	20.168	4.587	0.534
195.000	172.824	80.007	19.994	103.371	20.167	4.654	0.509
195.500	173.101	80.006	19.994	103.374	20.166	4.698	0.517
196.000	173.344	80.006	19.993	103.377	20.166	4.697	0.527
196.500	173.570	80.007	19.994	103.379	20.167	4.689	0.495
197.000	173.839	80.007	19.994	103.381	20.169	4.543	0.482
197.500	174.084	80.005	19.994	103.381	20.166	4.734	0.504
198.000	174.330	80.006	19.993	103.379	20.165	4.812	0.502
198.500	174.566	80.005	19.994	103.378	20.167	4.678	0.486
199.000	174.800	80.005	19.993	103.383	20.162	4.973	0.476
199.500	175.060	80.006	19.993	103.386	20.163	4.925	0.482
200.000	175.326	80.007	19.994	103.387	20.165	4.817	0.510
200.500	175.584	80.006	19.994	103.388	20.165	4.817	0.525
201.000	175.833	80.007	19.993	103.386	20.165	4.772	0.516
201.500	176.067	80.004	19.994	103.382	20.166	4.746	0.495
202.000	176.317	80.004	19.993	103.382	20.171	4.372	0.483
202.500	176.593	80.006	19.993	103.383	20.167	4.689	0.506
203.000	176.826	80.007	19.994	103.383	20.163	4.934	0.518
203.500	177.090	80.005	19.994	103.381	20.164	4.856	0.502
204.000	177.378	80.006	19.994	103.375	20.165	4.771	0.524
204.500	177.626	80.004	19.995	103.369	20.165	4.814	0.544
205.000	177.835	80.006	19.994	103.368	20.162	4.969	0.496
205.500	178.106	80.005	19.994	103.367	20.164	4.835	0.468
206.000	178.348	80.005	19.994	103.370	20.162	4.985	0.497
206.500	178.608	80.005	19.994	103.374	20.164	4.864	0.508
207.000	178.865	80.005	19.994	103.375	20.165	4.781	0.510
207.500	179.137	80.006	19.993	103.375	20.162	5.026	0.523
208.000	179.363	80.005	19.994	103.374	20.163	4.948	0.513
208.500	179.574	80.006	19.993	103.374	20.158	5.269	0.467
209.000	179.831	80.006	19.994	103.372	20.158	5.267	0.452
209.500	180.105	80.007	19.994	103.373	20.161	5.078	0.500
210.000	180.329	80.006	19.994	103.374	20.159	5.173	0.515
210.500	180.631	80.006	19.994	103.374	20.158	5.240	0.512
211.001	180.903	80.007	19.994	103.367	20.159	5.191	0.550
211.501	181.125	80.007	19.994	103.366	20.157	5.344	0.534
212.001	181.374	80.008	19.994	103.366	20.161	5.071	0.482
212.500	181.642	80.008	19.993	103.366	20.159	5.166	0.494
213.000	181.887	80.007	19.994	103.367	20.159	5.222	0.515
213.500	182.103	80.008	19.993	103.378	20.160	5.116	0.487
214.000	182.390	80.007	19.993	103.382	20.160	5.148	0.482
214.500	182.642	80.007	19.994	103.381	20.160	5.116	0.521
215.000	182.891	80.009	19.994	103.380	20.156	5.390	0.520
215.500	183.140	80.009	19.994	103.376	20.156	5.425	0.499
216.000	183.429	80.008	19.994	103.365	20.154	5.529	0.518
216.501	183.667	80.008	19.994	103.355	20.155	5.440	0.533
217.001	183.941	80.007	19.994	103.353	20.153	5.576	0.519
217.501	184.219	80.008	19.993	103.352	20.152	5.654	0.532
218.001	184.471	80.008	19.993	103.354	20.158	5.299	0.541
218.500	184.709	80.008	19.994	103.359	20.151	5.709	0.510
219.000	184.935	80.007	19.993	103.366	20.154	5.544	0.477
219.500	185.182	80.009	19.994	103.368	20.153	5.601	0.469
220.000	185.469	80.008	19.993	103.365	20.152	5.701	0.503
220.500	185.695	80.007	19.994	103.365	20.152	5.696	0.523
221.000	185.996	80.010	19.995	103.365	20.151	5.762	0.520
221.501	186.231	80.009	19.994	103.365	20.153	5.575	0.532
222.000	186.501	80.007	19.993	103.364	20.154	5.567	0.521
222.500	186.731	80.008	19.994	103.368	20.153	5.608	0.503
223.000	187.000	80.008	19.995	103.373	20.152	5.643	0.499
223.500	187.293	80.007	19.995	103.375	20.149	5.898	0.530
224.001	187.545	80.007	19.993	103.376	20.149	5.879	0.553
224.501	187.753	80.007	19.994	103.378	20.148	5.948	0.502
225.001	188.038	80.007	19.995	103.378	20.147	6.002	0.476
225.501	188.290	80.007	19.994	103.372	20.149	5.868	0.515
226.000	188.568	80.007	19.994	103.370	20.148	5.929	0.533
226.500	188.816	80.006	19.994	103.370	20.145	6.164	0.527
227.000	189.055	80.006	19.994	103.369	20.147	6.014	0.506
227.500	189.285	80.006	19.994	103.370	20.147	6.032	0.478
228.000	189.568	80.006	19.993	103.372	20.148	5.961	0.491
228.500	189.847	80.007	19.994	103.372	20.145	6.130	0.538
229.000	190.043	80.007	19.994	103.373	20.144	6.195	0.519
229.500	190.317	80.007	19.993	103.371	20.144	6.210	0.473
230.000	190.564	80.006	19.993	103.369	20.144	6.213	0.495
230.500	190.810	80.008	19.994	103.368	20.142	6.358	0.507
231.000	191.049	80.008	19.995	103.364	20.142	6.336	0.489
231.500	191.280	80.007	19.994	103.361	20.143	6.286	0.477
232.000	191.564	80.007	19.995	103.357	20.140	6.462	0.492
232.500	191.796	80.007	19.994	103.356	20.141	6.375	0.515
233.000	192.080	80.008	19.994	103.354	20.139	6.559	0.516
233.500	192.328	80.007	19.993	103.352	20.138	6.613	0.524
234.000	192.592	80.007	19.995	103.353	20.139	6.569	0.522
234.500	192.820	80.006	19.994	103.359	20.138	6.582	0.502
235.000	193.061	80.005	19.994	103.359	20.142	6.309	0.481
235.501	193.312	80.006	19.994	103.358	20.142	6.355	0.481
236.001	193.588	80.007	19.993	103.363	20.139	6.517	0.510
236.500	193.850	80.006	19.994	103.359	20.139	6.570	0.533
237.001	194.075	80.007	19.994	103.352	20.139	6.528	0.512
237.501	194.351	80.005	19.994	103.347	20.141	6.394	0.494
238.001	194.622	80.005	19.994	103.345	20.138	6.600	0.524
238.500	194.784	80.006	19.994	103.339	20.137	6.697	0.490
239.000	195.032	80.006	19.994	103.338	20.137	6.645	0.422
239.500	195.333	80.006	19.993	103.337	20.135	6.843	0.480
240.000	195.601	80.006	19.994	103.337	20.136	6.774	0.559
240.501	195.824	80.006	19.994	103.336	20.136	6.772	0.530
241.001	196.071	80.007	19.996	103.334	20.133	6.949	0.480
241.501	196.349	80.005	19.994	103.333	20.131	7.088	0.498
242.000	196.565	80.006	19.995	103.334	20.132	7.002	0.510
242.500	196.813	80.005	19.993	103.333	20.133	6.935	0.478
243.000	197.072	80.005	19.995	103.333	20.133	6.961	0.485
243.500	197.322	80.006	19.994	103.336	20.131	7.088	0.508
244.000	197.573	80.006	19.995	103.343	20.130	7.153	0.505
244.500	197.826	80.007	19.995	103.347	20.130	7.117	0.503
245.000	198.090	80.005	19.995	103.352	20.128	7.289	0.510
245.500	198.298	80.007	19.995	103.356	20.133	6.915	0.495
246.000	198.577	80.006	19.994	103.358	20.128	7.293	0.480
246.500	198.801	80.006	19.994	103.354	20.129	7.222	0.495
247.000	199.080	80.006	19.994	103.350	20.126	7.402	0.502
247.500	199.304	80.006	19.996	103.352	20.128	7.256	0.503
248.000	199.587	80.005	19.995	103.352	20.126	7.394	0.505
248.500	199.831	80.005	19.996	103.353	20.123	7.640	0.517
249.000	200.085	80.006	19.995	103.357	20.126	7.406	0.512
249.500	200.361	80.005	19.995	103.357	20.121	7.758	0.514
250.000	200.598	80.006	19.995	103.351	20.122	7.706	0.522
250.500	200.859	80.005	19.994	103.346	20.126	7.395	0.506
251.000	201.109	80.006	19.995	103.340	20.121	7.743	0.504
251.500	201.432	80.005	19.994	103.342	20.120	7.847	0.542
252.000	201.599	80.004	19.995	103.350	20.121	7.749	0.531
252.500	201.868	80.005	19.995	103.357	20.116	8.066	0.463
253.000	202.102	80.005	19.994	103.365	20.119	7.884	0.470
253.500	202.329	80.004	19.995	103.373	20.116	8.111	0.482
254.000	202.574	80.005	19.995	103.375	20.120	7.827	0.466
254.500	202.814	80.005	19.995	103.374	20.115	8.135	0.478
255.000	203.136	80.006	19.995	103.375	20.116	8.070	0.524
255.500	203.365	80.005	19.995	103.370	20.112	8.331	0.556
256.000	203.604	80.006	19.994	103.368	20.115	8.177	0.510
256.500	203.877	80.006	19.994	103.366	20.112	8.370	0.490
257.000	204.124	80.007	19.995	103.366	20.108	8.632	0.516
257.500	204.369	80.005	19.995	103.365	20.108	8.617	0.506
258.000	204.603	80.007	19.994	103.368	20.106	8.728	0.486
258.500	204.839	80.005	19.996	103.364	20.107	8.700	0.475
259.000	205.110	80.005	19.994	103.358	20.106	8.728	0.488
259.500	205.370	80.004	19.995	103.351	20.105	8.804	0.519
260.000	205.600	80.005	19.994	103.344	20.107	8.664	0.510
260.500	205.858	80.005	19.995	103.338	20.106	8.756	0.489
261.000	206.105	80.004	19.994	103.336	20.104	8.908	0.497
261.500	206.320	80.006	19.996	103.336	20.104	8.860	0.484
262.000	206.584	80.004	19.994	103.336	20.104	8.879	0.471
262.500	206.846	80.004	19.994	103.338	20.102	9.049	0.503
263.000	207.095	80.006	19.995	103.338	20.102	9.012	0.518
263.500	207.367	80.005	19.994	103.339	20.099	9.208	0.516
264.000	207.600	80.005	19.994	103.339	20.101	9.106	0.513
264.500	207.872	80.003	19.995	103.338	20.097	9.339	0.505
265.000	208.096	80.004	19.996	103.337	20.100	9.135	0.501
265.500	208.346	80.006	19.994	103.337	20.097	9.395	0.485
266.000	208.575	80.005	19.995	103.337	20.099	9.239	0.476
266.500	208.860	80.004	19.995	103.337	20.100	9.169	0.497
267.000	209.086	80.004	19.994	103.337	20.093	9.601	0.512
267.500	209.321	80.006	19.995	103.338	20.096	9.406	0.486
268.000	209.597	80.005	19.995	103.338	20.094	9.543	0.486
268.500	209.813	80.006	19.994	103.338	20.093	9.597	0.502
269.000	210.055	80.006	19.995	103.341	20.093	9.606	0.475
269.500	210.305	80.006	19.996	103.341	20.091	9.744	0.475
270.000	210.551	80.005	19.996	103.342	20.089	9.879	0.494
270.500	210.830	80.005	19.995	103.341	20.088	9.955	0.511
271.000	211.101	80.006	19.996	103.345	20.087	10.020	0.537
271.500	211.286	80.006	19.995	103.343	20.082	10.352	0.503
272.000	211.565	80.006	19.995	103.343	20.082	10.340	0.460
272.500	211.774	80.006	19.995	103.342	20.082	10.374	0.476
273.000	212.044	80.006	19.995	103.342	20.083	10.314	0.483
273.500	212.314	80.006	19.995	103.338	20.079	10.552	0.509
274.000	212.541	80.006	19.995	103.337	20.079	10.541	0.519
274.500	212.805	80.007	19.994	103.336	20.080	10.524	0.494
275.000	213.052	80.005	19.995	103.334	20.074	10.878	0.501
275.500	213.291	80.007	19.995	103.331	20.079	10.603	0.499
276.000	213.562	80.006	19.996	103.330	20.077	10.697	0.498
276.500	213.776	80.006	19.995	103.329	20.072	11.032	0.497
277.000	214.050	80.006	19.996	103.329	20.070	11.169	0.487
277.500	214.278	80.007	19.996	103.331	20.071	11.073	0.495
278.000	214.602	80.006	19.995	103.333	20.065	11.480	0.527
278.500	214.826	80.007	19.995	103.334	20.067	11.369	0.550
279.000	215.048	80.007	19.995	103.334	20.069	11.271	0.497
279.500	215.281	80.005	19.995	103.334	20.065	11.519	0.451
280.000	215.537	80.006	19.996	103.333	20.064	11.576	0.472
280.500	215.802	80.007	19.995	103.333	20.061	11.781	0.505
281.000	216.021	80.007	19.995	103.332	20.060	11.879	0.503
281.500	216.295	80.007	19.995	103.332	20.058	11.999	0.489
282.000	216.526	80.007	19.995	103.332	20.056	12.108	0.499
282.500	216.782	80.008	19.996	103.332	20.054	12.239	0.495
283.000	217.008	80.007	19.995	103.331	20.057	12.054	0.484
283.500	217.265	80.008	19.995	103.332	20.049	12.577	0.483
284.000	217.490	80.006	19.995	103.331	20.052	12.352	0.483
284.500	217.691	80.006	19.995	103.332	20.051	12.438	0.454
285.000	217.954	80.007	19.995	103.332	20.050	12.519	0.445
285.500	218.226	80.006	19.995	103.332	20.047	12.701	0.499
286.000	218.470	80.007	19.995	103.331	20.046	12.755	0.525
286.500	218.698	80.006	19.995	103.326	20.045	12.827	0.494
287.000	218.945	80.007	19.995	103.321	20.044	12.933	0.474
287.500	219.177	80.008	19.994	103.315	20.045	12.853	0.477
288.000	219.435	80.006	19.995	103.315	20.039	13.239	0.484
288.500	219.685	80.008	19.996	103.317	20.035	13.513	0.499
289.000	220.001	80.006	19.994	103.321	20.037	13.407	0.537
289.500	220.177	80.007	19.994	103.325	20.036	13.478	0.529
290.000	220.422	80.007	19.994	103.331	20.036	13.487	0.456
290.500	220.683	80.008	19.994	103.327	20.034	13.600	0.464
291.000	220.903	80.006	19.994	103.325	20.031	13.808	0.494
291.500	221.150	80.008	19.994	103.326	20.033	13.670	0.474
292.000	221.412	80.006	19.994	103.327	20.027	14.067	0.488
292.500	221.667	80.008	19.995	103.327	20.026	14.097	0.513
293.000	221.927	80.008	19.994	103.332	20.029	13.946	0.516
293.500	222.155	80.008	19.994	103.333	20.023	14.315	0.502
294.000	222.376	80.007	19.993	103.334	20.022	14.426	0.469
294.500	222.640	80.008	19.994	103.333	20.018	14.669	0.467
295.000	222.867	80.008	19.995	103.333	20.020	14.534	0.488
295.500	223.123	80.007	19.993	103.333	20.017	14.736	0.487
296.000	223.379	80.008	19.994	103.332	20.014	14.946	0.498
296.500	223.563	80.009	19.994	103.332	20.014	14.909	0.476
297.000	223.816	80.008	19.993	103.332	20.013	15.015	0.439
297.500	224.075	80.009	19.993	103.331	20.010	15.174	0.475
298.000	224.341	80.008	19.993	103.331	20.006	15.465	0.518
298.500	224.567	80.009	19.994	103.332	20.008	15.347	0.508
299.000	224.850	80.009	19.994	103.332	20.004	15.614	0.500
299.500	225.083	80.009	19.994	103.332	20.003	15.647	0.513
300.000	225.331	80.009	19.995	103.332	20.000	15.896	0.499
300.500	225.576	80.008	19.994	103.332	19.999	15.927	0.487
301.000	225.815	80.009	19.994	103.332	19.993	16.349	0.488
301.500	226.074	80.008	19.993	103.332	19.999	15.954	0.491
302.000	226.332	80.008	19.993	103.331	19.991	16.497	0.508
302.500	226.568	80.009	19.995	103.331	19.989	16.645	0.506
303.000	226.799	80.007	19.993	103.330	19.991	16.502	0.481
303.500	227.066	80.007	19.994	103.329	19.987	16.735	0.482
304.000	227.338	80.009	19.994	103.326	19.984	16.943	0.519
304.500	227.573	80.007	19.994	103.323	19.982	17.073	0.523
305.000	227.801	80.008	19.994	103.324	19.981	17.129	0.484
305.500	228.048	80.008	19.995	103.325	19.980	17.199	0.469
306.000	228.306	80.008	19.994	103.325	19.973	17.674	0.490
306.500	228.588	80.008	19.993	103.327	19.974	17.624	0.522
307.000	228.822	80.008	19.995	103.330	19.975	17.536	0.528
307.500	229.039	80.006	19.994	103.330	19.969	17.932	0.483
308.000	229.280	80.008	19.994	103.330	19.965	18.207	0.454
308.500	229.541	80.006	19.995	103.330	19.966	18.139	0.480
309.000	229.817	80.006	19.995	103.327	19.963	18.332	0.520
309.500	230.048	80.006	19.996	103.324	19.962	18.407	0.522
310.000	230.333	80.005	19.994	103.322	19.960	18.571	0.512
310.500	230.563	80.006	19.994	103.322	19.961	18.523	0.515
311.000	230.784	80.006	19.994	103.321	19.951	19.144	0.482
311.500	231.030	80.005	19.995	103.322	19.952	19.102	0.459
312.000	231.264	80.006	19.994	103.325	19.948	19.350	0.474
312.500	231.504	80.006	19.995	103.325	19.947	19.465	0.477
313.000	231.797	80.006	19.994	103.325	19.942	19.791	0.503
313.500	232.051	80.005	19.994	103.325	19.942	19.743	0.540
314.001	232.272	80.005	19.995	103.322	19.938	20.053	0.511
314.500	232.499	80.004	19.993	103.319	19.936	20.201	0.462
315.000	232.749	80.005	19.994	103.321	19.936	20.145	0.463
315.500	232.992	80.006	19.995	103.321	19.933	20.386	0.485
316.000	233.236	80.006	19.993	103.321	19.931	20.510	0.490
316.500	233.499	80.005	19.994	103.323	19.929	20.640	0.497
317.000	233.692	80.005	19.994	103.324	19.929	20.642	0.482
317.500	233.955	80.005	19.994	103.322	19.924	20.957	0.456
318.000	234.203	80.004	19.994	103.320	19.918	21.385	0.484
318.500	234.453	80.005	19.993	103.316	19.916	21.507	0.504
319.000	234.707	80.006	19.995	103.317	19.915	21.616	0.501
319.500	234.964	80.006	19.994	103.320	19.909	21.956	0.508
320.000	235.264	80.005	19.994	103.323	19.907	22.130	0.534
320.500	235.478	80.006	19.994	103.326	19.904	22.348	0.535
321.000	235.714	80.005	19.994	103.331	19.899	22.623	0.482
321.500	235.955	80.007	19.994	103.335	19.902	22.486	0.463
322.000	236.183	80.004	19.994	103.333	19.896	22.877	0.473
322.500	236.439	80.006	19.994	103.333	19.894	23.019	0.477
323.000	236.685	80.004	19.994	103.332	19.891	23.177	0.493
323.500	236.954	80.006	19.996	103.332	19.894	22.963	0.508
324.000	237.164	80.006	19.995	103.332	19.891	23.227	0.497
324.500	237.436	80.005	19.995	103.335	19.888	23.378	0.480
325.000	237.675	80.006	19.994	103.333	19.882	23.811	0.497
325.500	237.908	80.005	19.995	103.332	19.879	24.019	0.492
326.000	238.177	80.006	19.994	103.331	19.878	24.060	0.487
326.500	238.456	80.005	19.994	103.332	19.877	24.140	0.525
327.000	238.634	80.007	19.993	103.332	19.874	24.312	0.503
327.500	238.874	80.006	19.994	103.331	19.869	24.660	0.438
328.000	239.155	80.007	19.994	103.330	19.864	25.001	0.469
328.500	239.350	80.006	19.994	103.323	19.862	25.163	0.498
329.000	239.633	80.006	19.995	103.320	19.861	25.211	0.477
329.500	239.864	80.005	19.994	103.318	19.858	25.436	0.496
330.000	240.116	80.005	19.994	103.318	19.855	25.642	0.498
330.500	240.324	80.006	19.995	103.319	19.851	25.861	0.472
331.000	240.629	80.006	19.994	103.320	19.852	25.848	0.486
331.500	240.832	80.005	19.993	103.316	19.847	26.164	0.511
332.000	241.071	80.006	19.993	103.310	19.843	26.414	0.476
332.500	241.330	80.007	19.994	103.309	19.837	26.840	0.470
333.000	241.589	80.006	19.994	103.310	19.835	26.961	0.508
333.500	241.809	80.006	19.994	103.314	19.835	26.985	0.498
334.000	242.044	80.005	19.995	103.318	19.830	27.296	0.467
334.500	242.319	80.004	19.994	103.323	19.826	27.536	0.483
335.000	242.538	80.002	19.994	103.323	19.826	27.581	0.502
335.500	242.817	80.005	19.995	103.322	19.822	27.832	0.496
336.000	243.079	80.004	19.994	103.324	19.816	28.234	0.520
336.500	243.347	80.004	19.994	103.326	19.821	27.914	0.535
337.000	243.615	80.005	19.993	103.327	19.810	28.626	0.533
337.500	243.838	80.006	19.994	103.328	19.809	28.702	0.514
338.000	244.082	80.005	19.995	103.326	19.810	28.660	0.479
338.500	244.327	80.003	19.994	103.326	19.806	28.913	0.478
339.000	244.610	80.004	19.996	103.326	19.799	29.368	0.508
339.500	244.820	80.003	19.996	103.328	19.803	29.099	0.510
340.000	245.083	80.003	19.995	103.327	19.795	29.650	0.483
340.500	245.302	80.004	19.995	103.329	19.792	29.832	0.478
341.000	245.603	80.004	19.995	103.330	19.794	29.732	0.501
341.500	245.828	80.005	19.995	103.331	19.786	30.232	0.523
342.000	246.076	80.003	19.994	103.331	19.784	30.409	0.500
342.500	246.337	80.004	19.995	103.333	19.779	30.743	0.491
343.000	246.567	80.004	19.995	103.332	19.773	31.141	0.500
343.500	246.848	80.005	19.996	103.329	19.772	31.214	0.501
344.000	247.094	80.003	19.995	103.325	19.766	31.570	0.519
344.500	247.369	80.005	19.994	103.325	19.762	31.836	0.524
345.000	247.587	80.004	19.995	103.324	19.763	31.771	0.507
345.500	247.824	80.006	19.995	103.325	19.756	32.237	0.474
346.000	248.030	80.005	19.996	103.328	19.754	32.363	0.449
346.500	248.301	80.004	19.996	103.331	19.750	32.639	0.460
347.000	248.542	80.007	19.995	103.329	19.750	32.666	0.494
347.500	248.807	80.005	19.995	103.331	19.750	32.674	0.509
348.000	249.044	80.006	19.995	103.331	19.745	32.998	0.504
348.500	249.314	80.005	19.995	103.332	19.740	33.315	0.505
349.000	249.546	80.007	19.995	103.328	19.738	33.454	0.505
349.500	249.825	80.004	19.995	103.323	19.734	33.754	0.507
350.000	250.082	80.006	19.994	103.319	19.725	34.351	0.523
350.500	250.306	80.006	19.996	103.318	19.722	34.516	0.508
351.000	250.600	80.006	19.995	103.315	19.721	34.623	0.499
351.500	250.830	80.006	19.995	103.316	19.711	35.268	0.521
352.000	251.101	80.007	19.995	103.315	19.712	35.211	0.512
352.500	251.369	80.006	19.995	103.313	19.708	35.484	0.520
353.000	251.610	80.006	19.995	103.312	19.702	35.891	0.524
353.500	251.847	80.007	19.995	103.312	19.700	36.048	0.494
354.000	252.133	80.007	19.994	103.310	19.693	36.518	0.500
354.500	252.365	80.006	19.995	103.314	19.690	36.690	0.520
355.000	252.612	80.008	19.996	103.314	19.689	36.778	0.499
355.500	252.833	80.008	19.995	103.311	19.680	37.338	0.474
356.000	253.083	80.007	19.995	103.310	19.677	37.572	0.469
356.500	253.334	80.007	19.994	103.310	19.676	37.663	0.486
357.000	253.573	80.007	19.994	103.306	19.675	37.700	0.496
357.500	253.811	80.007	19.995	103.304	19.670	38.039	0.483
358.000	254.036	80.006	19.994	103.303	19.668	38.157	0.469
358.500	254.341	80.008	19.993	103.305	19.665	38.378	0.496
359.000	254.549	80.008	19.994	103.304	19.660	38.728	0.522
359.500	254.786	80.007	19.994	103.307	19.657	38.931	0.479
360.000	255.054	80.008	19.994	103.314	19.650	39.346	0.475
360.500	255.277	80.007	19.995	103.319	19.648	39.521	0.498
361.000	255.595	80.007	19.996	103.320	19.640	40.028	0.516
361.500	255.830	80.008	19.995	103.325	19.636	40.317	0.547
362.000	256.103	80.007	19.994	103.329	19.635	40.409	0.530
362.500	256.304	80.007	19.995	103.329	19.626	40.997	0.491
363.000	256.612	80.007	19.994	103.329	19.627	40.938	0.492
363.500	256.817	80.008	19.995	103.331	19.622	41.276	0.511
364.000	257.053	80.007	19.994	103.332	19.616	41.642	0.477
364.500	257.307	80.008	19.995	103.333	19.618	41.517	0.466
365.000	257.566	80.006	19.995	103.334	19.610	42.058	0.502
365.500	257.823	80.005	19.994	103.333	19.605	42.440	0.515
366.000	258.024	80.007	19.995	103.331	19.604	42.507	0.487
366.500	258.313	80.008	19.996	103.326	19.598	42.894	0.474
367.000	258.564	80.005	19.996	103.321	19.595	43.096	0.515
367.500	258.779	80.007	19.995	103.316	19.587	43.641	0.503
368.000	259.046	80.006	19.995	103.312	19.586	43.665	0.474
368.501	259.298	80.006	19.994	103.307	19.583	43.902	0.501
369.000	259.589	80.005	19.995	103.304	19.578	44.200	0.531
369.500	259.787	80.006	19.995	103.306	19.572	44.613	0.516
370.000	260.007	80.005	19.995	103.304	19.568	44.915	0.454
370.500	260.301	80.005	19.995	103.302	19.563	45.245	0.466
371.000	260.559	80.007	19.996	103.300	19.561	45.327	0.533
371.500	260.788	80.007	19.996	103.299	19.553	45.881	0.520
372.000	261.026	80.008	19.996	103.295	19.550	46.102	0.477
372.500	261.281	80.008	19.996	103.295	19.546	46.399	0.480
373.000	261.529	80.008	19.995	103.300	19.545	46.454	0.498
373.500	261.771	80.006	19.997	103.308	19.537	46.957	0.497
374.000	262.016	80.007	19.995	103.314	19.537	46.975	0.488
374.500	262.251	80.006	19.997	103.320	19.532	47.313	0.484
375.000	262.484	80.007	19.996	103.327	19.524	47.830	0.475
375.500	262.754	80.006	19.995	103.329	19.516	48.358	0.486
376.000	262.985	80.007	19.996	103.330	19.513	48.587	0.502
376.500	263.268	80.005	19.996	103.335	19.509	48.876	0.507
377.000	263.475	80.007	19.995	103.340	19.507	48.973	0.501
377.500	263.771	80.007	19.995	103.341	19.502	49.344	0.496
378.000	263.985	80.008	19.995	103.341	19.500	49.479	0.507
378.500	264.255	80.007	19.996	103.341	19.491	50.073	0.497
379.000	264.513	80.007	19.996	103.338	19.486	50.439	0.506
379.500	264.810	80.007	19.995	103.332	19.484	50.511	0.542
380.000	265.001	80.007	19.995	103.330	19.479	50.906	0.522
380.500	265.255	80.008	19.996	103.324	19.472	51.333	0.466
381.000	265.570	80.007	19.996	103.324	19.470	51.506	0.507
381.500	265.733	80.009	19.995	103.324	19.467	51.679	0.523
382.000	266.005	80.008	19.993	103.325	19.461	52.087	0.456
382.500	266.271	80.008	19.995	103.325	19.459	52.195	0.487
383.000	266.498	80.007	19.996	103.330	19.453	52.612	0.515
383.500	266.749	80.007	19.996	103.331	19.450	52.819	0.486
384.000	267.058	80.008	19.996	103.333	19.446	53.120	0.519
384.500	267.265	80.007	19.993	103.339	19.440	53.496	0.538
385.000	267.499	80.009	19.995	103.341	19.437	53.671	0.479
385.500	267.764	80.008	19.995	103.341	19.435	53.841	0.470
386.000	268.017	80.007	19.993	103.341	19.433	53.956	0.508
386.500	268.292	80.010	19.994	103.339	19.432	54.037	0.523
387.000	268.502	80.009	19.993	103.339	19.424	54.576	0.507
387.500	268.726	80.009	19.994	103.339	19.417	55.026	0.460
388.000	269.010	80.008	19.995	103.340	19.418	54.997	0.471
388.500	269.279	80.009	19.995	103.344	19.418	54.974	0.531
389.000	269.492	80.008	19.994	103.346	19.415	55.202	0.518
389.500	269.744	80.007	19.994	103.344	19.408	55.639	0.473
390.000	270.024	80.007	19.993	103.345	19.407	55.680	0.498
390.500	270.218	80.006	19.993	103.344	19.400	56.159	0.503
391.000	270.558	80.008	19.994	103.340	19.401	56.089	0.504
391.500	270.759	80.006	19.993	103.337	19.394	56.566	0.538
392.000	271.028	80.007	19.995	103.335	19.392	56.688	0.506
392.500	271.263	80.005	19.994	103.332	19.388	56.968	0.487
393.000	271.504	80.007	19.995	103.330	19.383	57.339	0.490
393.500	271.745	80.006	19.995	103.330	19.384	57.282	0.479
394.000	272.065	80.005	19.994	103.330	19.378	57.675	0.522
394.500	272.299	80.005	19.995	103.332	19.381	57.433	0.558
395.000	272.538	80.006	19.994	103.334	19.377	57.737	0.513
395.500	272.774	80.005	19.995	103.337	19.377	57.763	0.473
396.000	273.038	80.004	19.994	103.337	19.375	57.875	0.487
396.500	273.275	80.005	19.993	103.337	19.371	58.164	0.501
397.000	273.544	80.006	19.994	103.337	19.369	58.255	0.503
397.500	273.790	80.005	19.994	103.340	19.367	58.418	0.510
398.000	274.056	80.006	19.994	103.341	19.364	58.618	0.513
398.500	274.336	80.005	19.994	103.341	19.360	58.912	0.529
399.000	274.565	80.005	19.993	103.341	19.361	58.816	0.528
399.500	274.839	80.006	19.994	103.341	19.356	59.178	0.507
400.000	275.093	80.006	19.995	103.340	19.357	59.064	0.515
400.500	275.342	80.006	19.994	103.339	19.354	59.312	0.515
401.000	275.574	80.005	19.995	103.340	19.349	59.591	0.492
401.500	275.848	80.004	19.994	103.340	19.350	59.582	0.494
402.000	276.089	80.006	19.995	103.338	19.351	59.509	0.511
402.500	276.349	80.007	19.994	103.336	19.348	59.702	0.508
403.000	276.642	80.006	19.995	103.335	19.342	60.105	0.527
403.500	276.879	80.005	19.994	103.335	19.346	59.836	0.541
404.000	277.084	80.006	19.995	103.335	19.342	60.070	0.486
404.500	277.344	80.005	19.995	103.339	19.341	60.127	0.454
405.000	277.581	80.006	19.995	103.342	19.340	60.242	0.481
405.500	277.842	80.006	19.995	103.347	19.336	60.485	0.497
406.000	278.104	80.006	19.995	103.354	19.337	60.404	0.510
406.500	278.394	80.006	19.994	103.360	19.337	60.446	0.537
407.000	278.599	80.004	19.994	103.366	19.335	60.552	0.524
407.500	278.894	80.007	19.994	103.371	19.332	60.804	0.498
408.000	279.123	80.006	19.994	103.374	19.336	60.522	0.512
408.500	279.391	80.007	19.995	103.373	19.331	60.876	0.510
409.000	279.665	80.006	19.994	103.373	19.329	60.995	0.519
409.500	279.880	80.006	19.994	103.368	19.321	61.508	0.515
410.000	280.169	80.007	19.994	103.366	19.327	61.115	0.497
410.500	280.386	80.005	19.994	103.364	19.321	61.542	0.505
411.000	280.672	80.007	19.994	103.362	19.324	61.328	0.505
411.500	280.924	80.007	19.996	103.358	19.322	61.474	0.521
412.000	281.199	80.006	19.995	103.363	19.323	61.425	0.532
412.500	281.401	80.006	19.995	103.364	19.326	61.227	0.502
413.000	281.646	80.007	19.995	103.365	19.313	62.098	0.462
413.500	281.942	80.006	19.995	103.368	19.314	62.019	0.494
414.000	282.147	80.008	19.994	103.373	19.312	62.149	0.521
414.500	282.396	80.006	19.994	103.372	19.312	62.184	0.478
415.000	282.731	80.006	19.994	103.370	19.316	61.950	0.519
415.500	282.942	80.007	19.994	103.369	19.311	62.266	0.565
416.000	283.225	80.007	19.995	103.366	19.319	61.769	0.520
416.500	283.454	80.006	19.994	103.366	19.320	61.706	0.503
417.000	283.714	80.007	19.994	103.370	19.313	62.127	0.500
417.500	283.941	80.007	19.995	103.372	19.309	62.426	0.488
418.000	284.213	80.006	19.994	103.376	19.315	62.031	0.494
418.500	284.454	80.007	19.995	103.387	19.309	62.419	0.506
419.000	284.700	80.006	19.994	103.395	19.310	62.373	0.500
419.500	284.953	80.006	19.993	103.400	19.305	62.646	0.493
420.000	285.233	80.007	19.993	103.407	19.306	62.573	0.516
420.500	285.480	80.007	19.995	103.411	19.302	62.846	0.530
421.000	285.805	80.006	19.994	103.412	19.302	62.880	0.550
421.500	285.935	80.006	19.995	103.415	19.299	63.044	0.513
422.000	286.319	80.007	19.995	103.420	19.294	63.355	0.484
422.500	286.435	80.006	19.994	103.428	19.294	63.358	0.507
423.000	286.793	80.006	19.994	103.440	19.289	63.699	0.487
423.500	286.992	80.005	19.994	103.454	19.291	63.580	0.515
424.000	287.085	80.006	19.995	103.467	19.286	63.918	0.425
424.500	287.544	80.006	19.993	103.477	19.282	64.139	0.422
425.000	287.765	80.006	19.995	103.487	19.275	64.657	0.616
425.500	288.035	80.006	19.994	103.502	19.270	64.945	0.586
426.000	288.341	80.005	19.994	103.510	19.271	64.889	0.534
426.500	288.418	80.006	19.996	103.523	19.262	65.466	0.479
427.000	288.546	80.005	19.994	103.540	19.260	65.622	0.294
427.500	288.878	80.005	19.994	103.551	19.260	65.611	0.333
428.000	289.006	80.005	19.995	103.551	19.255	65.913	0.460
428.500	289.455	80.006	19.993	103.552	19.251	66.174	0.518
429.000	289.955	80.006	19.994	103.547	19.247	66.439	0.763
429.500	289.853	80.004	19.994	103.538	19.243	66.694	0.673
430.000	290.064	80.005	19.994	103.531	19.244	66.631	0.253
430.500	290.700	80.006	19.995	103.522	19.239	66.948	0.478
431.000	291.038	80.006	19.994	103.516	19.242	66.784	0.910
431.500	290.938	80.006	19.994	103.506	19.239	66.951	0.606
432.000	291.286	80.005	19.994	103.491	19.239	66.975	0.243
432.500	291.549	80.006	19.994	103.477	19.235	67.204	0.430
433.000	291.837	80.005	19.995	103.467	19.241	66.828	0.581
433.500	291.993	80.005	19.995	103.454	19.239	66.954	0.497
434.000	292.310	80.005	19.995	103.447	19.244	66.605	0.459
434.500	292.531	80.007	19.993	103.443	19.243	66.703	0.506
435.000	292.717	80.005	19.996	103.435	19.246	66.527	0.473
435.500	293.081	80.005	19.995	103.423	19.253	66.022	0.479
436.000	293.227	80.007	19.995	103.417	19.258	65.731	0.530
436.500	293.531	80.007	19.995	103.403	19.268	65.038	0.480
437.000	293.797	80.007	19.995	103.391	19.275	64.545	0.509
437.500	294.072	80.007	19.995	103.377	19.276	64.474	0.555
438.000	294.331	80.007	19.995	103.365	19.286	63.822	0.538
438.500	294.600	80.008	19.995	103.347	19.294	63.291	0.531
439.000	294.863	80.007	19.994	103.330	19.303	62.677	0.530
439.500	295.043	80.007	19.996	103.315	19.310	62.163	0.488
440.000	295.374	80.008	19.995	103.305	19.320	61.523	0.477
440.500	295.631	80.008	19.995	103.296	19.334	60.565	0.550
441.000	295.843	80.008	19.995	103.293	19.338	60.263	0.528
441.500	296.086	80.007	19.995	103.292	19.352	59.385	0.462
442.000	296.348	80.007	19.995	103.292	19.361	58.730	0.480
442.500	296.602	80.008	19.996	103.291	19.374	57.898	0.510
443.000	296.853	80.008	19.995	103.294	19.381	57.396	0.510
443.500	297.024	80.007	19.995	103.296	19.391	56.694	0.463
444.000	297.336	80.008	19.995	103.296	19.402	56.010	0.453
444.500	297.533	80.008	19.996	103.299	19.417	54.969	0.496
445.000	297.847	80.008	19.995	103.305	19.426	54.365	0.510
445.500	298.094	80.007	19.996	103.310	19.442	53.269	0.536
446.000	298.353	80.008	19.995	103.315	19.459	52.133	0.534
446.500	298.616	80.005	19.995	103.321	19.473	51.194	0.514
447.000	298.822	80.007	19.995	103.322	19.485	50.382	0.495
447.500	299.087	80.006	19.995	103.320	19.504	49.127	0.470
448.000	299.299	80.007	19.995	103.316	19.524	47.782	0.474
448.500	299.580	80.006	19.995	103.309	19.543	46.520	0.485
449.000	299.792	80.007	19.995	103.304	19.561	45.324	0.493
449.500	300.080	80.007	19.995	103.299	19.586	43.627	0.496
450.000	300.332	80.007	19.994	103.289	19.604	42.444	0.520
450.500	300.576	80.007	19.996	103.279	19.621	41.266	0.518
451.000	300.837	80.007	19.995	103.272	19.642	39.882	0.501
451.500	301.080	80.007	19.994	103.262	19.667	38.199	0.504
452.000	301.301	80.005	19.995	103.256	19.684	37.064	0.484
452.500	301.594	80.006	19.995	103.249	19.708	35.421	0.489
453.000	301.797	80.006	19.995	103.242	19.730	33.969	0.505
453.500	302.060	80.006	19.994	103.231	19.748	32.762	0.481
454.000	302.349	80.007	19.996	103.223	19.767	31.501	0.509
454.500	302.521	80.006	19.995	103.217	19.788	30.075	0.506
455.000	302.830	80.005	19.994	103.213	19.805	28.907	0.471
455.500	303.054	80.005	19.995	103.206	19.821	27.861	0.507
456.000	303.298	80.006	19.995	103.205	19.837	26.752	0.501
456.500	303.603	80.006	19.994	103.205	19.859	25.324	0.509
457.000	303.815	80.008	19.994	103.203	19.871	24.475	0.533
457.500	304.058	80.007	19.994	103.204	19.891	23.191	0.486
458.000	304.311	80.006	19.995	103.209	19.905	22.237	0.476
458.500	304.555	80.007	19.995	103.211	19.921	21.129	0.496
459.000	304.759	80.007	19.994	103.205	19.934	20.279	0.472
459.500	305.040	80.007	19.994	103.203	19.945	19.539	0.466
460.000	305.267	80.008	19.995	103.200	19.962	18.383	0.497
460.500	305.543	80.007	19.994	103.195	19.974	17.617	0.506
461.000	305.773	80.006	19.995	103.190	19.985	16.857	0.504
461.500	306.074	80.007	19.996	103.190	19.994	16.250	0.518
462.000	306.320	80.007	19.995	103.186	20.004	15.574	0.539
462.500	306.554	80.007	19.995	103.183	20.018	14.645	0.514
463.000	306.813	80.007	19.994	103.181	20.023	14.343	0.487
463.500	307.068	80.009	19.996	103.180	20.034	13.542	0.503
464.000	307.285	80.007	19.995	103.179	20.039	13.251	0.493
464.500	307.551	80.009	19.995	103.179	20.051	12.458	0.478
465.000	307.811	80.008	19.994	103.178	20.055	12.168	0.504
465.500	308.081	80.007	19.995	103.175	20.061	11.736	0.528
466.000	308.338	80.008	19.994	103.172	20.067	11.331	0.528
466.500	308.576	80.008	19.995	103.169	20.073	10.931	0.511
467.000	308.832	80.007	19.995	103.162	20.077	10.667	0.495
467.500	309.107	80.008	19.995	103.158	20.082	10.349	0.512
468.000	309.309	80.008	19.995	103.155	20.087	10.017	0.504
468.500	309.621	80.007	19.995	103.154	20.091	9.754	0.496
469.000	309.823	80.007	19.996	103.152	20.094	9.575	0.514
469.500	310.062	80.008	19.995	103.157	20.098	9.291	0.477
470.000	310.346	80.008	19.995	103.161	20.102	9.030	0.482
470.500	310.581	80.008	19.994	103.168	20.104	8.873	0.521
471.000	310.854	80.007	19.994	103.172	20.113	8.299	0.514
471.500	311.084	80.007	19.995	103.177	20.114	8.197	0.506
472.000	311.359	80.009	19.994	103.180	20.117	8.010	0.504
472.500	311.600	80.006	19.995	103.181	20.119	7.866	0.510
473.000	311.874	80.007	19.995	103.183	20.123	7.586	0.516
473.500	312.139	80.007	19.995	103.182	20.122	7.642	0.527
474.000	312.426	80.008	19.995	103.183	20.130	7.136	0.545
474.500	312.699	80.006	19.995	103.183	20.132	7.033	0.556
475.000	312.914	80.007	19.996	103.183	20.132	7.024	0.524
475.500	313.200	80.006	19.995	103.181	20.133	6.966	0.495
476.000	313.427	80.006	19.995	103.181	20.131	7.081	0.507
476.500	313.673	80.006	19.995	103.179	20.137	6.674	0.493
477.000	313.969	80.006	19.996	103.179	20.138	6.575	0.507
477.500	314.218	80.005	19.994	103.183	20.136	6.721	0.543
478.000	314.441	80.006	19.995	103.190	20.137	6.647	0.509
478.500	314.780	80.007	19.996	103.197	20.142	6.353	0.517
479.000	314.979	80.006	19.995	103.205	20.146	6.088	0.550
479.500	315.236	80.005	19.995	103.210	20.141	6.419	0.497
480.000	315.504	80.004	19.995	103.212	20.145	6.110	0.490
480.500	315.729	80.006	19.994	103.211	20.143	6.292	0.509
481.000	315.983	80.006	19.994	103.211	20.150	5.813	0.486
481.500	316.247	80.006	19.994	103.211	20.151	5.751	0.499
482.000	316.514	80.007	19.995	103.212	20.149	5.873	0.524
482.500	316.760	80.006	19.995	103.213	20.152	5.653	0.522
483.000	316.971	80.006	19.994	103.215	20.151	5.717	0.486
483.500	317.231	80.005	19.994	103.215	20.154	5.522	0.464
484.000	317.484	80.007	19.994	103.215	20.152	5.648	0.492
484.500	317.756	80.006	19.994	103.216	20.155	5.439	0.519
485.000	318.051	80.006	19.993	103.216	20.160	5.152	0.546
485.500	318.306	80.007	19.995	103.222	20.160	5.139	0.558
486.000	318.524	80.007	19.994	103.225	20.159	5.187	0.511
486.500	318.801	80.006	19.994	103.225	20.160	5.097	0.484
487.000	319.010	80.007	19.993	103.225	20.160	5.147	0.491
487.500	319.286	80.006	19.994	103.225	20.163	4.915	0.486
488.000	319.531	80.007	19.995	103.220	20.160	5.138	0.503
488.500	319.824	80.006	19.995	103.217	20.160	5.136	0.529
489.000	320.060	80.007	19.994	103.217	20.165	4.758	0.533
489.500	320.338	80.007	19.993	103.217	20.166	4.749	0.521
490.000	320.518	80.008	19.994	103.217	20.163	4.910	0.486
490.500	320.854	80.007	19.993	103.218	20.167	4.626	0.487
491.000	321.102	80.007	19.994	103.225	20.164	4.832	0.550
491.500	321.354	80.006	19.994	103.233	20.163	4.906	0.542
492.000	321.594	80.007	19.993	103.241	20.169	4.552	0.496
492.500	321.822	80.006	19.994	103.249	20.169	4.493	0.480
493.000	322.120	80.007	19.993	103.256	20.169	4.530	0.497
493.500	322.339	80.006	19.994	103.256	20.168	4.560	0.521
494.000	322.634	80.007	19.994	103.251	20.171	4.419	0.515
494.500	322.860	80.006	19.993	103.244	20.166	4.726	0.517
495.000	323.132	80.008	19.995	103.241	20.169	4.526	0.510
495.500	323.423	80.007	19.993	103.237	20.166	4.706	0.531
496.000	323.669	80.006	19.994	103.235	20.167	4.688	0.550
496.500	323.909	80.007	19.994	103.239	20.168	4.569	0.511
497.000	324.184	80.006	19.994	103.245	20.171	4.408	0.500
497.500	324.429	80.006	19.994	103.248	20.168	4.608	0.517
498.000	324.654	80.006	19.994	103.251	20.169	4.510	0.495
498.500	324.936	80.008	19.994	103.253	20.167	4.634	0.489
499.000	325.199	80.007	19.994	103.255	20.173	4.237	0.526
499.500	325.468	80.007	19.994	103.257	20.172	4.312	0.538
500.000	325.705	80.006	19.993	103.257	20.173	4.252	0.518
500.500	326.006	80.007	19.994	103.256	20.169	4.523	0.522
501.000	326.222	80.006	19.995	103.257	20.172	4.345	0.528
501.500	326.473	80.006	19.994	103.255	20.169	4.501	0.492
502.000	326.728	80.007	19.993	103.254	20.173	4.279	0.486
502.500	326.978	80.007	19.994	103.253	20.172	4.353	0.505
503.000	327.237	80.007	19.995	103.254	20.172	4.344	0.507
503.500	327.515	80.008	19.995	103.254	20.170	4.474	0.523
504.000	327.711	80.008	19.995	103.256	20.168	4.563	0.505
504.500	327.982	80.007	19.995	103.256	20.176	4.023	0.470
505.000	328.244	80.006	19.994	103.256	20.171	4.377	0.500
505.500	328.522	80.007	19.994	103.256	20.177	3.984	0.537
506.000	328.733	80.007	19.995	103.257	20.174	4.177	0.514
506.500	329.024	80.007	19.994	103.257	20.172	4.353	0.495
507.001	329.286	80.007	19.994	103.257	20.176	4.025	0.527
507.500	329.560	80.006	19.994	103.259	20.176	4.079	0.545
508.000	329.812	80.006	19.995	103.260	20.180	3.818	0.531
508.500	330.033	80.006	19.995	103.259	20.177	4.019	0.499
509.000	330.302	80.005	19.995	103.259	20.180	3.806	0.481
509.500	330.544	80.005	19.994	103.259	20.179	3.877	0.501
510.000	330.769	80.006	19.995	103.257	20.176	4.032	0.489
510.500	331.044	80.005	19.995	103.258	20.181	3.697	0.484
511.000	331.294	80.007	19.994	103.261	20.175	4.129	0.513
511.500	331.535	80.006	19.994	103.262	20.173	4.262	0.508
512.000	331.812	80.007	19.994	103.262	20.179	3.879	0.504
512.500	332.059	80.005	19.994	103.264	20.178	3.923	0.521
513.000	332.299	80.007	19.995	103.267	20.177	3.983	0.505
513.500	332.550	80.006	19.995	103.271	20.176	4.057	0.489
514.000	332.799	80.007	19.995	103.274	20.178	3.942	0.496
514.500	333.078	80.005	19.994	103.280	20.180	3.801	0.514
515.000	333.299	80.006	19.995	103.284	20.179	3.885	0.514
515.500	333.575	80.005	19.994	103.281	20.181	3.714	0.499
516.000	333.807	80.007	19.994	103.278	20.179	3.829	0.503
516.500	334.059	80.008	19.995	103.282	20.177	3.966	0.496
517.000	334.366	80.007	19.993	103.283	20.179	3.833	0.521
517.500	334.546	80.006	19.994	103.283	20.182	3.683	0.523
518.000	334.816	80.006	19.992	103.288	20.181	3.727	0.469
518.500	335.079	80.006	19.995	103.285	20.178	3.900	0.491
519.000	335.342	80.007	19.994	103.282	20.181	3.727	0.530
519.500	335.588	80.006	19.994	103.276	20.185	3.460	0.518
520.000	335.868	80.006	19.994	103.272	20.183	3.571	0.517
520.500	336.070	80.005	19.993	103.273	20.184	3.532	0.504
521.000	336.347	80.007	19.994	103.277	20.182	3.669	0.481
521.500	336.621	80.007	19.993	103.279	20.182	3.658	0.515
522.000	336.849	80.007	19.994	103.282	20.181	3.738	0.526
522.500	337.113	80.008	19.994	103.282	20.181	3.696	0.497
523.000	337.374	80.007	19.994	103.282	20.184	3.521	0.509
523.500	337.602	80.006	19.994	103.281	20.184	3.486	0.507
524.000	337.879	80.007	19.994	103.280	20.188	3.263	0.497
524.500	338.124	80.008	19.994	103.279	20.185	3.423	0.514
525.000	338.377	80.007	19.994	103.284	20.187	3.284	0.510
525.500	338.616	80.009	19.993	103.285	20.188	3.249	0.495
526.000	338.882	80.008	19.994	103.286	20.186	3.399	0.499
526.500	339.141	80.007	19.994	103.289	20.187	3.295	0.515
527.000	339.360	80.008	19.996	103.292	20.184	3.522	0.501
527.500	339.620	80.007	19.995	103.294	20.184	3.527	0.478
528.000	339.887	80.006	19.994	103.295	20.186	3.405	0.503
528.500	340.137	80.007	19.993	103.294	20.187	3.340	0.522
529.000	340.406	80.007	19.995	103.294	20.183	3.562	0.518
529.500	340.634	80.006	19.994	103.290	20.189	3.181	0.509
530.000	340.874	80.005	19.994	103.288	20.185	3.448	0.483
530.500	341.140	80.007	19.993	103.283	20.186	3.416	0.487
531.000	341.392	80.006	19.994	103.278	20.186	3.393	0.512
531.500	341.670	80.007	19.995	103.277	20.189	3.178	0.524
532.000	341.889	80.006	19.994	103.281	20.188	3.271	0.513
532.500	342.124	80.007	19.995	103.281	20.188	3.221	0.475
533.000	342.406	80.006	19.995	103.283	20.189	3.153	0.485
533.500	342.661	80.007	19.995	103.289	20.189	3.186	0.527
534.000	342.910	80.007	19.994	103.284	20.192	3.010	0.520
534.500	343.160	80.006	19.994	103.278	20.194	2.849	0.501
535.000	343.391	80.006	19.994	103.279	20.191	3.041	0.490
535.500	343.615	80.006	19.995	103.280	20.193	2.887	0.468
536.000	343.911	80.006	19.993	103.282	20.194	2.873	0.487
536.500	344.142	80.006	19.995	103.287	20.189	3.171	0.523
537.000	344.391	80.006	19.995	103.293	20.190	3.129	0.504
537.500	344.697	80.006	19.996	103.295	20.193	2.904	0.518
538.000	344.904	80.007	19.996	103.295	20.195	2.749	0.534
538.500	345.188	80.006	19.995	103.295	20.193	2.945	0.502
539.000	345.423	80.007	19.995	103.297	20.194	2.845	0.505
539.500	345.706	80.007	19.996	103.297	20.191	3.023	0.518
540.000	345.912	80.008	19.996	103.298	20.190	3.106	0.503
540.500	346.167	80.007	19.996	103.298	20.189	3.166	0.475
541.000	346.419	80.007	19.994	103.297	20.197	2.676	0.484
541.500	346.678	80.006	19.994	103.294	20.194	2.856	0.509
542.000	346.910	80.007	19.995	103.288	20.194	2.854	0.501
542.500	347.189	80.008	19.995	103.286	20.196	2.708	0.501
543.000	347.476	80.008	19.994	103.285	20.195	2.810	0.538
543.500	347.669	80.009	19.995	103.285	20.194	2.864	0.523
544.000	347.908	80.007	19.994	103.287	20.193	2.917	0.456
544.500	348.180	80.008	19.995	103.290	20.196	2.710	0.471
545.000	348.463	80.008	19.995	103.289	20.193	2.906	0.533
545.500	348.687	80.008	19.994	103.286	20.196	2.730	0.531
546.000	348.966	80.009	19.996	103.285	20.193	2.906	0.505
546.500	349.193	80.009	19.995	103.284	20.195	2.775	0.505
547.000	349.491	80.009	19.995	103.286	20.194	2.867	0.516
547.500	349.736	80.008	19.995	103.287	20.192	2.949	0.534
548.000	349.992	80.009	19.996	103.290	20.194	2.841	0.521
548.500	350.258	80.009	19.996	103.291	20.189	3.212	0.512
549.000	350.510	80.008	19.994	103.290	20.189	3.190	0.521
549.500	350.745	80.009	19.994	103.290	20.191	3.021	0.503
550.000	350.954	80.009	19.994	103.289	20.190	3.129	0.465
550.500	351.263	80.009	19.995	103.288	20.190	3.086	0.481
551.000	351.517	80.011	19.993	103.288	20.188	3.249	0.540
551.500	351.740	80.011	19.995	103.289	20.190	3.117	0.520
552.001	352.039	80.010	19.995	103.289	20.188	3.238	0.499
552.500	352.234	80.010	19.994	103.290	20.193	2.891	0.508
553.000	352.515	80.009	19.995	103.290	20.190	3.136	0.485
553.500	352.784	80.009	19.996	103.290	20.192	2.950	0.513
554.000	353.013	80.010	19.996	103.291	20.192	2.973	0.524
554.500	353.277	80.010	19.994	103.292	20.192	2.978	0.495
555.000	353.522	80.011	19.996	103.292	20.192	2.949	0.501
555.500	353.805	80.009	19.995	103.292	20.188	3.243	0.519
556.000	354.052	80.009	19.995	103.291	20.188	3.260	0.529
556.500	354.300	80.009	19.995	103.290	20.186	3.373	0.512
557.000	354.568	80.008	19.996	103.290	20.187	3.312	0.506
557.500	354.802	80.010	19.996	103.291	20.185	3.466	0.509
558.000	355.069	80.008	19.995	103.291	20.181	3.703	0.501
558.500	355.313	80.008	19.996	103.291	20.186	3.371	0.506
559.000	355.563	80.007	19.994	103.292	20.186	3.358	0.503
559.500	355.754	80.008	19.995	103.293	20.187	3.334	0.468
560.000	356.036	80.007	19.995	103.293	20.187	3.346	0.457
560.500	356.302	80.007	19.995	103.294	20.187	3.288	0.510
561.000	356.554	80.006	19.995	103.294	20.187	3.305	0.533
561.500	356.760	80.007	19.996	103.294	20.186	3.405	0.488
562.000	357.015	80.006	19.995	103.294	20.183	3.614	0.459
562.500	357.304	80.005	19.995	103.291	20.186	3.357	0.503
563.000	357.533	80.007	19.996	103.291	20.184	3.503	0.531
563.500	357.757	80.006	19.997	103.289	20.184	3.522	0.485
564.000	358.007	80.005	19.997	103.287	20.185	3.418	0.463
564.500	358.239	80.005	19.997	103.285	20.186	3.403	0.478
565.000	358.526	80.006	19.996	103.287	20.185	3.477	0.501
565.500	358.787	80.006	19.996	103.287	20.187	3.323	0.534
566.000	359.023	80.007	19.995	103.288	20.184	3.549	0.522
566.500	359.278	80.006	19.996	103.290	20.185	3.438	0.494
567.000	359.515	80.006	19.995	103.292	20.186	3.360	0.492
567.500	359.761	80.006	19.997	103.293	20.185	3.481	0.487
568.000	360.008	80.006	19.995	103.293	20.182	3.624	0.488
568.500	360.255	80.005	19.996	103.294	20.180	3.813	0.494
569.000	360.542	80.006	19.995	103.294	20.189	3.162	0.513
569.500	360.745	80.005	19.996	103.295	20.183	3.607	0.512
570.000	361.030	80.006	19.996	103.295	20.183	3.612	0.489
570.500	361.276	80.006	19.997	103.295	20.186	3.405	0.510
571.000	361.462	80.006	19.996	103.295	20.186	3.412	0.481
571.500	361.705	80.006	19.995	103.294	20.187	3.336	0.431
572.000	362.021	80.006	19.995	103.293	20.193	2.945	0.494
572.500	362.267	80.006	19.995	103.292	20.187	3.299	0.561
573.000	362.509	80.006	19.995	103.292	20.183	3.551	0.525
573.500	362.765	80.006	19.995	103.292	20.187	3.340	0.493
574.000	363.015	80.006	19.996	103.292	20.181	3.746	0.502
574.500	363.271	80.005	19.995	103.292	20.185	3.457	0.506
575.000	363.563	80.006	19.996	103.294	20.188	3.220	0.527
575.500	363.759	80.006	19.996	103.295	20.188	3.255	0.518
576.000	364.014	80.005	19.995	103.295	20.192	2.958	0.470
576.500	364.258	80.006	19.995	103.295	20.186	3.359	0.475
577.000	364.541	80.007	19.995	103.295	20.190	3.088	0.512
577.500	364.729	80.006	19.995	103.295	20.185	3.423	0.499
578.001	364.989	80.006	19.995	103.295	20.189	3.205	0.459
578.500	365.289	80.006	19.994	103.297	20.188	3.279	0.504
579.000	365.549	80.007	19.994	103.298	20.184	3.513	0.560
579.500	365.818	80.007	19.994	103.297	20.183	3.563	0.545
580.000	366.046	80.008	19.993	103.296	20.189	3.205	0.513
580.500	366.283	80.008	19.993	103.296	20.188	3.257	0.481
581.000	366.533	80.007	19.994	103.296	20.186	3.366	0.476
581.500	366.854	80.006	19.994	103.295	20.188	3.270	0.528
582.000	367.080	80.006	19.994	103.296	20.186	3.414	0.559
582.500	367.307	80.007	19.995	103.296	20.182	3.629	0.500
583.000	367.549	80.007	19.995	103.296	20.188	3.246	0.461
583.500	367.828	80.007	19.994	103.299	20.184	3.533	0.495
584.000	368.065	80.007	19.993	103.299	20.187	3.329	0.519
584.500	368.330	80.007	19.994	103.299	20.184	3.520	0.509
585.000	368.605	80.007	19.994	103.299	20.186	3.355	0.521
585.500	368.861	80.006	19.994	103.300	20.184	3.514	0.536
586.000	369.151	80.008	19.994	103.297	20.186	3.403	0.539
586.500	369.403	80.008	19.994	103.298	20.183	3.583	0.544
587.000	369.620	80.007	19.993	103.298	20.182	3.629	0.505
587.500	369.869	80.006	19.994	103.297	20.184	3.542	0.467
588.000	370.138	80.008	19.994	103.297	20.184	3.516	0.492
588.500	370.370	80.006	19.994	103.297	20.184	3.490	0.509
589.000	370.622	80.006	19.993	103.296	20.185	3.449	0.492
589.500	370.935	80.005	19.994	103.297	20.183	3.562	0.525
590.000	371.187	80.007	19.995	103.300	20.182	3.633	0.565
590.500	371.418	80.008	19.994	103.302	20.185	3.448	0.524
591.000	371.686	80.007	19.994	103.303	20.180	3.790	0.491
591.500	371.944	80.006	19.995	103.305	20.180	3.759	0.512
592.000	372.147	80.007	19.995	103.304	20.180	3.770	0.494
592.500	372.399	80.006	19.995	103.302	20.180	3.772	0.459
593.000	372.665	80.006	19.994	103.301	20.180	3.796	0.487
593.500	372.882	80.006	19.994	103.302	20.186	3.370	0.500
594.000	373.175	80.007	19.995	103.302	20.182	3.622	0.496
594.500	373.465	80.005	19.995	103.302	20.182	3.650	0.547
595.000	373.703	80.005	19.995	103.302	20.182	3.657	0.556
595.500	373.971	80.007	19.995	103.302	20.179	3.829	0.516
596.000	374.221	80.007	19.996	103.299	20.174	4.178	0.512
596.500	374.504	80.005	19.994	103.298	20.184	3.488	0.526
597.000	374.734	80.006	19.995	103.298	20.181	3.750	0.523
597.500	374.964	80.006	19.993	103.298	20.179	3.837	0.486
598.000	375.251	80.005	19.995	103.298	20.178	3.920	0.488
598.500	375.486	80.005	19.995	103.298	20.177	3.970	0.519
599.000	375.750	80.005	19.995	103.298	20.181	3.746	0.510
599.500	376.016	80.006	19.994	103.298	20.180	3.785	0.515
600.000	376.254	80.006	19.994	103.298	20.182	3.655	0.518
600.500	376.518	80.006	19.994	103.299	20.180	3.787	0.503
601.000	376.780	80.007	19.995	103.298	20.169	4.526	0.514
601.500	377.073	80.007	19.995	103.296	20.174	4.157	0.540
602.000	377.336	80.005	19.994	103.297	20.173	4.274	0.555
602.500	377.568	80.007	19.995	103.297	20.170	4.467	0.525
603.000	377.827	80.005	19.993	103.297	20.172	4.291	0.493
603.500	378.097	80.007	19.994	103.297	20.179	3.853	0.510
604.000	378.333	80.008	19.995	103.299	20.174	4.187	0.518
604.500	378.569	80.008	19.994	103.298	20.176	4.081	0.489
605.000	378.822	80.006	19.994	103.298	20.173	4.241	0.481
605.500	379.106	80.006	19.994	103.298	20.173	4.287	0.513
606.000	379.334	80.007	19.994	103.297	20.177	3.981	0.524
606.500	379.583	80.006	19.993	103.295	20.175	4.152	0.494
607.000	379.842	80.007	19.994	103.295	20.169	4.506	0.493
607.500	380.107	80.008	19.994	103.295	20.171	4.368	0.517
608.000	380.358	80.010	19.994	103.295	20.172	4.313	0.520
608.500	380.642	80.009	19.995	103.296	20.174	4.211	0.525
609.000	380.870	80.009	19.994	103.298	20.169	4.550	0.523
609.500	381.104	80.008	19.994	103.298	20.176	4.039	0.487
610.000	381.381	80.009	19.993	103.298	20.172	4.332	0.486
610.500	381.633	80.007	19.995	103.297	20.171	4.398	0.520
611.000	381.855	80.010	19.994	103.297	20.173	4.250	0.501
611.500	382.103	80.008	19.994	103.296	20.175	4.100	0.472
612.000	382.383	80.007	19.994	103.295	20.166	4.723	0.499
612.500	382.625	80.009	19.993	103.295	20.174	4.209	0.526
613.000	382.903	80.009	19.994	103.295	20.171	4.360	0.521
613.500	383.130	80.007	19.993	103.295	20.173	4.249	0.512
614.000	383.437	80.009	19.995	103.294	20.167	4.629	0.520
614.500	383.628	80.008	19.994	103.294	20.174	4.206	0.516
615.000	383.857	80.006	19.992	103.295	20.170	4.456	0.459
615.500	384.157	80.007	19.994	103.295	20.170	4.434	0.474
616.000	384.405	80.008	19.994	103.295	20.171	4.411	0.538
616.500	384.652	80.007	19.994	103.296	20.171	4.417	0.522
617.000	384.927	80.007	19.993	103.296	20.162	4.993	0.509
617.500	385.154	80.009	19.995	103.294	20.165	4.821	0.512
618.000	385.445	80.008	19.994	103.293	20.165	4.776	0.510
618.500	385.658	80.008	19.994	103.292	20.162	4.962	0.511
619.000	385.898	80.008	19.994	103.290	20.164	4.830	0.478
619.500	386.140	80.007	19.994	103.291	20.167	4.634	0.468
620.000	386.452	80.007	19.994	103.293	20.164	4.862	0.518
620.500	386.671	80.008	19.995	103.294	20.165	4.763	0.542
621.000	386.910	80.007	19.993	103.294	20.168	4.587	0.494
621.500	387.172	80.009	19.993	103.295	20.164	4.839	0.479
622.000	387.428	80.006	19.993	103.295	20.166	4.700	0.510
622.500	387.710	80.009	19.994	103.296	20.166	4.730	0.528
623.000	387.902	80.009	19.994	103.300	20.165	4.795	0.506
623.500	388.203	80.008	19.995	103.301	20.162	5.025	0.483
624.000	388.458	80.008	19.994	103.307	20.165	4.804	0.524
624.500	388.734	80.008	19.994	103.311	20.162	4.962	0.543
625.000	388.957	80.007	19.994	103.312	20.164	4.884	0.515
625.500	389.211	80.010	19.994	103.308	20.162	4.984	0.488
626.000	389.458	80.008	19.995	103.307	20.163	4.919	0.489
626.500	389.678	80.007	19.996	103.301	20.156	5.388	0.484
627.000	389.939	80.009	19.995	103.296	20.158	5.253	0.474
627.500	390.226	80.008	19.995	103.294	20.159	5.171	0.515
628.000	390.471	80.009	19.994	103.295	20.157	5.303	0.540
628.500	390.769	80.008	19.994	103.295	20.157	5.297	0.538
629.000	390.984	80.009	19.995	103.295	20.151	5.746	0.528
629.500	391.209	80.008	19.994	103.296	20.157	5.329	0.476
630.000	391.473	80.009	19.995	103.295	20.158	5.293	0.465
630.500	391.728	80.008	19.994	103.294	20.156	5.395	0.504
631.000	391.985	80.009	19.994	103.294	20.156	5.397	0.515
631.500	392.223	80.008	19.995	103.294	20.156	5.379	0.504
632.000	392.460	80.010	19.994	103.295	20.151	5.718	0.485
632.500	392.687	80.010	19.995	103.296	20.151	5.761	0.470
633.000	392.985	80.010	19.995	103.296	20.151	5.742	0.494
633.500	393.219	80.009	19.995	103.295	20.152	5.688	0.528
634.000	393.526	80.009	19.994	103.295	20.149	5.872	0.537
634.500	393.772	80.009	19.995	103.294	20.151	5.714	0.547
635.000	393.984	80.010	19.996	103.293	20.149	5.850	0.505
635.500	394.240	80.009	19.995	103.294	20.150	5.781	0.463
636.000	394.501	80.011	19.996	103.294	20.144	6.174	0.493
636.500	394.765	80.010	19.994	103.294	20.145	6.118	0.521
637.000	395.058	80.010	19.995	103.294	20.141	6.400	0.541
637.500	395.299	80.010	19.994	103.294	20.142	6.324	0.546
638.000	395.556	80.010	19.995	103.293	20.142	6.369	0.516
638.500	395.815	80.009	19.995	103.294	20.145	6.139	0.507
639.000	396.070	80.010	19.995	103.293	20.137	6.652	0.515
639.500	396.313	80.008	19.995	103.294	20.137	6.658	0.506
640.000	396.542	80.010	19.995	103.294	20.144	6.202	0.485
640.500	396.826	80.008	19.994	103.294	20.140	6.460	0.493
641.000	397.074	80.007	19.995	103.293	20.139	6.525	0.523
641.500	397.303	80.008	19.994	103.293	20.140	6.505	0.504
642.000	397.550	80.008	19.995	103.293	20.143	6.243	0.476
642.500	397.778	80.007	19.994	103.293	20.135	6.777	0.476
643.000	398.063	80.008	19.995	103.293	20.140	6.460	0.494
643.500	398.325	80.008	19.995	103.294	20.138	6.581	0.530
644.000	398.580	80.005	19.994	103.295	20.139	6.571	0.533
644.500	398.808	80.008	19.994	103.298	20.132	6.994	0.500
645.000	399.093	80.007	19.994	103.299	20.135	6.814	0.498
645.500	399.326	80.006	19.994	103.299	20.137	6.647	0.515
646.000	399.594	80.006	19.994	103.299	20.135	6.808	0.510
646.500	399.865	80.007	19.995	103.299	20.128	7.275	0.520
647.000	400.125	80.005	19.994	103.297	20.135	6.821	0.535
647.500	400.358	80.006	19.994	103.296	20.124	7.537	0.512
648.000	400.584	80.007	19.994	103.297	20.130	7.147	0.476
648.500	400.823	80.007	19.994	103.297	20.129	7.236	0.462
649.000	401.083	80.007	19.994	103.296	20.124	7.553	0.483
649.500	401.352	80.006	19.994	103.296	20.126	7.381	0.514
650.000	401.549	80.007	19.994	103.297	20.129	7.240	0.497
650.500	401.829	80.008	19.994	103.296	20.123	7.599	0.472
651.000	402.100	80.006	19.994	103.298	20.122	7.662	0.514
651.500	402.332	80.006	19.994	103.301	20.127	7.351	0.527
652.000	402.577	80.006	19.995	103.304	20.119	7.870	0.490
652.500	402.841	80.006	19.995	103.306	20.122	7.657	0.493
653.000	403.061	80.007	19.994	103.308	20.123	7.631	0.496
653.500	403.400	80.007	19.995	103.307	20.119	7.866	0.521
654.000	403.597	80.006	19.995	103.307	20.125	7.488	0.548
654.500	403.840	80.006	19.995	103.306	20.113	8.257	0.489
655.000	404.107	80.006	19.994	103.304	20.115	8.163	0.475
655.500	404.349	80.006	19.994	103.304	20.116	8.070	0.509
656.000	404.645	80.006	19.995	103.306	20.108	8.591	0.523
656.500	404.879	80.005	19.994	103.305	20.118	7.926	0.534
657.000	405.136	80.007	19.994	103.303	20.109	8.542	0.510
657.500	405.400	80.007	19.995	103.303	20.108	8.634	0.506
658.000	405.658	80.006	19.994	103.301	20.112	8.323	0.522
658.500	405.862	80.006	19.995	103.299	20.106	8.753	0.492
659.000	406.146	80.006	19.994	103.297	20.117	8.016	0.475
659.500	406.356	80.006	19.995	103.297	20.107	8.682	0.491
660.000	406.589	80.006	19.995	103.298	20.101	9.091	0.469
660.500	406.862	80.005	19.995	103.297	20.104	8.895	0.474
661.000	407.112	80.005	19.995	103.295	20.102	9.025	0.514
661.500	407.373	80.004	19.994	103.295	20.107	8.697	0.517
662.000	407.674	80.006	19.996	103.291	20.103	8.967	0.536
662.500	407.871	80.006	19.996	103.290	20.098	9.260	0.530
663.000	408.142	80.005	19.995	103.291	20.091	9.774	0.483
663.500	408.344	80.006	19.996	103.293	20.101	9.118	0.470
664.000	408.679	80.005	19.995	103.294	20.100	9.151	0.505
664.500	408.874	80.005	19.995	103.297	20.095	9.478	0.534
665.000	409.138	80.006	19.995	103.296	20.092	9.698	0.495
665.500	409.425	80.006	19.995	103.295	20.089	9.887	0.505
666.000	409.609	80.005	19.994	103.296	20.092	9.696	0.511
666.500	409.927	80.005	19.995	103.298	20.085	10.154	0.487
667.000	410.131	80.006	19.997	103.301	20.089	9.869	0.512
667.500	410.400	80.006	19.994	103.304	20.085	10.165	0.498
668.000	410.622	80.007	19.996	103.306	20.090	9.802	0.482
668.500	410.917	80.008	19.995	103.307	20.081	10.413	0.504
669.000	411.155	80.007	19.997	103.303	20.083	10.330	0.525
669.500	411.402	80.006	19.996	103.300	20.087	10.035	0.509
670.000	411.629	80.006	19.994	103.298	20.080	10.470	0.480
670.500	411.890	80.007	19.995	103.296	20.081	10.414	0.481
671.000	412.160	80.006	19.995	103.296	20.077	10.718	0.509
671.500	412.408	80.007	19.996	103.297	20.086	10.079	0.525
672.000	412.658	80.006	19.994	103.297	20.079	10.535	0.508
672.500	412.891	80.007	19.995	103.296	20.072	11.019	0.490
673.000	413.152	80.007	19.995	103.297	20.075	10.821	0.489
673.500	413.437	80.007	19.995	103.299	20.075	10.856	0.520
674.000	413.619	80.006	19.995	103.299	20.076	10.758	0.507
674.500	413.863	80.007	19.994	103.300	20.067	11.386	0.446
675.000	414.157	80.007	19.995	103.302	20.068	11.329	0.482
675.500	414.410	80.007	19.994	103.306	20.066	11.408	0.543
676.000	414.617	80.007	19.994	103.303	20.071	11.104	0.503
676.500	414.870	80.006	19.994	103.304	20.069	11.262	0.460
677.000	415.172	80.005	19.993	103.304	20.068	11.297	0.508
677.500	415.427	80.007	19.994	103.304	20.064	11.583	0.556
678.000	415.663	80.006	19.993	103.303	20.064	11.588	0.524
678.500	415.902	80.007	19.995	103.302	20.061	11.768	0.483
679.000	416.109	80.007	19.993	103.301	20.057	12.038	0.460
679.500	416.435	80.007	19.995	103.300	20.060	11.866	0.489
680.000	416.640	80.006	19.995	103.298	20.054	12.229	0.533
680.500	416.899	80.006	19.994	103.295	20.051	12.476	0.498
681.000	417.142	80.008	19.994	103.293	20.047	12.722	0.483
681.500	417.389	80.007	19.995	103.293	20.048	12.636	0.496
682.000	417.681	80.007	19.994	103.291	20.050	12.506	0.515
682.500	417.938	80.007	19.994	103.292	20.043	12.972	0.544
683.000	418.160	80.007	19.997	103.295	20.037	13.369	0.514
683.501	418.478	80.005	19.994	103.299	20.038	13.309	0.510
684.000	418.739	80.007	19.994	103.299	20.040	13.193	0.559
684.500	418.960	80.005	19.994	103.302	20.038	13.301	0.530
685.000	419.244	80.007	19.996	103.301	20.030	13.840	0.494
685.500	419.437	80.008	19.996	103.298	20.035	13.493	0.491
686.001	419.709	80.007	19.995	103.296	20.030	13.823	0.471
686.500	419.977	80.007	19.994	103.297	20.024	14.256	0.503
687.000	420.192	80.008	19.994	103.297	20.029	13.939	0.511
687.500	420.524	80.006	19.994	103.297	20.021	14.443	0.515
688.000	420.783	80.010	19.996	103.297	20.021	14.430	0.569
688.500	421.006	80.007	19.993	103.297	20.025	14.225	0.537
689.000	421.289	80.008	19.996	103.296	20.011	15.109	0.494
689.500	421.532	80.009	19.995	103.295	20.016	14.829	0.516
690.000	421.796	80.008	19.994	103.294	20.012	15.048	0.517
690.500	422.029	80.009	19.994	103.294	20.012	15.062	0.502
691.000	422.275	80.008	19.993	103.294	20.008	15.333	0.488
691.500	422.560	80.008	19.994	103.294	20.006	15.470	0.505
692.000	422.782	80.007	19.994	103.293	20.005	15.517	0.519
692.500	423.053	80.009	19.994	103.289	20.002	15.719	0.500
693.000	423.298	80.009	19.996	103.289	20.000	15.879	0.504
693.500	423.572	80.009	19.996	103.290	20.002	15.758	0.517
694.000	423.819	80.008	19.996	103.291	19.992	16.396	0.520
694.500	424.061	80.009	19.995	103.292	19.996	16.157	0.505
695.000	424.273	80.008	19.994	103.296	19.992	16.421	0.472
695.500	424.530	80.009	19.995	103.296	19.990	16.523	0.461
696.000	424.780	80.009	19.995	103.295	19.979	17.281	0.488
696.500	425.051	80.009	19.994	103.294	19.980	17.207	0.514
697.000	425.302	80.008	19.994	103.292	19.978	17.357	0.522
697.500	425.578	80.007	19.994	103.289	19.973	17.656	0.524
698.000	425.841	80.008	19.995	103.290	19.964	18.312	0.533
698.500	426.099	80.007	19.995	103.289	19.969	17.923	0.530
699.000	426.373	80.008	19.994	103.290	19.963	18.340	0.527
699.500	426.636	80.008	19.994	103.290	19.964	18.255	0.535
700.000	426.876	80.007	19.994	103.291	19.959	18.657	0.520
700.500	427.130	80.007	19.993	103.290	19.959	18.626	0.498
701.000	427.336	80.007	19.995	103.289	19.964	18.301	0.477
701.500	427.590	80.007	19.992	103.289	19.957	18.742	0.461
702.000	427.884	80.008	19.995	103.290	19.957	18.787	0.504
702.500	428.126	80.008	19.994	103.290	19.949	19.263	0.541
703.000	428.377	80.008	19.994	103.292	19.950	19.239	0.515
703.500	428.622	80.008	19.996	103.294	19.943	19.685	0.495
704.000	428.921	80.007	19.995	103.295	19.946	19.524	0.520
704.500	429.139	80.008	19.995	103.296	19.940	19.906	0.530
705.000	429.360	80.007	19.996	103.298	19.931	20.490	0.478
705.500	429.647	80.008	19.995	103.295	19.935	20.249	0.474
706.000	429.916	80.006	19.994	103.291	19.928	20.731	0.532
706.500	430.154	80.008	19.994	103.290	19.925	20.917	0.531
707.000	430.401	80.008	19.995	103.290	19.925	20.906	0.496
707.500	430.648	80.007	19.995	103.289	19.925	20.913	0.489
708.000	430.899	80.008	19.995	103.292	19.921	21.148	0.497
708.500	431.172	80.006	19.994	103.295	19.921	21.192	0.511
709.000	431.446	80.007	19.994	103.295	19.918	21.396	0.535
709.500	431.638	80.008	19.994	103.295	19.913	21.715	0.507
710.000	431.891	80.007	19.995	103.295	19.909	21.954	0.456
710.500	432.155	80.008	19.995	103.295	19.908	22.019	0.481
711.000	432.429	80.008	19.995	103.295	19.906	22.188	0.527
711.500	432.669	80.008	19.994	103.295	19.907	22.123	0.526
712.000	432.958	80.008	19.993	103.295	19.900	22.592	0.522
712.500	433.180	80.009	19.995	103.295	19.891	23.212	0.520
713.000	433.446	80.009	19.994	103.295	19.892	23.135	0.499
713.500	433.752	80.007	19.994	103.294	19.893	23.088	0.530
714.000	433.941	80.009	19.995	103.294	19.890	23.270	0.534
714.500	434.220	80.007	19.993	103.294	19.890	23.227	0.481
715.000	434.499	80.009	19.995	103.294	19.886	23.510	0.512
715.500	434.774	80.010	19.994	103.293	19.881	23.876	0.556
716.000	435.013	80.010	19.996	103.295	19.875	24.296	0.534
716.500	435.262	80.010	19.995	103.295	19.872	24.460	0.501
717.000	435.504	80.009	19.995	103.296	19.869	24.669	0.490
717.500	435.763	80.008	19.993	103.296	19.868	24.741	0.496
718.000	436.018	80.010	19.995	103.296	19.869	24.697	0.507
718.500	436.259	80.010	19.993	103.296	19.859	25.340	0.505
719.000	436.549	80.008	19.993	103.294	19.859	25.323	0.514
719.500	436.786	80.010	19.994	103.293	19.857	25.452	0.529
720.000	437.020	80.010	19.994	103.293	19.855	25.593	0.499
720.500	437.289	80.009	19.993	103.293	19.854	25.642	0.487
721.000	437.539	80.008	19.995	103.293	19.852	25.804	0.511
721.500	437.816	80.009	19.995	103.294	19.849	25.976	0.523
722.000	438.034	80.009	19.994	103.295	19.847	26.167	0.511
722.500	438.314	80.008	19.994	103.296	19.848	26.075	0.497
723.000	438.582	80.009	19.994	103.297	19.837	26.829	0.523
723.500	438.834	80.009	19.994	103.301	19.835	26.922	0.534
724.000	439.074	80.008	19.994	103.305	19.844	26.377	0.506
724.500	439.313	80.008	19.994	103.308	19.839	26.685	0.486
725.000	439.605	80.008	19.995	103.309	19.836	26.868	0.505
725.500	439.871	80.009	19.996	103.308	19.834	27.015	0.545
726.000	440.134	80.007	19.994	103.305	19.828	27.443	0.543
726.500	440.359	80.007	19.994	103.301	19.825	27.599	0.508
727.000	440.616	80.007	19.993	103.297	19.827	27.458	0.485
727.500	440.888	80.005	19.993	103.296	19.826	27.565	0.506
728.000	441.146	80.006	19.994	103.293	19.822	27.841	0.529
728.500	441.388	80.006	19.995	103.293	19.817	28.160	0.514
729.000	441.626	80.007	19.995	103.293	19.821	27.859	0.490
729.500	441.874	80.007	19.995	103.294	19.815	28.279	0.483
730.000	442.140	80.005	19.995	103.292	19.813	28.402	0.500
730.500	442.400	80.004	19.994	103.295	19.810	28.616	0.520
731.000	442.623	80.005	19.994	103.294	19.805	28.972	0.505
731.500	442.884	80.006	19.996	103.294	19.807	28.808	0.483
732.000	443.156	80.006	19.994	103.294	19.810	28.648	0.509
732.500	443.405	80.006	19.995	103.294	19.803	29.096	0.528
733.000	443.654	80.006	19.996	103.294	19.801	29.277	0.509
733.500	443.900	80.006	19.995	103.295	19.800	29.304	0.496
734.000	444.155	80.005	19.994	103.294	19.799	29.356	0.498
734.500	444.426	80.005	19.996	103.294	19.800	29.279	0.514
735.000	444.667	80.007	19.994	103.296	19.799	29.379	0.519
735.500	444.919	80.005	19.994	103.296	19.799	29.396	0.502
736.000	445.155	80.005	19.995	103.296	19.791	29.875	0.490
736.500	445.415	80.005	19.995	103.297	19.790	29.981	0.492
737.000	445.686	80.006	19.994	103.297	19.796	29.547	0.514
737.500	445.962	80.006	19.995	103.297	19.796	29.583	0.539
738.000	446.229	80.006	19.994	103.297	19.785	30.341	0.545
738.500	446.474	80.006	19.994	103.297	19.788	30.114	0.528
739.000	446.721	80.006	19.995	103.295	19.788	30.113	0.502
739.500	446.981	80.004	19.994	103.275	19.785	30.292	0.500
740.000	447.208	80.006	19.993	103.258	19.785	30.272	0.497
740.500	447.485	80.006	19.995	103.249	19.791	29.921	0.495
741.000	447.717	80.005	19.995	103.245	19.787	30.178	0.506
741.500	447.984	80.006	19.993	103.247	19.786	30.248	0.504
742.000	448.201	80.007	19.995	103.289	19.780	30.628	0.492
742.500	448.507	80.006	19.995	103.326	19.781	30.571	0.504
743.000	448.737	80.008	19.996	103.336	19.783	30.422	0.529
743.500	448.987	80.007	19.995	103.340	19.782	30.533	0.507
744.000	449.255	80.009	19.996	103.339	19.782	30.518	0.499
744.500	449.502	80.007	19.994	103.323	19.784	30.388	0.517
745.000	449.757	80.007	19.994	103.303	19.783	30.447	0.509
745.500	450.033	80.006	19.995	103.301	19.787	30.155	0.517
746.000	450.258	80.007	19.995	103.302	19.785	30.339	0.516
746.500	450.506	80.008	19.995	103.301	19.782	30.537	0.487
747.000	450.726	80.006	19.993	103.296	19.781	30.559	0.471
747.500	451.032	80.007	19.995	103.298	19.782	30.535	0.497
748.001	451.282	80.007	19.993	103.299	19.784	30.354	0.541
748.500	451.527	80.007	19.994	103.299	19.787	30.157	0.525
749.000	451.802	80.005	19.995	103.299	19.777	30.817	0.507
749.500	452.069	80.006	19.995	103.296	19.786	30.254	0.531
750.000	452.287	80.005	19.995	103.293	19.783	30.432	0.513
750.500	452.574	80.007	19.995	103.292	19.779	30.689	0.495
751.000	452.816	80.006	19.994	103.291	19.783	30.450	0.517
751.500	453.110	80.008	19.996	103.291	19.783	30.443	0.533
752.000	453.343	80.007	19.995	103.293	19.783	30.459	0.531
752.500	453.585	80.006	19.995	103.293	19.787	30.192	0.501
753.000	453.824	80.007	19.994	103.292	19.785	30.275	0.479
753.500	454.109	80.007	19.995	103.293	19.785	30.284	0.503
754.000	454.343	80.006	19.995	103.293	19.789	30.040	0.521
754.500	454.637	80.006	19.994	103.291	19.784	30.344	0.523
755.000	454.890	80.006	19.995	103.290	19.785	30.321	0.538
755.500	455.156	80.006	19.995	103.291	19.788	30.108	0.533
756.000	455.385	80.005	19.994	103.290	19.784	30.390	0.507
756.501	455.680	80.006	19.995	103.290	19.792	29.867	0.509
757.000	455.924	80.006	19.996	103.292	19.789	30.065	0.531
757.500	456.152	80.006	19.995	103.292	19.788	30.116	0.505
758.000	456.396	80.006	19.995	103.292	19.787	30.200	0.471
758.500	456.675	80.006	19.996	103.292	19.795	29.603	0.497
759.000	456.917	80.004	19.995	103.292	19.796	29.594	0.522
759.500	457.188	80.007	19.996	103.292	19.801	29.242	0.517
760.000	457.415	80.006	19.996	103.292	19.799	29.344	0.506
760.500	457.703	80.005	19.995	103.293	19.804	29.060	0.506
761.000	457.941	80.006	19.997	103.293	19.801	29.218	0.520
761.500	458.208	80.006	19.996	103.293	19.801	29.199	0.516
762.000	458.468	80.006	19.997	103.293	19.810	28.608	0.516
762.500	458.738	80.006	19.996	103.293	19.807	28.799	0.528
763.000	458.983	80.005	19.995	103.293	19.805	28.940	0.523
763.500	459.234	80.006	19.996	103.292	19.809	28.716	0.506
764.000	459.488	80.005	19.996	103.291	19.815	28.319	0.500
764.500	459.774	80.006	19.995	103.290	19.810	28.615	0.522
765.000	460.018	80.006	19.995	103.291	19.814	28.376	0.535
765.500	460.291	80.006	19.996	103.291	19.816	28.231	0.523
766.000	460.539	80.005	19.995	103.289	19.821	27.884	0.519
766.500	460.807	80.006	19.996	103.289	19.815	28.320	0.519
767.000	461.062	80.005	19.995	103.290	19.819	28.012	0.520
767.500	461.282	80.009	19.995	103.289	19.824	27.666	0.498
768.000	461.571	80.007	19.995	103.289	19.827	27.509	0.492
768.500	461.813	80.007	19.996	103.293	19.826	27.581	0.520
769.000	462.059	80.006	19.994	103.294	19.831	27.199	0.510
769.500	462.312	80.007	19.995	103.294	19.829	27.348	0.494
770.000	462.566	80.008	19.994	103.294	19.831	27.250	0.503
770.500	462.808	80.007	19.995	103.293	19.835	26.955	0.502
771.000	463.079	80.008	19.994	103.294	19.831	27.241	0.505
771.500	463.340	80.008	19.994	103.293	19.836	26.861	0.522
772.000	463.614	80.007	19.994	103.293	19.837	26.806	0.533
772.500	463.839	80.008	19.994	103.293	19.844	26.343	0.517
773.000	464.116	80.008	19.994	103.294	19.844	26.330	0.501
773.500	464.372	80.007	19.995	103.293	19.847	26.117	0.518
774.000	464.621	80.008	19.993	103.294	19.852	25.798	0.519
774.500	464.909	80.007	19.993	103.294	19.851	25.906	0.521
775.000	465.175	80.007	19.992	103.294	19.859	25.357	0.545
775.500	465.402	80.008	19.994	103.292	19.858	25.385	0.524
776.000	465.680	80.010	19.995	103.292	19.860	25.236	0.499
776.500	465.925	80.006	19.994	103.290	19.860	25.262	0.514
777.000	466.161	80.010	19.994	103.290	19.866	24.843	0.502
777.500	466.435	80.008	19.993	103.291	19.866	24.876	0.496
778.000	466.696	80.010	19.994	103.291	19.869	24.650	0.522
778.500	466.938	80.008	19.994	103.292	19.870	24.570	0.519
779.000	467.216	80.007	19.993	103.294	19.867	24.798	0.512
779.500	467.487	80.007	19.994	103.293	19.875	24.240	0.535
780.000	467.739	80.008	19.994	103.294	19.878	24.038	0.536
780.500	467.990	80.008	19.993	103.294	19.878	24.037	0.513
781.000	468.245	80.007	19.993	103.295	19.879	24.026	0.504
781.500	468.495	80.008	19.994	103.295	19.882	23.822	0.506
782.000	468.768	80.007	19.994	103.295	19.888	23.375	0.514
782.500	469.017	80.007	19.994	103.295	19.889	23.316	0.522
783.000	469.255	80.007	19.994	103.294	19.891	23.165	0.504
783.500	469.524	80.008	19.992	103.293	19.895	22.928	0.497
784.000	469.778	80.007	19.993	103.293	19.894	22.956	0.515
784.500	470.037	80.007	19.995	103.292	19.893	23.033	0.518
785.000	470.312	80.007	19.994	103.286	19.895	22.894	0.524
785.500	470.551	80.007	19.994	103.286	19.897	22.820	0.524
786.000	470.845	80.007	19.993	103.288	19.897	22.791	0.524
786.500	471.100	80.007	19.994	103.287	19.904	22.308	0.541
787.000	471.328	80.008	19.994	103.283	19.908	22.025	0.516
787.500	471.572	80.006	19.994	103.290	19.910	21.877	0.477
788.000	471.848	80.007	19.994	103.291	19.909	21.962	0.496
788.500	472.101	80.007	19.994	103.290	19.908	22.071	0.525
789.000	472.357	80.007	19.995	103.291	19.915	21.549	0.519
789.500	472.635	80.007	19.994	103.295	19.912	21.799	0.521
790.000	472.881	80.007	19.993	103.296	19.918	21.371	0.529
790.500	473.178	80.009	19.994	103.296	19.912	21.749	0.533
791.000	473.444	80.007	19.995	103.297	19.915	21.561	0.553
791.500	473.682	80.008	19.995	103.299	19.919	21.286	0.533
792.001	473.965	80.008	19.994	103.301	19.926	20.861	0.513
792.500	474.208	80.008	19.994	103.300	19.929	20.639	0.524
793.000	474.477	80.008	19.993	103.300	19.927	20.793	0.519
793.500	474.744	80.007	19.993	103.300	19.933	20.396	0.524
794.000	475.016	80.007	19.994	103.298	19.930	20.561	0.538
794.500	475.269	80.008	19.993	103.296	19.939	19.972	0.532
795.000	475.553	80.007	19.994	103.296	19.937	20.114	0.531
795.500	475.794	80.007	19.993	103.296	19.936	20.180	0.531
796.000	476.027	80.008	19.994	103.297	19.934	20.272	0.500
796.500	476.297	80.009	19.995	103.297	19.938	20.046	0.489
797.000	476.556	80.009	19.994	103.296	19.938	20.002	0.516
797.500	476.809	80.008	19.993	103.291	19.939	19.952	0.521
798.000	477.074	80.010	19.994	103.286	19.941	19.848	0.516
798.500	477.291	80.007	19.993	103.281	19.946	19.466	0.500
799.000	477.550	80.009	19.992	103.279	19.944	19.597	0.478
799.500	477.839	80.007	19.994	103.278	19.952	19.122	0.512
800.000	478.061	80.008	19.993	103.281	19.952	19.096	0.530
800.500	478.340	80.009	19.993	103.280	19.953	18.995	0.506
801.000	478.592	80.009	19.994	103.282	19.954	18.970	0.516
801.500	478.854	80.010	19.993	103.281	19.959	18.620	0.523
802.000	479.110	80.009	19.993	103.282	19.952	19.094	0.516
802.500	479.378	80.008	19.993	103.282	19.959	18.622	0.521
803.000	479.656	80.010	19.995	103.287	19.958	18.661	0.535
803.500	479.869	80.011	19.994	103.290	19.964	18.317	0.518
804.000	480.111	80.008	19.994	103.289	19.962	18.439	0.472
804.500	480.345	80.011	19.994	103.289	19.964	18.260	0.465
805.000	480.627	80.010	19.994	103.289	19.968	18.028	0.497
805.500	480.895	80.010	19.993	103.288	19.972	17.728	0.533
806.000	481.146	80.008	19.993	103.288	19.973	17.691	0.534
806.500	481.412	80.010	19.993	103.291	19.973	17.659	0.518
807.000	481.677	80.007	19.993	103.290	19.978	17.331	0.524
807.500	481.904	80.009	19.992	103.289	19.977	17.382	0.511
808.000	482.180	80.008	19.993	103.291	19.977	17.400	0.497
808.500	482.406	80.010	19.996	103.290	19.981	17.164	0.502
809.000	482.670	80.007	19.993	103.290	19.984	16.945	0.496
809.501	482.935	80.008	19.994	103.289	19.985	16.849	0.509
810.000	483.155	80.007	19.993	103.286	19.985	16.890	0.507
810.500	483.434	80.008	19.995	103.282	19.988	16.680	0.492
811.000	483.684	80.008	19.994	103.282	19.991	16.469	0.514
811.500	483.917	80.006	19.993	103.280	19.992	16.412	0.506
812.000	484.180	80.008	19.993	103.275	19.994	16.286	0.489
812.500	484.464	80.007	19.993	103.272	20.003	15.660	0.522
813.000	484.689	80.008	19.994	103.273	19.997	16.049	0.528
813.500	484.953	80.007	19.995	103.273	19.999	15.949	0.499
814.000	485.209	80.008	19.994	103.275	20.006	15.500	0.504
814.500	485.448	80.008	19.995	103.280	20.004	15.599	0.507
815.000	485.723	80.008	19.995	103.286	20.009	15.251	0.504
815.500	485.998	80.007	19.993	103.285	20.009	15.290	0.532
816.000	486.259	80.006	19.993	103.281	20.006	15.456	0.543
816.500	486.496	80.006	19.993	103.273	20.014	14.945	0.517
817.000	486.733	80.007	19.995	103.269	20.015	14.871	0.486
817.500	486.992	80.007	19.995	103.266	20.015	14.832	0.485
818.000	487.233	80.008	19.994	103.269	20.018	14.647	0.498
818.500	487.501	80.006	19.993	103.272	20.021	14.430	0.504
819.000	487.751	80.007	19.993	103.279	20.019	14.620	0.513
819.500	488.036	80.007	19.993	103.286	20.020	14.511	0.527
820.000	488.261	80.008	19.994	103.289	20.027	14.030	0.523
820.500	488.506	80.006	19.994	103.290	20.025	14.177	0.490
821.000	488.766	80.006	19.994	103.291	20.034	13.591	0.488
821.500	489.020	80.006	19.994	103.289	20.030	13.824	0.509
822.000	489.256	80.007	19.994	103.287	20.029	13.954	0.502
822.500	489.543	80.007	19.994	103.283	20.038	13.348	0.507
823.000	489.788	80.005	19.994	103.283	20.038	13.295	0.528
823.500	490.063	80.005	19.994	103.282	20.038	13.308	0.526
824.000	490.340	80.005	19.994	103.284	20.040	13.177	0.536
824.500	490.578	80.006	19.994	103.285	20.044	12.940	0.534
825.000	490.831	80.006	19.994	103.289	20.045	12.816	0.503
825.500	491.087	80.008	19.995	103.284	20.047	12.713	0.500
826.000	491.348	80.005	19.995	103.277	20.049	12.573	0.513
826.500	491.603	80.006	19.995	103.272	20.051	12.462	0.516
827.000	491.884	80.005	19.994	103.269	20.051	12.447	0.526
827.500	492.101	80.007	19.995	103.263	20.057	12.065	0.517
828.000	492.369	80.006	19.994	103.263	20.057	12.033	0.491
828.500	492.600	80.005	19.996	103.263	20.059	11.882	0.492
829.000	492.881	80.006	19.994	103.262	20.059	11.940	0.506
829.500	493.158	80.007	19.995	103.262	20.060	11.815	0.534
830.000	493.413	80.006	19.994	103.267	20.061	11.806	0.545
830.500	493.628	80.006	19.995	103.270	20.065	11.473	0.502
831.000	493.918	80.005	19.994	103.274	20.066	11.414	0.488
831.500	494.172	80.007	19.995	103.279	20.068	11.307	0.525
832.000	494.431	80.007	19.994	103.279	20.068	11.304	0.528
832.500	494.683	80.006	19.994	103.273	20.069	11.222	0.512
833.000	494.940	80.007	19.996	103.276	20.069	11.229	0.510
833.500	495.214	80.007	19.996	103.279	20.074	10.926	0.520
834.000	495.439	80.008	19.995	103.281	20.073	10.971	0.515
834.500	495.705	80.006	19.994	103.283	20.082	10.374	0.495
835.000	495.950	80.008	19.994	103.288	20.080	10.514	0.501
835.500	496.220	80.005	19.994	103.287	20.082	10.357	0.513
836.000	496.426	80.006	19.994	103.286	20.081	10.448	0.496
836.500	496.716	80.007	19.995	103.284	20.086	10.087	0.486
837.000	496.978	80.007	19.996	103.284	20.086	10.122	0.524
837.500	497.246	80.006	19.994	103.285	20.084	10.214	0.541
838.000	497.476	80.005	19.995	103.287	20.085	10.151	0.514
838.500	497.778	80.007	19.994	103.282	20.086	10.117	0.515
839.000	497.998	80.006	19.994	103.280	20.088	9.936	0.527
839.500	498.258	80.006	19.994	103.277	20.091	9.786	0.501
840.000	498.530	80.006	19.995	103.276	20.095	9.484	0.506
840.500	498.817	80.005	19.994	103.273	20.096	9.424	0.546
841.000	499.045	80.005	19.994	103.273	20.096	9.415	0.537
841.500	499.332	80.007	19.995	103.275	20.098	9.258	0.515
842.000	499.532	80.006	19.995	103.277	20.101	9.073	0.501
842.500	499.767	80.007	19.995	103.272	20.099	9.224	0.460
843.000	500.019	80.005	19.994	103.271	20.104	8.881	0.461
843.500	500.318	80.004	19.993	103.271	20.103	8.945	0.519
844.000	500.579	80.006	19.994	103.271	20.103	8.942	0.556
844.500	500.814	80.006	19.995	103.271	20.107	8.655	0.528
845.000	501.079	80.006	19.994	103.276	20.110	8.485	0.498
845.500	501.335	80.006	19.996	103.282	20.111	8.404	0.510
846.000	501.609	80.005	19.994	103.288	20.108	8.626	0.525
846.500	501.808	80.005	19.995	103.291	20.116	8.057	0.501
847.000	502.044	80.004	19.994	103.293	20.113	8.276	0.454
847.500	502.342	80.005	19.996	103.295	20.117	8.035	0.485
848.000	502.590	80.005	19.994	103.294	20.118	7.946	0.540
848.500	502.852	80.004	19.995	103.290	20.119	7.894	0.528
849.001	503.084	80.006	19.995	103.286	20.118	7.926	0.502
849.500	503.344	80.005	19.995	103.279	20.118	7.924	0.493
850.000	503.606	80.006	19.995	103.272	20.122	7.697	0.506
850.500	503.843	80.005	19.995	103.270	20.124	7.526	0.510
851.000	504.089	80.005	19.995	103.267	20.123	7.641	0.491
851.500	504.333	80.005	19.994	103.268	20.128	7.263	0.486
852.000	504.618	80.007	19.996	103.270	20.128	7.294	0.510
852.500	504.843	80.004	19.996	103.276	20.126	7.384	0.520
853.000	505.122	80.006	19.995	103.279	20.128	7.253	0.507
853.500	505.397	80.006	19.995	103.286	20.130	7.134	0.529
854.000	505.669	80.006	19.995	103.290	20.131	7.041	0.551
854.500	505.887	80.005	19.996	103.292	20.131	7.065	0.518
855.000	506.141	80.006	19.995	103.285	20.129	7.197	0.481
855.500	506.427	80.005	19.995	103.280	20.134	6.856	0.506
856.000	506.674	80.007	19.996	103.276	20.133	6.945	0.536
856.500	506.907	80.006	19.994	103.275	20.133	6.930	0.507
857.000	507.169	80.007	19.995	103.272	20.134	6.874	0.488
857.500	507.411	80.006	19.995	103.273	20.137	6.641	0.500
858.000	507.651	80.007	19.995	103.273	20.136	6.708	0.493
858.500	507.930	80.008	19.996	103.271	20.139	6.547	0.501
859.000	508.190	80.006	19.995	103.271	20.137	6.638	0.529
859.500	508.443	80.006	19.995	103.275	20.140	6.501	0.526
860.000	508.701	80.006	19.995	103.277	20.141	6.399	0.512
860.500	508.955	80.006	19.995	103.280	20.140	6.502	0.512
861.000	509.221	80.006	19.995	103.284	20.140	6.469	0.516
861.500	509.488	80.006	19.994	103.284	20.142	6.306	0.527
862.000	509.752	80.006	19.995	103.278	20.141	6.375	0.532
862.500	509.966	80.007	19.995	103.278	20.142	6.343	0.505
863.000	510.242	80.007	19.996	103.274	20.140	6.455	0.484
863.500	510.478	80.007	19.995	103.272	20.144	6.171	0.501
864.000	510.748	80.006	19.995	103.272	20.145	6.151	0.509
864.500	510.983	80.007	19.995	103.272	20.143	6.252	0.506
865.000	511.265	80.007	19.994	103.270	20.147	5.980	0.511
865.500	511.485	80.007	19.995	103.267	20.146	6.041	0.510
866.000	511.743	80.007	19.995	103.269	20.153	5.565	0.490
866.500	511.986	80.008	19.994	103.265	20.147	6.007	0.489
867.001	512.275	80.007	19.994	103.263	20.148	5.904	0.516
867.500	512.511	80.007	19.995	103.265	20.146	6.063	0.528
868.000	512.745	80.007	19.995	103.265	20.152	5.639	0.498
868.500	512.991	80.007	19.994	103.263	20.151	5.737	0.475
869.000	513.248	80.007	19.994	103.267	20.151	5.746	0.491
869.500	513.489	80.007	19.995	103.269	20.150	5.816	0.500
870.000	513.782	80.008	19.993	103.273	20.153	5.571	0.516
870.500	514.043	80.006	19.993	103.274	20.148	5.905	0.544
871.000	514.269	80.006	19.994	103.272	20.152	5.642	0.521
871.500	514.531	80.005	19.993	103.268	20.155	5.472	0.487
872.000	514.851	80.007	19.993	103.272	20.151	5.718	0.535
872.500	515.039	80.007	19.994	103.272	20.156	5.409	0.545
873.000	515.334	80.008	19.995	103.274	20.157	5.309	0.495
873.500	515.583	80.008	19.993	103.277	20.162	4.997	0.514
874.000	515.849	80.007	19.995	103.281	20.159	5.194	0.530
874.500	516.128	80.007	19.993	103.278	20.161	5.060	0.530
875.000	516.357	80.006	19.995	103.278	20.164	4.868	0.527
875.500	516.592	80.007	19.994	103.275	20.163	4.934	0.486
876.000	516.882	80.007	19.994	103.271	20.164	4.873	0.494
876.500	517.124	80.007	19.994	103.267	20.159	5.180	0.528
877.000	517.350	80.007	19.996	103.270	20.166	4.752	0.500
877.500	517.649	80.007	19.995	103.267	20.163	4.925	0.497
878.000	517.902	80.006	19.994	103.268	20.164	4.834	0.538
878.500	518.155	80.008	19.995	103.269	20.164	4.834	0.529
879.000	518.409	80.008	19.994	103.268	20.168	4.606	0.507
879.500	518.649	80.007	19.993	103.263	20.169	4.543	0.501
880.000	518.914	80.008	19.994	103.261	20.167	4.625	0.500
880.500	519.156	80.007	19.994	103.259	20.165	4.818	0.506
881.000	519.416	80.008	19.995	103.258	20.169	4.523	0.504
881.500	519.720	80.008	19.993	103.257	20.164	4.890	0.533
882.000	519.940	80.010	19.993	103.259	20.171	4.399	0.544
882.500	520.194	80.008	19.995	103.261	20.173	4.267	0.499
883.000	520.461	80.008	19.994	103.262	20.167	4.666	0.497
883.500	520.704	80.008	19.994	103.263	20.173	4.271	0.515
884.000	520.955	80.010	19.995	103.264	20.171	4.390	0.502
884.500	521.216	80.009	19.995	103.264	20.170	4.442	0.503
885.000	521.484	80.008	19.995	103.265	20.171	4.370	0.520
885.500	521.738	80.011	19.994	103.263	20.171	4.412	0.525
886.000	522.008	80.010	19.993	103.263	20.171	4.394	0.523
886.500	522.228	80.009	19.995	103.261	20.166	4.714	0.507
887.000	522.545	80.010	19.994	103.257	20.170	4.486	0.514
887.500	522.801	80.009	19.993	103.253	20.173	4.246	0.555
888.000	523.050	80.009	19.993	103.254	20.171	4.368	0.539
888.500	523.329	80.008	19.993	103.254	20.175	4.153	0.516
889.000	523.525	80.008	19.995	103.257	20.175	4.095	0.502
889.500	523.818	80.008	19.994	103.262	20.175	4.140	0.482
890.000	524.040	80.009	19.995	103.266	20.170	4.455	0.502
890.500	524.300	80.008	19.994	103.266	20.174	4.195	0.498
891.000	524.547	80.009	19.996	103.266	20.175	4.119	0.494
891.500	524.836	80.007	19.993	103.268	20.174	4.180	0.522
892.000	525.082	80.007	19.994	103.267	20.171	4.367	0.536
892.500	525.342	80.008	19.994	103.264	20.173	4.258	0.520
893.000	525.610	80.007	19.994	103.265	20.174	4.184	0.516
893.500	525.854	80.007	19.995	103.266	20.175	4.104	0.520
894.000	526.099	80.006	19.995	103.264	20.176	4.045	0.501
894.500	526.377	80.006	19.995	103.264	20.174	4.180	0.506
895.000	526.617	80.007	19.995	103.268	20.175	4.100	0.521
895.500	526.867	80.007	19.994	103.270	20.175	4.113	0.504
896.000	527.112	80.008	19.995	103.272	20.172	4.341	0.493
896.500	527.412	80.007	19.994	103.270	20.178	3.923	0.521
897.000	527.690	80.008	19.994	103.271	20.174	4.165	0.562
897.500	527.892	80.005	19.994	103.274	20.176	4.071	0.528
898.000	528.185	80.007	19.994	103.275	20.174	4.217	0.487
898.500	528.442	80.005	19.994	103.276	20.181	3.713	0.523
899.000	528.663	80.007	19.994	103.276	20.177	4.012	0.514
899.500	528.944	80.008	19.995	103.274	20.172	4.295	0.490
900.000	529.208	80.007	19.993	103.271	20.175	4.115	0.523
900.500	529.442	80.007	19.995	103.270	20.170	4.425	0.522
901.000	529.690	80.007	19.995	103.271	20.172	4.354	0.491
901.500	530.004	80.007	19.994	103.273	20.173	4.228	0.522
902.000	530.220	80.007	19.993	103.274	20.172	4.321	0.546
902.500	530.491	80.007	19.994	103.269	20.176	4.024	0.508
903.000	530.760	80.008	19.994	103.266	20.178	3.897	0.513
903.500	530.983	80.006	19.994	103.262	20.176	4.082	0.516
904.000	531.268	80.007	19.994	103.261	20.175	4.108	0.500
904.500	531.549	80.007	19.994	103.260	20.178	3.897	0.537
905.000	531.779	80.007	19.993	103.260	20.173	4.255	0.539
905.500	532.041	80.006	19.994	103.260	20.173	4.275	0.502
906.000	532.259	80.005	19.993	103.260	20.179	3.838	0.486
906.500	532.550	80.007	19.994	103.259	20.179	3.831	0.494
907.000	532.766	80.006	19.994	103.260	20.179	3.841	0.507
907.500	533.044	80.005	19.994	103.261	20.182	3.680	0.500
908.000	533.282	80.006	19.994	103.262	20.181	3.739	0.505
908.500	533.540	80.007	19.994	103.265	20.179	3.828	0.506
909.000	533.775	80.007	19.994	103.266	20.180	3.763	0.495
909.500	534.023	80.005	19.994	103.266	20.180	3.771	0.488
910.000	534.320	80.007	19.994	103.266	20.180	3.776	0.514
910.500	534.573	80.007	19.995	103.264	20.179	3.849	0.548
911.000	534.836	80.006	19.993	103.262	20.185	3.430	0.533
911.500	535.125	80.006	19.994	103.260	20.181	3.692	0.534
912.000	535.397	80.006	19.994	103.258	20.181	3.727	0.556
912.500	535.609	80.006	19.994	103.258	20.182	3.659	0.522
913.000	535.841	80.006	19.994	103.260	20.183	3.588	0.464
913.500	536.117	80.007	19.993	103.260	20.182	3.620	0.476
914.000	536.341	80.007	19.995	103.261	20.187	3.307	0.504
914.500	536.582	80.006	19.995	103.263	20.188	3.275	0.483
915.000	536.843	80.007	19.994	103.266	20.186	3.373	0.484
915.500	537.091	80.006	19.994	103.271	20.185	3.481	0.505
916.000	537.397	80.007	19.993	103.276	20.186	3.373	0.531
916.500	537.635	80.005	19.995	103.277	20.188	3.253	0.549
917.000	537.882	80.006	19.994	103.277	20.191	3.041	0.514
917.500	538.114	80.005	19.994	103.278	20.183	3.599	0.482
918.000	538.360	80.006	19.994	103.273	20.187	3.345	0.479
918.500	538.602	80.006	19.994	103.270	20.191	3.028	0.484
919.000	538.854	80.005	19.994	103.270	20.193	2.941	0.491
919.500	539.125	80.006	19.994	103.273	20.189	3.179	0.508
920.000	539.414	80.005	19.994	103.268	20.191	3.019	0.542
920.500	539.649	80.006	19.995	103.267	20.194	2.835	0.542
921.000	539.896	80.005	19.994	103.266	20.195	2.796	0.503
921.500	540.207	80.004	19.994	103.269	20.192	2.983	0.520
922.000	540.484	80.005	19.994	103.272	20.192	2.961	0.573
922.500	540.692	80.005	19.994	103.278	20.198	2.601	0.536
923.000	540.962	80.005	19.995	103.285	20.195	2.757	0.481
923.500	541.222	80.007	19.994	103.291	20.200	2.415	0.504
924.000	541.466	80.004	19.995	103.293	20.203	2.240	0.518
924.500	541.726	80.006	19.995	103.294	20.202	2.276	0.504
925.000	541.999	80.006	19.995	103.295	20.201	2.344	0.518
925.500	542.277	80.004	19.995	103.296	20.199	2.533	0.542
926.000	542.490	80.006	19.995	103.296	20.199	2.500	0.521
926.500	542.711	80.005	19.996	103.296	20.196	2.716	0.463
927.000	542.998	80.003	19.995	103.294	20.200	2.461	0.471
927.500	543.271	80.004	19.994	103.289	20.200	2.451	0.534
928.000	543.576	80.005	19.995	103.285	20.198	2.579	0.569
928.500	543.774	80.006	19.994	103.283	20.204	2.188	0.541
929.000	544.079	80.004	19.994	103.282	20.205	2.127	0.503
929.500	544.286	80.004	19.995	103.283	20.201	2.387	0.507
930.000	544.550	80.005	19.995	103.286	20.198	2.600	0.492
930.500	544.799	80.005	19.995	103.289	20.199	2.514	0.492
931.000	545.073	80.005	19.995	103.287	20.200	2.420	0.517
931.500	545.340	80.005	19.995	103.282	20.201	2.344	0.532
932.000	545.552	80.005	19.995	103.274	20.199	2.509	0.510
932.500	545.837	80.004	19.993	103.270	20.198	2.585	0.489
933.000	546.089	80.006	19.994	103.263	20.200	2.448	0.517
933.500	546.341	80.005	19.995	103.261	20.206	2.062	0.520
934.000	546.619	80.005	19.995	103.265	20.206	2.049	0.517
934.500	546.851	80.005	19.993	103.271	20.197	2.636	0.520
935.000	547.131	80.005	19.995	103.271	20.200	2.420	0.511
935.500	547.403	80.007	19.995	103.276	20.200	2.451	0.531
936.000	547.683	80.005	19.995	103.279	20.200	2.429	0.552
936.500	547.928	80.008	19.995	103.275	20.201	2.342	0.539
937.000	548.135	80.007	19.994	103.270	20.199	2.479	0.489
937.500	548.415	80.007	19.995	103.268	20.197	2.659	0.469
938.000	548.682	80.006	19.995	103.264	20.199	2.520	0.517
938.500	548.952	80.008	19.995	103.264	20.200	2.464	0.542
939.000	549.200	80.007	19.994	103.262	20.200	2.433	0.528
939.500	549.446	80.008	19.995	103.264	20.199	2.492	0.506
940.000	549.693	80.008	19.994	103.264	20.196	2.736	0.494
940.500	549.955	80.008	19.994	103.265	20.198	2.603	0.501
941.000	550.195	80.008	19.994	103.263	20.199	2.505	0.505
941.500	550.418	80.007	19.993	103.264	20.200	2.446	0.482
942.000	550.697	80.007	19.995	103.262	20.201	2.364	0.483
942.500	550.959	80.008	19.995	103.261	20.197	2.646	0.521
943.000	551.184	80.009	19.994	103.259	20.201	2.349	0.514
943.500	551.484	80.009	19.995	103.257	20.200	2.470	0.506
944.000	551.748	80.008	19.994	103.256	20.198	2.577	0.544
944.500	551.967	80.008	19.994	103.256	20.199	2.534	0.523
945.000	552.212	80.008	19.994	103.255	20.196	2.733	0.474
945.500	552.500	80.008	19.995	103.255	20.195	2.788	0.499
946.000	552.727	80.008	19.995	103.253	20.193	2.899	0.524
946.500	552.995	80.006	19.995	103.253	20.194	2.848	0.505
947.000	553.228	80.008	19.994	103.252	20.199	2.520	0.498
947.500	553.559	80.005	19.995	103.252	20.200	2.423	0.533
948.001	553.788	80.006	19.994	103.252	20.198	2.598	0.562
948.500	554.056	80.005	19.995	103.253	20.198	2.557	0.528
949.000	554.265	80.006	19.995	103.253	20.194	2.833	0.487
949.500	554.534	80.006	19.996	103.253	20.200	2.472	0.477
950.000	554.817	80.005	19.993	103.251	20.204	2.184	0.515
950.500	555.071	80.006	19.994	103.250	20.198	2.588	0.545
951.000	555.322	80.006	19.995	103.250	20.197	2.655	0.522
951.500	555.586	80.008	19.995	103.250	20.201	2.373	0.510
952.000	555.828	80.007	19.996	103.250	20.200	2.464	0.510
952.500	556.083	80.007	19.997	103.252	20.199	2.505	0.501
953.000	556.358	80.007	19.995	103.253	20.198	2.546	0.514
953.500	556.589	80.006	19.996	103.253	20.199	2.490	0.518
954.000	556.873	80.006	19.994	103.253	20.200	2.418	0.510
954.500	557.108	80.007	19.996	103.251	20.193	2.905	0.517
955.000	557.403	80.005	19.995	103.247	20.197	2.618	0.525
955.500	557.665	80.005	19.996	103.247	20.194	2.851	0.543
956.000	557.883	80.005	19.995	103.246	20.196	2.742	0.518
956.500	558.150	80.005	19.994	103.244	20.197	2.616	0.482
957.000	558.388	80.007	19.996	103.246	20.193	2.896	0.495
957.500	558.633	80.007	19.995	103.251	20.191	3.024	0.494
958.000	558.891	80.007	19.994	103.250	20.194	2.814	0.493
958.500	559.132	80.006	19.994	103.251	20.192	2.996	0.501
959.000	559.409	80.008	19.995	103.253	20.195	2.753	0.509
959.500	559.673	80.007	19.995	103.252	20.198	2.585	0.529
960.000	559.905	80.008	19.995	103.253	20.194	2.824	0.519
960.500	560.170	80.006	19.994	103.254	20.196	2.698	0.497
961.000	560.440	80.008	19.995	103.254	20.197	2.623	0.516
961.500	560.698	80.007	19.994	103.256	20.198	2.590	0.532
962.000	560.977	80.008	19.994	103.254	20.202	2.305	0.533
962.500	561.229	80.008	19.994	103.253	20.197	2.618	0.534
963.000	561.521	80.009	19.995	103.253	20.198	2.555	0.537
963.500	561.756	80.009	19.995	103.252	20.200	2.457	0.535
964.000	562.039	80.008	19.993	103.251	20.201	2.357	0.522
964.500	562.294	80.008	19.993	103.254	20.196	2.688	0.528
965.000	562.517	80.009	19.993	103.259	20.199	2.516	0.508
965.500	562.848	80.009	19.993	103.259	20.197	2.640	0.516
966.000	563.095	80.008	19.994	103.260	20.195	2.749	0.566
966.500	563.337	80.009	19.994	103.259	20.199	2.540	0.534
967.000	563.600	80.010	19.993	103.258	20.195	2.770	0.498
967.500	563.870	80.011	19.994	103.254	20.198	2.588	0.519
968.000	564.101	80.010	19.994	103.249	20.199	2.511	0.517
968.500	564.358	80.010	19.993	103.249	20.197	2.614	0.494
969.000	564.613	80.010	19.993	103.250	20.199	2.514	0.499
969.500	564.852	80.010	19.993	103.250	20.204	2.163	0.503
970.000	565.086	80.010	19.994	103.249	20.200	2.452	0.484
970.500	565.343	80.011	19.995	103.253	20.199	2.507	0.482
971.000	565.598	80.008	19.994	103.253	20.196	2.702	0.502
971.500	565.855	80.009	19.994	103.252	20.200	2.415	0.512
972.000	566.125	80.009	19.994	103.252	20.201	2.387	0.519
972.500	566.385	80.008	19.994	103.254	20.200	2.459	0.528
973.000	566.635	80.009	19.994	103.254	20.203	2.209	0.520
973.500	566.855	80.008	19.994	103.253	20.202	2.279	0.490
974.000	567.173	80.009	19.994	103.252	20.198	2.590	0.504
974.500	567.413	80.006	19.993	103.253	20.199	2.501	0.548
975.000	567.661	80.007	19.994	103.253	20.199	2.514	0.523
975.500	567.920	80.007	19.994	103.253	20.203	2.242	0.498
976.000	568.175	80.007	19.995	103.253	20.200	2.447	0.511
976.500	568.420	80.006	19.993	103.254	20.200	2.455	0.507
977.000	568.697	80.006	19.994	103.254	20.197	2.618	0.511
977.500	568.947	80.006	19.994	103.254	20.203	2.257	0.525
978.000	569.203	80.006	19.995	103.255	20.201	2.396	0.516
978.500	569.421	80.007	19.994	103.258	20.202	2.279	0.489
979.000	569.700	80.006	19.994	103.259	20.204	2.179	0.486
979.500	569.969	80.008	19.995	103.263	20.205	2.120	0.523
980.000	570.253	80.007	19.994	103.266	20.207	1.944	0.550
980.500	570.488	80.006	19.995	103.273	20.204	2.175	0.536
981.000	570.729	80.006	19.994	103.272	20.205	2.103	0.498
981.500	570.980	80.007	19.995	103.278	20.204	2.179	0.484
982.000	571.227	80.005	19.993	103.279	20.201	2.344	0.495
982.500	571.495	80.006	19.994	103.276	20.202	2.310	0.507
983.000	571.799	80.006	19.994	103.270	20.204	2.153	0.544
983.500	572.030	80.006	19.994	103.269	20.205	2.094	0.553
984.000	572.289	80.006	19.994	103.258	20.202	2.316	0.512
984.500	572.564	80.008	19.994	103.254	20.204	2.144	0.512
985.000	572.778	80.006	19.994	103.249	20.201	2.353	0.512
985.500	573.077	80.005	19.995	103.249	20.201	2.390	0.501
986.000	573.334	80.007	19.994	103.248	20.206	2.055	0.534
986.500	573.620	80.006	19.994	103.252	20.205	2.093	0.550
987.000	573.862	80.006	19.994	103.253	20.205	2.121	0.536
987.500	574.099	80.006	19.993	103.256	20.200	2.420	0.504
988.000	574.369	80.006	19.994	103.255	20.203	2.271	0.492
988.500	574.603	80.006	19.994	103.256	20.198	2.586	0.505
989.000	574.869	80.006	19.995	103.256	20.202	2.334	0.502
989.500	575.128	80.006	19.995	103.257	20.205	2.081	0.513
990.000	575.399	80.006	19.993	103.258	20.205	2.131	0.528
990.500	575.626	80.005	19.994	103.259	20.203	2.212	0.514
991.000	575.946	80.007	19.994	103.257	20.203	2.242	0.523
991.500	576.155	80.007	19.994	103.257	20.202	2.292	0.538
992.000	576.421	80.006	19.994	103.257	20.202	2.323	0.502
992.500	576.670	80.007	19.994	103.257	20.199	2.497	0.495
993.000	576.933	80.006	19.994	103.258	20.204	2.157	0.514
993.500	577.182	80.007	19.994	103.259	20.204	2.155	0.512
994.000	577.425	80.007	19.994	103.257	20.202	2.335	0.502
994.500	577.681	80.005	19.993	103.256	20.204	2.170	0.496
995.000	577.936	80.006	19.994	103.256	20.203	2.260	0.505
995.500	578.225	80.005	19.994	103.253	20.201	2.355	0.527
996.000	578.473	80.007	19.995	103.250	20.202	2.277	0.540
996.500	578.735	80.007	19.993	103.248	20.202	2.281	0.524
997.000	578.988	80.006	19.994	103.246	20.202	2.294	0.513
997.500	579.236	80.007	19.994	103.243	20.199	2.511	0.508
998.000	579.506	80.006	19.993	103.246	20.200	2.427	0.510
998.500	579.753	80.007	19.994	103.248	20.206	2.033	0.517
999.000	579.992	80.007	19.994	103.254	20.201	2.368	0.501
999.500	580.266	80.008	19.993	103.256	20.200	2.474	0.499
1000.000	580.551	80.006	19.993	103.254	20.202	2.324	0.536
1000.500	580.793	80.007	19.993	103.254	20.200	2.437	0.543
1001.000	581.014	80.005	19.994	103.253	20.200	2.437	0.495
1001.500	581.317	80.006	19.994	103.245	20.198	2.594	0.493
1002.000	581.556	80.006	19.993	103.242	20.200	2.470	0.533
1002.500	581.809	80.007	19.994	103.247	20.199	2.479	0.517
1003.000	582.096	80.007	19.994	103.247	20.196	2.737	0.516
1003.500	582.339	80.006	19.994	103.250	20.202	2.305	0.535
1004.000	582.566	80.005	19.993	103.257	20.198	2.568	0.500
1004.500	582.819	80.006	19.994	103.260	20.204	2.164	0.475
1005.000	583.071	80.007	19.994	103.259	20.202	2.331	0.492
1005.500	583.375	80.007	19.993	103.258	20.200	2.449	0.530
1006.000	583.630	80.007	19.994	103.257	20.201	2.383	0.558
1006.500	583.877	80.006	19.995	103.260	20.203	2.258	0.530
1007.000	584.135	80.006	19.995	103.261	20.199	2.516	0.504
1007.500	584.407	80.006	19.995	103.263	20.204	2.179	0.518
1008.000	584.682	80.006	19.994	103.263	20.204	2.160	0.539
1008.500	584.861	80.007	19.994	103.264	20.202	2.279	0.500
1009.000	585.189	80.007	19.995	103.266	20.204	2.194	0.480
1009.500	585.408	80.006	19.995	103.265	20.201	2.368	0.527
1010.000	585.649	80.005	19.995	103.267	20.207	2.005	0.504
1010.500	585.946	80.007	19.995	103.267	20.202	2.310	0.499
1011.000	586.205	80.006	19.995	103.267	20.204	2.199	0.547
1011.500	586.445	80.007	19.994	103.264	20.200	2.433	0.527
1012.000	586.704	80.007	19.994	103.264	20.205	2.105	0.498
1012.500	586.971	80.006	19.995	103.261	20.205	2.077	0.512
1013.000	587.216	80.007	19.995	103.263	20.210	1.771	0.519
1013.500	587.487	80.008	19.994	103.262	20.207	1.966	0.514
1014.000	587.723	80.005	19.994	103.261	20.205	2.086	0.512
1014.500	587.953	80.008	19.995	103.261	20.206	2.051	0.486
1015.000	588.233	80.007	19.995	103.261	20.205	2.081	0.488
1015.500	588.458	80.008	19.995	103.259	20.205	2.127	0.508
1016.000	588.755	80.005	19.994	103.259	20.208	1.927	0.514
1016.500	588.991	80.006	19.994	103.258	20.208	1.892	0.527
1017.000	589.236	80.007	19.995	103.256	20.209	1.814	0.507
1017.500	589.486	80.007	19.995	103.251	20.207	1.943	0.488
1018.000	589.758	80.006	19.994	103.248	20.207	1.942	0.509
1018.500	590.010	80.007	19.995	103.245	20.212	1.664	0.523
1019.000	590.237	80.007	19.995	103.244	20.208	1.928	0.501
1019.500	590.491	80.006	19.995	103.247	20.204	2.195	0.480
1020.000	590.758	80.007	19.994	103.252	20.206	2.023	0.501
1020.500	591.047	80.008	19.995	103.255	20.206	2.051	0.539
1021.000	591.272	80.009	19.995	103.258	20.205	2.101	0.535
1021.500	591.554	80.007	19.996	103.258	20.206	2.034	0.511
1022.000	591.817	80.007	19.995	103.257	20.204	2.162	0.526
1022.500	592.044	80.008	19.994	103.254	20.204	2.171	0.517
1023.000	592.305	80.008	19.995	103.249	20.207	1.994	0.489
1023.500	592.544	80.008	19.995	103.248	20.205	2.114	0.494
1024.000	592.833	80.007	19.995	103.246	20.204	2.140	0.514
1024.500	593.096	80.006	19.995	103.246	20.206	2.047	0.540
1025.000	593.367	80.008	19.996	103.248	20.204	2.164	0.543
1025.500	593.593	80.009	19.995	103.252	20.204	2.158	0.515
1026.001	593.868	80.009	19.995	103.251	20.208	1.932	0.498
1026.500	594.104	80.008	19.994	103.252	20.209	1.825	0.506
1026.999	594.375	80.008	19.995	103.252	20.208	1.899	0.510
1027.499	594.653	80.008	19.995	103.251	20.209	1.829	0.528
1027.999	594.892	80.008	19.995	103.251	20.207	1.979	0.533
1028.499	595.143	80.007	19.994	103.253	20.204	2.166	0.503
1029.000	595.368	80.007	19.994	103.251	20.205	2.110	0.483
1029.500	595.637	80.009	19.995	103.247	20.206	2.034	0.485
1030.000	595.933	80.008	19.994	103.241	20.204	2.145	0.530
1030.500	596.149	80.008	19.994	103.236	20.206	2.047	0.538
1030.999	596.430	80.008	19.995	103.235	20.205	2.108	0.504
1031.499	596.680	80.007	19.994	103.238	20.207	1.947	0.514
1031.999	596.943	80.008	19.994	103.241	20.208	1.934	0.522
1032.500	597.173	80.006	19.994	103.248	20.204	2.145	0.503
1033.000	597.442	80.007	19.993	103.254	20.206	2.014	0.496
1033.500	597.652	80.007	19.994	103.256	20.207	1.990	0.489
1034.000	597.954	80.009	19.994	103.255	20.208	1.873	0.496
1034.499	598.183	80.008	19.994	103.253	20.209	1.851	0.522
1035.000	598.431	80.007	19.996	103.252	20.209	1.821	0.504
1035.501	598.662	80.005	19.996	103.251	20.211	1.725	0.478
1036.000	598.914	80.007	19.995	103.252	20.212	1.666	0.481
1036.499	599.192	80.006	19.995	103.252	20.212	1.655	0.507
1036.999	599.426	80.007	19.996	103.254	20.209	1.838	0.521
1037.499	599.680	80.006	19.995	103.255	20.206	2.016	0.499
1037.999	599.954	80.007	19.995	103.254	20.211	1.705	0.508
1038.499	600.219	80.007	19.995	103.253	20.212	1.632	0.533
1038.999	600.456	80.006	19.994	103.252	20.211	1.703	0.521
1039.500	600.745	80.006	19.994	103.252	20.212	1.643	0.514
1040.000	600.994	80.007	19.995	103.251	20.212	1.662	0.532
1040.500	601.262	80.005	19.995	103.245	20.212	1.634	0.528
1041.001	601.499	80.007	19.994	103.238	20.208	1.894	0.511
1041.501	601.785	80.006	19.995	103.232	20.209	1.851	0.514
1042.001	602.017	80.005	19.994	103.225	20.210	1.744	0.521
1042.501	602.272	80.006	19.994	103.221	20.208	1.892	0.502
1043.001	602.531	80.006	19.995	103.225	20.211	1.695	0.500
1043.500	602.792	80.006	19.994	103.231	20.208	1.873	0.517
1044.000	603.035	80.006	19.996	103.238	20.210	1.762	0.512
1044.501	603.290	80.007	19.995	103.241	20.209	1.830	0.501
1045.001	603.568	80.007	19.995	103.246	20.211	1.712	0.515
1045.501	603.804	80.008	19.995	103.248	20.209	1.828	0.523
1046.001	604.063	80.007	19.995	103.250	20.207	2.004	0.504
1046.501	604.309	80.007	19.995	103.251	20.203	2.221	0.500
1047.000	604.562	80.007	19.995	103.255	20.207	1.986	0.503
1047.500	604.800	80.008	19.995	103.255	20.208	1.892	0.495
1048.000	605.122	80.008	19.994	103.256	20.207	1.990	0.525
1048.500	605.394	80.008	19.994	103.256	20.209	1.851	0.577
1049.000	605.630	80.009	19.995	103.256	20.208	1.901	0.551
1049.500	605.874	80.008	19.994	103.256	20.208	1.929	0.494
1050.000	606.137	80.008	19.994	103.257	20.209	1.869	0.493
1050.501	606.362	80.008	19.995	103.257	20.210	1.803	0.497
1051.001	606.639	80.008	19.996	103.257	20.213	1.536	0.495
1051.500	606.892	80.009	19.995	103.261	20.211	1.731	0.516
1052.000	607.160	80.009	19.995	103.267	20.209	1.818	0.526
1052.500	607.402	80.008	19.994	103.267	20.211	1.703	0.515
1053.000	607.677	80.009	19.994	103.265	20.212	1.627	0.514
1053.500	607.927	80.008	19.994	103.263	20.209	1.827	0.521
1054.000	608.162	80.008	19.995	103.254	20.214	1.501	0.505
1054.500	608.423	80.007	19.995	103.242	20.213	1.536	0.491
1055.000	608.645	80.008	19.996	103.240	20.213	1.592	0.490
1055.500	608.906	80.007	19.994	103.235	20.212	1.658	0.483
1056.000	609.163	80.009	19.995	103.229	20.211	1.673	0.500
1056.500	609.403	80.008	19.995	103.231	20.212	1.605	0.507
1057.000	609.693	80.008	19.995	103.238	20.210	1.758	0.514
1057.500	609.928	80.008	19.995	103.241	20.211	1.673	0.528
1058.000	610.161	80.006	19.994	103.247	20.212	1.606	0.497
1058.500	610.416	80.007	19.995	103.254	20.212	1.640	0.478
1059.000	610.665	80.007	19.994	103.255	20.212	1.636	0.496
1059.500	610.952	80.007	19.994	103.253	20.210	1.782	0.520
1060.000	611.136	80.007	19.994	103.252	20.209	1.827	0.503
1060.500	611.366	80.006	19.994	103.253	20.210	1.784	0.442
1061.000	611.651	80.007	19.994	103.256	20.210	1.760	0.465
1061.500	611.926	80.006	19.995	103.262	20.210	1.758	0.538
1062.000	612.169	80.006	19.994	103.267	20.214	1.530	0.539
1062.500	612.391	80.006	19.994	103.268	20.209	1.823	0.491
1063.000	612.662	80.006	19.993	103.268	20.211	1.708	0.479
1063.500	612.926	80.007	19.994	103.265	20.213	1.586	0.514
1064.000	613.165	80.006	19.994	103.261	20.208	1.903	0.519
1064.500	613.478	80.006	19.993	103.258	20.209	1.823	0.528
1065.000	613.710	80.006	19.995	103.257	20.205	2.103	0.548
1065.500	613.948	80.007	19.993	103.258	20.211	1.727	0.507
1066.000	614.181	80.006	19.995	103.258	20.212	1.647	0.470
1066.500	614.466	80.007	19.993	103.260	20.210	1.797	0.494
1067.000	614.728	80.006	19.994	103.261	20.207	1.962	0.533
1067.500	614.977	80.005	19.994	103.261	20.213	1.603	0.529
1068.000	615.240	80.004	19.994	103.261	20.211	1.690	0.512
1068.501	615.514	80.006	19.993	103.261	20.210	1.771	0.525
1069.001	615.762	80.005	19.993	103.259	20.209	1.842	0.529
1069.501	616.029	80.005	19.994	103.256	20.204	2.145	0.518
1070.000	616.280	80.007	19.994	103.253	20.208	1.906	0.517
1070.500	616.492	80.006	19.994	103.248	20.205	2.091	0.490
1071.000	616.747	80.006	19.995	103.242	20.210	1.778	0.465
1071.500	617.038	80.006	19.995	103.240	20.207	1.971	0.507
1072.000	617.251	80.006	19.993	103.242	20.210	1.793	0.525
1072.500	617.540	80.006	19.994	103.244	20.209	1.830	0.503
1073.000	617.769	80.007	19.994	103.246	20.210	1.764	0.510
1073.500	618.037	80.007	19.994	103.250	20.209	1.841	0.507
1074.001	618.261	80.007	19.993	103.249	20.215	1.426	0.495
1074.500	618.485	80.007	19.994	103.247	20.210	1.791	0.470
1075.000	618.828	80.007	19.994	103.247	20.212	1.623	0.508
1075.501	619.055	80.006	19.994	103.249	20.216	1.393	0.569
1076.001	619.280	80.005	19.994	103.249	20.211	1.717	0.511
1076.501	619.505	80.005	19.993	103.251	20.209	1.827	0.451
1077.001	619.784	80.006	19.994	103.251	20.212	1.616	0.477
1077.500	620.014	80.007	19.995	103.250	20.210	1.767	0.506
1078.000	620.287	80.007	19.995	103.250	20.216	1.384	0.506
1078.500	620.524	80.007	19.996	103.252	20.216	1.352	0.506
1079.000	620.775	80.007	19.994	103.252	20.214	1.495	0.499
1079.500	621.071	80.004	19.993	103.253	20.213	1.549	0.518
1080.000	621.323	80.007	19.994	103.254	20.215	1.417	0.547
1080.500	621.526	80.005	19.994	103.254	20.215	1.423	0.501
1081.000	621.794	80.007	19.995	103.247	20.215	1.451	0.463
1081.500	622.056	80.006	19.994	103.242	20.215	1.454	0.501
1082.000	622.324	80.006	19.994	103.240	20.214	1.503	0.530
1082.500	622.543	80.007	19.995	103.235	20.215	1.451	0.509
1083.000	622.824	80.006	19.994	103.235	20.213	1.599	0.493
1083.501	623.018	80.006	19.995	103.242	20.212	1.652	0.487
1084.000	623.348	80.006	19.994	103.245	20.211	1.677	0.500
1084.500	623.583	80.007	19.995	103.240	20.215	1.402	0.544
1085.000	623.865	80.006	19.994	103.241	20.213	1.593	0.541
1085.500	624.116	80.006	19.995	103.239	20.214	1.482	0.526
1086.000	624.342	80.006	19.994	103.238	20.217	1.319	0.505
1086.500	624.608	80.006	19.994	103.241	20.213	1.597	0.484
1087.000	624.878	80.007	19.994	103.247	20.214	1.473	0.513
1087.500	625.150	80.006	19.995	103.250	20.213	1.580	0.538
1088.000	625.416	80.005	19.995	103.252	20.213	1.602	0.540
1088.501	625.679	80.006	19.994	103.251	20.216	1.339	0.534
1089.000	625.936	80.006	19.994	103.248	20.215	1.465	0.525
1089.500	626.177	80.005	19.995	103.245	20.216	1.391	0.509
1090.000	626.400	80.006	19.995	103.246	20.213	1.566	0.481
1090.500	626.688	80.005	19.994	103.247	20.212	1.629	0.487
1091.000	626.938	80.005	19.994	103.249	20.214	1.514	0.525
1091.500	627.213	80.006	19.995	103.253	20.214	1.490	0.532
1092.000	627.483	80.005	19.994	103.255	20.216	1.366	0.535
1092.501	627.744	80.006	19.993	103.252	20.212	1.642	0.538
1093.001	628.012	80.006	19.995	103.250	20.221	1.062	0.531
1093.500	628.250	80.005	19.994	103.250	20.218	1.245	0.518
1094.000	628.525	80.006	19.994	103.248	20.216	1.369	0.509
1094.500	628.747	80.005	19.996	103.241	20.221	1.034	0.505
1095.000	629.024	80.006	19.995	103.240	20.218	1.241	0.498
1095.500	629.264	80.004	19.994	103.242	20.218	1.241	0.508
1096.000	629.583	80.005	19.994	103.241	20.219	1.134	0.538
1096.500	629.752	80.004	19.994	103.242	20.215	1.445	0.523
1097.000	630.031	80.005	19.994	103.247	20.219	1.151	0.468
1097.500	630.284	80.005	19.994	103.245	20.221	1.056	0.490
1098.000	630.539	80.007	19.994	103.241	20.220	1.099	0.520
1098.500	630.767	80.006	19.995	103.238	20.224	0.861	0.495
1099.000	631.045	80.006	19.994	103.236	20.222	0.943	0.494
1099.500	631.313	80.005	19.995	103.238	20.217	1.280	0.526
1100.000	631.564	80.006	19.994	103.245	20.222	0.993	0.533
1100.500	631.810	80.007	19.995	103.249	20.223	0.913	0.508
1101.000	632.052	80.005	19.994	103.255	20.218	1.245	0.492
1101.500	632.318	80.006	19.995	103.258	20.222	0.965	0.498
1102.000	632.519	80.005	19.992	103.258	20.222	0.978	0.487
1102.501	632.791	80.005	19.993	103.258	20.216	1.382	0.470
1103.001	633.059	80.006	19.995	103.259	20.219	1.182	0.507
1103.500	633.307	80.007	19.994	103.258	20.218	1.263	0.528
1104.000	633.560	80.007	19.995	103.257	20.217	1.280	0.508
1104.500	633.818	80.007	19.994	103.257	20.219	1.173	0.506
1105.000	634.058	80.008	19.994	103.257	20.218	1.262	0.505
1105.500	634.311	80.007	19.994	103.256	20.220	1.086	0.495
1106.000	634.526	80.008	19.994	103.257	20.219	1.160	0.480
1106.500	634.842	80.008	19.995	103.258	20.217	1.277	0.500
1107.000	635.081	80.007	19.993	103.258	20.216	1.369	0.543
1107.500	635.330	80.007	19.994	103.258	20.217	1.288	0.522
1108.000	635.632	80.007	19.994	103.257	20.218	1.210	0.519
1108.500	635.852	80.006	19.995	103.249	20.220	1.088	0.536
1109.001	636.128	80.008	19.993	103.242	20.217	1.319	0.509
1109.501	636.367	80.006	19.994	103.236	20.221	1.049	0.505
1110.000	636.622	80.007	19.995	103.229	20.215	1.404	0.505
1110.500	636.875	80.007	19.996	103.227	20.221	1.008	0.501
1111.000	637.119	80.007	19.995	103.234	20.219	1.193	0.502
1111.500	637.382	80.007	19.994	103.239	20.217	1.297	0.502
1112.000	637.633	80.006	19.996	103.242	20.219	1.154	0.511
1112.500	637.900	80.007	19.994	103.244	20.218	1.206	0.516
1113.000	638.157	80.007	19.994	103.243	20.219	1.187	0.521
1113.500	638.360	80.008	19.994	103.239	20.218	1.223	0.492
1114.000	638.639	80.007	19.995	103.235	20.217	1.299	0.470
1114.500	638.862	80.007	19.995	103.235	20.213	1.558	0.492
1115.000	639.087	80.007	19.994	103.240	20.216	1.363	0.475
1115.500	639.356	80.008	19.995	103.239	20.213	1.602	0.471
1116.000	639.602	80.007	19.995	103.243	20.218	1.234	0.505
1116.500	639.844	80.007	19.995	103.249	20.220	1.091	0.502
1117.000	640.055	80.007	19.995	103.253	20.218	1.234	0.471
1117.500	640.363	80.008	19.995	103.259	20.222	0.952	0.486
1118.001	640.590	80.005	19.994	103.265	20.221	1.037	0.527
1118.500	640.835	80.008	19.995	103.266	20.222	0.980	0.504
1119.000	641.107	80.006	19.994	103.262	20.222	0.956	0.495
1119.501	641.313	80.006	19.994	103.252	20.217	1.288	0.497
1120.000	641.605	80.006	19.996	103.244	20.218	1.256	0.488
1120.500	641.824	80.006	19.994	103.243	20.223	0.924	0.504
1121.000	642.087	80.006	19.995	103.243	20.220	1.113	0.497
1121.500	642.324	80.007	19.995	103.245	20.223	0.882	0.491
1122.000	642.622	80.007	19.995	103.244	20.220	1.132	0.517
1122.500	642.844	80.007	19.996	103.240	20.217	1.267	0.527
1123.000	643.122	80.007	19.995	103.234	20.218	1.254	0.510
1123.500	643.365	80.007	19.996	103.230	20.218	1.238	0.510
1124.000	643.571	80.009	19.996	103.232	20.218	1.221	0.485
1124.501	643.843	80.007	19.995	103.236	20.222	0.978	0.464
1125.001	644.048	80.008	19.994	103.239	20.222	0.937	0.478
1125.501	644.318	80.007	19.995	103.245	20.224	0.832	0.476
1126.000	644.559	80.007	19.994	103.245	20.224	0.821	0.493
1126.500	644.816	80.009	19.995	103.240	20.221	1.023	0.505
1127.000	645.036	80.008	19.994	103.238	20.224	0.862	0.487
1127.500	645.304	80.007	19.995	103.239	20.224	0.837	0.482
1128.000	645.537	80.008	19.994	103.239	20.227	0.628	0.495
1128.500	645.772	80.008	19.994	103.243	20.221	1.043	0.485
1129.000	646.031	80.009	19.995	103.248	20.222	0.956	0.481
1129.500	646.252	80.009	19.994	103.251	20.222	0.934	0.487
1130.000	646.530	80.007	19.995	103.253	20.219	1.136	0.489
1130.500	646.792	80.008	19.994	103.254	20.222	0.987	0.519
1131.001	647.054	80.008	19.994	103.254	20.220	1.132	0.533
1131.500	647.332	80.009	19.995	103.252	20.221	1.054	0.532
1132.000	647.579	80.008	19.994	103.253	20.218	1.234	0.533
1132.500	647.819	80.007	19.995	103.255	20.216	1.362	0.506
1133.000	648.095	80.007	19.994	103.257	20.221	1.041	0.501
1133.500	648.317	80.008	19.994	103.257	20.216	1.345	0.507
1134.000	648.567	80.009	19.994	103.259	20.219	1.139	0.485
1134.500	648.814	80.008	19.993	103.260	20.220	1.073	0.484
1135.000	649.097	80.010	19.994	103.253	20.219	1.178	0.514
1135.500	649.315	80.009	19.995	103.248	20.220	1.095	0.516
1136.000	649.560	80.009	19.994	103.245	20.218	1.249	0.482
1136.500	649.822	80.008	19.994	103.246	20.215	1.419	0.485
1137.000	650.080	80.009	19.995	103.245	20.216	1.380	0.513
1137.501	650.298	80.009	19.995	103.252	20.218	1.206	0.498
1138.001	650.594	80.007	19.995	103.254	20.217	1.332	0.495
1138.500	650.833	80.007	19.995	103.256	20.218	1.239	0.525
1139.000	651.086	80.009	19.995	103.255	20.220	1.119	0.514
1139.500	651.354	80.009	19.995	103.252	20.217	1.286	0.506
1140.000	651.566	80.008	19.994	103.248	20.222	0.995	0.500
1140.500	651.883	80.008	19.995	103.247	20.221	1.002	0.504
1141.000	652.139	80.009	19.995	103.247	20.221	1.037	0.551
1141.500	652.373	80.008	19.995	103.247	20.221	1.026	0.532
1142.000	652.643	80.008	19.996	103.250	20.218	1.208	0.497
1142.500	652.846	80.007	19.995	103.249	20.220	1.076	0.488
1143.000	653.127	80.006	19.996	103.242	20.221	1.058	0.479
1143.500	653.337	80.008	19.996	103.239	20.222	0.939	0.488
1144.000	653.606	80.005	19.996	103.238	20.218	1.230	0.485
1144.500	653.862	80.007	19.995	103.237	20.220	1.115	0.502
1145.000	654.108	80.006	19.996	103.241	20.220	1.084	0.514
1145.500	654.401	80.007	19.997	103.248	20.218	1.241	0.521
1146.000	654.621	80.007	19.996	103.247	20.217	1.291	0.526
1146.500	654.870	80.007	19.996	103.242	20.219	1.180	0.492
1147.000	655.150	80.007	19.996	103.239	20.220	1.099	0.499
1147.500	655.406	80.006	19.996	103.239	20.219	1.139	0.532
1148.000	655.658	80.008	19.995	103.238	20.218	1.261	0.522
1148.500	655.920	80.005	19.997	103.239	20.217	1.291	0.511
1149.000	656.185	80.005	19.996	103.243	20.218	1.213	0.520
1149.500	656.426	80.006	19.996	103.247	20.219	1.171	0.516
1150.000	656.637	80.006	19.996	103.246	20.218	1.232	0.479
1150.500	656.938	80.006	19.996	103.245	20.213	1.553	0.482
1151.000	657.161	80.008	19.995	103.240	20.215	1.403	0.518
1151.500	657.437	80.005	19.995	103.235	20.219	1.186	0.511
1152.000	657.701	80.005	19.996	103.235	20.219	1.180	0.519
1152.500	657.977	80.006	19.995	103.231	20.217	1.284	0.540
1153.000	658.219	80.008	19.995	103.227	20.214	1.521	0.529
1153.500	658.466	80.006	19.995	103.227	20.215	1.466	0.503
1154.000	658.748	80.005	19.996	103.227	20.218	1.228	0.509
1154.500	659.013	80.006	19.995	103.222	20.217	1.332	0.538
1155.001	659.286	80.005	19.994	103.226	20.219	1.167	0.543
1155.500	659.520	80.006	19.994	103.229	20.219	1.176	0.522
1156.000	659.765	80.007	19.995	103.233	20.222	0.973	0.493
1156.500	660.014	80.008	19.994	103.239	20.219	1.165	0.487
1157.000	660.282	80.009	19.994	103.243	20.221	1.006	0.506
1157.500	660.516	80.007	19.994	103.241	20.220	1.110	0.509
1158.000	660.791	80.008	19.993	103.240	20.219	1.138	0.506
1158.500	660.994	80.007	19.994	103.235	20.217	1.315	0.493
1159.000	661.288	80.005	19.995	103.231	20.220	1.117	0.487
1159.500	661.543	80.007	19.995	103.233	20.222	0.984	0.523
1160.001	661.767	80.007	19.995	103.236	20.219	1.178	0.514
1160.501	662.039	80.008	19.994	103.243	20.219	1.176	0.487
1161.000	662.268	80.008	19.995	103.251	20.223	0.889	0.498
1161.500	662.512	80.009	19.995	103.255	20.220	1.099	0.487
1162.000	662.802	80.007	19.993	103.255	20.218	1.213	0.503
1162.500	663.039	80.006	19.993	103.256	20.218	1.217	0.530
1163.000	663.296	80.007	19.994	103.258	20.219	1.165	0.510
1163.500	663.584	80.008	19.995	103.258	20.220	1.132	0.520
1164.000	663.812	80.008	19.995	103.257	20.219	1.191	0.531
1164.500	664.029	80.007	19.995	103.258	20.216	1.343	0.481
1165.000	664.272	80.008	19.995	103.256	20.218	1.236	0.452
1165.500	664.568	80.007	19.995	103.250	20.223	0.928	0.500
1166.000	664.788	80.009	19.995	103.244	20.219	1.184	0.528
1166.500	665.046	80.007	19.994	103.236	20.219	1.199	0.497
1167.000	665.291	80.008	19.995	103.235	20.221	1.056	0.491
1167.500	665.540	80.007	19.995	103.234	20.221	1.015	0.499
1168.000	665.794	80.006	19.994	103.236	20.221	1.030	0.498
1168.500	666.092	80.009	19.994	103.240	20.225	0.741	0.527
1169.000	666.343	80.006	19.995	103.247	20.220	1.128	0.551
1169.500	666.574	80.008	19.995	103.246	20.220	1.104	0.516
1170.000	666.871	80.007	19.995	103.248	20.221	1.036	0.505
1170.500	667.125	80.008	19.994	103.251	20.221	1.026	0.539
1171.000	667.385	80.006	19.994	103.252	20.223	0.917	0.533
1171.500	667.605	80.007	19.994	103.253	20.221	1.004	0.498
1172.000	667.873	80.006	19.995	103.255	20.223	0.930	0.484
1172.500	668.130	80.007	19.994	103.252	20.222	0.965	0.506
1173.000	668.378	80.005	19.995	103.245	20.221	1.019	0.515
1173.500	668.653	80.007	19.994	103.242	20.222	0.971	0.514
1174.000	668.922	80.005	19.994	103.241	20.218	1.237	0.533
1174.500	669.168	80.006	19.994	103.238	20.219	1.167	0.530
1175.000	669.459	80.005	19.995	103.237	20.222	0.978	0.526
1175.501	669.700	80.006	19.994	103.245	20.221	1.050	0.535
1176.001	669.976	80.006	19.993	103.245	20.216	1.350	0.525
1176.501	670.222	80.005	19.994	103.243	20.219	1.158	0.519
1177.001	670.471	80.006	19.995	103.246	20.219	1.150	0.508
1177.500	670.724	80.004	19.995	103.248	20.220	1.084	0.499
1178.000	670.955	80.007	19.995	103.244	20.217	1.325	0.493
1178.500	671.209	80.007	19.995	103.241	20.218	1.226	0.484
1179.000	671.504	80.006	19.994	103.237	20.216	1.384	0.517
1179.500	671.734	80.005	19.995	103.230	20.218	1.252	0.537
1180.000	672.023	80.005	19.995	103.229	20.215	1.404	0.522
1180.500	672.266	80.007	19.994	103.233	20.217	1.289	0.525
1181.000	672.571	80.005	19.995	103.240	20.219	1.173	0.540
1181.500	672.799	80.007	19.994	103.246	20.219	1.198	0.540
1182.000	673.008	80.005	19.995	103.249	20.218	1.256	0.485
1182.500	673.329	80.007	19.994	103.245	20.221	1.013	0.484
1183.000	673.603	80.006	19.995	103.242	20.219	1.165	0.563
1183.500	673.863	80.005	19.995	103.234	20.221	1.041	0.565
1184.000	674.150	80.007	19.994	103.227	20.221	1.010	0.541
1184.500	674.392	80.008	19.995	103.226	20.222	0.997	0.538
1185.000	674.678	80.006	19.995	103.228	20.223	0.926	0.529
1185.500	674.896	80.007	19.994	103.228	20.224	0.843	0.516
1186.001	675.177	80.006	19.994	103.235	20.219	1.141	0.501
1186.501	675.439	80.008	19.994	103.240	20.220	1.074	0.520
1187.000	675.641	80.006	19.995	103.239	20.222	0.956	0.503
1187.500	675.966	80.007	19.994	103.237	20.221	1.050	0.496
1188.000	676.218	80.007	19.994	103.242	20.220	1.082	0.552
1188.501	676.467	80.008	19.995	103.242	20.221	1.015	0.539
1189.000	676.703	80.008	19.994	103.239	20.222	0.967	0.493
1189.500	676.979	80.006	19.995	103.241	20.222	0.971	0.498
1190.000	677.258	80.008	19.995	103.239	20.222	0.945	0.533
1190.500	677.494	80.007	19.995	103.232	20.219	1.171	0.535
1191.000	677.768	80.008	19.993	103.228	20.222	0.941	0.513
1191.500	678.029	80.007	19.994	103.232	20.226	0.711	0.523
1192.000	678.275	80.007	19.994	103.234	20.223	0.908	0.521
1192.500	678.525	80.010	19.993	103.234	20.224	0.839	0.501
1193.001	678.809	80.009	19.993	103.238	20.222	0.936	0.514
1193.500	679.075	80.008	19.993	103.239	20.222	0.954	0.542
1194.000	679.290	80.008	19.994	103.236	20.221	1.052	0.516
1194.500	679.579	80.007	19.992	103.234	20.224	0.858	0.493
1195.000	679.821	80.008	19.993	103.238	20.221	1.050	0.517
1195.500	680.099	80.008	19.994	103.240	20.222	0.952	0.525
1196.000	680.364	80.007	19.993	103.240	20.220	1.112	0.532
1196.500	680.644	80.007	19.993	103.238	20.222	0.969	0.544
1197.000	680.893	80.006	19.994	103.238	20.221	1.038	0.537
1197.501	681.196	80.007	19.993	103.235	20.220	1.076	0.541
1198.000	681.421	80.007	19.994	103.229	20.218	1.247	0.540
1198.500	681.725	80.008	19.993	103.226	20.220	1.099	0.528
1199.000	681.949	80.007	19.993	103.229	20.223	0.921	0.528
1199.500	682.215	80.007	19.993	103.227	20.220	1.093	0.509
1200.000	682.470	80.008	19.993	103.231	20.219	1.174	0.506
1200.500	682.722	80.006	19.993	103.235	20.221	1.065	0.514
1201.000	682.983	80.006	19.994	103.235	20.219	1.167	0.510
1201.500	683.232	80.007	19.994	103.236	20.220	1.069	0.511
1202.000	683.507	80.006	19.994	103.241	20.221	1.047	0.517
1202.500	683.776	80.007	19.994	103.242	20.217	1.295	0.534
1203.000	684.041	80.007	19.993	103.243	20.218	1.226	0.539
1203.500	684.262	80.006	19.994	103.243	20.218	1.200	0.510
1204.000	684.528	80.006	19.994	103.244	20.222	0.937	0.486
1204.500	684.774	80.006	19.995	103.240	20.221	1.023	0.499
1205.000	685.067	80.008	19.994	103.233	20.220	1.089	0.526
1205.500	685.315	80.008	19.994	103.232	20.219	1.158	0.540
1206.000	685.602	80.007	19.995	103.237	20.222	0.937	0.538
1206.500	685.834	80.007	19.995	103.240	20.221	1.058	0.527
1207.000	686.084	80.006	19.994	103.245	20.222	0.967	0.501
1207.500	686.337	80.008	19.994	103.251	20.223	0.871	0.493
1208.000	686.603	80.006	19.995	103.254	20.219	1.182	0.511
1208.500	686.838	80.006	19.994	103.255	20.217	1.284	0.510
1209.000	687.102	80.006	19.995	103.254	20.222	0.958	0.500
1209.500	687.350	80.007	19.996	103.250	20.221	1.020	0.506
1210.001	687.644	80.009	19.996	103.247	20.224	0.854	0.527
1210.501	687.862	80.008	19.995	103.240	20.222	0.987	0.527
1211.000	688.153	80.007	19.995	103.237	20.221	1.050	0.510
1211.500	688.376	80.008	19.996	103.238	20.221	1.019	0.511
1212.000	688.632	80.007	19.994	103.237	20.223	0.883	0.497
1212.500	688.901	80.009	19.995	103.232	20.220	1.076	0.502
1213.000	689.163	80.008	19.994	103.233	20.222	0.965	0.528
1213.500	689.451	80.009	19.994	103.230	20.215	1.445	0.541
1214.000	689.646	80.008	19.995	103.228	20.219	1.195	0.516
1214.500	689.920	80.008	19.995	103.230	20.220	1.132	0.476
1215.000	690.164	80.008	19.994	103.234	20.220	1.106	0.494
1215.500	690.397	80.009	19.995	103.236	20.222	0.932	0.498
1216.000	690.650	80.008	19.994	103.234	20.219	1.165	0.481
1216.501	690.911	80.009	19.994	103.230	20.219	1.163	0.500
1217.000	691.140	80.009	19.994	103.227	20.215	1.437	0.502
1217.500	691.439	80.009	19.995	103.228	20.217	1.289	0.509
1218.000	691.690	80.008	19.994	103.224	20.215	1.439	0.539
1218.501	691.919	80.009	19.994	103.224	20.218	1.219	0.515
1219.001	692.182	80.008	19.994	103.222	20.217	1.291	0.486
1219.500	692.422	80.010	19.994	103.220	20.216	1.400	0.497
1220.000	692.693	80.010	19.993	103.216	20.218	1.204	0.507
1220.500	692.939	80.009	19.993	103.215	20.216	1.376	0.513
1221.000	693.201	80.008	19.995	103.214	20.213	1.563	0.512
1221.500	693.467	80.007	19.994	103.215	20.215	1.447	0.518
1222.001	693.649	80.008	19.993	103.215	20.216	1.400	0.488
1222.500	693.959	80.008	19.995	103.216	20.214	1.484	0.470
1223.000	694.195	80.008	19.995	103.221	20.215	1.406	0.519
1223.500	694.472	80.008	19.995	103.223	20.213	1.572	0.530
1224.000	694.682	80.006	19.994	103.225	20.215	1.458	0.500
1224.500	694.926	80.007	19.994	103.230	20.217	1.282	0.470
1225.000	695.211	80.008	19.995	103.234	20.218	1.202	0.492
1225.501	695.465	80.007	19.994	103.236	20.212	1.613	0.534
1226.000	695.688	80.008	19.995	103.237	20.215	1.417	0.508
1226.500	695.974	80.007	19.995	103.234	20.215	1.448	0.493
1227.000	696.228	80.007	19.994	103.232	20.211	1.680	0.525
1227.500	696.465	80.006	19.994	103.231	20.211	1.712	0.516
1228.000	696.733	80.005	19.993	103.229	20.216	1.348	0.498
1228.500	696.977	80.005	19.995	103.230	20.213	1.584	0.509
1229.000	697.202	80.006	19.994	103.231	20.215	1.421	0.491
1229.500	697.461	80.007	19.996	103.233	20.213	1.576	0.476
1230.000	697.732	80.008	19.995	103.231	20.215	1.467	0.506
1230.500	697.995	80.007	19.994	103.226	20.214	1.534	0.532
1231.000	698.200	80.006	19.994	103.223	20.215	1.417	0.501
1231.500	698.451	80.004	19.994	103.225	20.214	1.469	0.463
1232.000	698.713	80.008	19.994	103.221	20.216	1.352	0.484
1232.500	698.949	80.005	19.995	103.220	20.218	1.256	0.505
1233.000	699.210	80.007	19.995	103.223	20.217	1.325	0.497
1233.500	699.431	80.006	19.995	103.222	20.218	1.206	0.490
1234.000	699.676	80.005	19.995	103.221	20.214	1.534	0.474
1234.500	699.929	80.004	19.995	103.221	20.215	1.404	0.482
1235.000	700.202	80.005	19.995	103.220	20.213	1.550	0.512
1235.500	700.463	80.006	19.995	103.217	20.215	1.443	0.530
1236.000	700.707	80.005	19.995	103.221	20.216	1.374	0.520
1236.500	700.923	80.006	19.995	103.226	20.215	1.430	0.482
1237.000	701.210	80.005	19.995	103.227	20.215	1.450	0.482
1237.500	701.484	80.005	19.995	103.229	20.213	1.556	0.532
1238.000	701.692	80.005	19.994	103.231	20.213	1.569	0.521
1238.500	701.948	80.004	19.994	103.228	20.217	1.302	0.473
1239.000	702.201	80.003	19.996	103.228	20.215	1.454	0.487
1239.500	702.455	80.005	19.995	103.235	20.214	1.528	0.508
1240.000	702.702	80.006	19.995	103.238	20.220	1.128	0.504
1240.500	702.959	80.006	19.995	103.236	20.217	1.311	0.503
1241.000	703.139	80.004	19.997	103.235	20.218	1.237	0.471
1241.500	703.442	80.005	19.996	103.236	20.218	1.200	0.460
1242.000	703.719	80.005	19.996	103.235	20.220	1.093	0.531
1242.500	703.945	80.006	19.995	103.233	20.220	1.076	0.541
1243.000	704.222	80.004	19.995	103.238	20.221	1.050	0.503
1243.500	704.433	80.005	19.996	103.246	20.220	1.100	0.496
1244.000	704.684	80.005	19.995	103.244	20.219	1.143	0.475
1244.500	704.958	80.006	19.995	103.242	20.220	1.108	0.493
1245.001	705.188	80.005	19.996	103.245	20.220	1.095	0.514
1245.500	705.460	80.005	19.995	103.242	20.219	1.139	0.503
1246.000	705.739	80.005	19.995	103.238	20.222	0.967	0.526
1246.501	706.002	80.007	19.994	103.237	20.221	1.015	0.546
1247.001	706.208	80.005	19.995	103.236	20.224	0.811	0.506
1247.500	706.461	80.006	19.996	103.231	20.223	0.908	0.464
1248.000	706.680	80.006	19.996	103.229	20.221	1.002	0.466
1248.500	706.947	80.004	19.995	103.229	20.222	0.967	0.479
1249.000	707.205	80.006	19.994	103.231	20.224	0.834	0.505
1249.500	707.460	80.004	19.995	103.229	20.220	1.121	0.519
1250.000	707.712	80.006	19.994	103.228	20.224	0.824	0.510
1250.500	707.976	80.006	19.996	103.228	20.223	0.885	0.512
1251.000	708.264	80.004	19.995	103.225	20.227	0.624	0.534
1251.500	708.465	80.006	19.995	103.225	20.223	0.885	0.520
1252.000	708.750	80.007	19.995	103.230	20.224	0.856	0.487
1252.500	708.990	80.006	19.994	103.231	20.223	0.876	0.505
1253.000	709.258	80.005	19.995	103.234	20.221	1.032	0.516
1253.500	709.494	80.007	19.994	103.234	20.223	0.930	0.506
1254.000	709.793	80.005	19.994	103.228	20.221	1.021	0.520
1254.500	709.994	80.006	19.995	103.223	20.223	0.900	0.518
1255.000	710.294	80.005	19.994	103.221	20.221	1.035	0.500
1255.500	710.570	80.006	19.995	103.220	20.221	1.039	0.538
1256.000	710.824	80.004	19.994	103.220	20.224	0.861	0.553
1256.500	711.062	80.006	19.994	103.221	20.223	0.878	0.511
1257.000	711.329	80.005	19.995	103.225	20.223	0.913	0.498
1257.500	711.588	80.005	19.995	103.233	20.224	0.802	0.515
1258.000	711.825	80.005	19.994	103.240	20.222	0.963	0.511
1258.500	712.082	80.007	19.995	103.246	20.225	0.756	0.495
1259.000	712.353	80.005	19.995	103.248	20.220	1.080	0.511
1259.501	712.631	80.005	19.995	103.245	20.224	0.811	0.539
1260.000	712.875	80.006	19.994	103.238	20.222	0.995	0.535
1260.500	713.148	80.006	19.994	103.231	20.222	0.945	0.520
1261.000	713.385	80.005	19.994	103.227	20.218	1.228	0.514
1261.500	713.623	80.005	19.994	103.227	20.222	0.975	0.492
1262.000	713.918	80.005	19.994	103.226	20.224	0.858	0.504
1262.500	714.137	80.005	19.995	103.230	20.225	0.797	0.524
1263.000	714.420	80.007	19.994	103.231	20.223	0.908	0.508
1263.500	714.624	80.003	19.995	103.231	20.222	0.997	0.494
1264.000	714.921	80.005	19.994	103.230	20.224	0.861	0.494
1264.500	715.168	80.005	19.995	103.231	20.222	0.987	0.522
1265.000	715.447	80.005	19.996	103.229	20.222	0.939	0.534
1265.500	715.676	80.005	19.993	103.230	20.224	0.847	0.517
1266.000	715.929	80.005	19.994	103.231	20.223	0.902	0.495
1266.500	716.152	80.005	19.995	103.229	20.223	0.898	0.479
1267.000	716.420	80.007	19.994	103.227	20.225	0.789	0.484
1267.500	716.705	80.007	19.995	103.230	20.222	0.950	0.522
1268.000	716.941	80.006	19.995	103.228	20.227	0.628	0.537
1268.500	717.207	80.007	19.994	103.226	20.222	0.954	0.512
1269.000	717.416	80.007	19.995	103.226	20.226	0.713	0.489
1269.501	717.689	80.006	19.994	103.226	20.225	0.750	0.478
1270.000	717.911	80.007	19.995	103.225	20.226	0.708	0.489
1270.500	718.214	80.008	19.996	103.231	20.224	0.850	0.510
1271.000	718.439	80.006	19.995	103.237	20.226	0.700	0.527
1271.500	718.702	80.006	19.993	103.241	20.226	0.685	0.508
1272.000	718.959	80.009	19.994	103.248	20.227	0.602	0.504
1272.500	719.191	80.007	19.995	103.251	20.227	0.626	0.504
1273.000	719.413	80.006	19.994	103.251	20.227	0.632	0.471
1273.500	719.679	80.007	19.995	103.251	20.225	0.778	0.471
1274.001	719.935	80.009	19.994	103.253	20.225	0.787	0.505
1274.500	720.185	80.008	19.995	103.253	20.220	1.104	0.514
1275.000	720.409	80.008	19.995	103.250	20.223	0.878	0.490
1275.500	720.705	80.009	19.994	103.244	20.221	1.006	0.497
1276.000	720.917	80.008	19.994	103.239	20.224	0.819	0.513
1276.500	721.161	80.007	19.995	103.238	20.221	1.039	0.482
1277.001	721.423	80.009	19.994	103.233	20.225	0.793	0.481
1277.501	721.722	80.007	19.994	103.230	20.227	0.656	0.534
1278.000	721.896	80.008	19.995	103.229	20.226	0.687	0.517
1278.501	722.179	80.008	19.995	103.226	20.226	0.704	0.465
1279.001	722.431	80.008	19.994	103.221	20.226	0.696	0.496
1279.500	722.654	80.007	19.994	103.220	20.226	0.713	0.505
1280.000	722.931	80.008	19.995	103.224	20.228	0.558	0.488
1280.500	723.167	80.009	19.994	103.232	20.227	0.596	0.506
1281.000	723.378	80.008	19.994	103.238	20.223	0.909	0.480
1281.500	723.653	80.007	19.994	103.239	20.227	0.613	0.467
1282.000	723.913	80.007	19.994	103.238	20.225	0.772	0.511
1282.500	724.175	80.008	19.995	103.232	20.225	0.759	0.529
1283.000	724.365	80.006	19.995	103.226	20.227	0.624	0.487
1283.500	724.637	80.007	19.995	103.226	20.226	0.695	0.457
1284.000	724.883	80.007	19.994	103.232	20.226	0.728	0.490
1284.500	725.122	80.008	19.994	103.239	20.227	0.604	0.502
1285.000	725.417	80.008	19.995	103.243	20.227	0.615	0.510
1285.500	725.678	80.008	19.994	103.242	20.227	0.646	0.544
1286.000	725.882	80.006	19.995	103.235	20.224	0.828	0.510
1286.500	726.144	80.007	19.994	103.228	20.226	0.667	0.466
1287.000	726.368	80.007	19.995	103.226	20.227	0.615	0.476
1287.500	726.631	80.007	19.995	103.224	20.223	0.878	0.486
1288.000	726.888	80.006	19.995	103.226	20.223	0.869	0.504
1288.500	727.100	80.008	19.994	103.228	20.227	0.643	0.495
1289.000	727.335	80.007	19.995	103.230	20.226	0.689	0.457
1289.500	727.601	80.007	19.995	103.230	20.227	0.641	0.474
1290.000	727.849	80.009	19.994	103.231	20.226	0.687	0.508
1290.500	728.147	80.007	19.995	103.234	20.226	0.684	0.530
1291.000	728.363	80.009	19.994	103.232	20.226	0.726	0.530
1291.500	728.608	80.007	19.994	103.233	20.223	0.874	0.488
1292.000	728.911	80.008	19.994	103.229	20.222	0.980	0.505
1292.500	729.118	80.007	19.994	103.229	20.222	0.947	0.529
1293.000	729.382	80.009	19.994	103.228	20.224	0.824	0.490
1293.500	729.636	80.008	19.994	103.231	20.223	0.884	0.494
1294.000	729.872	80.009	19.994	103.230	20.223	0.902	0.504
1294.501	730.148	80.006	19.994	103.236	20.222	0.969	0.501
1295.000	730.388	80.009	19.994	103.237	20.220	1.080	0.514
1295.500	730.637	80.008	19.993	103.233	20.225	0.743	0.502
1296.001	730.897	80.008	19.993	103.229	20.223	0.911	0.499
1296.500	731.188	80.009	19.994	103.226	20.222	0.965	0.530
1297.000	731.444	80.009	19.995	103.223	20.221	1.004	0.549
1297.500	731.690	80.009	19.995	103.227	20.227	0.626	0.525
1298.000	731.881	80.009	19.993	103.236	20.219	1.145	0.469
1298.500	732.141	80.010	19.995	103.241	20.221	1.019	0.444
1299.000	732.399	80.008	19.994	103.241	20.220	1.093	0.485
1299.500	732.653	80.009	19.994	103.240	20.223	0.884	0.515
1300.000	732.907	80.009	19.995	103.238	20.223	0.919	0.510
1300.500	733.160	80.009	19.994	103.237	20.224	0.841	0.507
1301.000	733.438	80.009	19.995	103.236	20.225	0.765	0.519
1301.500	733.662	80.010	19.994	103.239	20.223	0.909	0.516
1302.000	733.914	80.008	19.994	103.236	20.225	0.741	0.489
1302.500	734.202	80.009	19.994	103.233	20.222	0.950	0.508
1303.000	734.449	80.009	19.994	103.230	20.229	0.472	0.538
1303.500	734.677	80.008	19.995	103.232	20.226	0.706	0.505
1304.000	734.939	80.009	19.994	103.236	20.222	0.961	0.483
1304.500	735.202	80.009	19.994	103.244	20.224	0.815	0.508
1305.000	735.363	80.009	19.995	103.247	20.226	0.715	0.475
1305.501	735.647	80.007	19.995	103.243	20.221	1.054	0.434
1306.000	735.880	80.010	19.995	103.239	20.220	1.071	0.481
1306.500	736.129	80.009	19.994	103.235	20.223	0.924	0.499
1307.000	736.348	80.009	19.995	103.231	20.222	0.972	0.475
1307.500	736.610	80.006	19.994	103.233	20.221	1.002	0.475
1308.000	736.859	80.008	19.995	103.237	20.222	0.972	0.496
1308.500	737.094	80.006	19.994	103.236	20.219	1.150	0.498
1309.000	737.363	80.007	19.994	103.234	20.222	0.987	0.494
1309.500	737.633	80.007	19.994	103.232	20.223	0.924	0.522
1310.000	737.854	80.005	19.995	103.231	20.221	1.015	0.515
1310.500	738.108	80.006	19.995	103.231	20.222	0.945	0.483
1311.000	738.381	80.007	19.994	103.232	20.223	0.926	0.501
1311.500	738.630	80.007	19.995	103.232	20.224	0.830	0.525
1312.000	738.858	80.006	19.995	103.230	20.219	1.195	0.500
1312.500	739.139	80.006	19.995	103.225	20.221	1.004	0.493
1313.000	739.371	80.006	19.995	103.224	20.222	0.987	0.511
1313.500	739.627	80.005	19.995	103.229	20.224	0.804	0.501
1314.001	739.879	80.005	19.995	103.232	20.222	0.934	0.498
1314.501	740.123	80.007	19.995	103.234	20.227	0.626	0.502
1315.000	740.410	80.007	19.995	103.235	20.227	0.659	0.513
1315.500	740.642	80.006	19.994	103.235	20.224	0.798	0.525
1316.000	740.884	80.006	19.994	103.231	20.227	0.661	0.497
1316.500	741.120	80.005	19.996	103.228	20.228	0.576	0.476
1317.000	741.377	80.004	19.995	103.227	20.230	0.430	0.485
1317.500	741.688	80.005	19.996	103.226	20.227	0.647	0.530
1318.000	741.887	80.004	19.995	103.228	20.228	0.561	0.539
1318.500	742.143	80.006	19.994	103.229	20.223	0.886	0.483
1319.000	742.392	80.006	19.994	103.229	20.226	0.671	0.480
1319.501	742.662	80.006	19.995	103.231	20.227	0.626	0.512
1320.001	742.908	80.007	19.994	103.235	20.226	0.715	0.517
1320.500	743.153	80.003	19.995	103.233	20.225	0.797	0.503
1321.000	743.369	80.006	19.995	103.230	20.226	0.663	0.476
1321.500	743.621	80.006	19.994	103.231	20.223	0.878	0.465
