Sample ID:	C:\MCC\MCC Cal\Test\Window_Screen_MCC_30K_min_211203_R3.txt
Sample Weight (mg):	4.33
Heating Rate (C/s):	0.5
Combustor Temp (C):	900
N2 Flow Rate (cc/min):	80
O2 Flow Rate (cc/min):	20
Calibration File:	C:\MCC\MCC Cal\Coeff1 JN10440_30_210304.txt.txt
T Correction Coefficients:	0	1.024463	0
Time Shift (s):	14
*
Time (s)	Temperature (C)	N2 flow rate (cc/min)	O2 flow rate (cc/min)	Flow Rate (cc/min)	Oxygen (%)	HRR (W/g)	Heating rate (C/s)
0.000	110.658	80.007	19.994	103.144	20.307	0.265	-0.034
0.500	110.691	80.005	19.995	103.143	20.308	0.181	-0.017
1.000	110.696	80.006	19.994	103.143	20.305	0.431	0.022
1.500	110.697	80.005	19.994	103.144	20.307	0.238	0.022
2.000	110.717	80.004	19.993	103.144	20.304	0.468	0.013
2.500	110.712	80.004	19.994	103.141	20.308	0.195	0.018
3.000	110.713	80.005	19.993	103.141	20.308	0.230	0.006
3.500	110.687	80.005	19.994	103.141	20.308	0.168	-0.015
4.000	110.683	80.005	19.996	103.141	20.306	0.349	-0.028
4.500	110.687	80.005	19.995	103.142	20.309	0.111	-0.014
5.000	110.672	80.005	19.994	103.142	20.312	-0.074	-0.005
5.500	110.653	80.005	19.994	103.141	20.311	-0.055	-0.023
6.000	110.630	80.005	19.995	103.141	20.311	-0.004	-0.038
6.500	110.669	80.005	19.993	103.140	20.312	-0.111	-0.013
7.000	110.621	80.004	19.995	103.140	20.312	-0.131	0.004
7.500	110.675	80.007	19.993	103.140	20.313	-0.142	-0.001
8.000	110.685	80.006	19.993	103.142	20.313	-0.170	0.035
8.500	110.642	80.004	19.992	103.142	20.313	-0.181	0.015
9.000	110.635	80.003	19.992	103.143	20.312	-0.113	-0.041
9.500	110.661	80.006	19.994	103.145	20.313	-0.172	-0.016
10.001	110.619	80.005	19.993	103.145	20.311	-0.018	0.001
10.501	110.631	80.008	19.994	103.146	20.312	-0.066	-0.023
11.001	110.634	80.006	19.994	103.147	20.317	-0.462	-0.007
11.501	110.628	80.004	19.993	103.148	20.314	-0.236	0.006
12.000	110.642	80.006	19.993	103.154	20.316	-0.361	0.002
12.500	110.607	80.005	19.994	103.162	20.313	-0.183	-0.006
13.001	110.596	80.007	19.994	103.168	20.314	-0.273	-0.034
13.501	110.584	80.004	19.994	103.174	20.314	-0.242	-0.034
14.001	110.599	80.004	19.994	103.177	20.316	-0.425	-0.010
14.501	110.566	80.006	19.993	103.173	20.313	-0.160	-0.008
15.001	110.573	80.006	19.992	103.169	20.312	-0.123	-0.022
15.501	110.577	80.004	19.992	103.167	20.313	-0.191	-0.007
16.001	110.587	80.005	19.994	103.167	20.312	-0.119	0.013
16.500	110.631	80.004	19.995	103.165	20.313	-0.189	0.034
17.000	110.615	80.004	19.996	103.168	20.312	-0.099	0.040
17.500	110.575	80.004	19.994	103.169	20.313	-0.166	-0.014
18.000	110.621	80.005	19.995	103.167	20.315	-0.294	-0.024
18.500	110.631	80.005	19.994	103.165	20.314	-0.218	0.031
19.000	110.647	80.005	19.995	103.167	20.312	-0.103	0.040
19.500	110.642	80.003	19.993	103.169	20.314	-0.226	0.018
20.001	110.635	80.004	19.994	103.171	20.310	0.072	-0.000
20.501	110.649	80.005	19.994	103.174	20.315	-0.287	-0.003
21.000	110.683	80.005	19.994	103.177	20.312	-0.115	0.028
21.501	110.660	80.002	19.993	103.179	20.310	0.074	0.030
22.001	110.688	80.003	19.994	103.179	20.308	0.228	0.008
22.501	110.657	80.004	19.996	103.178	20.311	0.002	0.001
23.001	110.668	80.004	19.995	103.176	20.309	0.162	-0.011
23.500	110.701	80.005	19.995	103.170	20.311	-0.057	0.012
24.000	110.688	80.004	19.993	103.164	20.309	0.111	0.032
24.500	110.701	80.005	19.994	103.161	20.309	0.105	0.010
25.000	110.749	80.004	19.997	103.161	20.313	-0.150	0.030
25.500	110.742	80.005	19.996	103.162	20.309	0.115	0.051
26.000	110.763	80.005	19.995	103.167	20.309	0.144	0.027
26.500	110.784	80.006	19.995	103.178	20.310	0.080	0.028
27.001	110.790	80.004	19.995	103.186	20.312	-0.066	0.035
27.502	110.789	80.006	19.996	103.192	20.311	-0.031	0.016
28.000	110.829	80.005	19.997	103.200	20.311	0.010	0.022
28.500	110.824	80.005	19.997	103.208	20.307	0.249	0.037
29.000	110.825	80.006	19.996	103.216	20.306	0.353	0.016
29.500	110.800	80.006	19.996	103.225	20.306	0.337	-0.013
30.000	110.806	80.005	19.994	103.233	20.307	0.296	-0.022
30.500	110.804	80.005	19.995	103.238	20.303	0.590	-0.008
31.000	110.849	80.007	19.995	103.242	20.306	0.359	0.024
31.500	110.870	80.005	19.996	103.239	20.304	0.468	0.055
32.001	110.881	80.007	19.994	103.231	20.304	0.511	0.049
32.501	110.864	80.006	19.994	103.226	20.303	0.536	0.012
33.001	110.918	80.006	19.995	103.222	20.304	0.505	0.016
33.501	110.908	80.006	19.996	103.220	20.305	0.456	0.041
34.001	110.941	80.006	19.995	103.227	20.298	0.947	0.034
34.501	111.001	80.005	19.996	103.236	20.299	0.854	0.058
35.001	110.972	80.006	19.993	103.237	20.297	0.984	0.062
35.501	110.998	80.006	19.996	103.245	20.299	0.869	0.014
36.000	111.051	80.006	19.995	103.249	20.296	1.081	0.038
36.500	111.074	80.006	19.994	103.251	20.295	1.155	0.077
37.000	111.055	80.007	19.995	103.252	20.295	1.134	0.040
37.500	111.141	80.005	19.995	103.257	20.294	1.225	0.035
38.001	111.186	80.005	19.994	103.258	20.294	1.255	0.100
38.501	111.209	80.007	19.995	103.258	20.296	1.058	0.100
39.001	111.225	80.005	19.994	103.258	20.291	1.465	0.053
39.500	111.279	80.006	19.994	103.257	20.292	1.404	0.054
40.001	111.314	80.006	19.994	103.261	20.293	1.295	0.080
40.501	111.344	80.006	19.994	103.265	20.293	1.352	0.077
41.000	111.400	80.006	19.994	103.265	20.293	1.330	0.075
41.500	111.456	80.005	19.994	103.265	20.292	1.394	0.099
42.000	111.468	80.007	19.995	103.268	20.292	1.381	0.090
42.500	111.505	80.006	19.994	103.263	20.289	1.585	0.059
43.000	111.531	80.006	19.994	103.258	20.291	1.498	0.056
43.500	111.574	80.006	19.995	103.256	20.289	1.626	0.066
44.000	111.608	80.005	19.997	103.255	20.289	1.622	0.073
44.501	111.678	80.006	19.996	103.252	20.288	1.708	0.091
45.001	111.692	80.006	19.994	103.253	20.287	1.739	0.094
45.501	111.798	80.005	19.996	103.259	20.287	1.776	0.102
46.001	111.796	80.004	19.995	103.266	20.285	1.938	0.112
46.501	111.849	80.005	19.994	103.274	20.288	1.727	0.078
47.000	111.935	80.007	19.994	103.279	20.288	1.673	0.095
47.500	111.948	80.005	19.995	103.285	20.287	1.757	0.118
48.000	111.989	80.005	19.994	103.289	20.286	1.817	0.076
48.500	112.057	80.006	19.994	103.291	20.285	1.922	0.082
49.000	112.090	80.006	19.994	103.296	20.281	2.175	0.105
49.500	112.163	80.005	19.995	103.306	20.285	1.943	0.103
50.000	112.200	80.005	19.995	103.314	20.285	1.924	0.107
50.500	112.280	80.004	19.995	103.322	20.285	1.908	0.113
51.001	112.287	80.005	19.995	103.328	20.287	1.737	0.103
51.501	112.387	80.006	19.995	103.332	20.283	2.064	0.097
52.000	112.463	80.005	19.995	103.332	20.287	1.731	0.141
52.500	112.524	80.005	19.996	103.332	20.286	1.836	0.157
53.000	112.600	80.006	19.993	103.333	20.283	2.054	0.137
53.500	112.621	80.006	19.995	103.333	20.285	1.879	0.117
54.000	112.699	80.004	19.995	103.333	20.285	1.940	0.098
54.500	112.775	80.006	19.995	103.333	20.284	1.996	0.127
55.000	112.817	80.005	19.996	103.334	20.284	1.998	0.136
55.500	112.905	80.005	19.995	103.333	20.284	1.959	0.124
56.000	112.963	80.005	19.996	103.333	20.280	2.265	0.138
56.500	113.078	80.006	19.996	103.332	20.279	2.346	0.159
57.001	113.138	80.006	19.995	103.333	20.280	2.268	0.174
57.501	113.225	80.007	19.995	103.336	20.279	2.383	0.161
58.001	113.305	80.006	19.995	103.338	20.279	2.364	0.157
58.500	113.428	80.007	19.995	103.339	20.277	2.475	0.184
59.000	113.527	80.007	19.995	103.340	20.280	2.265	0.213
59.500	113.553	80.008	19.995	103.344	20.278	2.450	0.174
60.000	113.659	80.008	19.995	103.344	20.278	2.442	0.129
60.500	113.758	80.007	19.996	103.348	20.278	2.442	0.168
61.001	113.812	80.006	19.994	103.351	20.278	2.471	0.179
61.502	113.973	80.006	19.996	103.356	20.276	2.580	0.183
62.001	114.053	80.006	19.994	103.361	20.277	2.506	0.228
62.500	114.147	80.006	19.996	103.364	20.282	2.149	0.208
63.001	114.212	80.006	19.995	103.361	20.279	2.366	0.167
63.501	114.281	80.007	19.994	103.357	20.279	2.397	0.147
64.001	114.456	80.006	19.994	103.351	20.282	2.149	0.189
64.501	114.577	80.006	19.994	103.345	20.277	2.478	0.270
65.000	114.650	80.007	19.995	103.337	20.281	2.229	0.245
65.500	114.757	80.006	19.995	103.336	20.278	2.403	0.187
66.000	114.871	80.006	19.994	103.338	20.278	2.434	0.200
66.500	114.982	80.006	19.995	103.345	20.278	2.445	0.223
67.001	115.070	80.006	19.994	103.350	20.280	2.303	0.212
67.501	115.161	80.006	19.994	103.354	20.280	2.317	0.189
68.000	115.291	80.008	19.993	103.352	20.277	2.513	0.200
68.500	115.392	80.006	19.995	103.350	20.276	2.564	0.226
69.000	115.511	80.004	19.994	103.344	20.278	2.463	0.225
69.500	115.641	80.006	19.994	103.340	20.278	2.441	0.234
70.000	115.750	80.006	19.994	103.338	20.279	2.328	0.244
70.500	115.837	80.005	19.994	103.338	20.277	2.515	0.217
71.001	115.929	80.005	19.994	103.340	20.280	2.305	0.187
71.501	116.066	80.005	19.994	103.348	20.277	2.482	0.204
72.000	116.196	80.005	19.994	103.352	20.278	2.430	0.248
72.500	116.306	80.006	19.993	103.357	20.279	2.396	0.253
73.000	116.404	80.004	19.993	103.361	20.275	2.669	0.224
73.500	116.532	80.004	19.994	103.362	20.278	2.424	0.217
74.000	116.641	80.003	19.994	103.361	20.279	2.348	0.232
74.500	116.744	80.004	19.995	103.362	20.276	2.603	0.224
75.001	116.880	80.003	19.994	103.363	20.278	2.416	0.225
75.501	117.059	80.003	19.995	103.363	20.275	2.675	0.277
76.000	117.140	80.003	19.993	103.363	20.275	2.624	0.287
76.500	117.309	80.004	19.995	103.362	20.275	2.696	0.255
77.001	117.456	80.004	19.996	103.363	20.275	2.626	0.283
77.501	117.540	80.005	19.994	103.361	20.275	2.696	0.273
78.001	117.707	80.003	19.994	103.362	20.277	2.537	0.241
78.500	117.836	80.004	19.994	103.367	20.272	2.916	0.274
79.000	117.967	80.005	19.994	103.370	20.276	2.556	0.279
79.501	118.080	80.005	19.994	103.372	20.274	2.731	0.252
80.001	118.213	80.004	19.994	103.376	20.275	2.661	0.245
80.501	118.360	80.005	19.994	103.378	20.274	2.751	0.263
81.000	118.511	80.005	19.994	103.379	20.275	2.655	0.288
81.500	118.663	80.004	19.994	103.378	20.276	2.593	0.300
82.001	118.796	80.004	19.995	103.376	20.276	2.550	0.294
82.501	118.922	80.004	19.994	103.375	20.274	2.702	0.272
83.001	119.040	80.005	19.994	103.374	20.276	2.579	0.251
83.501	119.184	80.005	19.993	103.375	20.278	2.441	0.253
84.001	119.364	80.004	19.995	103.374	20.273	2.819	0.293
84.501	119.454	80.006	19.995	103.373	20.275	2.643	0.297
85.001	119.648	80.005	19.995	103.373	20.276	2.577	0.277
85.501	119.786	80.006	19.995	103.372	20.275	2.657	0.308
86.000	119.935	80.006	19.994	103.371	20.276	2.616	0.310
86.500	120.026	80.006	19.994	103.371	20.275	2.686	0.264
87.001	120.223	80.005	19.995	103.369	20.273	2.780	0.264
87.501	120.386	80.006	19.995	103.370	20.269	3.101	0.324
88.000	120.522	80.006	19.995	103.370	20.271	2.963	0.330
88.501	120.680	80.006	19.995	103.371	20.272	2.885	0.297
89.001	120.810	80.007	19.995	103.371	20.272	2.912	0.291
89.500	120.960	80.006	19.995	103.374	20.271	2.932	0.283
90.000	121.116	80.006	19.995	103.375	20.272	2.912	0.293
90.500	121.266	80.006	19.994	103.375	20.273	2.782	0.306
91.000	121.447	80.006	19.995	103.374	20.272	2.893	0.318
91.500	121.578	80.006	19.994	103.374	20.267	3.243	0.321
92.000	121.715	80.006	19.994	103.373	20.267	3.278	0.290
92.500	121.909	80.004	19.994	103.372	20.268	3.171	0.300
93.000	122.070	80.004	19.997	103.374	20.268	3.179	0.343
93.500	122.265	80.005	19.996	103.376	20.271	2.941	0.355
94.000	122.393	80.004	19.995	103.380	20.269	3.101	0.340
94.500	122.596	80.004	19.994	103.384	20.270	3.039	0.327
95.001	122.740	80.005	19.995	103.388	20.271	2.994	0.339
95.501	122.912	80.006	19.996	103.392	20.270	3.052	0.332
96.000	123.082	80.004	19.994	103.396	20.268	3.147	0.329
96.501	123.276	80.005	19.994	103.400	20.268	3.155	0.353
97.001	123.408	80.004	19.994	103.400	20.269	3.085	0.345
97.501	123.571	80.005	19.994	103.395	20.271	2.990	0.311
98.000	123.759	80.004	19.995	103.391	20.266	3.297	0.323
98.500	123.927	80.005	19.995	103.386	20.271	2.992	0.353
99.000	124.091	80.003	19.995	103.379	20.267	3.264	0.344
99.500	124.237	80.004	19.993	103.374	20.268	3.190	0.321
100.000	124.406	80.004	19.994	103.374	20.270	3.021	0.312
100.500	124.580	80.004	19.995	103.373	20.268	3.151	0.329
101.000	124.761	80.004	19.995	103.374	20.271	2.959	0.349
101.500	124.953	80.004	19.994	103.381	20.267	3.245	0.365
102.000	125.132	80.004	19.995	103.388	20.268	3.192	0.372
102.501	125.311	80.004	19.994	103.389	20.269	3.122	0.364
103.001	125.479	80.004	19.995	103.393	20.269	3.080	0.352
103.500	125.722	80.004	19.994	103.392	20.268	3.175	0.379
104.000	125.858	80.003	19.995	103.386	20.270	3.021	0.395
104.500	126.051	80.005	19.994	103.381	20.269	3.128	0.354
105.000	126.219	80.005	19.994	103.381	20.268	3.196	0.345
105.501	126.376	80.004	19.993	103.379	20.268	3.149	0.343
106.001	126.558	80.004	19.995	103.382	20.268	3.159	0.332
106.501	126.762	80.003	19.993	103.388	20.269	3.087	0.363
107.001	126.944	80.004	19.994	103.391	20.271	2.966	0.386
107.500	127.125	80.004	19.994	103.397	20.268	3.196	0.374
108.000	127.309	80.004	19.994	103.396	20.268	3.203	0.364
108.500	127.487	80.005	19.993	103.394	20.268	3.211	0.363
109.001	127.676	80.004	19.996	103.392	20.267	3.281	0.365
109.501	127.847	80.005	19.994	103.392	20.271	2.964	0.364
110.000	128.069	80.005	19.995	103.389	20.268	3.213	0.377
110.500	128.237	80.005	19.996	103.392	20.268	3.211	0.391
111.000	128.441	80.005	19.994	103.395	20.269	3.091	0.381
111.501	128.674	80.005	19.994	103.393	20.269	3.081	0.404
112.001	128.841	80.006	19.993	103.393	20.269	3.135	0.419
112.500	128.977	80.005	19.994	103.391	20.269	3.139	0.351
113.001	129.215	80.008	19.994	103.388	20.273	2.843	0.339
113.501	129.420	80.005	19.994	103.384	20.266	3.330	0.409
114.000	129.644	80.006	19.995	103.382	20.270	2.999	0.436
114.500	129.847	80.006	19.994	103.379	20.270	3.040	0.428
115.000	130.049	80.007	19.994	103.380	20.267	3.277	0.416
115.500	130.229	80.006	19.995	103.383	20.268	3.151	0.394
116.000	130.461	80.007	19.994	103.388	20.270	3.048	0.397
116.501	130.623	80.005	19.995	103.392	20.270	2.999	0.403
117.001	130.825	80.006	19.993	103.397	20.265	3.412	0.379
117.501	131.065	80.007	19.995	103.401	20.267	3.283	0.403
118.001	131.248	80.006	19.995	103.403	20.265	3.396	0.432
118.500	131.430	80.006	19.994	103.404	20.264	3.453	0.394
119.000	131.635	80.006	19.994	103.406	20.263	3.519	0.376
119.500	131.866	80.006	19.995	103.407	20.264	3.468	0.412
120.001	132.080	80.006	19.995	103.407	20.263	3.521	0.441
120.501	132.308	80.006	19.994	103.408	20.263	3.521	0.444
121.000	132.505	80.006	19.994	103.406	20.262	3.651	0.433
121.501	132.712	80.005	19.995	103.403	20.262	3.614	0.414
122.001	132.898	80.005	19.994	103.403	20.264	3.513	0.399
122.500	133.079	80.006	19.995	103.402	20.261	3.676	0.380
123.000	133.304	80.006	19.995	103.402	20.262	3.620	0.386
123.501	133.567	80.006	19.995	103.404	20.264	3.478	0.447
124.001	133.745	80.004	19.994	103.409	20.264	3.489	0.465
124.500	133.968	80.005	19.995	103.410	20.262	3.594	0.421
125.000	134.132	80.005	19.994	103.412	20.266	3.302	0.394
125.500	134.402	80.005	19.995	103.412	20.263	3.544	0.410
126.000	134.606	80.005	19.994	103.411	20.264	3.462	0.454
126.501	134.804	80.005	19.995	103.412	20.263	3.544	0.438
127.001	135.032	80.005	19.995	103.411	20.265	3.410	0.414
127.500	135.272	80.006	19.994	103.411	20.264	3.478	0.447
128.000	135.456	80.005	19.993	103.409	20.264	3.513	0.446
128.500	135.688	80.005	19.994	103.407	20.261	3.684	0.420
129.000	135.890	80.006	19.995	103.405	20.264	3.445	0.425
129.500	136.123	80.004	19.994	103.405	20.264	3.482	0.434
130.000	136.345	80.005	19.994	103.405	20.259	3.865	0.445
130.501	136.571	80.005	19.994	103.407	20.265	3.377	0.452
131.000	136.786	80.006	19.994	103.410	20.265	3.408	0.445
131.500	136.953	80.005	19.995	103.410	20.264	3.489	0.411
132.000	137.163	80.005	19.995	103.406	20.265	3.417	0.379
132.500	137.384	80.004	19.995	103.405	20.264	3.495	0.404
133.000	137.601	80.004	19.993	103.405	20.263	3.554	0.435
133.500	137.825	80.006	19.994	103.405	20.265	3.396	0.439
134.000	138.063	80.006	19.994	103.408	20.264	3.476	0.451
134.500	138.282	80.006	19.994	103.414	20.263	3.528	0.459
135.000	138.519	80.005	19.994	103.416	20.262	3.663	0.457
135.500	138.739	80.006	19.994	103.414	20.263	3.521	0.457
136.000	138.930	80.005	19.993	103.415	20.267	3.287	0.434
136.500	139.138	80.005	19.993	103.412	20.262	3.606	0.405
137.000	139.391	80.006	19.993	103.409	20.266	3.357	0.430
137.500	139.660	80.007	19.995	103.409	20.266	3.340	0.492
138.000	139.883	80.005	19.994	103.410	20.262	3.604	0.507
138.501	140.142	80.005	19.995	103.409	20.259	3.863	0.487
139.000	140.375	80.005	19.994	103.406	20.260	3.809	0.486
139.500	140.580	80.006	19.994	103.405	20.261	3.680	0.465
140.000	140.793	80.005	19.994	103.406	20.261	3.717	0.428
140.500	141.036	80.007	19.994	103.404	20.259	3.854	0.437
141.000	141.250	80.006	19.993	103.405	20.264	3.455	0.456
141.500	141.466	80.007	19.994	103.409	20.262	3.607	0.443
142.000	141.722	80.007	19.995	103.411	20.263	3.546	0.451
142.500	141.974	80.006	19.994	103.411	20.263	3.583	0.491
143.000	142.195	80.006	19.995	103.412	20.265	3.441	0.491
143.500	142.421	80.007	19.996	103.412	20.265	3.437	0.459
144.000	142.620	80.007	19.994	103.410	20.261	3.721	0.436
144.500	142.899	80.006	19.994	103.410	20.262	3.599	0.452
145.000	143.093	80.007	19.993	103.409	20.263	3.542	0.476
145.500	143.360	80.006	19.995	103.408	20.262	3.624	0.467
146.000	143.606	80.008	19.995	103.407	20.267	3.288	0.486
146.500	143.862	80.006	19.995	103.408	20.265	3.410	0.507
147.000	144.135	80.008	19.994	103.408	20.263	3.570	0.516
147.500	144.318	80.005	19.994	103.408	20.263	3.566	0.492
148.001	144.565	80.007	19.993	103.409	20.262	3.609	0.443
148.501	144.798	80.006	19.995	103.405	20.265	3.433	0.455
149.001	145.041	80.006	19.995	103.406	20.266	3.328	0.478
149.500	145.294	80.007	19.994	103.404	20.263	3.552	0.486
150.000	145.511	80.006	19.995	103.402	20.268	3.212	0.483
150.500	145.758	80.006	19.994	103.402	20.263	3.547	0.468
151.000	146.006	80.004	19.995	103.404	20.262	3.621	0.480
151.501	146.226	80.004	19.995	103.397	20.263	3.564	0.481
152.000	146.476	80.004	19.996	103.395	20.261	3.691	0.469
152.500	146.650	80.004	19.996	103.396	20.264	3.445	0.447
153.000	146.901	80.004	19.996	103.396	20.262	3.650	0.424
153.500	147.203	80.003	19.997	103.398	20.262	3.611	0.489
154.000	147.400	80.003	19.996	103.404	20.266	3.358	0.526
154.500	147.664	80.004	19.996	103.407	20.264	3.486	0.480
155.001	147.920	80.004	19.995	103.407	20.268	3.184	0.491
155.501	148.149	80.005	19.995	103.405	20.263	3.536	0.503
156.000	148.402	80.003	19.995	103.398	20.266	3.340	0.484
156.500	148.655	80.005	19.994	103.391	20.263	3.589	0.494
157.000	148.896	80.004	19.995	103.387	20.260	3.743	0.500
157.500	149.136	80.005	19.995	103.386	20.262	3.657	0.488
158.000	149.406	80.003	19.995	103.387	20.259	3.823	0.496
158.501	149.647	80.005	19.995	103.392	20.257	3.979	0.510
159.001	149.882	80.006	19.995	103.396	20.262	3.621	0.493
159.500	150.115	80.003	19.996	103.400	20.262	3.654	0.472
160.000	150.384	80.006	19.995	103.398	20.262	3.601	0.485
160.500	150.644	80.003	19.994	103.395	20.259	3.843	0.515
161.000	150.853	80.005	19.996	103.390	20.261	3.724	0.499
161.500	151.098	80.003	19.995	103.387	20.258	3.936	0.462
162.000	151.374	80.006	19.994	103.385	20.262	3.662	0.487
162.500	151.590	80.006	19.995	103.384	20.261	3.707	0.506
163.000	151.860	80.005	19.994	103.383	20.261	3.675	0.489
163.500	152.106	80.005	19.994	103.387	20.259	3.854	0.501
164.000	152.341	80.005	19.994	103.388	20.260	3.784	0.499
164.500	152.583	80.005	19.994	103.389	20.259	3.858	0.479
165.000	152.838	80.005	19.994	103.394	20.260	3.794	0.487
165.500	153.095	80.004	19.995	103.399	20.261	3.707	0.505
166.000	153.325	80.007	19.994	103.403	20.256	4.049	0.500
166.500	153.561	80.005	19.993	103.406	20.258	3.946	0.477
167.000	153.761	80.004	19.995	103.403	20.256	4.071	0.451
167.500	154.056	80.005	19.994	103.403	20.257	4.026	0.465
168.000	154.305	80.005	19.994	103.400	20.255	4.123	0.519
168.501	154.523	80.005	19.993	103.396	20.259	3.831	0.505
169.001	154.800	80.006	19.994	103.391	20.260	3.761	0.481
169.500	155.026	80.005	19.995	103.388	20.259	3.821	0.499
170.000	155.246	80.004	19.994	103.382	20.257	3.981	0.475
170.500	155.518	80.005	19.994	103.382	20.257	3.965	0.469
171.000	155.779	80.006	19.995	103.381	20.259	3.854	0.513
171.500	156.023	80.004	19.993	103.379	20.256	4.111	0.519
172.000	156.233	80.005	19.994	103.380	20.256	4.068	0.479
172.500	156.506	80.005	19.994	103.381	20.260	3.774	0.468
173.000	156.753	80.005	19.995	103.377	20.259	3.885	0.502
173.500	157.051	80.006	19.994	103.376	20.257	4.012	0.533
174.000	157.241	80.006	19.994	103.381	20.260	3.804	0.517
174.500	157.520	80.007	19.994	103.381	20.262	3.636	0.478
175.000	157.753	80.005	19.994	103.380	20.259	3.833	0.490
175.500	158.024	80.005	19.995	103.380	20.255	4.117	0.508
176.000	158.264	80.006	19.995	103.382	20.257	3.967	0.508
176.500	158.502	80.005	19.994	103.377	20.259	3.874	0.495
177.000	158.761	80.005	19.995	103.377	20.259	3.843	0.487
177.500	158.999	80.006	19.995	103.377	20.259	3.817	0.496
178.000	159.246	80.006	19.994	103.377	20.256	4.053	0.491
178.500	159.480	80.006	19.994	103.375	20.257	4.026	0.483
179.000	159.704	80.006	19.994	103.380	20.254	4.199	0.469
179.500	160.005	80.006	19.994	103.380	20.257	3.998	0.491
180.000	160.251	80.005	19.994	103.379	20.257	4.012	0.536
180.500	160.490	80.005	19.994	103.379	20.257	3.986	0.516
181.000	160.742	80.005	19.994	103.382	20.256	4.072	0.488
181.500	160.976	80.004	19.994	103.377	20.254	4.191	0.488
182.000	161.269	80.004	19.994	103.382	20.256	4.041	0.506
182.500	161.521	80.005	19.994	103.385	20.259	3.868	0.535
183.000	161.785	80.005	19.994	103.390	20.255	4.162	0.530
183.500	162.032	80.005	19.995	103.389	20.257	3.979	0.514
184.000	162.269	80.005	19.995	103.388	20.254	4.248	0.498
184.500	162.520	80.004	19.993	103.384	20.255	4.113	0.486
185.000	162.763	80.004	19.993	103.381	20.256	4.061	0.491
185.500	163.049	80.004	19.994	103.377	20.255	4.150	0.511
186.000	163.319	80.005	19.994	103.380	20.253	4.300	0.543
186.500	163.561	80.003	19.994	103.381	20.255	4.127	0.535
187.000	163.827	80.003	19.994	103.383	20.255	4.137	0.510
187.500	164.087	80.005	19.993	103.385	20.254	4.259	0.517
188.000	164.348	80.004	19.994	103.384	20.252	4.341	0.524
188.501	164.612	80.005	19.994	103.380	20.255	4.164	0.523
189.001	164.868	80.004	19.995	103.380	20.253	4.300	0.522
189.500	165.117	80.004	19.994	103.378	20.255	4.150	0.513
190.000	165.400	80.005	19.995	103.382	20.254	4.211	0.519
190.500	165.641	80.004	19.995	103.389	20.254	4.191	0.528
191.000	165.878	80.005	19.994	103.392	20.251	4.419	0.501
191.500	166.153	80.004	19.994	103.392	20.255	4.158	0.495
192.000	166.399	80.005	19.994	103.392	20.253	4.328	0.517
192.500	166.677	80.004	19.995	103.387	20.256	4.073	0.523
193.000	166.901	80.004	19.995	103.379	20.249	4.565	0.513
193.500	167.174	80.004	19.993	103.377	20.252	4.341	0.499
194.000	167.433	80.005	19.994	103.376	20.252	4.365	0.515
194.500	167.728	80.004	19.994	103.377	20.252	4.349	0.543
195.000	167.959	80.006	19.994	103.378	20.250	4.497	0.540
195.500	168.193	80.006	19.994	103.378	20.251	4.454	0.495
196.000	168.462	80.006	19.994	103.378	20.252	4.345	0.484
196.500	168.718	80.004	19.993	103.379	20.252	4.392	0.514
197.000	168.977	80.007	19.993	103.379	20.252	4.365	0.520
197.500	169.214	80.007	19.994	103.378	20.250	4.507	0.505
198.000	169.504	80.007	19.993	103.377	20.252	4.369	0.511
198.500	169.740	80.006	19.995	103.378	20.250	4.515	0.527
199.000	170.017	80.007	19.994	103.377	20.248	4.663	0.520
199.500	170.245	80.008	19.995	103.376	20.249	4.589	0.509
200.000	170.514	80.007	19.994	103.376	20.247	4.758	0.501
200.500	170.752	80.007	19.993	103.376	20.246	4.787	0.502
201.000	171.026	80.008	19.994	103.377	20.249	4.575	0.509
201.500	171.228	80.005	19.995	103.377	20.250	4.548	0.494
202.000	171.518	80.007	19.994	103.376	20.251	4.464	0.484
202.500	171.771	80.007	19.994	103.376	20.251	4.472	0.517
203.000	172.028	80.007	19.993	103.377	20.248	4.662	0.526
203.500	172.277	80.006	19.994	103.376	20.248	4.676	0.508
204.000	172.517	80.006	19.994	103.376	20.248	4.632	0.497
204.500	172.756	80.006	19.993	103.376	20.250	4.486	0.484
205.000	173.012	80.006	19.993	103.377	20.250	4.517	0.487
205.500	173.280	80.006	19.994	103.376	20.245	4.899	0.510
206.000	173.551	80.007	19.993	103.377	20.246	4.821	0.532
206.500	173.793	80.006	19.994	103.377	20.245	4.922	0.526
207.000	174.037	80.005	19.994	103.377	20.243	5.078	0.499
207.500	174.324	80.006	19.994	103.376	20.243	5.064	0.508
208.000	174.541	80.006	19.994	103.375	20.242	5.128	0.518
208.500	174.848	80.005	19.994	103.375	20.245	4.881	0.515
209.000	175.105	80.007	19.994	103.371	20.243	5.078	0.544
209.500	175.371	80.005	19.994	103.371	20.239	5.325	0.543
210.000	175.636	80.007	19.994	103.371	20.244	4.988	0.527
210.501	175.871	80.006	19.994	103.371	20.241	5.165	0.516
211.000	176.112	80.006	19.993	103.370	20.238	5.440	0.488
211.500	176.350	80.006	19.994	103.373	20.242	5.101	0.478
212.000	176.599	80.007	19.994	103.373	20.244	4.984	0.484
212.500	176.871	80.005	19.993	103.373	20.244	4.976	0.504
213.001	177.072	80.005	19.995	103.375	20.244	4.969	0.497
213.501	177.340	80.004	19.995	103.376	20.245	4.918	0.471
214.001	177.582	80.005	19.994	103.376	20.244	4.955	0.489
214.500	177.855	80.006	19.995	103.373	20.242	5.089	0.512
215.000	178.139	80.006	19.995	103.368	20.244	4.990	0.536
215.500	178.381	80.007	19.994	103.364	20.243	5.006	0.542
216.000	178.630	80.005	19.995	103.361	20.241	5.195	0.509
216.500	178.924	80.005	19.995	103.359	20.242	5.142	0.517
217.000	179.135	80.006	19.994	103.361	20.241	5.185	0.524
217.500	179.394	80.006	19.995	103.364	20.239	5.357	0.488
218.000	179.657	80.005	19.995	103.366	20.240	5.301	0.496
218.500	179.947	80.005	19.994	103.367	20.239	5.347	0.538
219.000	180.151	80.005	19.995	103.366	20.239	5.330	0.523
219.500	180.387	80.005	19.995	103.364	20.241	5.203	0.466
220.000	180.653	80.005	19.994	103.365	20.242	5.135	0.471
220.500	180.917	80.007	19.995	103.365	20.237	5.460	0.516
221.000	181.134	80.006	19.995	103.365	20.240	5.234	0.505
221.501	181.375	80.006	19.995	103.367	20.239	5.304	0.470
222.001	181.659	80.006	19.995	103.368	20.237	5.522	0.492
222.500	181.882	80.006	19.995	103.367	20.238	5.380	0.516
223.000	182.160	80.007	19.995	103.368	20.239	5.332	0.504
223.500	182.421	80.007	19.995	103.366	20.236	5.536	0.520
224.000	182.667	80.007	19.995	103.365	20.239	5.320	0.523
224.500	182.889	80.007	19.995	103.363	20.239	5.351	0.487
225.000	183.159	80.007	19.995	103.364	20.239	5.328	0.480
225.500	183.419	80.007	19.994	103.363	20.239	5.357	0.511
226.000	183.701	80.007	19.995	103.364	20.236	5.596	0.536
226.500	183.934	80.006	19.994	103.363	20.238	5.423	0.529
227.000	184.199	80.006	19.995	103.358	20.235	5.651	0.507
227.500	184.433	80.008	19.994	103.355	20.232	5.890	0.498
228.000	184.688	80.007	19.995	103.349	20.234	5.717	0.494
228.500	184.954	80.007	19.994	103.343	20.234	5.704	0.505
229.000	185.200	80.007	19.994	103.341	20.234	5.735	0.517
229.500	185.435	80.008	19.994	103.347	20.230	6.032	0.497
230.000	185.675	80.008	19.995	103.348	20.229	6.104	0.478
230.500	185.965	80.008	19.994	103.349	20.231	5.935	0.502
231.000	186.219	80.007	19.994	103.351	20.228	6.122	0.538
231.500	186.469	80.007	19.995	103.352	20.230	6.040	0.524
232.000	186.761	80.008	19.994	103.349	20.229	6.054	0.523
232.500	186.959	80.006	19.994	103.348	20.230	6.035	0.516
233.000	187.215	80.006	19.994	103.348	20.229	6.105	0.472
233.500	187.512	80.007	19.994	103.347	20.233	5.816	0.504
234.000	187.757	80.006	19.994	103.343	20.229	6.066	0.548
234.500	188.014	80.007	19.993	103.343	20.226	6.327	0.522
235.000	188.230	80.006	19.994	103.342	20.228	6.147	0.488
235.500	188.510	80.006	19.995	103.340	20.230	5.994	0.485
236.000	188.699	80.005	19.995	103.342	20.228	6.183	0.482
236.500	188.964	80.005	19.995	103.347	20.230	5.986	0.461
237.000	189.210	80.005	19.995	103.351	20.228	6.183	0.483
237.500	189.488	80.006	19.995	103.350	20.224	6.426	0.517
238.000	189.741	80.005	19.995	103.350	20.225	6.379	0.528
238.500	189.995	80.006	19.995	103.348	20.226	6.270	0.519
239.000	190.285	80.005	19.994	103.345	20.226	6.331	0.525
239.500	190.512	80.005	19.995	103.342	20.224	6.442	0.531
240.000	190.790	80.005	19.994	103.346	20.223	6.539	0.511
240.500	190.957	80.004	19.995	103.351	20.222	6.608	0.475
241.000	191.214	80.005	19.995	103.355	20.224	6.454	0.435
241.500	191.484	80.006	19.995	103.356	20.222	6.607	0.476
242.000	191.736	80.005	19.995	103.353	20.221	6.666	0.525
242.501	191.974	80.004	19.995	103.350	20.225	6.404	0.506
243.001	192.166	80.005	19.995	103.347	20.222	6.591	0.460
243.500	192.467	80.005	19.996	103.343	20.222	6.605	0.462
244.000	192.687	80.006	19.995	103.343	20.222	6.582	0.507
244.500	192.924	80.005	19.995	103.347	20.221	6.677	0.489
245.000	193.215	80.003	19.995	103.349	20.220	6.777	0.492
245.500	193.458	80.004	19.995	103.347	20.222	6.606	0.531
246.000	193.676	80.005	19.995	103.349	20.217	6.943	0.498
246.500	193.931	80.003	19.995	103.346	20.217	6.999	0.467
247.000	194.188	80.002	19.996	103.344	20.215	7.143	0.492
247.500	194.490	80.003	19.995	103.341	20.215	7.089	0.536
248.000	194.715	80.004	19.997	103.343	20.217	6.956	0.543
248.500	194.945	80.004	19.995	103.344	20.216	7.042	0.491
249.000	195.183	80.004	19.995	103.344	20.215	7.118	0.462
249.500	195.469	80.004	19.996	103.344	20.213	7.303	0.496
250.000	195.702	80.005	19.995	103.344	20.214	7.223	0.521
250.500	195.938	80.004	19.996	103.342	20.215	7.108	0.494
251.000	196.180	80.003	19.996	103.339	20.214	7.196	0.474
251.500	196.453	80.004	19.995	103.337	20.217	6.995	0.497
252.000	196.661	80.005	19.995	103.339	20.214	7.182	0.498
252.500	196.965	80.004	19.995	103.340	20.214	7.209	0.496
253.000	197.188	80.006	19.996	103.344	20.211	7.456	0.520
253.500	197.420	80.005	19.995	103.348	20.208	7.635	0.491
254.000	197.690	80.003	19.996	103.351	20.210	7.499	0.478
254.500	197.909	80.005	19.996	103.350	20.207	7.719	0.496
255.000	198.192	80.004	19.996	103.348	20.204	7.955	0.495
255.500	198.445	80.005	19.994	103.344	20.208	7.665	0.518
256.000	198.671	80.004	19.994	103.341	20.208	7.642	0.508
256.500	198.925	80.005	19.994	103.337	20.209	7.597	0.480
257.000	199.195	80.004	19.995	103.335	20.210	7.497	0.502
257.500	199.435	80.005	19.994	103.335	20.206	7.772	0.517
258.000	199.643	80.006	19.993	103.336	20.207	7.752	0.479
258.500	199.896	80.006	19.995	103.336	20.207	7.745	0.455
259.000	200.169	80.006	19.994	103.335	20.204	7.982	0.493
259.500	200.392	80.005	19.994	103.335	20.204	7.978	0.511
260.000	200.651	80.007	19.994	103.334	20.205	7.842	0.489
260.500	200.836	80.004	19.994	103.335	20.206	7.796	0.463
261.000	201.089	80.005	19.995	103.335	20.202	8.078	0.441
261.500	201.375	80.005	19.994	103.336	20.202	8.084	0.488
262.000	201.590	80.004	19.995	103.337	20.201	8.164	0.520
262.500	201.817	80.004	19.994	103.337	20.201	8.140	0.472
263.000	202.114	80.005	19.995	103.340	20.199	8.294	0.483
263.500	202.330	80.005	19.994	103.341	20.199	8.338	0.518
264.000	202.589	80.005	19.994	103.343	20.197	8.481	0.494
264.500	202.874	80.005	19.994	103.344	20.197	8.465	0.509
265.000	203.118	80.004	19.993	103.345	20.194	8.724	0.536
265.500	203.387	80.004	19.994	103.340	20.193	8.786	0.521
266.000	203.632	80.004	19.992	103.339	20.191	8.934	0.513
266.500	203.836	80.004	19.993	103.339	20.186	9.269	0.482
267.000	204.067	80.004	19.995	103.338	20.191	8.925	0.442
267.500	204.349	80.005	19.994	103.337	20.189	9.065	0.474
268.000	204.572	80.005	19.994	103.339	20.188	9.153	0.509
268.500	204.828	80.002	19.994	103.341	20.186	9.274	0.492
269.000	205.064	80.005	19.993	103.342	20.185	9.342	0.485
269.500	205.301	80.003	19.995	103.341	20.185	9.348	0.483
270.000	205.581	80.003	19.993	103.341	20.186	9.283	0.495
270.500	205.797	80.003	19.995	103.340	20.184	9.435	0.507
271.000	206.092	80.004	19.994	103.338	20.181	9.690	0.504
271.500	206.311	80.003	19.993	103.337	20.179	9.807	0.513
272.001	206.572	80.004	19.994	103.336	20.180	9.751	0.497
272.500	206.810	80.003	19.994	103.337	20.182	9.611	0.489
273.000	207.072	80.003	19.995	103.337	20.177	9.985	0.499
273.500	207.309	80.003	19.995	103.338	20.179	9.806	0.499
274.000	207.549	80.004	19.995	103.341	20.177	9.956	0.488
274.500	207.813	80.004	19.993	103.343	20.179	9.825	0.491
275.000	208.066	80.003	19.993	103.343	20.179	9.781	0.510
275.500	208.302	80.003	19.993	103.343	20.177	9.962	0.503
276.000	208.532	80.005	19.994	103.343	20.174	10.149	0.478
276.500	208.767	80.004	19.994	103.343	20.172	10.299	0.466
277.001	209.053	80.004	19.994	103.344	20.171	10.365	0.493
277.501	209.307	80.004	19.995	103.343	20.169	10.536	0.530
278.000	209.542	80.005	19.994	103.343	20.170	10.470	0.514
278.500	209.748	80.005	19.994	103.341	20.169	10.523	0.465
279.000	209.967	80.004	19.994	103.337	20.172	10.359	0.433
279.500	210.223	80.005	19.994	103.334	20.169	10.569	0.450
280.000	210.453	80.005	19.994	103.334	20.169	10.583	0.480
280.500	210.699	80.006	19.995	103.334	20.166	10.747	0.482
281.000	210.920	80.005	19.996	103.337	20.163	10.988	0.472
281.500	211.190	80.007	19.994	103.336	20.165	10.863	0.479
282.000	211.410	80.006	19.993	103.336	20.163	11.005	0.491
282.500	211.666	80.007	19.993	103.336	20.161	11.157	0.483
283.000	211.956	80.006	19.994	103.336	20.158	11.393	0.511
283.500	212.172	80.006	19.995	103.333	20.158	11.399	0.526
284.000	212.445	80.006	19.994	103.333	20.156	11.523	0.497
284.500	212.703	80.007	19.995	103.332	20.157	11.445	0.510
285.000	212.898	80.005	19.995	103.332	20.155	11.580	0.492
285.500	213.139	80.007	19.994	103.331	20.155	11.615	0.445
286.000	213.421	80.007	19.996	103.331	20.150	11.966	0.480
286.500	213.674	80.006	19.995	103.331	20.148	12.086	0.529
287.000	213.894	80.007	19.993	103.331	20.147	12.154	0.504
287.500	214.086	80.007	19.994	103.331	20.149	12.057	0.442
288.001	214.383	80.006	19.994	103.331	20.147	12.160	0.450
288.501	214.646	80.006	19.995	103.331	20.146	12.292	0.524
289.000	214.853	80.007	19.994	103.331	20.143	12.454	0.515
289.500	215.129	80.007	19.994	103.330	20.142	12.584	0.477
290.000	215.364	80.007	19.995	103.330	20.145	12.337	0.497
290.500	215.605	80.007	19.994	103.330	20.142	12.544	0.493
291.000	215.847	80.007	19.994	103.330	20.137	12.910	0.479
291.500	216.069	80.007	19.994	103.330	20.138	12.834	0.473
292.000	216.370	80.006	19.994	103.332	20.134	13.152	0.493
292.500	216.569	80.007	19.994	103.333	20.136	13.009	0.512
293.000	216.795	80.007	19.994	103.334	20.137	12.963	0.463
293.500	217.064	80.007	19.994	103.334	20.135	13.064	0.460
294.000	217.342	80.006	19.994	103.334	20.134	13.142	0.521
294.500	217.568	80.006	19.994	103.333	20.131	13.381	0.526
295.000	217.826	80.005	19.994	103.333	20.134	13.179	0.494
295.500	218.083	80.006	19.994	103.333	20.130	13.440	0.499
296.000	218.328	80.006	19.993	103.332	20.126	13.740	0.508
296.500	218.551	80.006	19.993	103.332	20.128	13.599	0.485
297.000	218.762	80.006	19.994	103.332	20.127	13.658	0.451
297.500	219.032	80.006	19.995	103.333	20.124	13.919	0.458
298.000	219.253	80.007	19.994	103.333	20.122	14.063	0.486
298.500	219.514	80.007	19.993	103.336	20.124	13.907	0.487
299.000	219.788	80.005	19.994	103.336	20.120	14.172	0.508
299.500	220.021	80.007	19.994	103.336	20.118	14.357	0.521
300.000	220.236	80.007	19.994	103.336	20.117	14.400	0.477
300.500	220.489	80.006	19.993	103.336	20.113	14.713	0.458
301.000	220.720	80.007	19.994	103.332	20.115	14.565	0.476
301.500	220.962	80.006	19.994	103.332	20.113	14.706	0.478
302.000	221.216	80.006	19.994	103.332	20.113	14.710	0.485
302.500	221.451	80.006	19.994	103.332	20.112	14.793	0.493
303.000	221.701	80.008	19.994	103.332	20.107	15.175	0.487
303.500	221.955	80.006	19.994	103.332	20.106	15.269	0.494
304.000	222.214	80.007	19.993	103.333	20.106	15.235	0.508
304.500	222.465	80.006	19.994	103.333	20.100	15.707	0.512
305.000	222.735	80.006	19.994	103.333	20.095	16.049	0.516
305.500	222.923	80.006	19.993	103.333	20.099	15.740	0.489
306.001	223.176	80.007	19.993	103.334	20.097	15.886	0.449
306.500	223.436	80.007	19.994	103.334	20.094	16.126	0.477
307.000	223.675	80.007	19.995	103.333	20.096	15.974	0.506
307.500	223.948	80.008	19.994	103.333	20.090	16.451	0.506
308.000	224.215	80.009	19.995	103.332	20.091	16.322	0.526
308.500	224.465	80.006	19.995	103.332	20.091	16.384	0.528
309.000	224.702	80.009	19.994	103.331	20.088	16.575	0.502
309.500	224.933	80.008	19.993	103.331	20.085	16.784	0.478
310.000	225.173	80.009	19.993	103.331	20.084	16.910	0.470
310.500	225.442	80.008	19.993	103.332	20.083	16.986	0.490
311.000	225.700	80.007	19.994	103.332	20.079	17.216	0.518
311.500	225.905	80.008	19.995	103.332	20.078	17.327	0.495
312.000	226.181	80.008	19.995	103.333	20.075	17.556	0.472
312.500	226.413	80.007	19.994	103.332	20.077	17.369	0.495
313.000	226.675	80.007	19.994	103.331	20.076	17.447	0.501
313.500	226.930	80.008	19.995	103.331	20.073	17.734	0.505
314.000	227.203	80.008	19.994	103.332	20.074	17.642	0.522
314.500	227.398	80.006	19.996	103.332	20.071	17.864	0.498
315.000	227.633	80.006	19.993	103.332	20.070	17.899	0.449
315.500	227.900	80.007	19.995	103.332	20.066	18.240	0.466
316.000	228.137	80.006	19.995	103.332	20.067	18.174	0.503
316.500	228.394	80.006	19.995	103.331	20.062	18.532	0.499
317.000	228.660	80.006	19.996	103.331	20.058	18.814	0.508
317.500	228.921	80.006	19.994	103.331	20.058	18.816	0.525
318.000	229.148	80.004	19.995	103.332	20.055	19.005	0.507
318.500	229.401	80.006	19.995	103.332	20.053	19.198	0.484
319.000	229.651	80.004	19.994	103.332	20.051	19.354	0.492
319.500	229.900	80.006	19.996	103.332	20.048	19.562	0.501
320.000	230.164	80.004	19.994	103.333	20.047	19.668	0.506
320.500	230.427	80.005	19.996	103.333	20.046	19.734	0.520
321.000	230.680	80.004	19.994	103.333	20.041	20.116	0.522
321.500	230.902	80.005	19.995	103.333	20.040	20.137	0.496
322.001	231.207	80.005	19.995	103.333	20.039	20.248	0.501
322.500	231.392	80.005	19.995	103.334	20.033	20.668	0.508
323.000	231.678	80.005	19.995	103.335	20.033	20.645	0.480
323.500	231.888	80.005	19.995	103.335	20.029	20.956	0.483
324.000	232.139	80.005	19.994	103.334	20.028	21.034	0.478
324.500	232.405	80.004	19.995	103.334	20.025	21.309	0.489
325.000	232.676	80.005	19.993	103.334	20.025	21.247	0.527
325.500	232.884	80.004	19.994	103.333	20.019	21.683	0.508
326.000	233.168	80.004	19.995	103.333	20.019	21.726	0.485
326.500	233.425	80.005	19.994	103.334	20.019	21.716	0.517
327.000	233.668	80.003	19.995	103.334	20.015	22.008	0.521
327.500	233.934	80.004	19.995	103.334	20.013	22.201	0.504
328.000	234.171	80.004	19.996	103.335	20.008	22.538	0.506
328.500	234.390	80.005	19.994	103.335	20.006	22.657	0.480
329.000	234.682	80.004	19.995	103.336	20.005	22.751	0.483
329.500	234.946	80.004	19.996	103.336	20.000	23.126	0.533
330.000	235.168	80.005	19.997	103.336	20.002	22.988	0.521
330.501	235.444	80.005	19.994	103.335	20.002	22.976	0.492
331.001	235.674	80.004	19.996	103.333	19.996	23.422	0.502
331.500	235.914	80.004	19.996	103.333	19.992	23.733	0.488
332.000	236.165	80.005	19.996	103.333	19.991	23.783	0.481
332.500	236.355	80.005	19.993	103.333	19.983	24.373	0.466
333.000	236.647	80.003	19.995	103.334	19.988	23.999	0.461
333.500	236.902	80.004	19.996	103.336	19.983	24.410	0.515
334.000	237.121	80.002	19.994	103.336	19.982	24.498	0.511
334.500	237.424	80.005	19.995	103.336	19.975	24.977	0.498
335.000	237.656	80.004	19.994	103.336	19.972	25.203	0.528
335.500	237.891	80.004	19.995	103.336	19.973	25.143	0.501
336.000	238.164	80.003	19.995	103.335	19.974	25.040	0.487
336.500	238.403	80.003	19.995	103.335	19.968	25.484	0.510
337.000	238.625	80.004	19.996	103.334	19.962	25.965	0.487
337.500	238.877	80.003	19.995	103.335	19.960	26.136	0.467
338.000	239.153	80.004	19.995	103.335	19.959	26.190	0.501
338.500	239.395	80.004	19.994	103.336	19.953	26.650	0.523
339.000	239.628	80.004	19.994	103.334	19.956	26.434	0.497
339.500	239.841	80.003	19.995	103.334	19.953	26.666	0.461
340.000	240.115	80.004	19.994	103.332	19.950	26.847	0.466
340.500	240.332	80.004	19.995	103.327	19.945	27.227	0.489
341.000	240.572	80.004	19.995	103.326	19.941	27.506	0.474
341.500	240.812	80.003	19.995	103.327	19.936	27.911	0.468
342.000	241.110	80.004	19.995	103.327	19.934	28.034	0.509
342.500	241.332	80.002	19.995	103.329	19.931	28.299	0.529
343.000	241.606	80.003	19.995	103.333	19.924	28.796	0.508
343.500	241.864	80.004	19.995	103.334	19.924	28.825	0.514
344.000	242.073	80.004	19.995	103.333	19.921	29.022	0.500
344.500	242.353	80.004	19.995	103.332	19.924	28.814	0.478
345.000	242.612	80.003	19.995	103.332	19.917	29.338	0.514
345.500	242.871	80.003	19.996	103.330	19.915	29.474	0.528
346.000	243.098	80.003	19.995	103.330	19.908	29.980	0.502
346.500	243.342	80.003	19.995	103.330	19.906	30.159	0.479
347.000	243.587	80.003	19.996	103.330	19.902	30.404	0.480
347.500	243.853	80.004	19.995	103.330	19.897	30.811	0.500
348.000	244.109	80.003	19.996	103.331	19.896	30.872	0.517
348.500	244.383	80.004	19.994	103.331	19.895	30.985	0.526
349.000	244.600	80.003	19.996	103.331	19.891	31.246	0.510
349.500	244.846	80.002	19.995	103.331	19.886	31.637	0.477
350.001	245.145	80.003	19.995	103.331	19.883	31.818	0.504
350.500	245.343	80.004	19.995	103.330	19.883	31.816	0.522
351.000	245.570	80.004	19.994	103.329	19.879	32.126	0.461
351.500	245.861	80.004	19.996	103.329	19.875	32.410	0.471
352.000	246.106	80.004	19.996	103.329	19.873	32.568	0.527
352.500	246.370	80.004	19.994	103.329	19.870	32.817	0.523
353.000	246.611	80.004	19.995	103.325	19.864	33.256	0.507
353.500	246.847	80.004	19.995	103.325	19.863	33.308	0.491
354.000	247.126	80.004	19.995	103.324	19.857	33.785	0.497
354.500	247.332	80.004	19.994	103.325	19.856	33.833	0.500
355.000	247.587	80.004	19.995	103.325	19.852	34.144	0.473
355.501	247.851	80.005	19.994	103.329	19.851	34.232	0.490
356.001	248.082	80.006	19.995	103.330	19.846	34.629	0.507
356.500	248.300	80.005	19.995	103.332	19.842	34.916	0.472
357.000	248.582	80.005	19.996	103.332	19.842	34.884	0.475
357.500	248.827	80.004	19.995	103.333	19.838	35.209	0.513
358.000	249.083	80.005	19.994	103.333	19.834	35.519	0.514
358.500	249.350	80.006	19.994	103.333	19.833	35.572	0.512
359.000	249.620	80.004	19.993	103.333	19.826	36.051	0.530
359.500	249.837	80.004	19.993	103.332	19.823	36.284	0.512
360.000	250.101	80.005	19.994	103.332	19.821	36.485	0.484
360.501	250.350	80.005	19.994	103.332	19.816	36.855	0.497
361.000	250.619	80.005	19.994	103.333	19.814	36.999	0.515
361.500	250.835	80.005	19.995	103.333	19.808	37.403	0.501
362.000	251.118	80.005	19.994	103.333	19.803	37.786	0.492
362.500	251.373	80.005	19.994	103.333	19.801	37.952	0.518
363.000	251.683	80.004	19.994	103.333	19.794	38.451	0.551
363.500	251.882	80.004	19.994	103.333	19.791	38.675	0.537
364.000	252.146	80.005	19.994	103.332	19.791	38.657	0.486
364.500	252.392	80.005	19.994	103.332	19.785	39.146	0.487
365.000	252.649	80.006	19.994	103.332	19.782	39.374	0.506
365.500	252.916	80.005	19.995	103.330	19.781	39.457	0.514
366.000	253.160	80.006	19.994	103.330	19.774	39.967	0.517
366.500	253.394	80.006	19.995	103.330	19.770	40.277	0.495
367.001	253.642	80.006	19.995	103.330	19.766	40.532	0.480
367.501	253.883	80.006	19.995	103.330	19.763	40.748	0.485
368.000	254.150	80.007	19.995	103.332	19.756	41.287	0.498
368.500	254.418	80.006	19.995	103.331	19.758	41.163	0.521
369.000	254.634	80.007	19.994	103.331	19.749	41.852	0.510
369.500	254.892	80.007	19.996	103.331	19.749	41.801	0.479
370.000	255.161	80.007	19.994	103.331	19.742	42.341	0.500
370.500	255.435	80.007	19.994	103.331	19.738	42.605	0.535
371.000	255.672	80.007	19.995	103.331	19.735	42.837	0.527
371.501	255.918	80.006	19.994	103.331	19.733	43.019	0.497
372.001	256.175	80.006	19.995	103.331	19.730	43.219	0.493
372.500	256.406	80.006	19.994	103.330	19.730	43.227	0.495
373.000	256.688	80.007	19.994	103.330	19.723	43.731	0.501
373.500	256.926	80.005	19.994	103.330	19.721	43.879	0.517
374.000	257.227	80.006	19.994	103.328	19.718	44.095	0.530
374.500	257.450	80.005	19.995	103.328	19.712	44.603	0.531
375.000	257.676	80.006	19.995	103.329	19.710	44.727	0.486
375.500	257.896	80.005	19.996	103.328	19.707	44.969	0.447
376.000	258.153	80.006	19.995	103.328	19.703	45.278	0.461
376.500	258.428	80.006	19.995	103.330	19.697	45.682	0.505
377.000	258.670	80.005	19.995	103.330	19.692	46.046	0.525
377.501	258.971	80.006	19.995	103.332	19.690	46.232	0.530
378.001	259.192	80.004	19.995	103.332	19.683	46.716	0.533
378.500	259.464	80.004	19.995	103.332	19.681	46.858	0.507
379.000	259.719	80.006	19.994	103.332	19.675	47.310	0.510
379.501	259.980	80.004	19.994	103.332	19.673	47.462	0.521
380.000	260.161	80.005	19.994	103.333	19.670	47.684	0.479
380.500	260.440	80.006	19.994	103.333	19.668	47.847	0.451
381.000	260.680	80.004	19.995	103.333	19.658	48.645	0.489
381.500	260.942	80.005	19.994	103.328	19.657	48.681	0.510
382.000	261.172	80.005	19.994	103.328	19.653	48.989	0.497
382.500	261.451	80.005	19.994	103.327	19.650	49.253	0.501
383.000	261.674	80.005	19.993	103.327	19.645	49.547	0.506
383.500	261.925	80.005	19.995	103.327	19.639	50.001	0.488
384.000	262.157	80.004	19.994	103.332	19.638	50.111	0.478
384.500	262.433	80.006	19.994	103.333	19.635	50.318	0.496
385.000	262.683	80.006	19.994	103.334	19.630	50.700	0.517
385.500	262.956	80.005	19.995	103.335	19.627	50.914	0.524
386.000	263.185	80.006	19.994	103.335	19.623	51.169	0.512
386.500	263.480	80.006	19.994	103.335	19.619	51.512	0.513
387.000	263.699	80.006	19.993	103.335	19.613	51.962	0.519
387.500	264.023	80.007	19.995	103.335	19.613	51.941	0.529
388.000	264.249	80.006	19.994	103.339	19.609	52.261	0.546
388.500	264.508	80.007	19.994	103.328	19.606	52.448	0.517
389.001	264.732	80.006	19.993	103.307	19.602	52.781	0.484
389.500	264.990	80.007	19.994	103.293	19.595	53.276	0.483
390.000	265.233	80.007	19.993	103.285	19.590	53.628	0.491
390.500	265.490	80.006	19.994	103.275	19.588	53.840	0.501
391.000	265.752	80.008	19.994	103.285	19.587	53.909	0.510
391.500	265.940	80.007	19.994	103.331	19.583	54.219	0.485
392.000	266.221	80.006	19.994	103.363	19.579	54.517	0.459
392.500	266.458	80.006	19.994	103.377	19.571	55.047	0.493
393.000	266.680	80.007	19.995	103.386	19.572	54.997	0.489
393.500	266.969	80.006	19.994	103.387	19.567	55.382	0.486
394.000	267.210	80.008	19.993	103.361	19.563	55.696	0.521
394.500	267.493	80.007	19.994	103.344	19.558	56.026	0.527
395.001	267.684	80.007	19.993	103.338	19.555	56.303	0.498
395.501	267.974	80.008	19.993	103.335	19.553	56.450	0.477
396.001	268.196	80.007	19.995	103.334	19.546	56.961	0.497
396.500	268.433	80.007	19.993	103.332	19.544	57.084	0.486
397.001	268.679	80.007	19.994	103.331	19.538	57.499	0.471
397.501	268.940	80.008	19.994	103.331	19.538	57.542	0.495
398.000	269.202	80.007	19.993	103.331	19.534	57.826	0.515
398.500	269.415	80.006	19.994	103.331	19.532	57.956	0.499
399.000	269.704	80.008	19.994	103.334	19.529	58.234	0.489
399.500	269.965	80.007	19.993	103.333	19.524	58.552	0.526
400.000	270.207	80.006	19.994	103.333	19.521	58.811	0.526
400.501	270.446	80.007	19.994	103.333	19.521	58.819	0.492
401.000	270.732	80.006	19.994	103.334	19.516	59.152	0.503
401.500	270.975	80.007	19.994	103.334	19.513	59.365	0.527
402.000	271.246	80.004	19.994	103.335	19.511	59.509	0.521
402.500	271.533	80.005	19.994	103.335	19.512	59.447	0.536
403.000	271.749	80.004	19.993	103.335	19.508	59.744	0.530
403.501	271.968	80.004	19.993	103.334	19.508	59.745	0.469
404.001	272.244	80.004	19.994	103.334	19.506	59.934	0.465
404.500	272.519	80.004	19.994	103.334	19.502	60.246	0.523
405.000	272.762	80.003	19.993	103.335	19.497	60.600	0.534
405.500	272.988	80.005	19.995	103.336	19.499	60.418	0.493
406.000	273.216	80.004	19.994	103.339	19.497	60.595	0.461
406.500	273.462	80.004	19.993	103.340	19.497	60.584	0.464
407.000	273.720	80.004	19.996	103.339	19.497	60.580	0.489
407.500	273.983	80.004	19.995	103.339	19.493	60.858	0.513
408.000	274.221	80.004	19.994	103.339	19.497	60.601	0.511
408.500	274.462	80.003	19.995	103.337	19.493	60.852	0.490
409.000	274.761	80.004	19.995	103.336	19.494	60.822	0.509
409.500	274.987	80.004	19.994	103.336	19.496	60.665	0.533
410.000	275.188	80.004	19.994	103.336	19.491	61.029	0.477
410.500	275.466	80.004	19.995	103.336	19.492	60.970	0.453
411.000	275.717	80.004	19.995	103.335	19.490	61.105	0.504
411.500	275.916	80.005	19.994	103.335	19.490	61.113	0.490
412.000	276.218	80.004	19.996	103.332	19.490	61.105	0.475
412.500	276.450	80.005	19.994	103.331	19.487	61.321	0.517
413.000	276.675	80.005	19.996	103.330	19.486	61.428	0.496
413.500	276.929	80.005	19.995	103.330	19.490	61.124	0.469
414.000	277.177	80.005	19.995	103.332	19.489	61.173	0.490
414.500	277.438	80.004	19.995	103.333	19.490	61.102	0.505
415.000	277.688	80.004	19.995	103.333	19.489	61.180	0.510
415.500	277.910	80.003	19.993	103.333	19.486	61.430	0.492
416.000	278.158	80.004	19.995	103.333	19.486	61.430	0.470
416.500	278.433	80.004	19.994	103.332	19.488	61.275	0.496
417.001	278.662	80.005	19.995	103.332	19.486	61.452	0.514
417.501	278.928	80.005	19.995	103.331	19.485	61.483	0.500
418.000	279.155	80.004	19.994	103.331	19.490	61.127	0.494
418.500	279.392	80.004	19.994	103.331	19.490	61.162	0.478
419.000	279.643	80.004	19.995	103.331	19.488	61.280	0.476
419.500	279.890	80.005	19.995	103.332	19.488	61.271	0.493
420.001	280.118	80.004	19.995	103.333	19.486	61.400	0.487
420.500	280.379	80.004	19.994	103.333	19.488	61.292	0.483
421.000	280.669	80.004	19.995	103.333	19.486	61.398	0.520
421.500	280.871	80.005	19.995	103.333	19.487	61.382	0.521
422.000	281.153	80.005	19.994	103.336	19.490	61.114	0.488
422.500	281.375	80.004	19.994	103.336	19.488	61.280	0.494
423.000	281.635	80.003	19.995	103.338	19.490	61.162	0.493
423.500	281.893	80.004	19.995	103.344	19.486	61.474	0.500
424.000	282.075	80.004	19.993	103.349	19.488	61.268	0.479
424.500	282.369	80.004	19.994	103.350	19.490	61.136	0.458
425.000	282.596	80.004	19.995	103.357	19.488	61.331	0.499
425.500	282.877	80.003	19.995	103.362	19.490	61.164	0.514
426.000	283.130	80.006	19.995	103.364	19.487	61.400	0.521
426.500	283.365	80.004	19.993	103.367	19.487	61.338	0.511
427.000	283.587	80.005	19.994	103.371	19.490	61.180	0.473
427.500	283.846	80.004	19.995	103.372	19.491	61.060	0.469
428.001	284.088	80.005	19.995	103.373	19.491	61.060	0.491
428.501	284.338	80.004	19.994	103.373	19.489	61.181	0.497
429.000	284.580	80.005	19.995	103.373	19.494	60.812	0.492
429.500	284.820	80.004	19.994	103.373	19.494	60.846	0.487
430.000	285.099	80.005	19.996	103.374	19.496	60.717	0.501
430.500	285.345	80.003	19.995	103.376	19.496	60.691	0.523
431.000	285.574	80.004	19.995	103.378	19.494	60.884	0.500
431.500	285.839	80.004	19.994	103.380	19.499	60.519	0.484
432.000	286.093	80.003	19.995	103.382	19.491	61.065	0.506
432.500	286.318	80.005	19.995	103.388	19.492	60.990	0.499
433.000	286.550	80.004	19.995	103.393	19.491	61.117	0.468
433.500	286.820	80.004	19.995	103.398	19.494	60.859	0.480
434.000	287.088	80.003	19.995	103.404	19.492	61.043	0.520
434.500	287.344	80.004	19.995	103.410	19.494	60.872	0.531
435.000	287.564	80.002	19.994	103.410	19.494	60.917	0.500
435.500	287.811	80.005	19.994	103.408	19.495	60.785	0.471
436.000	288.098	80.003	19.996	103.405	19.497	60.635	0.501
436.500	288.270	80.004	19.994	103.405	19.497	60.696	0.497
437.000	288.554	80.004	19.995	103.400	19.499	60.509	0.457
437.500	288.820	80.005	19.995	103.399	19.500	60.422	0.503
438.000	289.027	80.003	19.996	103.396	19.499	60.466	0.512
438.500	289.266	80.003	19.995	103.392	19.504	60.157	0.459
439.000	289.516	80.002	19.995	103.391	19.502	60.288	0.467
439.500	289.772	80.004	19.995	103.395	19.507	59.872	0.498
440.000	289.990	80.004	19.996	103.397	19.506	59.924	0.490
440.500	290.255	80.004	19.995	103.402	19.505	60.053	0.479
441.000	290.499	80.004	19.995	103.411	19.508	59.776	0.496
441.500	290.760	80.004	19.996	103.414	19.512	59.508	0.507
442.000	291.002	80.004	19.996	103.422	19.509	59.710	0.504
442.500	291.280	80.005	19.996	103.430	19.513	59.452	0.512
443.000	291.514	80.004	19.995	103.438	19.512	59.490	0.516
443.500	291.788	80.003	19.996	103.448	19.515	59.230	0.510
444.000	292.064	80.003	19.995	103.457	19.515	59.232	0.529
444.500	292.296	80.005	19.996	103.462	19.515	59.286	0.528
445.000	292.534	80.004	19.995	103.465	19.514	59.333	0.489
445.500	292.768	80.003	19.995	103.470	19.520	58.891	0.471
446.000	293.036	80.005	19.994	103.474	19.521	58.789	0.487
446.500	293.219	80.004	19.994	103.474	19.524	58.595	0.476
447.000	293.473	80.005	19.995	103.470	19.524	58.578	0.444
447.500	293.718	80.004	19.995	103.468	19.527	58.357	0.468
448.000	293.981	80.007	19.994	103.462	19.533	57.918	0.504
448.500	294.265	80.005	19.995	103.448	19.535	57.743	0.527
449.000	294.494	80.006	19.995	103.439	19.544	57.078	0.530
449.500	294.742	80.007	19.995	103.431	19.549	56.697	0.494
450.000	295.001	80.007	19.994	103.423	19.554	56.339	0.492
450.500	295.257	80.006	19.994	103.415	19.558	55.977	0.512
451.000	295.493	80.007	19.994	103.412	19.566	55.393	0.504
451.500	295.730	80.005	19.994	103.407	19.570	55.118	0.483
452.000	295.987	80.007	19.995	103.401	19.584	54.092	0.483
452.500	296.252	80.006	19.994	103.394	19.590	53.579	0.508
453.000	296.536	80.005	19.995	103.387	19.596	53.191	0.536
453.500	296.771	80.006	19.995	103.381	19.602	52.736	0.534
454.000	297.036	80.005	19.994	103.372	19.613	51.879	0.510
454.500	297.241	80.006	19.994	103.364	19.623	51.141	0.485
455.000	297.474	80.006	19.995	103.360	19.628	50.765	0.454
455.500	297.750	80.006	19.993	103.353	19.642	49.763	0.474
456.001	298.026	80.006	19.994	103.347	19.654	48.857	0.531
456.501	298.246	80.006	19.994	103.343	19.661	48.315	0.524
457.000	298.500	80.005	19.995	103.341	19.674	47.334	0.485
457.500	298.717	80.005	19.994	103.335	19.685	46.523	0.472
458.000	299.025	80.004	19.995	103.327	19.695	45.780	0.498
458.500	299.260	80.006	19.995	103.318	19.709	44.723	0.534
459.000	299.447	80.007	19.994	103.311	19.724	43.660	0.483
459.500	299.685	80.006	19.995	103.297	19.736	42.773	0.423
460.000	299.916	80.006	19.994	103.287	19.746	41.982	0.447
460.500	300.189	80.006	19.994	103.278	19.760	40.967	0.487
461.000	300.408	80.005	19.994	103.270	19.775	39.852	0.498
461.500	300.701	80.006	19.993	103.260	19.791	38.661	0.502
462.000	300.913	80.005	19.994	103.259	19.805	37.585	0.508
462.500	301.142	80.004	19.994	103.252	19.816	36.763	0.473
463.000	301.417	80.005	19.993	103.246	19.829	35.821	0.473
463.500	301.667	80.006	19.994	103.238	19.843	34.759	0.515
464.000	301.913	80.005	19.993	103.232	19.857	33.758	0.511
464.500	302.171	80.005	19.994	103.225	19.870	32.777	0.500
465.000	302.429	80.005	19.993	103.220	19.884	31.726	0.509
465.500	302.674	80.005	19.995	103.218	19.902	30.417	0.510
466.000	302.911	80.007	19.994	103.217	19.912	29.687	0.493
466.500	303.185	80.005	19.994	103.216	19.927	28.518	0.496
467.000	303.456	80.006	19.993	103.215	19.942	27.405	0.528
467.500	303.699	80.004	19.994	103.216	19.956	26.406	0.530
468.000	303.941	80.005	19.994	103.216	19.969	25.388	0.500
468.500	304.215	80.005	19.994	103.217	19.982	24.412	0.500
469.000	304.438	80.006	19.994	103.217	19.993	23.638	0.507
469.501	304.675	80.005	19.994	103.218	20.006	22.628	0.479
470.000	304.963	80.006	19.993	103.218	20.015	21.968	0.492
470.500	305.160	80.006	19.994	103.218	20.033	20.687	0.505
471.000	305.446	80.005	19.994	103.216	20.043	19.904	0.484
471.500	305.681	80.005	19.994	103.215	20.051	19.294	0.501
472.000	305.909	80.006	19.993	103.215	20.062	18.499	0.492
472.500	306.205	80.007	19.994	103.214	20.070	17.864	0.494
473.000	306.464	80.007	19.994	103.214	20.076	17.447	0.540
473.500	306.727	80.007	19.994	103.217	20.089	16.511	0.539
474.000	306.959	80.006	19.994	103.219	20.094	16.120	0.508
474.500	307.214	80.007	19.995	103.222	20.102	15.488	0.491
475.000	307.475	80.007	19.993	103.226	20.111	14.862	0.501
475.500	307.697	80.006	19.994	103.227	20.115	14.577	0.500
476.000	307.927	80.006	19.994	103.227	20.125	13.832	0.468
476.500	308.182	80.007	19.994	103.225	20.130	13.427	0.469
477.000	308.442	80.006	19.993	103.222	20.135	13.056	0.500
477.500	308.634	80.008	19.993	103.218	20.143	12.458	0.483
478.000	308.881	80.007	19.993	103.216	20.149	12.029	0.445
478.501	309.135	80.008	19.994	103.214	20.156	11.512	0.470
479.000	309.392	80.008	19.995	103.213	20.157	11.424	0.507
479.500	309.643	80.007	19.996	103.212	20.163	10.949	0.509
480.000	309.906	80.007	19.994	103.212	20.168	10.588	0.510
480.500	310.185	80.007	19.995	103.213	20.173	10.249	0.528
481.000	310.388	80.007	19.993	103.217	20.178	9.881	0.513
481.500	310.714	80.008	19.994	103.218	20.179	9.762	0.506
482.000	310.931	80.008	19.994	103.222	20.180	9.691	0.536
482.500	311.162	80.006	19.995	103.221	20.186	9.258	0.495
483.000	311.423	80.006	19.994	103.222	20.193	8.767	0.470
483.500	311.684	80.007	19.994	103.218	20.191	8.874	0.507
484.000	311.954	80.006	19.993	103.217	20.195	8.589	0.526
484.500	312.235	80.006	19.994	103.214	20.194	8.655	0.541
485.000	312.447	80.006	19.995	103.214	20.200	8.207	0.522
485.500	312.721	80.005	19.995	103.214	20.203	7.976	0.489
486.000	312.961	80.004	19.994	103.214	20.206	7.756	0.500
486.500	313.209	80.003	19.993	103.215	20.210	7.500	0.501
487.000	313.438	80.006	19.995	103.216	20.210	7.493	0.483
487.500	313.679	80.005	19.994	103.217	20.211	7.397	0.474
488.000	313.933	80.004	19.993	103.216	20.217	6.969	0.483
488.500	314.173	80.005	19.995	103.217	20.219	6.848	0.494
489.000	314.440	80.004	19.994	103.217	20.219	6.846	0.500
489.500	314.680	80.005	19.994	103.218	20.223	6.493	0.507
490.000	314.958	80.006	19.995	103.218	20.223	6.503	0.512
490.500	315.225	80.005	19.993	103.218	20.223	6.555	0.531
491.000	315.443	80.005	19.993	103.218	20.223	6.516	0.515
491.500	315.718	80.005	19.994	103.217	20.224	6.438	0.489
492.000	315.944	80.005	19.994	103.216	20.227	6.215	0.497
492.500	316.221	80.006	19.994	103.216	20.227	6.190	0.502
493.000	316.462	80.006	19.994	103.218	20.231	5.902	0.510
493.500	316.743	80.006	19.994	103.219	20.232	5.826	0.520
494.001	317.029	80.006	19.995	103.220	20.229	6.048	0.545
494.500	317.255	80.005	19.993	103.223	20.232	5.826	0.540
495.000	317.491	80.005	19.995	103.223	20.233	5.777	0.487
495.501	317.743	80.005	19.994	103.225	20.237	5.505	0.475
496.000	317.943	80.005	19.995	103.231	20.230	6.013	0.470
496.500	318.219	80.005	19.993	103.237	20.236	5.573	0.464
497.000	318.468	80.004	19.994	103.241	20.234	5.709	0.501
497.500	318.721	80.005	19.995	103.243	20.237	5.473	0.514
498.000	318.961	80.006	19.994	103.239	20.241	5.165	0.497
498.500	319.198	80.005	19.995	103.237	20.239	5.305	0.485
499.000	319.484	80.005	19.994	103.233	20.238	5.445	0.500
499.500	319.724	80.006	19.994	103.227	20.240	5.262	0.524
500.000	319.998	80.005	19.995	103.229	20.234	5.675	0.520
500.501	320.269	80.006	19.995	103.232	20.238	5.381	0.530
501.000	320.489	80.004	19.993	103.235	20.235	5.660	0.518
501.500	320.782	80.005	19.994	103.239	20.238	5.408	0.502
502.000	321.004	80.004	19.994	103.246	20.238	5.379	0.514
502.500	321.341	80.006	19.995	103.248	20.240	5.279	0.537
503.000	321.548	80.006	19.995	103.252	20.237	5.457	0.552
503.500	321.805	80.006	19.994	103.250	20.240	5.262	0.504
504.000	322.048	80.005	19.994	103.249	20.241	5.198	0.482
504.500	322.281	80.006	19.994	103.248	20.244	4.962	0.488
505.000	322.511	80.005	19.995	103.245	20.236	5.523	0.469
505.500	322.769	80.005	19.995	103.242	20.241	5.151	0.475
506.000	323.029	80.004	19.994	103.241	20.243	5.061	0.503
506.500	323.254	80.006	19.994	103.235	20.241	5.182	0.502
507.000	323.532	80.006	19.995	103.235	20.240	5.259	0.494
507.500	323.764	80.004	19.995	103.240	20.240	5.298	0.506
508.000	324.031	80.005	19.995	103.243	20.238	5.378	0.504
508.500	324.263	80.005	19.994	103.247	20.241	5.206	0.499
509.000	324.512	80.005	19.994	103.251	20.241	5.154	0.490
509.500	324.749	80.005	19.995	103.252	20.243	5.039	0.483
510.000	325.006	80.005	19.994	103.250	20.243	5.051	0.490
510.500	325.253	80.004	19.994	103.250	20.241	5.201	0.499
511.000	325.523	80.006	19.994	103.249	20.241	5.205	0.510
511.500	325.763	80.004	19.994	103.251	20.245	4.907	0.513
512.000	326.036	80.004	19.996	103.253	20.246	4.825	0.512
512.501	326.331	80.005	19.994	103.258	20.245	4.924	0.541
513.001	326.525	80.004	19.995	103.259	20.246	4.791	0.529
513.500	326.778	80.005	19.995	103.259	20.247	4.717	0.468
514.001	327.024	80.005	19.996	103.260	20.248	4.665	0.473
514.501	327.303	80.005	19.996	103.258	20.248	4.696	0.512
515.001	327.511	80.004	19.995	103.256	20.248	4.687	0.506
515.501	327.794	80.004	19.995	103.255	20.249	4.609	0.489
516.000	328.023	80.006	19.995	103.255	20.250	4.550	0.502
516.500	328.256	80.003	19.995	103.256	20.245	4.885	0.487
517.000	328.509	80.005	19.996	103.258	20.250	4.484	0.474
517.500	328.803	80.005	19.995	103.266	20.250	4.482	0.516
518.000	329.066	80.003	19.995	103.271	20.252	4.379	0.552
518.500	329.316	80.003	19.995	103.273	20.251	4.431	0.535
519.000	329.550	80.004	19.996	103.279	20.252	4.398	0.499
519.500	329.815	80.004	19.995	103.279	20.250	4.515	0.492
520.000	330.067	80.006	19.995	103.276	20.250	4.538	0.508
520.500	330.336	80.005	19.996	103.275	20.249	4.612	0.519
521.000	330.552	80.004	19.995	103.275	20.254	4.207	0.503
521.500	330.793	80.005	19.995	103.268	20.255	4.164	0.471
522.001	331.078	80.005	19.996	103.267	20.254	4.215	0.491
522.501	331.329	80.004	19.996	103.268	20.256	4.071	0.531
523.000	331.591	80.004	19.993	103.271	20.253	4.318	0.525
523.500	331.819	80.003	19.995	103.275	20.254	4.237	0.501
524.001	332.062	80.003	19.995	103.278	20.253	4.316	0.480
524.501	332.353	80.003	19.996	103.279	20.255	4.153	0.503
525.000	332.595	80.004	19.995	103.276	20.255	4.125	0.534
525.501	332.890	80.003	19.995	103.269	20.256	4.075	0.535
526.000	333.124	80.004	19.995	103.265	20.254	4.196	0.533
526.500	333.345	80.004	19.996	103.263	20.256	4.046	0.492
527.000	333.657	80.004	19.995	103.264	20.255	4.108	0.494
527.500	333.926	80.005	19.995	103.264	20.258	3.942	0.557
528.000	334.194	80.005	19.995	103.263	20.262	3.656	0.559
528.500	334.456	80.005	19.994	103.262	20.260	3.792	0.534
529.000	334.752	80.005	19.995	103.264	20.258	3.956	0.544
529.500	334.968	80.005	19.995	103.266	20.258	3.891	0.535
530.000	335.209	80.004	19.994	103.267	20.259	3.864	0.484
530.500	335.487	80.004	19.994	103.272	20.258	3.952	0.488
531.000	335.735	80.005	19.995	103.273	20.257	4.022	0.522
531.500	336.013	80.005	19.995	103.271	20.257	3.966	0.526
532.000	336.284	80.004	19.995	103.272	20.260	3.802	0.538
532.500	336.523	80.006	19.995	103.272	20.257	4.005	0.530
533.000	336.752	80.006	19.995	103.268	20.257	4.032	0.489
533.500	337.065	80.005	19.995	103.268	20.260	3.798	0.505
534.000	337.288	80.006	19.995	103.267	20.258	3.888	0.539
534.500	337.567	80.005	19.994	103.263	20.255	4.135	0.519
535.001	337.839	80.005	19.995	103.263	20.259	3.833	0.526
535.500	338.092	80.006	19.994	103.264	20.259	3.847	0.538
536.000	338.364	80.005	19.995	103.264	20.258	3.948	0.525
536.500	338.574	80.006	19.995	103.262	20.257	4.010	0.504
537.000	338.841	80.005	19.995	103.263	20.258	3.926	0.479
537.500	339.124	80.006	19.996	103.265	20.257	4.014	0.513
538.000	339.375	80.006	19.995	103.267	20.257	3.967	0.542
538.500	339.635	80.006	19.996	103.269	20.257	4.000	0.523
539.000	339.907	80.005	19.994	103.270	20.257	3.992	0.522
539.500	340.149	80.006	19.995	103.272	20.254	4.247	0.523
540.000	340.400	80.005	19.994	103.271	20.259	3.867	0.503
540.500	340.664	80.005	19.994	103.272	20.257	4.031	0.504
541.000	340.894	80.005	19.994	103.269	20.261	3.735	0.505
541.500	341.217	80.005	19.995	103.270	20.255	4.138	0.524
542.000	341.465	80.004	19.995	103.267	20.258	3.936	0.562
542.500	341.666	80.006	19.996	103.264	20.256	4.060	0.510
543.000	341.941	80.006	19.996	103.260	20.261	3.677	0.463
543.501	342.193	80.007	19.995	103.260	20.262	3.636	0.501
544.000	342.444	80.006	19.995	103.258	20.264	3.497	0.515
544.500	342.713	80.006	19.995	103.258	20.262	3.653	0.511
545.000	342.971	80.006	19.995	103.260	20.262	3.640	0.523
545.501	343.206	80.004	19.995	103.258	20.265	3.437	0.510
546.000	343.468	80.005	19.995	103.260	20.263	3.548	0.495
546.500	343.684	80.005	19.994	103.263	20.260	3.809	0.488
547.001	343.982	80.006	19.995	103.269	20.261	3.686	0.496
547.500	344.218	80.006	19.996	103.272	20.261	3.735	0.524
548.000	344.533	80.006	19.994	103.277	20.259	3.864	0.542
548.501	344.744	80.005	19.994	103.280	20.260	3.792	0.538
549.001	344.935	80.006	19.995	103.284	20.263	3.513	0.464
549.500	345.261	80.005	19.995	103.285	20.263	3.585	0.460
550.000	345.487	80.006	19.994	103.287	20.261	3.676	0.534
550.500	345.725	80.006	19.994	103.288	20.263	3.528	0.508
551.000	346.019	80.005	19.995	103.292	20.262	3.641	0.498
551.500	346.234	80.007	19.994	103.292	20.263	3.583	0.521
552.000	346.511	80.005	19.993	103.288	20.264	3.454	0.500
552.500	346.744	80.006	19.993	103.288	20.262	3.653	0.501
553.000	347.043	80.007	19.993	103.288	20.262	3.596	0.521
553.500	347.279	80.006	19.993	103.287	20.263	3.536	0.534
554.000	347.558	80.006	19.995	103.284	20.263	3.548	0.525
554.500	347.805	80.008	19.994	103.283	20.263	3.540	0.520
555.000	348.019	80.006	19.994	103.284	20.264	3.472	0.493
555.500	348.372	80.006	19.993	103.284	20.266	3.355	0.514
556.000	348.537	80.007	19.993	103.284	20.263	3.542	0.542
556.500	348.838	80.008	19.994	103.289	20.263	3.520	0.492
557.000	349.104	80.007	19.993	103.293	20.266	3.324	0.517
557.500	349.349	80.009	19.994	103.291	20.262	3.606	0.539
558.000	349.592	80.007	19.993	103.289	20.263	3.569	0.500
558.500	349.854	80.008	19.993	103.287	20.263	3.530	0.496
559.000	350.123	80.006	19.993	103.284	20.266	3.353	0.518
559.500	350.396	80.008	19.994	103.282	20.267	3.281	0.537
560.000	350.656	80.009	19.996	103.283	20.265	3.417	0.537
560.500	350.897	80.008	19.994	103.286	20.265	3.396	0.517
561.000	351.106	80.008	19.995	103.287	20.268	3.160	0.476
561.500	351.390	80.007	19.995	103.289	20.268	3.176	0.472
562.000	351.641	80.008	19.994	103.290	20.268	3.197	0.514
562.500	351.942	80.008	19.994	103.289	20.267	3.283	0.543
563.000	352.164	80.008	19.994	103.289	20.264	3.448	0.538
563.500	352.452	80.007	19.994	103.291	20.271	2.922	0.516
564.000	352.713	80.007	19.993	103.291	20.271	2.973	0.530
564.500	353.004	80.008	19.994	103.292	20.270	3.033	0.551
565.000	353.194	80.007	19.994	103.294	20.268	3.179	0.516
565.500	353.472	80.007	19.994	103.294	20.271	2.992	0.474
566.000	353.725	80.007	19.993	103.293	20.267	3.263	0.500
566.500	353.956	80.006	19.993	103.293	20.266	3.337	0.507
567.000	354.230	80.006	19.994	103.293	20.269	3.088	0.494
567.500	354.547	80.007	19.994	103.293	20.265	3.411	0.548
568.000	354.780	80.006	19.993	103.293	20.269	3.096	0.571
568.500	355.015	80.006	19.994	103.294	20.268	3.187	0.509
569.001	355.253	80.007	19.994	103.294	20.265	3.411	0.470
569.500	355.498	80.006	19.994	103.296	20.270	3.043	0.478
570.000	355.690	80.005	19.995	103.298	20.270	3.010	0.461
570.500	355.972	80.005	19.994	103.298	20.268	3.142	0.455
571.000	356.263	80.005	19.995	103.295	20.266	3.324	0.523
571.500	356.554	80.005	19.995	103.294	20.266	3.316	0.577
572.001	356.775	80.005	19.994	103.293	20.271	2.928	0.547
572.500	357.039	80.005	19.993	103.291	20.271	2.926	0.498
573.000	357.295	80.004	19.995	103.291	20.274	2.739	0.503
573.500	357.559	80.004	19.995	103.292	20.275	2.673	0.520
574.001	357.789	80.005	19.995	103.293	20.286	1.847	0.507
574.500	358.094	80.005	19.995	103.293	20.279	2.377	0.514
575.000	358.364	80.004	19.995	103.294	20.273	2.838	0.555
575.501	358.551	80.005	19.994	103.294	20.268	3.146	0.516
576.000	358.788	80.004	19.995	103.295	20.263	3.579	0.440
576.500	359.079	80.006	19.994	103.292	20.252	4.342	0.475
577.000	359.263	80.003	19.994	103.291	20.272	2.891	0.501
577.500	359.617	80.005	19.996	103.290	20.254	4.183	0.507
578.000	359.780	80.005	19.995	103.290	20.267	3.283	0.528
578.500	360.042	80.006	19.993	103.291	20.261	3.668	0.471
579.000	360.376	80.004	19.994	103.293	20.263	3.544	0.510
579.500	360.541	80.004	19.994	103.295	20.261	3.702	0.548
580.000	360.850	80.005	19.995	103.296	20.265	3.372	0.486
580.500	361.028	80.003	19.995	103.296	20.260	3.803	0.481
581.000	361.328	80.004	19.994	103.296	20.264	3.497	0.483
581.500	361.589	80.005	19.993	103.297	20.265	3.407	0.520
582.000	361.809	80.005	19.995	103.297	20.266	3.339	0.520
582.500	362.138	80.005	19.994	103.299	20.263	3.573	0.515
583.000	362.415	80.006	19.994	103.299	20.266	3.322	0.578
583.500	362.593	80.004	19.995	103.299	20.267	3.218	0.530
584.000	362.901	80.005	19.993	103.299	20.265	3.421	0.471
584.500	362.859	80.004	19.995	103.300	20.267	3.220	0.376
585.000	363.609	80.005	19.994	103.298	20.262	3.619	0.487
585.500	363.450	80.004	19.993	103.298	20.265	3.434	0.649
586.000	364.082	80.004	19.994	103.298	20.263	3.524	0.531
586.500	363.930	80.004	19.994	103.297	20.269	3.088	0.477
587.000	364.115	80.006	19.994	103.296	20.266	3.347	0.257
587.500	364.963	80.004	19.995	103.297	20.268	3.154	0.533
588.001	365.192	80.006	19.994	103.298	20.267	3.238	1.055
588.501	365.477	80.005	19.995	103.295	20.265	3.417	0.795
589.001	365.607	80.006	19.994	103.295	20.266	3.302	0.465
589.500	365.808	80.005	19.994	103.294	20.264	3.477	0.373
590.000	366.123	80.006	19.995	103.293	20.268	3.214	0.423
590.501	365.989	80.006	19.993	103.294	20.264	3.463	0.349
591.001	366.329	80.005	19.995	103.300	20.266	3.358	0.194
591.501	366.571	80.005	19.994	103.300	20.263	3.578	0.394
592.000	366.775	80.007	19.994	103.302	20.264	3.506	0.514
592.500	367.329	80.005	19.993	103.301	20.263	3.553	0.602
593.000	367.190	80.007	19.993	103.299	20.267	3.288	0.587
593.500	367.725	80.005	19.993	103.294	20.263	3.526	0.405
594.000	367.830	80.005	19.994	103.293	20.267	3.263	0.518
594.500	368.186	80.005	19.995	103.298	20.263	3.524	0.550
595.000	368.443	80.004	19.994	103.303	20.266	3.315	0.537
595.500	368.644	80.005	19.994	103.305	20.263	3.559	0.536
596.000	368.910	80.005	19.995	103.306	20.261	3.687	0.463
596.500	369.238	80.004	19.994	103.306	20.262	3.637	0.530
597.000	369.420	80.004	19.995	103.302	20.262	3.590	0.552
597.501	369.664	80.005	19.995	103.298	20.262	3.616	0.468
598.001	369.926	80.005	19.994	103.296	20.263	3.569	0.466
598.500	370.171	80.004	19.994	103.293	20.260	3.772	0.506
599.000	370.387	80.005	19.995	103.294	20.259	3.843	0.484
599.500	370.697	80.005	19.994	103.294	20.260	3.765	0.494
600.000	370.992	80.004	19.994	103.295	20.262	3.629	0.566
600.500	371.190	80.004	19.993	103.298	20.259	3.841	0.549
601.000	371.468	80.004	19.994	103.303	20.263	3.576	0.485
601.500	371.746	80.004	19.994	103.307	20.258	3.915	0.516
602.001	371.897	80.005	19.994	103.308	20.266	3.354	0.492
602.500	372.228	80.004	19.995	103.308	20.259	3.845	0.455
603.000	372.464	80.005	19.994	103.306	20.261	3.701	0.525
603.500	372.756	80.003	19.994	103.303	20.258	3.933	0.548
604.000	372.946	80.004	19.995	103.299	20.259	3.882	0.505
604.500	373.255	80.004	19.994	103.299	20.261	3.703	0.490
605.000	373.527	80.003	19.995	103.298	20.254	4.201	0.540
605.500	373.797	80.003	19.995	103.301	20.262	3.648	0.562
606.000	374.013	80.003	19.995	103.306	20.258	3.923	0.514
606.500	374.271	80.004	19.994	103.309	20.259	3.855	0.480
607.000	374.492	80.005	19.994	103.310	20.258	3.918	0.476
607.500	374.784	80.003	19.995	103.311	20.257	4.029	0.496
608.000	375.026	80.006	19.995	103.306	20.259	3.883	0.524
608.500	375.215	80.005	19.994	103.300	20.257	4.017	0.482
609.000	375.562	80.004	19.995	103.297	20.259	3.826	0.483
609.500	375.840	80.003	19.995	103.298	20.259	3.873	0.580
610.000	376.045	80.006	19.995	103.303	20.262	3.635	0.554
610.500	376.297	80.004	19.995	103.306	20.260	3.769	0.470
611.000	376.581	80.005	19.995	103.312	20.256	4.065	0.496
611.500	376.828	80.005	19.995	103.312	20.259	3.842	0.533
612.000	377.045	80.005	19.996	103.310	20.260	3.809	0.498
612.500	377.361	80.005	19.995	103.306	20.257	3.963	0.498
613.000	377.570	80.005	19.996	103.309	20.257	3.978	0.528
613.500	377.845	80.006	19.996	103.306	20.255	4.111	0.505
614.000	378.122	80.005	19.995	103.309	20.257	3.967	0.519
614.500	378.358	80.006	19.995	103.312	20.258	3.957	0.533
615.000	378.570	80.005	19.994	103.317	20.258	3.898	0.481
615.500	378.888	80.007	19.996	103.318	20.259	3.826	0.489
616.000	379.059	80.006	19.995	103.319	20.257	3.976	0.509
616.500	379.390	80.006	19.995	103.316	20.258	3.947	0.495
617.000	379.617	80.006	19.994	103.312	20.260	3.760	0.530
617.500	379.890	80.007	19.995	103.305	20.254	4.214	0.529
618.000	380.115	80.007	19.995	103.298	20.255	4.142	0.499
618.500	380.397	80.007	19.995	103.293	20.257	3.990	0.503
619.000	380.591	80.006	19.995	103.292	20.257	3.996	0.492
619.500	380.963	80.006	19.995	103.291	20.256	4.087	0.521
620.000	381.140	80.007	19.995	103.298	20.257	3.968	0.557
620.500	381.444	80.007	19.994	103.300	20.255	4.167	0.515
621.000	381.645	80.006	19.994	103.305	20.255	4.165	0.493
621.500	381.905	80.006	19.994	103.308	20.254	4.198	0.483
622.000	382.162	80.006	19.994	103.308	20.253	4.257	0.489
622.500	382.473	80.008	19.995	103.302	20.250	4.549	0.543
623.000	382.662	80.005	19.994	103.299	20.250	4.526	0.533
623.500	382.970	80.005	19.993	103.292	20.251	4.424	0.498
624.000	383.219	80.005	19.994	103.289	20.252	4.395	0.527
624.500	383.485	80.006	19.996	103.290	20.250	4.545	0.536
625.000	383.716	80.006	19.996	103.291	20.252	4.364	0.506
625.500	384.006	80.005	19.994	103.291	20.251	4.442	0.508
626.000	384.218	80.007	19.995	103.294	20.250	4.500	0.511
626.500	384.516	80.007	19.995	103.295	20.252	4.372	0.507
627.000	384.725	80.005	19.995	103.294	20.250	4.520	0.509
627.500	385.007	80.004	19.995	103.294	20.249	4.555	0.499
628.000	385.256	80.006	19.995	103.295	20.253	4.298	0.511
628.500	385.533	80.005	19.995	103.297	20.251	4.459	0.529
629.000	385.789	80.006	19.994	103.298	20.249	4.555	0.530
629.500	386.092	80.005	19.995	103.298	20.249	4.586	0.546
630.001	386.306	80.007	19.996	103.299	20.247	4.728	0.538
630.500	386.588	80.005	19.995	103.300	20.251	4.434	0.507
631.000	386.851	80.005	19.995	103.300	20.249	4.571	0.520
631.500	387.099	80.005	19.996	103.298	20.245	4.886	0.528
632.000	387.360	80.005	19.997	103.298	20.248	4.656	0.510
632.500	387.625	80.005	19.995	103.296	20.248	4.645	0.518
633.000	387.907	80.005	19.996	103.294	20.245	4.904	0.537
633.500	388.113	80.004	19.997	103.291	20.245	4.867	0.518
634.001	388.397	80.005	19.997	103.290	20.244	4.999	0.489
634.500	388.710	80.005	19.996	103.292	20.244	4.945	0.543
635.000	388.888	80.005	19.997	103.291	20.249	4.623	0.544
635.500	389.162	80.005	19.997	103.293	20.246	4.804	0.472
636.000	389.421	80.005	19.996	103.297	20.248	4.703	0.493
636.500	389.664	80.007	19.997	103.297	20.247	4.720	0.518
637.000	389.900	80.005	19.996	103.296	20.249	4.555	0.490
637.500	390.166	80.005	19.996	103.296	20.246	4.814	0.490
638.000	390.449	80.006	19.996	103.296	20.244	4.993	0.526
638.500	390.719	80.005	19.995	103.293	20.245	4.857	0.551
639.000	390.942	80.005	19.995	103.292	20.246	4.839	0.523
639.500	391.236	80.006	19.995	103.293	20.247	4.713	0.505
640.000	391.507	80.006	19.996	103.293	20.247	4.775	0.541
640.500	391.750	80.006	19.996	103.291	20.249	4.623	0.540
641.000	391.998	80.006	19.994	103.290	20.248	4.693	0.503
641.500	392.248	80.007	19.995	103.291	20.245	4.863	0.494
642.000	392.536	80.007	19.994	103.291	20.242	5.112	0.518
642.500	392.808	80.007	19.996	103.290	20.242	5.102	0.549
643.000	393.048	80.007	19.995	103.288	20.244	4.991	0.536
643.500	393.318	80.006	19.995	103.288	20.244	4.966	0.511
644.000	393.634	80.008	19.994	103.288	20.243	5.005	0.548
644.500	393.828	80.007	19.995	103.288	20.240	5.252	0.548
645.000	394.093	80.007	19.996	103.288	20.242	5.120	0.484
645.500	394.328	80.007	19.993	103.292	20.243	5.057	0.479
646.001	394.614	80.008	19.994	103.293	20.239	5.340	0.510
646.501	394.850	80.007	19.994	103.294	20.237	5.486	0.522
647.001	395.094	80.006	19.994	103.295	20.239	5.332	0.501
647.501	395.344	80.007	19.994	103.296	20.239	5.371	0.487
648.000	395.623	80.007	19.993	103.295	20.238	5.418	0.512
648.500	395.912	80.006	19.995	103.297	20.237	5.470	0.549
649.000	396.166	80.006	19.994	103.298	20.235	5.603	0.555
649.500	396.442	80.007	19.995	103.297	20.233	5.767	0.536
650.000	396.706	80.006	19.995	103.298	20.231	5.961	0.535
650.500	396.972	80.006	19.993	103.297	20.233	5.788	0.535
651.000	397.217	80.006	19.994	103.296	20.230	6.030	0.521
651.500	397.450	80.006	19.994	103.295	20.234	5.679	0.494
652.000	397.702	80.006	19.993	103.295	20.231	5.969	0.481
652.500	397.975	80.006	19.993	103.295	20.231	5.919	0.505
653.000	398.247	80.005	19.993	103.294	20.230	6.004	0.535
653.500	398.508	80.007	19.995	103.294	20.231	5.922	0.539
654.000	398.738	80.005	19.994	103.294	20.233	5.790	0.512
654.500	399.050	80.004	19.993	103.293	20.231	5.899	0.517
655.001	399.288	80.003	19.994	103.293	20.234	5.714	0.546
655.501	399.528	80.006	19.995	103.294	20.234	5.691	0.514
656.000	399.787	80.004	19.995	103.295	20.233	5.771	0.488
656.501	400.033	80.005	19.994	103.295	20.233	5.804	0.502
657.001	400.328	80.005	19.994	103.297	20.232	5.860	0.523
657.500	400.571	80.006	19.995	103.297	20.232	5.858	0.539
658.000	400.829	80.005	19.994	103.300	20.232	5.839	0.520
658.500	401.095	80.006	19.993	103.300	20.232	5.874	0.512
659.000	401.333	80.004	19.994	103.300	20.230	5.985	0.514
659.500	401.581	80.006	19.994	103.300	20.232	5.864	0.495
660.000	401.827	80.005	19.994	103.300	20.230	6.006	0.490
660.500	402.060	80.005	19.995	103.295	20.229	6.082	0.486
661.000	402.318	80.005	19.994	103.295	20.227	6.242	0.485
661.500	402.624	80.004	19.994	103.295	20.227	6.258	0.527
662.000	402.831	80.004	19.994	103.294	20.228	6.176	0.538
662.500	403.059	80.005	19.994	103.293	20.226	6.310	0.474
663.000	403.347	80.005	19.996	103.294	20.225	6.375	0.475
663.500	403.619	80.004	19.995	103.295	20.223	6.531	0.538
664.000	403.831	80.005	19.994	103.294	20.224	6.422	0.522
664.500	404.146	80.006	19.994	103.295	20.223	6.550	0.506
665.001	404.328	80.004	19.994	103.296	20.226	6.340	0.512
665.500	404.616	80.005	19.995	103.293	20.222	6.620	0.483
666.000	404.860	80.005	19.996	103.293	20.215	7.101	0.501
666.500	405.113	80.004	19.994	103.292	20.220	6.729	0.515
667.000	405.387	80.004	19.994	103.289	20.218	6.926	0.513
667.500	405.660	80.004	19.995	103.289	20.218	6.862	0.537
668.000	405.896	80.004	19.995	103.292	20.214	7.195	0.528
668.500	406.143	80.004	19.995	103.291	20.217	6.957	0.496
669.000	406.432	80.005	19.995	103.292	20.216	7.033	0.510
669.500	406.652	80.004	19.995	103.295	20.217	6.955	0.523
670.000	406.969	80.003	19.994	103.295	20.217	6.967	0.523
670.500	407.229	80.004	19.994	103.292	20.212	7.323	0.557
671.000	407.500	80.005	19.995	103.292	20.212	7.327	0.554
671.500	407.749	80.006	19.994	103.292	20.212	7.323	0.526
672.000	408.009	80.004	19.995	103.290	20.210	7.507	0.515
672.500	408.230	80.005	19.995	103.288	20.208	7.627	0.495
673.000	408.517	80.005	19.994	103.290	20.209	7.581	0.495
673.500	408.788	80.006	19.994	103.291	20.209	7.596	0.533
674.000	409.015	80.006	19.996	103.289	20.204	7.904	0.528
674.500	409.269	80.006	19.994	103.288	20.207	7.740	0.489
675.000	409.489	80.005	19.995	103.287	20.205	7.875	0.478
675.500	409.767	80.005	19.994	103.287	20.206	7.773	0.487
676.000	410.017	80.005	19.994	103.287	20.203	8.050	0.513
676.500	410.279	80.004	19.994	103.288	20.203	7.993	0.520
677.000	410.512	80.006	19.994	103.291	20.203	7.993	0.503
677.500	410.779	80.006	19.995	103.292	20.198	8.360	0.497
678.000	411.020	80.006	19.994	103.292	20.201	8.151	0.504
678.500	411.281	80.006	19.995	103.291	20.201	8.194	0.505
679.000	411.540	80.006	19.994	103.291	20.197	8.459	0.511
679.501	411.787	80.006	19.994	103.291	20.198	8.358	0.514
680.000	412.016	80.005	19.993	103.292	20.199	8.346	0.491
680.500	412.268	80.006	19.993	103.292	20.196	8.515	0.478
681.000	412.520	80.006	19.995	103.293	20.195	8.634	0.492
681.500	412.803	80.003	19.995	103.292	20.194	8.652	0.519
682.000	413.036	80.007	19.993	103.292	20.192	8.821	0.526
682.501	413.275	80.007	19.994	103.292	20.190	8.993	0.494
683.001	413.511	80.006	19.994	103.291	20.190	9.010	0.473
683.500	413.764	80.005	19.994	103.291	20.190	8.954	0.482
684.000	414.048	80.005	19.994	103.292	20.187	9.215	0.514
684.501	414.277	80.004	19.994	103.292	20.190	9.005	0.525
685.000	414.516	80.005	19.993	103.292	20.186	9.311	0.490
685.500	414.786	80.004	19.994	103.293	20.188	9.146	0.488
686.000	415.032	80.003	19.994	103.293	20.185	9.368	0.512
686.500	415.277	80.004	19.994	103.294	20.186	9.266	0.504
687.000	415.517	80.005	19.993	103.294	20.187	9.235	0.488
687.500	415.779	80.005	19.994	103.294	20.184	9.418	0.493
688.000	416.013	80.004	19.994	103.293	20.182	9.593	0.499
688.500	416.272	80.003	19.994	103.294	20.182	9.562	0.495
689.000	416.546	80.005	19.994	103.292	20.181	9.646	0.513
689.501	416.818	80.006	19.994	103.292	20.179	9.812	0.540
690.000	417.031	80.004	19.994	103.293	20.178	9.907	0.516
690.500	417.314	80.006	19.993	103.295	20.176	10.025	0.490
691.000	417.534	80.004	19.994	103.295	20.174	10.150	0.499
691.500	417.810	80.004	19.994	103.297	20.173	10.241	0.500
692.000	418.075	80.005	19.996	103.296	20.173	10.279	0.519
692.500	418.360	80.005	19.994	103.297	20.171	10.376	0.546
693.001	418.576	80.005	19.993	103.296	20.172	10.326	0.525
693.501	418.852	80.006	19.995	103.295	20.171	10.431	0.496
694.000	419.079	80.006	19.995	103.295	20.167	10.723	0.497
694.501	419.347	80.006	19.995	103.295	20.166	10.760	0.499
695.001	419.582	80.007	19.995	103.293	20.164	10.900	0.499
695.500	419.823	80.005	19.994	103.293	20.163	10.973	0.489
696.000	420.098	80.005	19.994	103.288	20.164	10.916	0.496
696.500	420.334	80.006	19.995	103.285	20.158	11.343	0.514
697.001	420.607	80.005	19.995	103.285	20.160	11.211	0.510
697.500	420.883	80.006	19.995	103.285	20.159	11.259	0.529
698.000	421.126	80.006	19.995	103.285	20.158	11.398	0.534
698.500	421.385	80.005	19.995	103.288	20.156	11.499	0.511
699.000	421.651	80.007	19.995	103.288	20.155	11.614	0.514
699.500	421.875	80.007	19.994	103.287	20.153	11.711	0.507
700.000	422.139	80.006	19.995	103.288	20.152	11.780	0.489
700.500	422.412	80.005	19.996	103.289	20.152	11.786	0.512
701.000	422.718	80.007	19.995	103.293	20.150	11.967	0.558
701.500	422.955	80.008	19.996	103.296	20.148	12.084	0.561
702.000	423.210	80.008	19.996	103.297	20.148	12.140	0.518
702.500	423.418	80.008	19.996	103.297	20.145	12.311	0.477
703.000	423.686	80.008	19.994	103.295	20.143	12.506	0.469
703.500	423.919	80.009	19.995	103.292	20.142	12.532	0.488
704.000	424.191	80.007	19.995	103.292	20.140	12.719	0.504
704.500	424.434	80.006	19.994	103.292	20.138	12.842	0.510
705.000	424.693	80.006	19.995	103.292	20.134	13.123	0.508
705.500	424.961	80.006	19.994	103.292	20.135	13.050	0.514
706.000	425.187	80.007	19.995	103.292	20.133	13.213	0.511
706.500	425.464	80.006	19.994	103.290	20.132	13.324	0.499
707.000	425.694	80.008	19.994	103.289	20.130	13.414	0.505
707.500	425.978	80.005	19.994	103.287	20.131	13.361	0.511
708.000	426.218	80.005	19.995	103.286	20.131	13.370	0.519
708.500	426.467	80.006	19.993	103.286	20.129	13.516	0.506
709.000	426.723	80.006	19.994	103.287	20.122	14.036	0.497
709.500	426.994	80.005	19.995	103.288	20.124	13.889	0.516
710.000	427.233	80.007	19.994	103.289	20.116	14.469	0.519
710.500	427.462	80.007	19.994	103.288	20.119	14.301	0.489
711.000	427.741	80.005	19.994	103.282	20.114	14.671	0.488
711.500	427.989	80.005	19.995	103.282	20.110	14.901	0.518
712.000	428.270	80.007	19.995	103.282	20.109	15.035	0.528
712.500	428.507	80.008	19.994	103.284	20.109	15.047	0.523
713.000	428.795	80.006	19.994	103.287	20.108	15.094	0.522
713.500	429.021	80.007	19.994	103.291	20.106	15.202	0.519
714.000	429.287	80.006	19.994	103.286	20.104	15.410	0.503
714.500	429.525	80.005	19.993	103.283	20.101	15.602	0.499
715.000	429.783	80.005	19.994	103.283	20.100	15.660	0.500
715.500	430.068	80.008	19.994	103.281	20.097	15.915	0.519
716.000	430.321	80.005	19.995	103.281	20.097	15.882	0.541
716.500	430.548	80.006	19.994	103.286	20.094	16.157	0.509
717.000	430.794	80.006	19.994	103.289	20.092	16.286	0.476
717.500	431.036	80.006	19.995	103.288	20.086	16.726	0.480
718.000	431.333	80.006	19.994	103.289	20.084	16.840	0.514
718.500	431.592	80.005	19.995	103.289	20.084	16.867	0.548
719.000	431.825	80.007	19.995	103.285	20.080	17.189	0.524
719.500	432.106	80.007	19.995	103.284	20.078	17.282	0.502
720.000	432.385	80.007	19.994	103.283	20.073	17.677	0.537
720.500	432.646	80.006	19.994	103.279	20.076	17.483	0.550
721.000	432.867	80.006	19.993	103.282	20.070	17.887	0.511
721.500	433.152	80.006	19.994	103.286	20.069	18.021	0.494
722.000	433.393	80.005	19.995	103.285	20.063	18.415	0.516
722.501	433.663	80.006	19.994	103.282	20.064	18.390	0.519
723.001	433.904	80.005	19.994	103.287	20.061	18.595	0.511
723.501	434.173	80.008	19.994	103.286	20.056	18.982	0.510
724.000	434.420	80.005	19.994	103.281	20.056	18.986	0.513
724.500	434.683	80.006	19.994	103.279	20.054	19.091	0.513
725.000	434.943	80.006	19.994	103.279	20.050	19.380	0.516
725.500	435.181	80.005	19.994	103.271	20.047	19.634	0.510
726.000	435.416	80.006	19.995	103.265	20.045	19.763	0.486
726.500	435.696	80.007	19.994	103.263	20.040	20.137	0.494
727.000	435.920	80.007	19.994	103.262	20.035	20.521	0.510
727.500	436.198	80.007	19.994	103.266	20.036	20.438	0.504
728.001	436.433	80.007	19.995	103.275	20.034	20.606	0.507
728.500	436.707	80.007	19.994	103.277	20.030	20.854	0.511
729.000	436.987	80.008	19.994	103.260	20.027	21.103	0.532
729.500	437.227	80.006	19.995	103.247	20.023	21.419	0.537
730.000	437.480	80.008	19.995	103.235	20.020	21.620	0.506
730.500	437.711	80.006	19.995	103.223	20.020	21.643	0.488
731.000	437.958	80.006	19.994	103.226	20.019	21.740	0.481
731.500	438.212	80.005	19.995	103.280	20.017	21.852	0.490
732.000	438.470	80.005	19.995	103.312	20.013	22.130	0.506
732.500	438.688	80.006	19.995	103.326	20.011	22.310	0.494
733.000	438.931	80.005	19.994	103.334	20.009	22.443	0.469
733.500	439.213	80.006	19.994	103.336	20.006	22.696	0.493
734.000	439.450	80.004	19.995	103.307	20.005	22.727	0.522
734.500	439.698	80.005	19.994	103.291	19.997	23.380	0.502
735.000	439.924	80.005	19.994	103.291	19.994	23.562	0.480
735.500	440.211	80.006	19.994	103.292	19.991	23.806	0.493
736.000	440.455	80.003	19.995	103.287	19.992	23.743	0.522
736.500	440.705	80.008	19.995	103.280	19.988	24.045	0.512
737.000	440.990	80.005	19.995	103.281	19.987	24.068	0.515
737.500	441.228	80.005	19.995	103.281	19.980	24.615	0.529
738.001	441.450	80.006	19.995	103.281	19.978	24.759	0.491
738.501	441.698	80.002	19.994	103.286	19.971	25.318	0.465
739.001	441.998	80.000	19.995	103.292	19.973	25.151	0.509
739.501	442.201	80.005	19.995	103.290	19.972	25.210	0.525
740.001	442.407	80.006	19.995	103.291	19.967	25.561	0.456
740.500	442.672	80.004	19.995	103.290	19.963	25.872	0.440
741.000	442.924	80.003	19.994	103.290	19.960	26.094	0.494
741.500	443.182	80.006	19.994	103.291	19.962	25.918	0.513
742.000	443.456	80.007	19.994	103.291	19.957	26.346	0.521
742.500	443.702	80.005	19.994	103.291	19.952	26.710	0.526
743.000	443.928	80.005	19.994	103.290	19.952	26.707	0.496
743.500	444.156	80.006	19.995	103.288	19.945	27.239	0.463
744.000	444.405	80.004	19.993	103.284	19.951	26.771	0.465
744.500	444.680	80.004	19.993	103.278	19.947	27.061	0.500
745.001	444.945	80.004	19.993	103.278	19.945	27.215	0.532
745.502	445.201	80.006	19.994	103.277	19.940	27.617	0.530
746.001	445.435	80.007	19.993	103.275	19.937	27.784	0.506
746.500	445.690	80.006	19.994	103.279	19.936	27.919	0.490
747.000	445.954	80.006	19.994	103.282	19.931	28.236	0.504
747.500	446.189	80.006	19.995	103.282	19.930	28.351	0.509
748.000	446.443	80.005	19.995	103.285	19.927	28.526	0.494
748.500	446.657	80.004	19.994	103.288	19.923	28.866	0.478
749.001	446.946	80.001	19.993	103.288	19.919	29.115	0.486
749.501	447.160	80.004	19.994	103.290	19.919	29.180	0.503
750.000	447.430	80.006	19.995	103.286	19.917	29.273	0.494
750.500	447.703	80.007	19.995	103.282	19.916	29.374	0.513
751.000	447.923	80.004	19.993	103.281	19.916	29.408	0.517
751.500	448.180	80.007	19.995	103.277	19.915	29.479	0.485
752.000	448.428	80.005	19.994	103.277	19.910	29.836	0.492
752.500	448.666	80.004	19.994	103.281	19.908	29.980	0.495
753.000	448.919	80.008	19.995	103.284	19.907	30.062	0.488
753.500	449.180	80.006	19.994	103.285	19.906	30.154	0.502
754.000	449.410	80.003	19.995	103.289	19.903	30.304	0.502
754.500	449.672	80.004	19.994	103.290	19.903	30.350	0.492
755.000	449.953	80.006	19.995	103.289	19.899	30.655	0.518
755.500	450.183	80.005	19.995	103.290	19.897	30.789	0.527
756.000	450.404	80.004	19.994	103.291	19.896	30.876	0.481
756.500	450.668	80.004	19.993	103.288	19.894	31.012	0.468
757.000	450.945	80.006	19.995	103.284	19.891	31.237	0.512
757.500	451.186	80.007	19.994	103.283	19.887	31.492	0.529
758.000	451.469	80.007	19.994	103.282	19.889	31.355	0.521
758.500	451.729	80.006	19.995	103.283	19.885	31.682	0.534
759.000	451.969	80.005	19.994	103.285	19.886	31.592	0.521
759.500	452.200	80.006	19.995	103.288	19.886	31.631	0.485
760.000	452.457	80.005	19.995	103.290	19.885	31.650	0.480
760.500	452.722	80.007	19.995	103.286	19.883	31.846	0.506
761.000	452.962	80.005	19.994	103.282	19.882	31.888	0.514
761.500	453.205	80.007	19.995	103.281	19.879	32.124	0.494
762.000	453.470	80.005	19.994	103.279	19.881	31.971	0.495
762.500	453.755	80.007	19.995	103.276	19.879	32.130	0.529
763.000	453.959	80.004	19.995	103.280	19.880	32.083	0.520
763.500	454.232	80.005	19.994	103.284	19.876	32.327	0.482
764.000	454.493	80.007	19.994	103.281	19.875	32.389	0.505
764.500	454.735	80.006	19.995	103.280	19.871	32.737	0.519
765.000	455.029	80.007	19.995	103.282	19.870	32.793	0.520
765.500	455.255	80.007	19.994	103.278	19.868	32.978	0.528
766.000	455.474	80.006	19.995	103.271	19.875	32.459	0.482
766.500	455.771	80.006	19.995	103.268	19.870	32.791	0.481
767.000	455.991	80.006	19.994	103.264	19.870	32.783	0.517
767.500	456.252	80.005	19.994	103.258	19.870	32.763	0.499
768.000	456.539	80.006	19.995	103.254	19.869	32.839	0.514
768.500	456.797	80.005	19.994	103.254	19.871	32.698	0.546
769.000	457.054	80.005	19.994	103.259	19.870	32.767	0.530
769.501	457.272	80.006	19.994	103.266	19.872	32.668	0.495
770.001	457.497	80.005	19.995	103.273	19.866	33.070	0.458
770.500	457.769	80.005	19.994	103.282	19.871	32.707	0.470
771.000	458.016	80.006	19.995	103.289	19.869	32.895	0.508
771.500	458.245	80.004	19.994	103.290	19.869	32.878	0.497
772.000	458.500	80.006	19.995	103.288	19.867	33.021	0.480
772.500	458.815	80.004	19.994	103.285	19.870	32.783	0.527
773.001	459.048	80.004	19.994	103.282	19.870	32.762	0.560
773.500	459.330	80.007	19.994	103.280	19.869	32.903	0.532
774.000	459.546	80.006	19.994	103.279	19.872	32.620	0.506
774.501	459.842	80.004	19.995	103.280	19.871	32.716	0.505
775.000	460.060	80.007	19.994	103.281	19.869	32.856	0.513
775.500	460.342	80.007	19.994	103.283	19.871	32.716	0.507
776.001	460.602	80.005	19.994	103.284	19.870	32.827	0.521
776.501	460.844	80.004	19.994	103.286	19.869	32.888	0.522
777.001	461.112	80.006	19.994	103.288	19.869	32.906	0.506
777.500	461.338	80.005	19.994	103.289	19.868	32.972	0.502
778.000	461.550	80.006	19.994	103.291	19.870	32.795	0.466
778.500	461.825	80.005	19.994	103.293	19.874	32.520	0.462
779.000	462.080	80.006	19.994	103.293	19.873	32.591	0.508
779.500	462.346	80.006	19.993	103.294	19.871	32.690	0.526
780.001	462.624	80.007	19.994	103.293	19.872	32.626	0.533
780.501	462.883	80.005	19.994	103.291	19.874	32.536	0.540
781.000	463.118	80.006	19.993	103.291	19.877	32.307	0.515
781.500	463.400	80.007	19.995	103.290	19.876	32.339	0.506
782.000	463.607	80.008	19.994	103.287	19.876	32.327	0.503
782.500	463.848	80.009	19.994	103.287	19.881	31.973	0.469
783.000	464.144	80.008	19.993	103.290	19.877	32.268	0.493
783.500	464.403	80.007	19.994	103.290	19.878	32.200	0.546
784.000	464.658	80.007	19.993	103.291	19.882	31.912	0.534
784.500	464.860	80.007	19.994	103.293	19.883	31.866	0.486
785.000	465.140	80.010	19.993	103.294	19.885	31.666	0.470
785.500	465.395	80.007	19.993	103.294	19.884	31.732	0.509
786.000	465.648	80.005	19.993	103.294	19.887	31.551	0.522
786.500	465.888	80.007	19.994	103.294	19.887	31.522	0.500
787.000	466.128	80.007	19.994	103.295	19.890	31.306	0.486
787.500	466.402	80.007	19.995	103.293	19.895	30.954	0.497
788.000	466.674	80.009	19.994	103.291	19.895	30.919	0.530
788.500	466.909	80.009	19.995	103.291	19.895	30.958	0.527
789.000	467.185	80.006	19.994	103.292	19.900	30.527	0.509
789.500	467.428	80.007	19.995	103.291	19.896	30.861	0.515
790.000	467.665	80.006	19.994	103.294	19.897	30.797	0.500
790.500	467.914	80.005	19.994	103.296	19.899	30.637	0.484
791.000	468.141	80.007	19.994	103.295	19.900	30.567	0.481
791.500	468.408	80.007	19.993	103.295	19.895	30.903	0.485
792.000	468.662	80.007	19.994	103.294	19.904	30.278	0.507
792.500	468.933	80.008	19.994	103.292	19.904	30.237	0.523
793.000	469.220	80.007	19.994	103.291	19.908	29.975	0.541
793.500	469.429	80.006	19.994	103.289	19.912	29.661	0.527
794.000	469.685	80.006	19.995	103.287	19.913	29.618	0.481
794.500	469.930	80.006	19.993	103.287	19.914	29.551	0.483
795.000	470.224	80.007	19.995	103.284	19.914	29.543	0.520
795.500	470.496	80.004	19.995	103.281	19.922	28.950	0.552
796.000	470.741	80.004	19.994	103.280	19.919	29.171	0.541
796.500	470.971	80.004	19.995	103.281	19.919	29.160	0.496
797.000	471.226	80.005	19.995	103.281	19.919	29.170	0.480
797.500	471.480	80.003	19.994	103.286	19.924	28.742	0.497
798.000	471.732	80.002	19.994	103.286	19.924	28.788	0.508
798.500	472.004	80.002	19.994	103.283	19.924	28.777	0.515
799.000	472.247	80.007	19.994	103.284	19.926	28.610	0.519
799.500	472.496	80.006	19.994	103.282	19.929	28.398	0.503
800.000	472.783	80.004	19.994	103.278	19.929	28.396	0.514
800.500	473.052	80.004	19.994	103.283	19.931	28.246	0.546
801.000	473.317	80.005	19.994	103.288	19.931	28.272	0.545
801.500	473.568	80.007	19.993	103.288	19.935	27.968	0.525
802.000	473.848	80.004	19.994	103.289	19.937	27.806	0.524
802.500	474.096	80.005	19.994	103.293	19.941	27.512	0.530
803.000	474.358	80.005	19.995	103.291	19.942	27.436	0.519
803.500	474.632	80.007	19.994	103.290	19.941	27.495	0.523
804.000	474.856	80.007	19.994	103.285	19.946	27.152	0.516
804.500	475.128	80.005	19.994	103.281	19.944	27.276	0.497
805.001	475.359	80.004	19.994	103.279	19.950	26.849	0.500
805.501	475.605	80.007	19.994	103.276	19.952	26.699	0.490
806.000	475.909	80.007	19.995	103.271	19.949	26.941	0.514
806.500	476.171	80.007	19.994	103.273	19.954	26.559	0.558
807.000	476.409	80.004	19.994	103.276	19.954	26.556	0.533
807.500	476.698	80.007	19.994	103.275	19.959	26.163	0.514
808.000	476.954	80.006	19.995	103.280	19.958	26.246	0.536
808.500	477.198	80.003	19.994	103.279	19.956	26.387	0.523
809.000	477.449	80.007	19.995	103.280	19.962	25.952	0.498
809.500	477.703	80.007	19.994	103.279	19.968	25.528	0.500
810.000	477.978	80.007	19.993	103.275	19.965	25.710	0.517
810.500	478.248	80.007	19.994	103.268	19.966	25.616	0.537
811.000	478.460	80.009	19.993	103.268	19.970	25.368	0.513
811.500	478.740	80.010	19.994	103.265	19.973	25.108	0.487
812.000	479.027	80.007	19.993	103.264	19.972	25.193	0.530
812.500	479.256	80.006	19.993	103.264	19.976	24.930	0.541
813.000	479.502	80.008	19.995	103.265	19.977	24.853	0.495
813.500	479.734	80.008	19.996	103.266	19.976	24.927	0.477
814.000	480.008	80.008	19.995	103.271	19.978	24.781	0.493
814.500	480.228	80.005	19.994	103.272	19.983	24.385	0.500
815.000	480.523	80.006	19.994	103.278	19.985	24.231	0.504
815.500	480.765	80.007	19.993	103.280	19.990	23.867	0.526
816.000	481.050	80.008	19.994	103.283	19.992	23.735	0.532
816.500	481.324	80.007	19.994	103.283	19.994	23.588	0.544
817.000	481.591	80.007	19.995	103.282	19.996	23.445	0.550
817.500	481.791	80.009	19.994	103.282	20.000	23.095	0.504
818.000	482.059	80.006	19.995	103.286	19.998	23.302	0.468
818.500	482.325	80.006	19.994	103.284	20.004	22.820	0.501
819.000	482.591	80.004	19.995	103.280	20.004	22.830	0.533
819.500	482.823	80.007	19.995	103.275	20.006	22.695	0.515
820.000	483.083	80.004	19.995	103.271	20.008	22.537	0.495
820.501	483.355	80.009	19.995	103.266	20.011	22.314	0.512
821.001	483.606	80.007	19.995	103.264	20.014	22.095	0.528
821.500	483.837	80.004	19.995	103.263	20.017	21.835	0.502
822.000	484.101	80.005	19.995	103.265	20.016	21.914	0.488
822.500	484.368	80.003	19.995	103.270	20.021	21.535	0.513
823.000	484.623	80.005	19.995	103.275	20.020	21.645	0.527
823.501	484.901	80.005	19.995	103.281	20.026	21.167	0.527
824.001	485.154	80.004	19.996	103.286	20.028	21.008	0.532
824.500	485.393	80.005	19.994	103.285	20.033	20.635	0.512
825.000	485.626	80.006	19.994	103.277	20.036	20.469	0.482
825.500	485.929	80.004	19.995	103.271	20.035	20.503	0.504
826.000	486.152	80.005	19.995	103.271	20.037	20.388	0.531
826.500	486.433	80.004	19.996	103.270	20.039	20.237	0.516
827.000	486.688	80.008	19.996	103.275	20.039	20.208	0.520
827.500	486.930	80.004	19.996	103.278	20.044	19.865	0.516
828.000	487.202	80.006	19.994	103.282	20.045	19.740	0.505
828.500	487.460	80.003	19.995	103.281	20.049	19.467	0.522
829.000	487.743	80.005	19.995	103.276	20.053	19.167	0.536
829.500	487.972	80.005	19.995	103.270	20.053	19.146	0.527
830.001	488.230	80.005	19.995	103.271	20.052	19.245	0.499
830.500	488.488	80.003	19.995	103.272	20.056	18.974	0.502
831.000	488.754	80.004	19.995	103.274	20.056	18.952	0.521
831.500	489.025	80.005	19.997	103.279	20.058	18.803	0.531
832.000	489.252	80.005	19.995	103.282	20.062	18.508	0.518
832.500	489.545	80.005	19.995	103.284	20.064	18.390	0.509
833.001	489.789	80.005	19.995	103.283	20.065	18.255	0.528
833.501	490.032	80.004	19.994	103.277	20.069	17.956	0.512
834.000	490.291	80.007	19.996	103.270	20.071	17.811	0.494
834.500	490.581	80.004	19.995	103.267	20.074	17.650	0.525
835.000	490.802	80.005	19.995	103.261	20.074	17.596	0.530
835.500	491.063	80.005	19.995	103.255	20.076	17.496	0.497
836.000	491.346	80.006	19.996	103.254	20.079	17.219	0.513
836.500	491.597	80.006	19.995	103.254	20.081	17.073	0.538
837.000	491.886	80.004	19.994	103.253	20.079	17.264	0.537
837.500	492.146	80.008	19.994	103.255	20.083	16.915	0.545
838.001	492.399	80.005	19.993	103.256	20.086	16.706	0.531
838.501	492.673	80.005	19.994	103.256	20.086	16.730	0.520
839.000	492.942	80.006	19.994	103.256	20.088	16.549	0.535
839.500	493.191	80.004	19.995	103.257	20.091	16.356	0.530
840.000	493.416	80.005	19.994	103.255	20.093	16.214	0.496
840.500	493.693	80.005	19.993	103.256	20.096	15.943	0.488
841.000	493.975	80.005	19.993	103.257	20.096	15.943	0.531
841.500	494.223	80.006	19.994	103.258	20.098	15.832	0.544
842.000	494.499	80.005	19.993	103.260	20.103	15.480	0.527
842.501	494.732	80.007	19.993	103.266	20.104	15.392	0.517
843.001	495.020	80.004	19.994	103.270	20.108	15.049	0.515
843.501	495.262	80.005	19.994	103.276	20.109	15.022	0.526
844.000	495.526	80.004	19.994	103.281	20.112	14.809	0.518
844.500	495.771	80.007	19.994	103.283	20.112	14.747	0.508
845.000	496.013	80.003	19.994	103.278	20.116	14.505	0.498
845.501	496.312	80.004	19.994	103.275	20.118	14.365	0.514
846.001	496.522	80.004	19.994	103.270	20.119	14.267	0.525
846.501	496.815	80.005	19.995	103.265	20.121	14.095	0.506
847.000	497.020	80.002	19.995	103.263	20.124	13.902	0.500
847.500	497.288	80.003	19.995	103.263	20.122	14.009	0.486
848.000	497.566	80.004	19.994	103.264	20.126	13.742	0.510
848.501	497.855	80.003	19.995	103.264	20.127	13.641	0.557
849.000	498.129	80.004	19.994	103.264	20.123	13.942	0.565
849.500	498.313	80.005	19.993	103.262	20.134	13.159	0.511
850.000	498.591	80.003	19.994	103.262	20.132	13.264	0.460
850.500	498.817	80.006	19.994	103.261	20.134	13.157	0.483
851.001	499.083	80.004	19.995	103.261	20.138	12.822	0.498
851.500	499.361	80.003	19.994	103.261	20.139	12.744	0.518
852.000	499.612	80.005	19.995	103.260	20.142	12.572	0.537
852.500	499.874	80.004	19.994	103.259	20.144	12.402	0.521
853.000	500.091	80.004	19.996	103.258	20.145	12.338	0.496
853.500	500.388	80.002	19.995	103.257	20.147	12.157	0.497
854.000	500.657	80.005	19.995	103.257	20.147	12.164	0.540
854.500	500.901	80.005	19.995	103.258	20.150	11.962	0.540
855.000	501.161	80.003	19.994	103.257	20.151	11.903	0.509
855.500	501.429	80.004	19.995	103.258	20.154	11.675	0.516
856.000	501.676	80.002	19.994	103.259	20.156	11.521	0.521
856.500	501.926	80.003	19.994	103.259	20.157	11.412	0.506
857.000	502.181	80.005	19.994	103.261	20.156	11.521	0.501
857.500	502.442	80.005	19.995	103.263	20.157	11.406	0.510
858.000	502.712	80.005	19.995	103.266	20.161	11.162	0.523
858.500	502.988	80.005	19.994	103.267	20.159	11.318	0.538
859.000	503.205	80.003	19.994	103.266	20.164	10.923	0.520
859.500	503.507	80.004	19.994	103.263	20.168	10.596	0.506
860.000	503.731	80.005	19.994	103.260	20.170	10.481	0.522
860.500	503.979	80.003	19.995	103.256	20.172	10.351	0.499
861.000	504.275	80.007	19.993	103.254	20.170	10.501	0.508
861.500	504.514	80.004	19.994	103.255	20.169	10.520	0.539
862.000	504.784	80.002	19.994	103.254	20.171	10.415	0.522
862.500	505.021	80.004	19.993	103.255	20.175	10.089	0.508
863.000	505.248	80.005	19.993	103.256	20.176	10.011	0.486
863.500	505.536	80.004	19.993	103.257	20.176	10.057	0.489
864.000	505.793	80.005	19.994	103.258	20.179	9.767	0.530
864.500	506.075	80.003	19.993	103.259	20.182	9.595	0.542
865.000	506.337	80.002	19.993	103.260	20.184	9.391	0.541
865.500	506.574	80.004	19.994	103.261	20.180	9.705	0.522
866.000	506.819	80.005	19.994	103.261	20.185	9.372	0.490
866.500	507.084	80.006	19.993	103.260	20.187	9.171	0.496
867.000	507.365	80.007	19.993	103.261	20.189	9.049	0.528
867.500	507.592	80.008	19.994	103.261	20.193	8.739	0.528
868.000	507.880	80.007	19.994	103.266	20.189	9.084	0.511
868.500	508.101	80.006	19.994	103.266	20.190	9.002	0.512
869.000	508.402	80.007	19.993	103.267	20.189	9.053	0.516
869.500	508.620	80.006	19.994	103.266	20.195	8.624	0.521
870.001	508.902	80.006	19.993	103.264	20.191	8.912	0.510
870.500	509.163	80.007	19.992	103.258	20.195	8.608	0.522
871.000	509.394	80.006	19.994	103.255	20.202	8.098	0.518
871.500	509.643	80.006	19.993	103.253	20.198	8.355	0.486
872.000	509.921	80.007	19.993	103.253	20.201	8.183	0.503
872.500	510.117	80.007	19.993	103.253	20.200	8.203	0.501
873.000	510.442	80.004	19.994	103.254	20.200	8.222	0.498
873.500	510.728	80.006	19.996	103.259	20.204	7.971	0.565
874.000	510.914	80.006	19.993	103.264	20.204	7.903	0.541
874.500	511.203	80.005	19.994	103.265	20.203	8.049	0.473
875.000	511.499	80.007	19.993	103.266	20.206	7.825	0.530
875.500	511.717	80.006	19.993	103.268	20.209	7.552	0.550
876.000	511.958	80.005	19.992	103.264	20.209	7.569	0.486
876.500	512.225	80.007	19.994	103.259	20.210	7.485	0.483
877.000	512.468	80.008	19.993	103.257	20.212	7.312	0.509
877.500	512.718	80.006	19.994	103.256	20.216	7.074	0.502
878.000	513.021	80.005	19.993	103.252	20.213	7.260	0.523
878.500	513.270	80.008	19.994	103.252	20.216	7.055	0.552
879.000	513.525	80.007	19.994	103.252	20.211	7.435	0.528
879.501	513.775	80.003	19.993	103.254	20.213	7.244	0.505
880.000	514.039	80.008	19.993	103.254	20.216	7.040	0.510
880.500	514.337	80.003	19.993	103.255	20.218	6.888	0.538
881.000	514.606	80.006	19.994	103.255	20.218	6.925	0.564
881.500	514.865	80.006	19.994	103.255	20.221	6.675	0.548
882.000	515.109	80.005	19.993	103.256	20.222	6.578	0.516
882.500	515.359	80.005	19.994	103.257	20.220	6.751	0.499
883.000	515.622	80.006	19.993	103.257	20.221	6.662	0.503
883.500	515.861	80.007	19.994	103.257	20.225	6.359	0.507
884.000	516.110	80.005	19.993	103.257	20.226	6.295	0.495
884.500	516.378	80.005	19.992	103.254	20.226	6.338	0.503
885.000	516.656	80.006	19.993	103.253	20.225	6.402	0.532
885.500	516.929	80.004	19.993	103.254	20.226	6.287	0.549
886.000	517.183	80.006	19.993	103.257	20.226	6.278	0.539
886.500	517.442	80.005	19.994	103.260	20.228	6.174	0.520
887.001	517.661	80.006	19.994	103.262	20.230	6.038	0.495
887.501	517.941	80.007	19.994	103.263	20.231	5.952	0.488
888.001	518.179	80.007	19.994	103.262	20.228	6.139	0.509
888.500	518.496	80.004	19.992	103.259	20.228	6.124	0.537
889.000	518.739	80.004	19.994	103.255	20.232	5.822	0.558
889.500	519.020	80.006	19.994	103.252	20.232	5.864	0.542
890.001	519.243	80.006	19.994	103.252	20.229	6.087	0.514
890.501	519.517	80.007	19.994	103.251	20.235	5.640	0.500
891.000	519.752	80.009	19.995	103.251	20.234	5.708	0.503
891.500	520.018	80.008	19.995	103.252	20.235	5.648	0.505
892.000	520.271	80.006	19.994	103.252	20.234	5.732	0.510
892.500	520.544	80.007	19.996	103.252	20.232	5.835	0.523
893.000	520.809	80.007	19.995	103.252	20.237	5.506	0.532
893.500	521.073	80.007	19.994	103.251	20.236	5.554	0.533
894.000	521.359	80.007	19.995	103.251	20.236	5.572	0.540
894.500	521.624	80.011	19.994	103.251	20.231	5.905	0.551
895.000	521.836	80.007	19.995	103.251	20.238	5.397	0.514
895.500	522.100	80.007	19.995	103.251	20.241	5.172	0.476
896.000	522.400	80.009	19.994	103.251	20.232	5.864	0.520
896.500	522.645	80.006	19.995	103.251	20.236	5.533	0.555
897.000	522.900	80.007	19.994	103.251	20.235	5.628	0.522
897.500	523.134	80.008	19.994	103.251	20.239	5.361	0.495
898.000	523.389	80.008	19.994	103.251	20.242	5.131	0.489
898.500	523.626	80.009	19.995	103.251	20.244	4.942	0.490
899.000	523.941	80.008	19.994	103.251	20.239	5.359	0.522
899.500	524.190	80.007	19.995	103.251	20.243	5.046	0.558
900.000	524.444	80.006	19.994	103.251	20.242	5.147	0.533
900.500	524.689	80.007	19.994	103.252	20.241	5.182	0.501
901.000	524.955	80.006	19.995	103.252	20.241	5.176	0.505
901.500	525.192	80.008	19.994	103.253	20.238	5.418	0.507
902.000	525.467	80.008	19.995	103.255	20.244	4.968	0.507
902.500	525.706	80.008	19.995	103.256	20.244	4.925	0.513
903.000	526.009	80.008	19.994	103.256	20.244	4.956	0.528
903.500	526.243	80.007	19.995	103.257	20.242	5.089	0.540
904.001	526.531	80.005	19.994	103.256	20.245	4.915	0.530
904.501	526.752	80.005	19.994	103.254	20.243	5.042	0.516
905.000	527.014	80.005	19.995	103.254	20.246	4.818	0.496
905.500	527.286	80.004	19.994	103.253	20.245	4.863	0.508
906.001	527.549	80.004	19.994	103.253	20.244	4.929	0.534
906.501	527.807	80.005	19.994	103.253	20.242	5.098	0.528
907.000	528.039	80.004	19.995	103.254	20.247	4.769	0.506
907.500	528.333	80.005	19.994	103.254	20.246	4.820	0.508
908.000	528.563	80.006	19.994	103.257	20.248	4.699	0.525
908.500	528.827	80.005	19.996	103.258	20.248	4.633	0.509
909.000	529.093	80.006	19.995	103.259	20.246	4.849	0.512
909.500	529.349	80.006	19.995	103.259	20.245	4.886	0.526
910.000	529.602	80.005	19.994	103.259	20.248	4.701	0.516
910.500	529.833	80.005	19.994	103.257	20.249	4.625	0.497
911.000	530.096	80.005	19.994	103.256	20.251	4.467	0.489
911.500	530.359	80.005	19.995	103.255	20.251	4.442	0.510
912.000	530.634	80.004	19.994	103.255	20.250	4.521	0.533
912.500	530.883	80.006	19.995	103.254	20.250	4.539	0.531
913.000	531.176	80.004	19.994	103.254	20.247	4.710	0.532
913.501	531.397	80.005	19.995	103.254	20.253	4.317	0.528
914.001	531.685	80.005	19.994	103.255	20.253	4.328	0.512
914.501	531.943	80.005	19.995	103.255	20.253	4.307	0.528
915.001	532.197	80.004	19.994	103.255	20.251	4.449	0.529
915.501	532.471	80.003	19.994	103.254	20.254	4.251	0.520
916.001	532.732	80.004	19.995	103.254	20.251	4.416	0.531
916.501	532.977	80.006	19.995	103.254	20.255	4.122	0.520
917.000	533.221	80.006	19.994	103.254	20.254	4.196	0.498
917.500	533.490	80.009	19.993	103.254	20.252	4.354	0.501
918.000	533.762	80.005	19.995	103.254	20.252	4.397	0.526
918.500	534.032	80.005	19.995	103.255	20.259	3.880	0.542
919.000	534.287	80.005	19.995	103.254	20.254	4.231	0.534
919.500	534.577	80.002	19.996	103.254	20.252	4.395	0.535
920.000	534.772	80.007	19.995	103.254	20.256	4.050	0.515
920.500	535.086	80.005	19.995	103.254	20.255	4.139	0.497
921.000	535.320	80.003	19.996	103.253	20.254	4.243	0.528
921.500	535.585	80.004	19.996	103.253	20.254	4.254	0.524
922.000	535.821	80.007	19.995	103.254	20.251	4.457	0.500
922.500	536.098	80.002	19.995	103.254	20.254	4.247	0.507
923.000	536.369	80.004	19.995	103.255	20.252	4.346	0.530
923.500	536.611	80.003	19.995	103.257	20.254	4.217	0.531
924.000	536.867	80.004	19.995	103.257	20.255	4.112	0.506
924.500	537.105	80.004	19.996	103.257	20.253	4.305	0.496
925.000	537.343	80.004	19.996	103.256	20.254	4.198	0.485
925.500	537.614	80.004	19.995	103.255	20.257	4.005	0.493
926.000	537.891	80.004	19.995	103.254	20.254	4.233	0.529
926.500	538.141	80.003	19.995	103.254	20.257	4.005	0.537
927.000	538.378	80.005	19.994	103.254	20.257	4.001	0.507
927.500	538.651	80.005	19.994	103.255	20.258	3.904	0.499
928.000	538.919	80.003	19.996	103.255	20.254	4.227	0.526
928.500	539.176	80.004	19.994	103.255	20.260	3.800	0.533
929.000	539.442	80.003	19.994	103.256	20.258	3.902	0.524
929.501	539.697	80.004	19.995	103.255	20.258	3.913	0.521
930.001	539.982	80.004	19.994	103.255	20.257	4.026	0.531
930.500	540.188	80.004	19.995	103.255	20.254	4.202	0.516
931.000	540.446	80.005	19.995	103.256	20.258	3.894	0.477
931.500	540.733	80.003	19.994	103.256	20.256	4.100	0.504
932.000	540.979	80.007	19.994	103.257	20.258	3.900	0.539
932.500	541.211	80.005	19.994	103.256	20.257	4.024	0.506
933.000	541.474	80.005	19.995	103.257	20.259	3.880	0.486
933.500	541.723	80.004	19.995	103.256	20.262	3.637	0.504
934.000	541.952	80.003	19.996	103.256	20.265	3.372	0.495
934.500	542.231	80.004	19.996	103.256	20.267	3.284	0.493
935.000	542.449	80.004	19.994	103.256	20.263	3.522	0.503
935.500	542.699	80.003	19.995	103.255	20.261	3.674	0.483
936.000	542.988	80.003	19.993	103.255	20.266	3.317	0.503
936.500	543.218	80.005	19.994	103.255	20.265	3.401	0.529
937.000	543.489	80.003	19.994	103.255	20.262	3.646	0.510
937.501	543.749	80.004	19.995	103.255	20.266	3.338	0.516
938.000	543.966	80.004	19.994	103.254	20.266	3.340	0.504
938.500	544.250	80.005	19.994	103.254	20.260	3.781	0.489
939.000	544.473	80.005	19.993	103.254	20.265	3.399	0.504
939.500	544.738	80.004	19.995	103.253	20.265	3.376	0.497
940.000	544.958	80.004	19.995	103.253	20.262	3.621	0.486
940.501	545.229	80.003	19.994	103.254	20.264	3.475	0.487
941.000	545.483	80.006	19.995	103.254	20.267	3.224	0.508
941.500	545.747	80.002	19.995	103.254	20.266	3.352	0.522
942.001	546.018	80.007	19.993	103.257	20.264	3.487	0.526
942.500	546.245	80.005	19.994	103.257	20.265	3.422	0.516
943.000	546.513	80.006	19.995	103.257	20.263	3.537	0.497
943.500	546.763	80.004	19.994	103.259	20.264	3.487	0.507
944.000	547.028	80.008	19.995	103.258	20.265	3.407	0.516
944.500	547.286	80.005	19.995	103.257	20.264	3.475	0.518
945.000	547.541	80.005	19.994	103.256	20.267	3.231	0.518
945.501	547.803	80.004	19.994	103.258	20.269	3.075	0.515
946.001	548.050	80.004	19.995	103.256	20.264	3.444	0.513
946.500	548.290	80.006	19.994	103.256	20.269	3.072	0.498
947.001	548.584	80.004	19.994	103.256	20.268	3.185	0.510
947.501	548.858	80.005	19.993	103.256	20.269	3.097	0.551
948.000	549.109	80.007	19.994	103.253	20.264	3.442	0.547
948.500	549.324	80.008	19.995	103.255	20.269	3.105	0.496
949.000	549.624	80.010	19.994	103.255	20.266	3.354	0.490
949.500	549.854	80.006	19.994	103.256	20.264	3.438	0.522
950.000	550.109	80.007	19.995	103.255	20.267	3.227	0.508
950.500	550.369	80.008	19.994	103.253	20.268	3.165	0.500
951.000	550.604	80.007	19.995	103.252	20.267	3.243	0.505
951.500	550.866	80.007	19.994	103.251	20.263	3.524	0.496
952.000	551.134	80.006	19.994	103.251	20.269	3.120	0.514
952.501	551.383	80.006	19.994	103.250	20.263	3.578	0.524
953.000	551.640	80.007	19.995	103.249	20.266	3.309	0.512
953.500	551.909	80.008	19.993	103.249	20.267	3.235	0.516
954.001	552.166	80.007	19.993	103.249	20.267	3.233	0.526
954.501	552.420	80.009	19.995	103.249	20.268	3.146	0.518
955.000	552.635	80.009	19.995	103.250	20.265	3.387	0.490
955.500	552.919	80.007	19.995	103.252	20.271	2.927	0.484
956.000	553.158	80.007	19.994	103.253	20.270	3.064	0.511
956.500	553.411	80.008	19.994	103.252	20.270	2.999	0.508
957.000	553.682	80.005	19.993	103.252	20.268	3.157	0.508
957.500	553.948	80.007	19.995	103.252	20.268	3.177	0.530
958.000	554.180	80.006	19.995	103.252	20.268	3.185	0.518
958.500	554.461	80.006	19.994	103.253	20.265	3.389	0.506
959.000	554.718	80.008	19.994	103.253	20.263	3.547	0.525
959.500	554.965	80.006	19.995	103.253	20.265	3.421	0.521
960.000	555.178	80.007	19.994	103.254	20.263	3.533	0.482
960.500	555.519	80.006	19.995	103.253	20.266	3.321	0.507
961.000	555.723	80.007	19.994	103.252	20.273	2.841	0.549
961.500	556.023	80.007	19.995	103.252	20.264	3.473	0.524
962.000	556.232	80.007	19.993	103.252	20.267	3.216	0.506
962.501	556.484	80.005	19.994	103.251	20.264	3.450	0.485
963.001	556.712	80.006	19.994	103.251	20.265	3.422	0.470
963.501	556.991	80.005	19.995	103.251	20.270	3.013	0.494
964.000	557.209	80.006	19.995	103.250	20.269	3.099	0.502
964.500	557.505	80.005	19.994	103.251	20.270	3.052	0.506
965.000	557.728	80.007	19.994	103.251	20.266	3.323	0.517
965.500	557.974	80.006	19.994	103.252	20.264	3.459	0.494
966.000	558.293	80.007	19.995	103.252	20.267	3.222	0.517
966.500	558.508	80.003	19.994	103.253	20.267	3.214	0.549
967.000	558.736	80.008	19.994	103.253	20.270	3.040	0.488
967.500	558.989	80.005	19.995	103.253	20.269	3.083	0.462
968.000	559.278	80.009	19.994	103.253	20.270	3.027	0.512
968.500	559.530	80.009	19.994	103.249	20.266	3.305	0.541
969.000	559.779	80.007	19.994	103.247	20.267	3.227	0.521
969.500	560.003	80.007	19.995	103.246	20.266	3.301	0.487
970.000	560.286	80.004	19.995	103.246	20.267	3.286	0.490
970.500	560.526	80.007	19.994	103.248	20.268	3.190	0.515
971.000	560.740	80.006	19.995	103.252	20.270	3.029	0.488
971.500	561.032	80.008	19.993	103.254	20.269	3.116	0.480
972.000	561.279	80.008	19.995	103.256	20.269	3.085	0.523
972.500	561.533	80.007	19.993	103.257	20.268	3.167	0.521
973.000	561.799	80.006	19.993	103.256	20.271	2.916	0.510
973.500	562.045	80.008	19.992	103.255	20.269	3.091	0.516
974.000	562.265	80.008	19.993	103.252	20.265	3.432	0.489
974.500	562.562	80.007	19.993	103.251	20.269	3.079	0.491
975.000	562.798	80.008	19.994	103.250	20.268	3.175	0.525
975.500	563.053	80.007	19.993	103.249	20.271	2.984	0.512
976.000	563.296	80.009	19.993	103.250	20.274	2.767	0.494
976.500	563.548	80.007	19.994	103.253	20.268	3.140	0.496
977.000	563.847	80.008	19.993	103.254	20.268	3.179	0.523
977.500	564.067	80.008	19.993	103.255	20.268	3.187	0.535
978.000	564.326	80.008	19.993	103.254	20.266	3.350	0.499
978.500	564.581	80.008	19.994	103.254	20.268	3.157	0.497
979.000	564.867	80.008	19.994	103.253	20.269	3.091	0.528
979.500	565.108	80.008	19.994	103.253	20.266	3.321	0.534
980.000	565.361	80.007	19.994	103.253	20.268	3.151	0.510
980.500	565.596	80.007	19.994	103.256	20.265	3.420	0.491
981.000	565.850	80.008	19.993	103.256	20.271	2.943	0.489
981.500	566.109	80.007	19.994	103.256	20.266	3.321	0.501
982.001	566.352	80.009	19.995	103.256	20.271	2.974	0.507
982.500	566.614	80.008	19.994	103.257	20.272	2.892	0.503
983.000	566.855	80.008	19.994	103.256	20.269	3.071	0.504
983.500	567.101	80.007	19.993	103.256	20.275	2.664	0.495
984.000	567.361	80.008	19.995	103.255	20.272	2.910	0.497
984.501	567.595	80.005	19.994	103.255	20.273	2.795	0.500
985.000	567.862	80.008	19.994	103.254	20.271	2.956	0.497
985.500	568.121	80.006	19.994	103.255	20.271	2.939	0.513
986.000	568.357	80.007	19.995	103.254	20.270	3.054	0.511
986.500	568.609	80.006	19.994	103.255	20.268	3.177	0.492
987.001	568.882	80.007	19.995	103.254	20.268	3.177	0.506
987.501	569.114	80.005	19.995	103.254	20.269	3.093	0.514
988.000	569.381	80.006	19.994	103.251	20.273	2.830	0.502
988.500	569.645	80.007	19.994	103.251	20.268	3.186	0.515
989.000	569.880	80.004	19.996	103.250	20.271	2.929	0.515
989.500	570.184	80.004	19.995	103.250	20.269	3.066	0.519
990.000	570.442	80.006	19.996	103.249	20.269	3.075	0.551
990.500	570.626	80.005	19.994	103.252	20.273	2.828	0.502
991.000	570.926	80.004	19.994	103.253	20.274	2.756	0.463
991.500	571.147	80.004	19.995	103.253	20.274	2.717	0.502
992.000	571.404	80.005	19.995	103.255	20.269	3.071	0.500
992.500	571.624	80.005	19.993	103.255	20.274	2.701	0.478
993.000	571.903	80.004	19.994	103.255	20.269	3.087	0.487
993.500	572.161	80.004	19.995	103.254	20.273	2.818	0.518
994.000	572.384	80.004	19.995	103.256	20.275	2.684	0.509
994.500	572.668	80.005	19.994	103.255	20.274	2.746	0.494
995.000	572.916	80.003	19.995	103.255	20.271	2.966	0.520
995.500	573.184	80.004	19.993	103.256	20.270	3.021	0.524
996.000	573.424	80.003	19.995	103.256	20.274	2.695	0.512
996.500	573.695	80.005	19.994	103.256	20.274	2.721	0.510
997.000	573.980	80.003	19.994	103.256	20.275	2.623	0.534
997.501	574.243	80.005	19.994	103.256	20.272	2.871	0.552
998.001	574.529	80.005	19.995	103.256	20.273	2.830	0.548
998.500	574.743	80.007	19.994	103.256	20.273	2.834	0.524
999.000	575.058	80.006	19.994	103.255	20.277	2.522	0.514
999.500	575.283	80.005	19.994	103.255	20.272	2.906	0.535
1000.000	575.524	80.004	19.994	103.255	20.273	2.795	0.503
1000.500	575.795	80.006	19.994	103.254	20.274	2.742	0.489
1001.000	576.033	80.005	19.995	103.254	20.276	2.596	0.511
1001.500	576.313	80.006	19.994	103.255	20.272	2.861	0.513
1002.000	576.544	80.005	19.994	103.255	20.275	2.651	0.514
1002.500	576.775	80.006	19.994	103.255	20.276	2.561	0.487
1003.000	577.049	80.005	19.995	103.256	20.271	2.947	0.484
1003.500	577.305	80.006	19.995	103.256	20.279	2.335	0.517
1004.000	577.575	80.004	19.994	103.253	20.274	2.748	0.528
1004.500	577.821	80.006	19.994	103.250	20.273	2.801	0.521
1005.000	578.074	80.006	19.995	103.246	20.270	3.037	0.507
1005.500	578.352	80.005	19.996	103.245	20.274	2.727	0.515
1006.001	578.575	80.006	19.995	103.246	20.275	2.676	0.516
1006.501	578.846	80.006	19.995	103.247	20.274	2.738	0.497
1007.001	579.121	80.006	19.994	103.250	20.275	2.651	0.520
1007.500	579.397	80.006	19.995	103.249	20.277	2.532	0.549
1008.000	579.615	80.006	19.996	103.248	20.273	2.801	0.522
1008.500	579.849	80.006	19.995	103.247	20.274	2.758	0.473
1009.000	580.150	80.005	19.994	103.247	20.274	2.719	0.494
1009.500	580.382	80.005	19.995	103.244	20.274	2.715	0.534
1010.000	580.682	80.006	19.995	103.248	20.275	2.672	0.532
1010.500	580.953	80.007	19.995	103.249	20.272	2.844	0.551
1011.000	581.175	80.006	19.995	103.246	20.272	2.914	0.532
1011.500	581.449	80.006	19.995	103.243	20.271	2.988	0.495
1012.000	581.702	80.005	19.995	103.243	20.272	2.859	0.512
1012.500	581.928	80.005	19.996	103.241	20.272	2.845	0.503
1013.000	582.171	80.006	19.996	103.241	20.269	3.126	0.474
1013.500	582.453	80.006	19.993	103.245	20.271	2.927	0.497
1014.001	582.714	80.006	19.994	103.249	20.271	2.927	0.534
1014.500	582.973	80.007	19.996	103.248	20.276	2.584	0.532
1015.000	583.218	80.005	19.995	103.246	20.272	2.890	0.512
1015.500	583.483	80.006	19.995	103.247	20.272	2.877	0.506
1016.000	583.744	80.005	19.994	103.245	20.271	2.935	0.518
1016.500	583.975	80.006	19.995	103.243	20.272	2.851	0.509
1017.000	584.229	80.005	19.995	103.246	20.272	2.892	0.489
1017.500	584.498	80.006	19.995	103.248	20.274	2.723	0.504
1018.000	584.756	80.006	19.995	103.247	20.273	2.773	0.524
1018.501	585.021	80.005	19.995	103.247	20.273	2.805	0.524
1019.000	585.258	80.002	19.995	103.248	20.273	2.838	0.512
1019.500	585.519	80.005	19.995	103.248	20.275	2.682	0.500
1020.000	585.812	80.006	19.995	103.248	20.270	3.056	0.526
1020.500	586.052	80.004	19.995	103.249	20.269	3.066	0.544
1021.000	586.310	80.005	19.996	103.250	20.276	2.555	0.516
1021.500	586.581	80.006	19.996	103.250	20.274	2.736	0.513
1022.000	586.831	80.005	19.995	103.251	20.273	2.781	0.525
1022.500	587.040	80.005	19.995	103.252	20.274	2.760	0.490
1023.000	587.353	80.005	19.997	103.252	20.276	2.563	0.491
1023.500	587.578	80.004	19.996	103.252	20.275	2.627	0.530
1024.000	587.814	80.004	19.995	103.252	20.274	2.754	0.499
1024.501	588.085	80.004	19.996	103.252	20.274	2.762	0.484
1025.001	588.305	80.005	19.995	103.253	20.276	2.610	0.499
1025.501	588.576	80.003	19.995	103.253	20.276	2.600	0.491
1026.001	588.832	80.005	19.995	103.253	20.273	2.826	0.509
1026.501	589.113	80.005	19.995	103.250	20.271	2.918	0.532
1027.001	589.351	80.005	19.995	103.249	20.273	2.816	0.528
1027.500	589.627	80.004	19.995	103.248	20.272	2.863	0.517
1028.001	589.865	80.006	19.995	103.248	20.272	2.902	0.514
1028.501	590.130	80.005	19.994	103.249	20.273	2.797	0.508
1029.000	590.390	80.006	19.995	103.251	20.271	2.962	0.514
1029.500	590.663	80.006	19.994	103.252	20.276	2.606	0.529
1030.000	590.942	80.006	19.995	103.252	20.277	2.534	0.542
1030.500	591.142	80.005	19.994	103.252	20.277	2.516	0.516
1031.000	591.423	80.006	19.995	103.252	20.279	2.391	0.480
1031.500	591.675	80.006	19.994	103.253	20.276	2.571	0.507
1032.000	591.961	80.007	19.995	103.253	20.277	2.508	0.536
1032.500	592.185	80.006	19.994	103.253	20.279	2.382	0.524
1033.000	592.442	80.008	19.994	103.252	20.277	2.487	0.495
1033.500	592.705	80.004	19.993	103.253	20.274	2.727	0.500
1034.000	592.954	80.006	19.995	103.255	20.281	2.241	0.516
1034.500	593.230	80.005	19.994	103.254	20.278	2.458	0.519
1035.000	593.514	80.007	19.993	103.253	20.279	2.376	0.543
1035.500	593.759	80.007	19.994	103.253	20.275	2.664	0.545
1036.001	594.026	80.005	19.994	103.252	20.277	2.508	0.521
1036.501	594.270	80.008	19.993	103.248	20.277	2.487	0.512
1037.000	594.579	80.009	19.994	103.248	20.277	2.528	0.532
1037.500	594.826	80.006	19.994	103.249	20.277	2.541	0.554
1038.000	595.073	80.008	19.995	103.249	20.274	2.758	0.525
1038.500	595.327	80.007	19.993	103.249	20.277	2.536	0.498
1039.000	595.566	80.008	19.995	103.251	20.276	2.592	0.497
1039.500	595.875	80.008	19.994	103.250	20.274	2.719	0.521
1040.001	596.118	80.007	19.995	103.251	20.274	2.723	0.550
1040.501	596.328	80.005	19.993	103.251	20.275	2.637	0.503
1041.000	596.627	80.006	19.994	103.251	20.275	2.672	0.481
1041.500	596.862	80.007	19.994	103.250	20.276	2.549	0.522
1042.000	597.094	80.007	19.994	103.248	20.272	2.879	0.501
1042.500	597.391	80.006	19.994	103.249	20.275	2.625	0.498
1043.000	597.640	80.004	19.994	103.249	20.273	2.824	0.537
1043.500	597.893	80.008	19.994	103.249	20.274	2.733	0.524
1044.000	598.157	80.006	19.994	103.249	20.270	3.056	0.509
1044.501	598.432	80.007	19.993	103.246	20.271	2.968	0.528
1045.001	598.681	80.004	19.993	103.245	20.273	2.826	0.531
1045.502	598.893	80.005	19.994	103.244	20.274	2.703	0.493
1046.001	599.159	80.005	19.993	103.241	20.276	2.617	0.470
1046.500	599.420	80.005	19.994	103.243	20.272	2.906	0.502
1047.001	599.706	80.007	19.994	103.247	20.275	2.647	0.536
1047.501	599.964	80.006	19.994	103.249	20.275	2.664	0.546
1048.000	600.226	80.005	19.995	103.250	20.272	2.865	0.532
1048.500	600.450	80.006	19.994	103.250	20.269	3.105	0.503
1049.000	600.720	80.006	19.994	103.248	20.271	2.990	0.490
1049.500	600.980	80.006	19.993	103.248	20.272	2.875	0.512
1050.001	601.245	80.007	19.994	103.248	20.271	2.947	0.528
1050.501	601.476	80.006	19.994	103.250	20.275	2.668	0.511
1051.000	601.709	80.007	19.994	103.254	20.275	2.629	0.480
1051.501	601.992	80.006	19.994	103.256	20.276	2.606	0.490
1052.001	602.217	80.007	19.994	103.254	20.274	2.729	0.512
1052.501	602.460	80.005	19.994	103.247	20.271	2.951	0.488
1053.001	602.724	80.008	19.994	103.245	20.269	3.070	0.488
1053.500	603.002	80.006	19.994	103.245	20.271	2.970	0.525
1054.000	603.251	80.007	19.995	103.245	20.275	2.629	0.535
1054.501	603.469	80.007	19.994	103.247	20.271	2.972	0.497
1055.001	603.760	80.009	19.994	103.254	20.273	2.810	0.488
1055.501	604.021	80.008	19.995	103.253	20.272	2.877	0.530
1056.000	604.251	80.008	19.994	103.252	20.272	2.873	0.521
1056.500	604.548	80.007	19.995	103.252	20.269	3.130	0.509
1057.001	604.760	80.008	19.993	103.252	20.277	2.495	0.518
1057.501	604.976	80.007	19.994	103.251	20.275	2.639	0.469
1058.001	605.256	80.007	19.994	103.251	20.272	2.861	0.462
1058.500	605.536	80.007	19.993	103.248	20.275	2.691	0.528
1059.000	605.825	80.008	19.992	103.244	20.276	2.575	0.564
1059.500	606.047	80.009	19.995	103.244	20.271	2.937	0.540
1060.000	606.287	80.009	19.995	103.245	20.275	2.668	0.486
1060.501	606.543	80.008	19.994	103.247	20.276	2.600	0.479
1061.001	606.815	80.008	19.994	103.248	20.274	2.766	0.512
1061.501	607.083	80.007	19.993	103.250	20.270	3.005	0.534
1062.001	607.303	80.008	19.994	103.250	20.273	2.838	0.514
1062.501	607.562	80.009	19.993	103.248	20.276	2.596	0.484
1063.001	607.818	80.009	19.993	103.248	20.275	2.657	0.497
1063.501	608.090	80.008	19.993	103.252	20.273	2.830	0.521
1064.000	608.333	80.009	19.993	103.253	20.273	2.807	0.522
1064.501	608.589	80.009	19.994	103.254	20.272	2.867	0.507
1065.001	608.877	80.007	19.993	103.256	20.271	2.947	0.521
1065.501	609.132	80.009	19.994	103.256	20.270	3.019	0.544
1066.001	609.377	80.007	19.994	103.256	20.268	3.156	0.522
1066.501	609.599	80.009	19.995	103.255	20.273	2.838	0.484
1067.001	609.908	80.008	19.994	103.253	20.275	2.653	0.499
1067.500	610.131	80.009	19.994	103.252	20.273	2.795	0.531
1068.000	610.393	80.010	19.994	103.252	20.278	2.467	0.508
1068.500	610.635	80.009	19.994	103.251	20.272	2.887	0.495
1069.000	610.860	80.008	19.994	103.252	20.275	2.657	0.486
1069.500	611.164	80.009	19.994	103.253	20.273	2.775	0.498
1070.000	611.422	80.007	19.993	103.252	20.274	2.721	0.545
1070.500	611.663	80.007	19.993	103.251	20.275	2.686	0.531
1071.000	611.962	80.007	19.993	103.250	20.275	2.656	0.520
1071.501	612.207	80.004	19.993	103.249	20.272	2.865	0.542
1072.001	612.441	80.006	19.995	103.248	20.279	2.380	0.512
1072.501	612.734	80.007	19.994	103.249	20.277	2.518	0.503
1073.001	612.971	80.006	19.994	103.245	20.275	2.686	0.528
1073.501	613.220	80.004	19.992	103.246	20.271	2.976	0.508
1074.001	613.514	80.006	19.993	103.247	20.268	3.159	0.514
1074.501	613.758	80.006	19.994	103.247	20.271	2.953	0.540
1075.000	613.985	80.006	19.994	103.245	20.273	2.836	0.504
1075.500	614.274	80.006	19.993	103.248	20.271	2.918	0.494
1076.001	614.535	80.007	19.994	103.245	20.280	2.253	0.533
1076.502	614.787	80.006	19.994	103.241	20.276	2.600	0.531
1077.001	615.043	80.007	19.993	103.243	20.276	2.545	0.510
1077.500	615.286	80.006	19.993	103.243	20.271	2.984	0.503
1078.000	615.552	80.006	19.993	103.242	20.274	2.709	0.504
1078.500	615.784	80.005	19.993	103.245	20.269	3.077	0.504
1079.001	616.029	80.007	19.993	103.248	20.278	2.419	0.487
1079.501	616.270	80.006	19.993	103.245	20.273	2.777	0.482
1080.001	616.524	80.005	19.993	103.244	20.279	2.380	0.491
1080.501	616.824	80.005	19.994	103.246	20.271	2.962	0.525
1081.001	617.100	80.005	19.994	103.246	20.278	2.458	0.565
1081.501	617.319	80.005	19.994	103.246	20.277	2.485	0.535
1082.001	617.603	80.005	19.993	103.249	20.275	2.619	0.499
1082.500	617.855	80.006	19.994	103.252	20.276	2.545	0.519
1083.001	618.093	80.006	19.995	103.251	20.281	2.232	0.513
1083.501	618.349	80.004	19.994	103.250	20.277	2.516	0.492
1084.001	618.602	80.006	19.995	103.250	20.278	2.426	0.501
1084.501	618.848	80.007	19.995	103.248	20.279	2.352	0.504
1085.001	619.128	80.005	19.996	103.245	20.278	2.446	0.513
1085.500	619.354	80.005	19.995	103.239	20.275	2.651	0.516
1086.000	619.592	80.005	19.995	103.238	20.275	2.623	0.485
1086.500	619.857	80.007	19.995	103.239	20.275	2.666	0.483
1087.000	620.126	80.006	19.996	103.238	20.276	2.596	0.519
1087.501	620.354	80.006	19.996	103.243	20.277	2.542	0.516
1088.001	620.610	80.005	19.995	103.250	20.276	2.546	0.491
1088.500	620.888	80.006	19.995	103.251	20.277	2.493	0.509
1089.001	621.137	80.006	19.995	103.252	20.280	2.253	0.530
1089.501	621.422	80.006	19.996	103.254	20.281	2.236	0.530
1090.001	621.699	80.007	19.995	103.253	20.280	2.310	0.548
1090.501	621.986	80.006	19.994	103.253	20.282	2.134	0.563
1091.000	622.187	80.004	19.995	103.253	20.277	2.503	0.526
1091.500	622.449	80.005	19.994	103.251	20.282	2.126	0.475
1092.000	622.725	80.006	19.994	103.251	20.279	2.384	0.501
1092.500	622.937	80.006	19.993	103.250	20.278	2.419	0.513
1093.000	623.236	80.006	19.994	103.250	20.278	2.407	0.500
1093.501	623.564	80.006	19.995	103.251	20.275	2.629	0.569
1094.001	623.792	80.007	19.994	103.252	20.282	2.105	0.591
1094.500	624.021	80.007	19.995	103.252	20.278	2.448	0.506
1095.001	624.309	80.007	19.995	103.252	20.278	2.452	0.487
1095.501	624.573	80.006	19.994	103.252	20.278	2.407	0.534
1096.000	624.822	80.006	19.995	103.251	20.277	2.497	0.532
1096.501	625.081	80.005	19.994	103.248	20.280	2.306	0.510
1097.001	625.351	80.007	19.995	103.244	20.276	2.553	0.519
1097.500	625.597	80.006	19.995	103.244	20.280	2.310	0.523
1098.001	625.875	80.006	19.995	103.243	20.281	2.245	0.520
1098.501	626.094	80.006	19.994	103.242	20.283	2.076	0.510
1099.000	626.373	80.006	19.994	103.241	20.274	2.754	0.498
1099.500	626.638	80.006	19.995	103.243	20.275	2.645	0.521
1100.000	626.880	80.007	19.995	103.244	20.274	2.754	0.525
1100.500	627.133	80.005	19.994	103.244	20.277	2.506	0.500
1101.000	627.394	80.005	19.995	103.245	20.271	2.986	0.505
1101.500	627.648	80.006	19.995	103.248	20.275	2.676	0.515
1102.001	627.875	80.006	19.995	103.248	20.275	2.641	0.498
1102.501	628.171	80.005	19.994	103.248	20.273	2.822	0.502
1103.000	628.433	80.005	19.995	103.249	20.279	2.360	0.540
1103.500	628.680	80.006	19.994	103.245	20.275	2.680	0.534
1104.000	628.962	80.005	19.995	103.244	20.274	2.756	0.519
1104.500	629.237	80.006	19.994	103.242	20.275	2.622	0.543
1105.000	629.453	80.006	19.995	103.241	20.276	2.581	0.524
1105.500	629.690	80.007	19.995	103.240	20.273	2.813	0.472
1106.000	629.988	80.006	19.995	103.244	20.280	2.320	0.494
1106.500	630.203	80.006	19.995	103.246	20.269	3.121	0.524
1107.001	630.495	80.005	19.995	103.251	20.274	2.735	0.510
1107.501	630.778	80.006	19.994	103.251	20.275	2.664	0.541
1108.000	631.032	80.006	19.996	103.250	20.274	2.744	0.556
1108.500	631.316	80.005	19.995	103.250	20.277	2.487	0.538
1109.000	631.537	80.006	19.996	103.251	20.272	2.914	0.522
1109.500	631.796	80.005	19.995	103.251	20.272	2.881	0.492
1110.001	632.054	80.005	19.994	103.252	20.275	2.620	0.499
1110.501	632.313	80.005	19.994	103.251	20.278	2.448	0.517
1111.000	632.610	80.005	19.995	103.250	20.281	2.187	0.536
1111.500	632.840	80.006	19.995	103.250	20.277	2.479	0.542
1112.000	633.155	80.004	19.995	103.249	20.277	2.473	0.536
1112.501	633.401	80.006	19.995	103.247	20.275	2.676	0.553
1113.002	633.632	80.004	19.994	103.247	20.271	2.964	0.519
1113.501	633.889	80.005	19.996	103.242	20.274	2.734	0.482
1114.001	634.126	80.006	19.994	103.238	20.274	2.695	0.491
1114.501	634.397	80.005	19.995	103.233	20.274	2.727	0.502
1115.000	634.685	80.006	19.996	103.232	20.272	2.844	0.534
1115.500	634.913	80.005	19.995	103.233	20.273	2.824	0.537
1116.000	635.218	80.005	19.995	103.233	20.278	2.399	0.524
1116.500	635.468	80.005	19.996	103.234	20.279	2.382	0.544
1117.000	635.694	80.007	19.996	103.237	20.274	2.717	0.516
1117.500	635.999	80.006	19.995	103.238	20.278	2.434	0.503
1118.000	636.220	80.006	19.995	103.240	20.276	2.600	0.528
1118.500	636.487	80.007	19.995	103.245	20.274	2.764	0.507
1119.000	636.736	80.006	19.994	103.247	20.277	2.514	0.502
1119.501	636.981	80.005	19.996	103.250	20.278	2.452	0.505
1120.001	637.236	80.006	19.995	103.251	20.279	2.372	0.497
1120.500	637.514	80.006	19.994	103.247	20.274	2.703	0.517
1121.000	637.742	80.006	19.995	103.240	20.274	2.697	0.519
1121.500	638.003	80.007	19.994	103.237	20.278	2.421	0.497
1122.001	638.280	80.006	19.994	103.236	20.276	2.602	0.514
1122.501	638.539	80.006	19.995	103.237	20.272	2.894	0.537
1123.000	638.794	80.005	19.995	103.242	20.271	2.976	0.525
1123.501	639.079	80.006	19.995	103.248	20.274	2.729	0.527
1124.001	639.344	80.006	19.995	103.252	20.274	2.748	0.545
1124.500	639.581	80.005	19.996	103.253	20.279	2.343	0.527
1125.000	639.883	80.005	19.996	103.249	20.275	2.688	0.520
1125.500	640.109	80.006	19.995	103.243	20.269	3.134	0.533
1126.000	640.305	80.005	19.995	103.240	20.267	3.231	0.475
1126.500	640.608	80.007	19.995	103.238	20.271	2.935	0.460
1127.000	640.883	80.006	19.995	103.238	20.272	2.847	0.539
1127.501	641.104	80.006	19.994	103.240	20.275	2.676	0.537
1128.001	641.350	80.005	19.994	103.246	20.278	2.452	0.481
1128.501	641.583	80.006	19.994	103.250	20.274	2.734	0.472
1129.001	641.858	80.004	19.994	103.251	20.278	2.397	0.494
1129.501	642.139	80.006	19.994	103.245	20.282	2.160	0.532
1130.001	642.408	80.006	19.993	103.245	20.279	2.329	0.553
1130.501	642.703	80.005	19.994	103.242	20.275	2.667	0.557
1131.001	642.902	80.005	19.994	103.241	20.281	2.199	0.529
1131.501	643.147	80.008	19.996	103.243	20.271	2.949	0.469
1132.000	643.444	80.006	19.994	103.247	20.274	2.727	0.493
1132.500	643.655	80.005	19.993	103.244	20.275	2.658	0.525
1133.000	643.922	80.008	19.995	103.245	20.277	2.487	0.494
1133.501	644.206	80.006	19.994	103.244	20.278	2.448	0.514
1134.001	644.424	80.006	19.995	103.239	20.274	2.699	0.526
1134.500	644.668	80.008	19.994	103.239	20.275	2.649	0.482
1135.001	644.913	80.006	19.995	103.243	20.271	2.974	0.476
1135.501	645.184	80.007	19.994	103.243	20.275	2.676	0.502
1136.000	645.462	80.007	19.994	103.245	20.272	2.861	0.532
1136.500	645.693	80.005	19.993	103.249	20.276	2.573	0.529
1137.000	645.970	80.007	19.994	103.250	20.276	2.551	0.509
1137.500	646.173	80.006	19.994	103.251	20.276	2.588	0.494
1138.000	646.446	80.007	19.994	103.253	20.274	2.717	0.478
1138.500	646.681	80.007	19.995	103.253	20.272	2.885	0.492
1139.001	646.935	80.004	19.994	103.254	20.272	2.865	0.499
1139.501	647.191	80.007	19.994	103.251	20.271	2.953	0.499
1140.000	647.468	80.006	19.994	103.244	20.271	2.926	0.521
1140.500	647.704	80.006	19.993	103.238	20.273	2.809	0.523
1141.001	647.993	80.007	19.993	103.236	20.273	2.791	0.519
1141.501	648.207	80.008	19.994	103.235	20.276	2.553	0.514
1142.000	648.507	80.008	19.993	103.239	20.273	2.781	0.509
1142.500	648.724	80.009	19.993	103.245	20.271	2.984	0.515
1143.000	649.018	80.008	19.995	103.250	20.274	2.752	0.514
1143.500	649.266	80.008	19.993	103.250	20.271	2.943	0.527
1144.000	649.491	80.007	19.995	103.251	20.266	3.327	0.508
1144.500	649.776	80.009	19.994	103.251	20.273	2.795	0.492
1145.001	650.020	80.009	19.995	103.252	20.278	2.409	0.520
1145.501	650.271	80.006	19.993	103.252	20.275	2.633	0.511
1146.000	650.517	80.007	19.995	103.252	20.278	2.468	0.496
1146.500	650.775	80.008	19.995	103.252	20.269	3.115	0.501
1147.000	651.004	80.008	19.994	103.251	20.273	2.829	0.495
1147.501	651.289	80.008	19.995	103.250	20.277	2.489	0.501
1148.001	651.538	80.007	19.993	103.246	20.272	2.872	0.524
1148.500	651.793	80.007	19.995	103.244	20.275	2.618	0.518
1149.000	652.062	80.008	19.993	103.242	20.278	2.464	0.514
1149.500	652.314	80.009	19.994	103.239	20.274	2.756	0.523
1150.001	652.564	80.008	19.994	103.239	20.275	2.643	0.512
1150.501	652.797	80.008	19.995	103.243	20.273	2.787	0.493
1151.000	653.098	80.007	19.995	103.244	20.273	2.832	0.509
1151.500	653.325	80.006	19.993	103.246	20.274	2.734	0.531
1152.000	653.600	80.007	19.993	103.249	20.272	2.902	0.515
1152.501	653.857	80.006	19.994	103.250	20.276	2.555	0.518
1153.001	654.070	80.008	19.994	103.250	20.277	2.538	0.501
1153.500	654.305	80.006	19.994	103.251	20.274	2.698	0.459
1154.000	654.587	80.006	19.994	103.245	20.272	2.906	0.483
1154.500	654.823	80.007	19.995	103.242	20.271	2.916	0.518
1155.001	655.101	80.006	19.993	103.237	20.273	2.830	0.515
1155.501	655.363	80.007	19.995	103.236	20.272	2.844	0.527
1156.001	655.619	80.005	19.993	103.235	20.273	2.772	0.529
1156.501	655.877	80.006	19.994	103.235	20.274	2.725	0.516
1157.002	656.151	80.004	19.993	103.236	20.277	2.485	0.523
1157.502	656.362	80.004	19.993	103.234	20.276	2.565	0.508
1158.001	656.630	80.003	19.994	103.228	20.277	2.507	0.482
1158.500	656.904	80.005	19.994	103.223	20.272	2.908	0.511
1159.000	657.159	80.004	19.993	103.224	20.275	2.647	0.535
1159.500	657.393	80.005	19.994	103.224	20.272	2.852	0.509
1160.000	657.635	80.005	19.995	103.231	20.271	2.959	0.482
1160.500	657.876	80.005	19.994	103.238	20.275	2.672	0.479
1161.000	658.149	80.006	19.995	103.244	20.276	2.606	0.498
1161.501	658.373	80.008	19.995	103.249	20.275	2.618	0.506
1162.001	658.641	80.006	19.994	103.251	20.275	2.651	0.495
1162.500	658.911	80.006	19.995	103.252	20.280	2.306	0.516
1163.000	659.118	80.005	19.994	103.253	20.273	2.787	0.508
1163.501	659.389	80.006	19.994	103.251	20.271	2.918	0.477
1164.001	659.639	80.004	19.995	103.248	20.275	2.658	0.499
1164.500	659.875	80.006	19.995	103.243	20.276	2.608	0.504
1165.000	660.142	80.005	19.994	103.240	20.275	2.631	0.494
1165.500	660.376	80.004	19.995	103.240	20.275	2.620	0.502
1166.000	660.653	80.005	19.994	103.242	20.277	2.478	0.507
1166.500	660.940	80.006	19.994	103.244	20.277	2.540	0.538
1167.001	661.183	80.006	19.995	103.245	20.280	2.314	0.547
1167.501	661.447	80.005	19.992	103.244	20.281	2.224	0.518
1168.000	661.679	80.006	19.994	103.241	20.271	2.941	0.501
1168.500	661.928	80.006	19.994	103.234	20.277	2.505	0.489
1169.000	662.174	80.004	19.993	103.235	20.281	2.232	0.488
1169.500	662.419	80.007	19.995	103.238	20.271	2.972	0.494
1170.000	662.686	80.005	19.993	103.238	20.275	2.633	0.502
1170.500	662.931	80.005	19.994	103.239	20.281	2.210	0.512
1171.000	663.206	80.005	19.995	103.244	20.280	2.288	0.516
1171.500	663.470	80.005	19.994	103.240	20.275	2.620	0.530
1172.000	663.749	80.005	19.994	103.238	20.276	2.598	0.540
1172.500	663.977	80.003	19.992	103.243	20.279	2.358	0.525
1173.000	664.216	80.005	19.993	103.242	20.275	2.662	0.487
1173.500	664.440	80.006	19.995	103.244	20.280	2.306	0.465
1174.000	664.751	80.004	19.995	103.248	20.282	2.138	0.499
1174.500	664.970	80.004	19.995	103.249	20.278	2.407	0.532
1175.000	665.220	80.005	19.994	103.248	20.278	2.425	0.499
1175.501	665.453	80.004	19.993	103.246	20.278	2.446	0.476
1176.001	665.682	80.005	19.995	103.241	20.284	2.017	0.473
1176.500	665.933	80.006	19.995	103.234	20.275	2.625	0.471
1177.000	666.215	80.006	19.994	103.233	20.285	1.881	0.507
1177.500	666.474	80.006	19.994	103.232	20.282	2.136	0.537
1178.000	666.735	80.005	19.993	103.234	20.279	2.347	0.530
1178.500	666.980	80.006	19.994	103.237	20.286	1.828	0.513
1179.000	667.223	80.005	19.994	103.240	20.279	2.372	0.497
1179.501	667.497	80.005	19.994	103.243	20.281	2.181	0.503
1180.001	667.715	80.006	19.994	103.246	20.277	2.532	0.504
1180.501	667.987	80.003	19.994	103.247	20.279	2.392	0.491
1181.001	668.258	80.005	19.995	103.242	20.278	2.405	0.516
1181.501	668.487	80.005	19.995	103.242	20.273	2.783	0.521
1182.000	668.759	80.002	19.994	103.240	20.279	2.358	0.501
1182.500	668.985	80.007	19.996	103.239	20.277	2.512	0.500
1183.000	669.211	80.005	19.996	103.239	20.278	2.401	0.475
1183.501	669.489	80.005	19.995	103.246	20.279	2.366	0.478
1184.001	669.698	80.005	19.994	103.249	20.279	2.386	0.496
1184.500	669.964	80.005	19.996	103.247	20.285	1.932	0.481
1185.000	670.243	80.005	19.995	103.245	20.280	2.259	0.510
1185.501	670.501	80.004	19.994	103.245	20.277	2.503	0.541
1186.001	670.751	80.004	19.995	103.245	20.274	2.717	0.523
1186.501	671.033	80.004	19.995	103.247	20.274	2.731	0.521
1187.001	671.273	80.003	19.995	103.252	20.273	2.836	0.527
1187.500	671.506	80.004	19.995	103.253	20.278	2.444	0.497
1188.001	671.773	80.004	19.996	103.253	20.274	2.727	0.486
1188.501	672.026	80.004	19.994	103.252	20.279	2.327	0.510
1189.000	672.288	80.005	19.995	103.247	20.276	2.575	0.517
1189.501	672.538	80.003	19.994	103.242	20.276	2.585	0.514
1190.001	672.815	80.005	19.995	103.236	20.277	2.491	0.519
1190.501	673.037	80.004	19.995	103.229	20.274	2.717	0.513
1191.001	673.329	80.005	19.996	103.224	20.271	2.974	0.507
1191.500	673.542	80.005	19.996	103.229	20.274	2.744	0.510
1192.000	673.785	80.004	19.994	103.232	20.278	2.454	0.480
1192.500	674.057	80.004	19.996	103.240	20.273	2.777	0.485
1193.000	674.333	80.003	19.993	103.247	20.278	2.460	0.532
1193.501	674.580	80.005	19.994	103.251	20.275	2.665	0.535
1194.001	674.795	80.006	19.995	103.244	20.273	2.838	0.492
1194.500	675.042	80.004	19.996	103.240	20.279	2.384	0.462
1195.000	675.301	80.004	19.994	103.236	20.279	2.331	0.484
1195.501	675.547	80.005	19.994	103.230	20.277	2.479	0.505
1196.001	675.807	80.007	19.995	103.226	20.277	2.543	0.505
1196.500	676.069	80.005	19.994	103.230	20.272	2.910	0.514
1197.000	676.352	80.006	19.994	103.236	20.270	2.994	0.534
1197.500	676.602	80.006	19.995	103.238	20.279	2.376	0.539
1198.000	676.811	80.006	19.994	103.241	20.280	2.319	0.496
1198.500	677.132	80.006	19.993	103.241	20.274	2.754	0.495
1199.000	677.381	80.007	19.996	103.237	20.273	2.799	0.550
1199.500	677.608	80.007	19.995	103.234	20.275	2.666	0.522
1200.000	677.830	80.005	19.994	103.236	20.273	2.809	0.462
1200.501	678.094	80.005	19.994	103.236	20.272	2.881	0.467
1201.001	678.351	80.007	19.994	103.241	20.275	2.692	0.504
1201.501	678.620	80.006	19.993	103.246	20.277	2.530	0.524
1202.001	678.905	80.006	19.994	103.248	20.273	2.791	0.540
1202.500	679.152	80.005	19.994	103.245	20.278	2.454	0.543
1203.000	679.372	80.006	19.995	103.246	20.279	2.337	0.499
1203.500	679.572	80.007	19.995	103.246	20.279	2.378	0.444
1204.000	679.884	80.007	19.995	103.241	20.274	2.754	0.467
1204.500	680.105	80.007	19.996	103.237	20.273	2.813	0.523
1205.001	680.399	80.007	19.994	103.239	20.277	2.501	0.524
1205.501	680.627	80.006	19.995	103.238	20.273	2.821	0.518
1206.001	680.915	80.006	19.995	103.236	20.276	2.610	0.519
1206.501	681.126	80.006	19.996	103.243	20.272	2.877	0.508
1207.000	681.407	80.006	19.995	103.248	20.275	2.647	0.496
1207.500	681.641	80.007	19.995	103.248	20.278	2.438	0.503
1208.000	681.905	80.007	19.994	103.249	20.278	2.458	0.506
1208.500	682.176	80.006	19.995	103.250	20.274	2.699	0.517
1209.000	682.429	80.006	19.995	103.249	20.276	2.559	0.530
1209.500	682.644	80.006	19.995	103.248	20.273	2.811	0.496
1210.000	682.952	80.008	19.996	103.248	20.273	2.787	0.495
1210.500	683.251	80.004	19.993	103.248	20.273	2.777	0.565
1211.000	683.479	80.007	19.996	103.248	20.276	2.608	0.567
1211.500	683.773	80.005	19.995	103.249	20.276	2.616	0.524
1212.000	683.960	80.005	19.996	103.249	20.278	2.405	0.501
1212.501	684.227	80.005	19.997	103.250	20.275	2.639	0.468
1213.002	684.480	80.005	19.996	103.249	20.273	2.776	0.487
1213.501	684.723	80.005	19.995	103.247	20.278	2.446	0.507
1214.001	685.019	80.006	19.995	103.241	20.272	2.881	0.517
1214.501	685.246	80.006	19.997	103.238	20.278	2.425	0.531
1215.001	685.551	80.006	19.995	103.234	20.274	2.717	0.528
1215.501	685.779	80.006	19.997	103.229	20.274	2.727	0.533
1216.001	686.001	80.005	19.996	103.226	20.278	2.466	0.491
1216.500	686.280	80.007	19.995	103.226	20.282	2.156	0.475
1217.000	686.565	80.006	19.995	103.227	20.273	2.770	0.533
1217.501	686.798	80.007	19.996	103.231	20.276	2.602	0.541
1218.001	687.085	80.006	19.994	103.237	20.277	2.513	0.519
1218.501	687.285	80.007	19.996	103.242	20.275	2.688	0.504
1219.000	687.570	80.005	19.995	103.246	20.274	2.762	0.486
1219.500	687.821	80.007	19.995	103.246	20.278	2.440	0.511
1220.000	688.117	80.006	19.994	103.246	20.281	2.181	0.541
1220.501	688.377	80.007	19.995	103.245	20.275	2.682	0.551
1221.001	688.620	80.007	19.994	103.243	20.274	2.711	0.530
1221.500	688.897	80.006	19.994	103.245	20.277	2.522	0.512
1222.000	689.144	80.007	19.994	103.244	20.279	2.382	0.522
1222.501	689.401	80.007	19.994	103.243	20.278	2.460	0.514
1223.001	689.632	80.006	19.994	103.242	20.281	2.185	0.496
1223.501	689.905	80.006	19.995	103.242	20.282	2.158	0.496
1224.001	690.119	80.007	19.994	103.242	20.279	2.343	0.496
1224.501	690.419	80.006	19.993	103.240	20.274	2.704	0.501
1225.000	690.683	80.007	19.993	103.242	20.281	2.197	0.539
1225.500	690.914	80.007	19.994	103.243	20.277	2.481	0.529
1226.000	691.199	80.008	19.994	103.245	20.278	2.464	0.505
1226.500	691.413	80.006	19.994	103.245	20.282	2.117	0.508
1227.001	691.669	80.007	19.993	103.242	20.279	2.355	0.485
1227.501	691.954	80.007	19.993	103.235	20.275	2.620	0.505
1228.000	692.210	80.008	19.994	103.232	20.278	2.407	0.541
1228.500	692.438	80.008	19.995	103.231	20.276	2.567	0.513
1229.000	692.744	80.008	19.993	103.233	20.279	2.353	0.509
1229.501	692.946	80.007	19.993	103.239	20.277	2.536	0.521
1230.001	693.221	80.009	19.994	103.243	20.271	2.953	0.492
1230.500	693.485	80.008	19.995	103.245	20.276	2.583	0.508
1231.001	693.724	80.007	19.992	103.244	20.273	2.782	0.522
1231.501	693.980	80.009	19.994	103.241	20.272	2.869	0.499
1232.001	694.239	80.008	19.993	103.240	20.272	2.854	0.505
1232.501	694.530	80.007	19.993	103.239	20.276	2.594	0.532
1233.001	694.773	80.008	19.994	103.237	20.280	2.251	0.542
1233.500	695.039	80.008	19.994	103.238	20.274	2.713	0.522
1234.000	695.327	80.008	19.995	103.238	20.280	2.259	0.532
1234.501	695.554	80.008	19.993	103.234	20.278	2.435	0.534
1235.001	695.843	80.006	19.995	103.233	20.282	2.109	0.515
1235.501	696.097	80.007	19.994	103.234	20.277	2.491	0.530
1236.000	696.341	80.007	19.995	103.235	20.278	2.443	0.521
1236.500	696.625	80.007	19.993	103.238	20.276	2.599	0.513
1237.000	696.888	80.007	19.995	103.241	20.277	2.538	0.537
1237.501	697.121	80.007	19.994	103.241	20.272	2.858	0.521
1238.001	697.410	80.006	19.995	103.242	20.272	2.852	0.509
1238.500	697.625	80.007	19.994	103.241	20.275	2.620	0.513
1239.001	697.913	80.004	19.993	103.238	20.279	2.366	0.503
1239.501	698.128	80.006	19.994	103.234	20.276	2.602	0.503
1240.001	698.411	80.004	19.993	103.232	20.279	2.329	0.501
1240.501	698.695	80.005	19.994	103.227	20.276	2.585	0.532
1241.001	698.907	80.005	19.995	103.222	20.278	2.405	0.531
1241.500	699.147	80.005	19.995	103.219	20.276	2.596	0.474
1242.000	699.384	80.004	19.995	103.223	20.275	2.686	0.465
1242.501	699.681	80.004	19.994	103.229	20.274	2.721	0.506
1243.001	699.899	80.006	19.995	103.236	20.276	2.583	0.525
1243.501	700.139	80.004	19.994	103.240	20.274	2.723	0.486
1244.001	700.408	80.005	19.995	103.244	20.274	2.750	0.483
1244.501	700.655	80.005	19.994	103.241	20.281	2.203	0.512
1245.001	700.895	80.006	19.994	103.236	20.281	2.203	0.502
1245.501	701.167	80.005	19.995	103.231	20.276	2.544	0.500
1246.000	701.426	80.005	19.993	103.229	20.279	2.359	0.521
1246.501	701.655	80.005	19.994	103.224	20.283	2.097	0.510
1247.002	701.923	80.006	19.994	103.223	20.280	2.269	0.493
1247.502	702.135	80.005	19.994	103.225	20.278	2.425	0.488
1248.001	702.418	80.006	19.995	103.227	20.279	2.349	0.488
1248.500	702.671	80.005	19.994	103.229	20.278	2.411	0.516
1249.000	702.944	80.006	19.995	103.230	20.278	2.419	0.531
1249.501	703.207	80.004	19.995	103.231	20.283	2.076	0.531
1250.001	703.444	80.006	19.996	103.231	20.280	2.319	0.518
1250.501	703.705	80.004	19.995	103.232	20.276	2.557	0.499
1251.001	703.962	80.004	19.994	103.230	20.284	2.011	0.508
1251.500	704.205	80.004	19.993	103.234	20.279	2.388	0.509
1252.000	704.425	80.005	19.994	103.237	20.274	2.729	0.481
1252.501	704.682	80.005	19.995	103.242	20.274	2.706	0.470
1253.001	704.931	80.005	19.994	103.245	20.277	2.511	0.492
1253.500	705.193	80.005	19.995	103.248	20.278	2.462	0.509
1254.000	705.473	80.006	19.995	103.243	20.274	2.708	0.527
1254.501	705.710	80.004	19.993	103.242	20.270	3.004	0.530
1255.001	705.981	80.004	19.995	103.238	20.277	2.491	0.513
1255.501	706.229	80.007	19.995	103.233	20.279	2.331	0.513
1256.001	706.467	80.004	19.993	103.230	20.274	2.729	0.502
1256.500	706.741	80.005	19.993	103.233	20.277	2.530	0.499
1257.000	706.997	80.005	19.993	103.234	20.275	2.684	0.521
1257.500	707.224	80.006	19.995	103.236	20.274	2.694	0.506
1258.001	707.490	80.003	19.994	103.238	20.275	2.651	0.488
1258.501	707.745	80.006	19.995	103.242	20.277	2.518	0.507
1259.001	708.003	80.006	19.994	103.244	20.278	2.464	0.517
1259.501	708.245	80.006	19.993	103.243	20.280	2.259	0.507
1260.000	708.517	80.005	19.994	103.245	20.272	2.908	0.507
1260.501	708.756	80.006	19.994	103.246	20.275	2.663	0.512
1261.001	709.024	80.005	19.993	103.247	20.275	2.663	0.509
1261.500	709.242	80.005	19.992	103.249	20.274	2.717	0.497
1262.000	709.495	80.005	19.993	103.250	20.274	2.743	0.479
1262.500	709.770	80.006	19.993	103.244	20.272	2.879	0.499
1263.001	709.987	80.005	19.993	103.239	20.275	2.636	0.510
1263.501	710.286	80.005	19.994	103.234	20.275	2.659	0.504
1264.001	710.517	80.006	19.993	103.228	20.274	2.727	0.523
1264.501	710.807	80.006	19.994	103.222	20.280	2.314	0.525
1265.001	711.011	80.006	19.994	103.224	20.278	2.446	0.508
1265.500	711.255	80.006	19.993	103.230	20.277	2.517	0.471
1266.000	711.530	80.005	19.994	103.236	20.279	2.359	0.483
1266.500	711.765	80.006	19.995	103.240	20.273	2.776	0.514
1267.000	712.020	80.006	19.993	103.245	20.277	2.507	0.500
1267.500	712.265	80.006	19.994	103.249	20.278	2.417	0.495
1268.000	712.525	80.005	19.993	103.248	20.279	2.373	0.503
1268.500	712.793	80.004	19.993	103.242	20.277	2.480	0.517
1269.000	713.050	80.005	19.994	103.238	20.280	2.279	0.526
1269.500	713.246	80.004	19.995	103.234	20.281	2.193	0.489
1270.000	713.541	80.006	19.993	103.231	20.278	2.466	0.472
1270.500	713.818	80.003	19.994	103.231	20.279	2.392	0.531
1271.000	714.053	80.006	19.994	103.233	20.282	2.156	0.542
1271.501	714.295	80.006	19.994	103.238	20.279	2.341	0.495
1272.001	714.553	80.005	19.995	103.239	20.277	2.497	0.488
1272.501	714.792	80.005	19.995	103.236	20.281	2.195	0.498
1273.001	715.092	80.005	19.995	103.231	20.273	2.780	0.518
1273.500	715.420	80.007	19.994	103.229	20.279	2.359	0.584
1274.001	715.592	80.004	19.995	103.226	20.280	2.265	0.564
1274.501	715.849	80.005	19.995	103.227	20.276	2.591	0.464
1275.000	716.118	80.005	19.995	103.232	20.282	2.158	0.477
1275.501	716.343	80.005	19.995	103.234	20.283	2.047	0.510
1276.001	716.603	80.005	19.995	103.234	20.276	2.612	0.490
1276.501	716.871	80.004	19.994	103.230	20.277	2.523	0.506
1277.001	717.113	80.006	19.995	103.228	20.277	2.509	0.519
1277.501	717.356	80.006	19.994	103.222	20.280	2.250	0.498
1278.000	717.650	80.005	19.996	103.220	20.284	1.955	0.511
1278.500	717.886	80.006	19.997	103.219	20.281	2.232	0.534
1279.000	718.162	80.005	19.995	103.220	20.278	2.431	0.521
1279.501	718.405	80.005	19.995	103.222	20.279	2.364	0.516
1280.001	718.660	80.006	19.996	103.229	20.281	2.197	0.509
1280.501	718.907	80.006	19.994	103.232	20.277	2.511	0.500
1281.001	719.152	80.005	19.995	103.232	20.280	2.267	0.497
1281.500	719.391	80.004	19.996	103.231	20.281	2.201	0.488
1282.000	719.715	80.005	19.994	103.231	20.279	2.341	0.523
1282.500	719.961	80.005	19.996	103.229	20.278	2.408	0.566
1283.000	720.179	80.006	19.995	103.231	20.274	2.700	0.517
1283.500	720.448	80.005	19.996	103.231	20.271	2.961	0.476
1284.000	720.684	80.006	19.995	103.233	20.276	2.575	0.496
1284.500	720.975	80.006	19.995	103.231	20.276	2.565	0.516
1285.000	721.189	80.006	19.996	103.228	20.276	2.565	0.516
1285.500	721.445	80.007	19.995	103.225	20.274	2.725	0.487
1286.000	721.684	80.005	19.995	103.227	20.274	2.702	0.483
1286.500	721.960	80.007	19.995	103.226	20.277	2.482	0.505
1287.000	722.164	80.007	19.994	103.225	20.271	2.934	0.497
1287.500	722.452	80.006	19.993	103.222	20.274	2.761	0.486
1288.000	722.687	80.006	19.996	103.221	20.276	2.548	0.508
1288.500	722.940	80.008	19.995	103.221	20.274	2.737	0.505
1289.000	723.210	80.007	19.994	103.224	20.270	3.008	0.506
1289.501	723.437	80.006	19.994	103.228	20.276	2.612	0.510
1290.001	723.705	80.007	19.995	103.232	20.274	2.718	0.496
1290.500	723.955	80.005	19.993	103.239	20.272	2.914	0.506
1291.000	724.197	80.008	19.993	103.238	20.274	2.733	0.505
1291.500	724.463	80.007	19.994	103.236	20.274	2.718	0.500
1292.001	724.699	80.007	19.994	103.232	20.274	2.753	0.505
1292.501	724.952	80.006	19.993	103.229	20.273	2.796	0.495
1293.001	725.178	80.007	19.995	103.222	20.277	2.513	0.484
1293.501	725.390	80.006	19.995	103.222	20.267	3.228	0.459
1294.000	725.661	80.008	19.995	103.223	20.270	3.014	0.460
1294.501	725.928	80.007	19.995	103.225	20.276	2.575	0.511
1295.001	726.170	80.007	19.993	103.230	20.271	2.938	0.524
1295.500	726.423	80.007	19.994	103.233	20.272	2.910	0.502
1296.000	726.656	80.008	19.995	103.229	20.272	2.842	0.491
1296.501	726.919	80.007	19.995	103.226	20.272	2.907	0.491
1297.001	727.148	80.006	19.993	103.223	20.274	2.712	0.494
1297.501	727.381	80.005	19.994	103.217	20.273	2.778	0.477
1298.001	727.605	80.007	19.995	103.215	20.273	2.792	0.460
1298.500	727.852	80.005	19.993	103.215	20.277	2.542	0.464
1299.000	728.089	80.006	19.994	103.217	20.271	2.965	0.478
1299.500	728.357	80.007	19.994	103.220	20.272	2.844	0.494
1300.001	728.629	80.006	19.995	103.224	20.275	2.618	0.522
1300.501	728.877	80.006	19.995	103.224	20.267	3.242	0.530
1301.000	729.078	80.008	19.995	103.224	20.269	3.082	0.485
1301.500	729.348	80.007	19.995	103.222	20.269	3.076	0.460
1302.000	729.590	80.005	19.994	103.221	20.273	2.831	0.491
1302.500	729.804	80.005	19.994	103.217	20.274	2.749	0.484
1303.001	730.089	80.007	19.994	103.217	20.269	3.133	0.478
1303.501	730.332	80.007	19.994	103.218	20.269	3.098	0.514
1304.001	730.564	80.004	19.994	103.219	20.271	2.949	0.501
1304.501	730.786	80.006	19.994	103.221	20.269	3.068	0.464
1305.000	731.070	80.006	19.994	103.224	20.275	2.663	0.480
1305.500	731.283	80.005	19.995	103.227	20.272	2.897	0.501
1306.000	731.566	80.006	19.995	103.228	20.272	2.873	0.496
1306.500	731.796	80.007	19.994	103.228	20.270	3.002	0.505
1307.000	732.058	80.007	19.995	103.225	20.271	2.920	0.503
1307.501	732.284	80.005	19.996	103.223	20.270	3.000	0.490
1308.001	732.571	80.005	19.994	103.222	20.269	3.119	0.500
1308.500	732.768	80.006	19.994	103.220	20.271	2.955	0.498
1309.000	733.043	80.007	19.995	103.221	20.272	2.868	0.479
1309.500	733.233	80.007	19.994	103.222	20.271	2.928	0.469
1310.000	733.539	80.008	19.995	103.222	20.272	2.875	0.480
1310.500	733.740	80.007	19.995	103.223	20.266	3.316	0.501
1311.000	734.015	80.005	19.994	103.224	20.266	3.337	0.492
1311.501	734.242	80.006	19.996	103.221	20.263	3.530	0.489
1312.001	734.516	80.006	19.993	103.220	20.267	3.269	0.502
1312.501	734.744	80.006	19.996	103.218	20.267	3.216	0.501
1313.001	734.998	80.007	19.993	103.215	20.265	3.380	0.492
1313.501	735.249	80.006	19.994	103.214	20.269	3.094	0.494
1314.000	735.512	80.008	19.994	103.217	20.265	3.372	0.510
1314.500	735.731	80.008	19.994	103.224	20.271	2.965	0.498
1315.001	735.980	80.009	19.995	103.229	20.268	3.170	0.475
1315.501	736.230	80.007	19.994	103.232	20.270	3.014	0.483
1316.001	736.493	80.008	19.994	103.233	20.268	3.187	0.506
1316.501	736.734	80.007	19.993	103.232	20.270	3.047	0.508
1317.000	736.976	80.007	19.995	103.228	20.272	2.850	0.494
1317.500	737.252	80.006	19.995	103.226	20.267	3.269	0.501
1318.000	737.461	80.007	19.994	103.224	20.271	2.930	0.501
1318.500	737.717	80.006	19.994	103.225	20.265	3.367	0.475
1319.000	737.946	80.007	19.994	103.227	20.265	3.367	0.475
1319.500	738.226	80.005	19.994	103.226	20.271	2.967	0.497
1320.000	738.493	80.007	19.994	103.223	20.271	2.926	0.528
1320.500	738.704	80.006	19.994	103.228	20.271	2.916	0.512
1321.000	738.974	80.007	19.995	103.230	20.270	2.996	0.479
1321.500	739.209	80.006	19.994	103.233	20.273	2.823	0.493
1322.001	739.453	80.006	19.994	103.237	20.271	2.969	0.493
1322.502	739.703	80.005	19.993	103.238	20.269	3.084	0.487
1323.001	739.963	80.004	19.994	103.234	20.268	3.172	0.502
1323.500	740.167	80.006	19.993	103.231	20.270	3.002	0.486
1324.001	740.415	80.005	19.995	103.226	20.271	2.983	0.458
1324.501	740.697	80.005	19.994	103.225	20.275	2.673	0.491
1325.000	740.925	80.004	19.993	103.227	20.271	2.969	0.520
1325.501	741.164	80.005	19.993	103.228	20.273	2.778	0.489
1326.001	741.434	80.005	19.995	103.228	20.271	2.934	0.488
1326.501	741.733	80.005	19.995	103.228	20.271	2.984	0.539
1327.001	741.940	80.004	19.994	103.224	20.276	2.604	0.537
1327.501	742.203	80.006	19.994	103.223	20.270	3.039	0.488
1328.001	742.459	80.005	19.994	103.222	20.275	2.676	0.494
1328.500	742.690	80.005	19.993	103.221	20.271	2.928	0.503
1329.000	742.938	80.004	19.994	103.222	20.271	2.926	0.483
1329.501	743.214	80.004	19.994	103.221	20.270	3.021	0.502
1330.001	743.469	80.005	19.994	103.222	20.269	3.076	0.528
