Sample ID:	C:\MCC\MCC Cal\Test\Engineered_Flooring_30K_min_211025_R2.txt
Sample Weight (mg):	4.68
Heating Rate (C/s):	0.5
Combustor Temp (C):	900
N2 Flow Rate (cc/min):	80
O2 Flow Rate (cc/min):	20
Calibration File:	C:\MCC\MCC Cal\Coeff1 JN10440_30_210304.txt.txt
T Correction Coefficients:	0	1.024463	0
Time Shift (s):	14
*
Time (s)	Temperature (C)	N2 flow rate (cc/min)	O2 flow rate (cc/min)	Flow Rate (cc/min)	Oxygen (%)	HRR (W/g)	Heating rate (C/s)
0.000	109.021	79.997	19.998	103.005	20.023	-0.070	-0.001
0.499	109.026	79.996	19.997	103.006	20.025	-0.200	-0.021
1.000	109.038	79.998	19.998	103.006	20.025	-0.251	-0.004
1.500	109.036	79.997	19.996	103.004	20.023	-0.091	0.014
2.000	108.982	79.998	19.996	103.003	20.025	-0.264	-0.023
2.500	109.013	79.998	19.997	103.004	20.025	-0.255	-0.040
3.000	109.046	79.997	19.995	103.003	20.023	-0.083	0.021
3.500	109.009	79.998	19.997	103.004	20.024	-0.179	0.031
4.000	108.992	79.998	19.996	103.004	20.024	-0.183	-0.028
4.500	109.000	79.999	19.996	103.003	20.023	-0.121	-0.032
5.000	108.993	79.998	19.996	103.003	20.023	-0.092	-0.005
5.500	109.020	79.997	19.995	103.003	20.024	-0.170	0.010
6.000	109.022	79.998	19.996	103.003	20.020	0.092	0.025
6.500	109.002	79.998	19.995	103.005	20.021	0.053	0.006
7.000	109.012	79.998	19.996	103.006	20.021	0.013	-0.014
7.500	109.001	79.997	19.995	103.006	20.021	0.032	-0.006
8.000	108.995	79.998	19.994	103.006	20.021	0.053	-0.009
8.500	109.007	79.997	19.995	103.006	20.022	-0.021	-0.005
9.000	108.993	79.999	19.996	103.004	20.025	-0.219	0.002
9.500	109.018	79.999	19.996	103.003	20.026	-0.270	0.004
10.000	108.979	79.998	19.995	103.002	20.024	-0.160	-0.002
10.500	108.952	79.997	19.995	103.003	20.022	-0.053	-0.040
11.000	109.010	79.998	19.995	103.007	20.022	-0.055	-0.017
11.500	109.010	79.999	19.995	103.010	20.025	-0.196	0.045
12.000	108.989	79.999	19.996	103.011	20.024	-0.170	0.018
12.500	109.004	79.998	19.996	103.012	20.023	-0.072	-0.014
13.000	108.991	79.999	19.995	103.013	20.023	-0.121	-0.002
13.500	109.008	79.999	19.995	103.008	20.023	-0.123	0.003
14.000	109.019	79.998	19.995	103.005	20.024	-0.191	0.016
14.500	109.032	80.000	19.996	103.006	20.023	-0.079	0.026
15.000	109.010	79.999	19.996	103.012	20.024	-0.151	0.007
15.500	109.021	79.999	19.996	103.017	20.021	0.026	-0.010
16.000	109.008	79.999	19.995	103.025	20.021	0.034	-0.006
16.500	109.007	79.999	19.995	103.028	20.021	0.026	-0.008
17.000	109.002	79.998	19.996	103.034	20.019	0.149	-0.010
17.500	109.009	79.998	19.995	103.034	20.019	0.168	-0.002
18.000	109.015	79.999	19.995	103.035	20.019	0.181	0.008
18.500	109.007	79.999	19.996	103.035	20.017	0.312	0.005
19.000	108.987	79.999	19.995	103.043	20.017	0.310	-0.015
19.500	109.010	79.998	19.995	103.046	20.016	0.412	-0.012
20.000	108.968	80.000	19.996	103.055	20.013	0.612	-0.008
20.500	108.983	79.999	19.997	103.064	20.014	0.521	-0.023
21.000	109.000	79.999	19.995	103.077	20.013	0.625	0.002
21.500	109.001	79.998	19.995	103.092	20.016	0.423	0.024
22.000	109.054	79.998	19.996	103.111	20.011	0.699	0.036
22.500	109.028	79.998	19.996	103.122	20.009	0.859	0.041
23.000	109.067	79.998	19.997	103.131	20.010	0.782	0.020
23.500	109.064	79.999	19.995	103.135	20.007	1.010	0.025
24.000	109.130	79.998	19.995	103.132	20.009	0.872	0.049
24.500	109.112	79.999	19.995	103.125	20.009	0.897	0.055
25.000	109.118	79.997	19.996	103.123	20.005	1.140	0.018
25.500	109.183	79.999	19.995	103.122	20.006	1.105	0.030
26.000	109.193	79.998	19.996	103.122	20.006	1.044	0.073
26.500	109.195	79.999	19.995	103.122	20.009	0.895	0.044
27.000	109.234	79.998	19.996	103.125	20.005	1.112	0.026
27.500	109.264	79.998	19.996	103.127	20.008	0.937	0.055
28.000	109.305	79.998	19.996	103.130	20.007	0.980	0.070
28.500	109.360	79.999	19.996	103.132	20.002	1.320	0.084
29.000	109.365	79.998	19.997	103.136	20.003	1.286	0.078
29.500	109.386	79.997	19.996	103.142	20.003	1.286	0.043
30.000	109.410	79.998	19.996	103.146	20.006	1.046	0.035
30.500	109.445	79.999	19.995	103.144	20.002	1.369	0.052
31.000	109.471	79.999	19.996	103.142	20.005	1.171	0.061
31.500	109.524	79.999	19.995	103.140	20.003	1.295	0.070
32.000	109.550	79.998	19.996	103.137	20.001	1.411	0.079
32.499	109.611	79.998	19.996	103.138	20.000	1.509	0.083
32.999	109.625	79.999	19.995	103.143	20.003	1.269	0.081
33.499	109.680	79.999	19.995	103.147	20.004	1.241	0.072
33.999	109.707	79.998	19.995	103.147	19.999	1.534	0.076
34.499	109.772	79.999	19.996	103.144	20.001	1.388	0.088
34.999	109.853	79.998	19.995	103.142	20.001	1.394	0.119
35.499	109.907	79.999	19.995	103.143	19.999	1.534	0.140
35.999	109.928	79.999	19.996	103.146	20.000	1.488	0.105
36.499	109.970	79.999	19.996	103.155	19.997	1.687	0.069
36.999	110.047	80.001	19.994	103.165	19.997	1.706	0.091
37.499	110.058	79.999	19.996	103.167	19.997	1.700	0.103
37.999	110.135	80.000	19.995	103.167	19.997	1.666	0.088
38.499	110.157	80.000	19.995	103.167	19.998	1.607	0.094
38.999	110.239	80.000	19.995	103.162	19.999	1.592	0.102
39.499	110.300	80.001	19.995	103.157	19.999	1.587	0.123
39.999	110.366	80.000	19.995	103.156	19.998	1.647	0.135
40.499	110.409	80.001	19.995	103.156	19.996	1.774	0.118
40.999	110.490	80.001	19.995	103.156	19.997	1.689	0.116
41.499	110.538	80.001	19.995	103.157	19.994	1.915	0.126
41.999	110.588	80.000	19.994	103.157	19.994	1.885	0.113
42.499	110.654	80.001	19.995	103.158	19.990	2.174	0.107
42.999	110.720	80.000	19.994	103.158	19.994	1.870	0.124
43.499	110.800	80.001	19.995	103.163	19.993	1.946	0.139
43.999	110.871	79.999	19.995	103.163	19.989	2.212	0.149
44.499	110.919	80.000	19.994	103.171	19.991	2.125	0.135
44.999	111.030	80.000	19.994	103.179	19.991	2.084	0.139
45.499	111.100	79.999	19.994	103.188	19.992	2.072	0.170
45.999	111.138	80.001	19.996	103.191	19.990	2.154	0.144
46.499	111.243	80.000	19.995	103.198	19.991	2.093	0.126
46.999	111.340	79.999	19.995	103.199	19.992	2.010	0.172
47.499	111.457	79.999	19.994	103.198	19.991	2.137	0.208
47.999	111.487	79.999	19.994	103.198	19.990	2.177	0.180
48.499	111.547	79.999	19.994	103.198	19.990	2.148	0.118
49.000	111.639	79.999	19.996	103.198	19.989	2.230	0.121
49.500	111.717	79.999	19.995	103.198	19.989	2.233	0.161
50.000	111.786	80.000	19.994	103.198	19.989	2.220	0.158
50.500	111.866	80.000	19.996	103.198	19.989	2.254	0.148
50.999	111.969	79.999	19.995	103.197	19.988	2.336	0.166
51.499	112.096	80.000	19.995	103.197	19.988	2.292	0.207
51.999	112.186	79.998	19.995	103.198	19.990	2.190	0.224
52.499	112.290	79.998	19.996	103.198	19.990	2.181	0.205
52.999	112.368	79.999	19.994	103.198	19.992	2.026	0.188
53.499	112.433	79.998	19.995	103.199	19.990	2.179	0.162
53.999	112.535	79.998	19.996	103.200	19.989	2.235	0.155
54.500	112.653	79.999	19.995	103.201	19.990	2.190	0.193
55.000	112.742	79.999	19.995	103.206	19.987	2.404	0.213
55.499	112.824	79.998	19.996	103.207	19.987	2.366	0.189
55.999	112.958	79.999	19.995	103.208	19.985	2.509	0.194
56.499	112.980	79.999	19.995	103.211	19.987	2.390	0.186
56.999	113.135	79.999	19.996	103.215	19.987	2.402	0.166
57.500	113.225	79.999	19.997	103.213	19.986	2.449	0.211
58.001	113.340	79.999	19.997	103.216	19.988	2.298	0.225
58.501	113.415	79.999	19.996	103.222	19.989	2.264	0.197
59.000	113.529	79.999	19.996	103.226	19.986	2.472	0.189
59.499	113.678	79.998	19.995	103.228	19.986	2.481	0.226
59.999	113.778	79.998	19.997	103.230	19.988	2.338	0.256
60.499	113.907	80.000	19.996	103.233	19.988	2.298	0.239
61.000	114.056	80.000	19.995	103.233	19.987	2.409	0.254
61.500	114.121	80.002	19.995	103.234	19.986	2.423	0.246
61.999	114.235	80.000	19.994	103.234	19.987	2.375	0.196
62.499	114.371	80.000	19.996	103.235	19.984	2.566	0.214
62.999	114.479	80.001	19.996	103.234	19.986	2.457	0.247
63.499	114.607	80.000	19.995	103.232	19.983	2.653	0.241
63.999	114.715	80.001	19.995	103.231	19.985	2.491	0.236
64.499	114.835	80.002	19.994	103.231	19.985	2.553	0.232
64.999	114.940	80.001	19.996	103.231	19.986	2.451	0.227
65.500	115.088	80.001	19.995	103.232	19.981	2.776	0.239
66.000	115.215	80.001	19.995	103.234	19.981	2.799	0.264
66.499	115.346	80.002	19.995	103.235	19.984	2.591	0.266
66.999	115.483	80.002	19.997	103.236	19.982	2.701	0.263
67.500	115.577	80.000	19.996	103.236	19.981	2.812	0.250
68.000	115.733	80.002	19.995	103.237	19.981	2.791	0.241
68.500	115.842	80.000	19.996	103.237	19.984	2.599	0.257
69.000	115.985	80.000	19.996	103.238	19.980	2.848	0.259
69.499	116.087	80.001	19.994	103.238	19.980	2.863	0.249
69.999	116.212	80.001	19.994	103.238	19.980	2.838	0.236
70.499	116.405	80.002	19.994	103.239	19.980	2.889	0.273
70.999	116.519	80.002	19.995	103.239	19.981	2.776	0.312
71.499	116.649	80.000	19.995	103.241	19.982	2.748	0.275
72.000	116.815	80.001	19.995	103.243	19.982	2.740	0.270
72.500	116.941	80.000	19.995	103.244	19.982	2.763	0.294
72.999	117.121	79.999	19.996	103.243	19.981	2.831	0.299
73.499	117.248	80.001	19.996	103.246	19.982	2.737	0.307
73.999	117.415	79.999	19.995	103.248	19.982	2.763	0.301
74.499	117.560	79.999	19.994	103.250	19.981	2.812	0.303
75.000	117.718	80.000	19.994	103.251	19.981	2.826	0.308
75.500	117.827	79.999	19.996	103.253	19.979	2.927	0.285
75.999	117.960	79.999	19.996	103.250	19.981	2.774	0.255
76.499	118.129	79.999	19.996	103.248	19.980	2.884	0.272
76.999	118.251	79.999	19.997	103.249	19.981	2.789	0.296
77.499	118.401	80.000	19.999	103.248	19.981	2.817	0.281
77.999	118.557	79.999	19.998	103.250	19.981	2.827	0.289
78.499	118.720	80.001	19.996	103.251	19.978	3.035	0.313
78.999	118.872	80.000	19.997	103.251	19.979	2.904	0.317
79.499	119.010	79.998	19.995	103.248	19.978	3.018	0.302
79.999	119.178	80.000	19.996	103.248	19.978	2.980	0.298
80.499	119.357	80.000	19.996	103.243	19.980	2.852	0.327
80.999	119.486	79.999	19.996	103.243	19.981	2.820	0.328
81.500	119.635	79.999	19.996	103.242	19.981	2.799	0.293
82.000	119.824	80.000	19.997	103.246	19.979	2.922	0.308
82.499	119.990	79.999	19.996	103.249	19.981	2.818	0.346
82.999	120.117	79.999	19.997	103.249	19.972	3.392	0.324
83.499	120.261	79.999	19.996	103.253	19.978	3.020	0.282
84.000	120.446	80.000	19.996	103.256	19.981	2.809	0.300
84.500	120.595	79.999	19.997	103.250	19.981	2.826	0.331
84.999	120.797	79.998	19.997	103.249	19.980	2.835	0.342
85.499	120.964	79.999	19.996	103.256	19.979	2.962	0.360
85.999	121.140	79.999	19.996	103.254	19.981	2.784	0.356
86.499	121.304	79.998	19.996	103.249	19.978	2.994	0.341
86.999	121.508	79.999	19.997	103.248	19.981	2.822	0.354
87.499	121.642	79.999	19.996	103.245	19.979	2.937	0.353
87.999	121.855	79.998	19.998	103.238	19.980	2.867	0.342
88.500	121.992	80.000	19.996	103.234	19.981	2.769	0.348
89.000	122.187	79.998	19.996	103.234	19.980	2.884	0.341
89.499	122.365	79.999	19.996	103.234	19.981	2.808	0.353
89.999	122.525	79.999	19.997	103.239	19.981	2.774	0.355
90.499	122.714	80.000	19.997	103.243	19.979	2.962	0.343
90.999	122.886	79.999	19.997	103.246	19.980	2.901	0.355
91.499	123.055	80.000	19.996	103.250	19.982	2.759	0.351
91.999	123.262	79.998	19.997	103.252	19.981	2.818	0.359
92.499	123.387	79.999	19.997	103.249	19.979	2.960	0.354
92.999	123.600	80.000	19.996	103.245	19.978	3.012	0.335
93.499	123.799	80.000	19.997	103.242	19.977	3.056	0.375
93.999	123.940	79.999	19.995	103.243	19.976	3.111	0.376
94.500	124.149	79.999	19.997	103.249	19.977	3.049	0.345
95.001	124.328	79.999	19.996	103.255	19.978	3.040	0.369
95.500	124.508	80.001	19.996	103.263	19.976	3.117	0.374
95.999	124.705	80.000	19.994	103.270	19.978	2.975	0.368
96.499	124.875	80.000	19.996	103.270	19.975	3.198	0.372
96.999	125.021	79.999	19.995	103.271	19.977	3.102	0.341
97.499	125.227	80.000	19.996	103.271	19.980	2.864	0.334
97.999	125.479	80.000	19.996	103.268	19.976	3.170	0.405
98.499	125.639	80.000	19.996	103.261	19.979	2.958	0.435
98.999	125.783	79.999	19.996	103.256	19.977	3.076	0.358
99.499	125.987	80.001	19.996	103.249	19.978	3.006	0.326
99.999	126.191	79.999	19.996	103.244	19.973	3.353	0.378
100.499	126.400	80.000	19.996	103.247	19.978	2.981	0.411
100.999	126.574	80.000	19.995	103.252	19.975	3.227	0.398
101.500	126.795	79.999	19.995	103.258	19.975	3.204	0.388
102.000	126.945	80.000	19.996	103.259	19.975	3.219	0.383
102.499	127.150	80.000	19.995	103.258	19.977	3.045	0.363
102.999	127.345	79.998	19.995	103.254	19.977	3.102	0.378
103.499	127.538	79.999	19.995	103.250	19.972	3.407	0.394
104.000	127.732	79.997	19.994	103.248	19.975	3.229	0.387
104.500	127.911	80.000	19.997	103.253	19.974	3.278	0.380
104.999	128.102	80.000	19.996	103.259	19.976	3.129	0.372
105.499	128.322	79.999	19.996	103.264	19.975	3.189	0.390
105.999	128.513	79.999	19.997	103.270	19.975	3.202	0.411
106.499	128.737	79.998	19.996	103.270	19.975	3.240	0.413
106.999	128.894	79.998	19.997	103.268	19.977	3.087	0.398
107.500	129.104	79.999	19.996	103.267	19.978	2.996	0.374
108.000	129.292	79.998	19.996	103.267	19.975	3.219	0.383
108.499	129.507	79.998	19.996	103.268	19.973	3.319	0.401
108.999	129.700	79.998	19.994	103.270	19.974	3.255	0.405
109.499	129.944	79.998	19.996	103.272	19.975	3.187	0.423
109.999	130.108	79.998	19.995	103.272	19.975	3.191	0.423
110.499	130.304	79.998	19.996	103.273	19.974	3.263	0.384
110.999	130.524	79.998	19.995	103.275	19.976	3.127	0.387
111.499	130.724	79.998	19.997	103.276	19.974	3.280	0.418
111.999	130.912	79.999	19.996	103.276	19.972	3.403	0.405
112.499	131.128	79.999	19.996	103.278	19.977	3.098	0.396
112.999	131.325	79.997	19.995	103.278	19.975	3.244	0.408
113.499	131.571	79.998	19.996	103.277	19.976	3.110	0.428
113.999	131.733	79.998	19.995	103.278	19.977	3.055	0.425
114.499	131.941	79.998	19.995	103.278	19.978	2.989	0.389
114.999	132.145	79.998	19.996	103.277	19.977	3.051	0.391
115.499	132.385	80.001	19.995	103.277	19.975	3.212	0.428
116.000	132.571	80.001	19.996	103.277	19.975	3.179	0.435
116.501	132.778	80.001	19.995	103.277	19.976	3.115	0.410
117.000	132.989	79.999	19.996	103.277	19.978	2.998	0.406
117.499	133.217	80.001	19.995	103.277	19.979	2.939	0.429
117.999	133.426	80.000	19.995	103.277	19.980	2.858	0.438
118.499	133.646	80.000	19.996	103.277	19.977	3.077	0.433
118.999	133.856	80.002	19.997	103.275	19.977	3.062	0.429
119.500	134.051	80.000	19.996	103.272	19.975	3.242	0.418
120.000	134.248	80.001	19.996	103.271	19.976	3.164	0.399
120.499	134.472	80.000	19.995	103.271	19.974	3.302	0.406
120.999	134.716	80.000	19.996	103.271	19.975	3.224	0.444
121.499	134.896	80.002	19.995	103.272	19.977	3.072	0.446
121.999	135.103	80.000	19.995	103.275	19.976	3.161	0.406
122.499	135.353	80.001	19.995	103.272	19.974	3.303	0.423
122.999	135.563	80.000	19.994	103.273	19.974	3.292	0.459
123.499	135.739	80.000	19.995	103.273	19.978	2.986	0.422
123.999	135.972	80.001	19.996	103.274	19.976	3.177	0.397
124.499	136.213	80.001	19.995	103.276	19.976	3.157	0.441
124.999	136.432	80.001	19.995	103.278	19.974	3.261	0.467
125.499	136.627	80.001	19.995	103.278	19.975	3.245	0.437
125.999	136.832	80.000	19.995	103.278	19.974	3.261	0.407
126.499	137.114	80.000	19.996	103.275	19.975	3.240	0.444
126.999	137.275	80.000	19.996	103.272	19.976	3.112	0.465
127.500	137.561	80.000	19.995	103.271	19.976	3.132	0.444
128.000	137.779	80.001	19.995	103.271	19.976	3.155	0.475
128.500	137.967	79.999	19.994	103.270	19.977	3.062	0.455
129.000	138.175	80.000	19.995	103.273	19.977	3.049	0.401
129.500	138.442	79.999	19.994	103.274	19.976	3.147	0.436
130.000	138.636	79.999	19.995	103.274	19.974	3.253	0.468
130.500	138.880	79.999	19.995	103.281	19.973	3.350	0.449
131.000	139.109	80.000	19.995	103.271	19.974	3.301	0.456
131.500	139.331	80.000	19.996	103.252	19.976	3.134	0.463
132.000	139.566	80.000	19.995	103.234	19.970	3.524	0.454
132.500	139.762	80.000	19.994	103.224	19.974	3.291	0.443
133.000	139.958	79.999	19.994	103.211	19.974	3.272	0.411
133.500	140.220	80.000	19.994	103.219	19.974	3.276	0.425
134.000	140.451	80.000	19.994	103.256	19.976	3.128	0.475
134.500	140.651	79.999	19.995	103.304	19.976	3.147	0.462
135.000	140.914	79.999	19.995	103.325	19.973	3.384	0.448
135.500	141.128	80.000	19.995	103.333	19.973	3.325	0.470
136.000	141.359	80.000	19.995	103.336	19.972	3.389	0.461
136.500	141.597	80.000	19.995	103.318	19.976	3.126	0.457
137.000	141.841	79.999	19.993	103.288	19.973	3.325	0.475
137.500	142.094	79.999	19.995	103.278	19.976	3.140	0.490
138.000	142.311	80.001	19.995	103.276	19.974	3.247	0.483
138.500	142.535	79.999	19.995	103.275	19.974	3.293	0.455
139.000	142.769	80.001	19.995	103.275	19.975	3.196	0.450
139.500	142.978	80.001	19.996	103.275	19.972	3.435	0.451
140.000	143.182	80.001	19.996	103.275	19.973	3.334	0.428
140.500	143.457	80.002	19.996	103.276	19.973	3.378	0.446
141.000	143.685	80.001	19.996	103.275	19.976	3.117	0.491
141.500	143.923	80.000	19.996	103.275	19.971	3.500	0.484
142.000	144.185	80.001	19.997	103.274	19.974	3.296	0.483
142.500	144.402	80.001	19.996	103.274	19.974	3.249	0.490
143.000	144.665	80.002	19.996	103.274	19.973	3.321	0.479
143.500	144.864	80.002	19.996	103.274	19.974	3.287	0.471
144.000	145.132	80.002	19.996	103.273	19.975	3.198	0.464
144.500	145.351	80.001	19.996	103.273	19.970	3.527	0.477
145.000	145.584	80.001	19.996	103.273	19.974	3.306	0.470
145.500	145.802	80.002	19.996	103.273	19.970	3.523	0.451
146.000	146.054	80.000	19.995	103.272	19.972	3.448	0.460
146.500	146.281	80.001	19.995	103.271	19.971	3.459	0.475
147.000	146.501	80.000	19.996	103.270	19.970	3.563	0.463
147.500	146.752	80.002	19.995	103.270	19.969	3.648	0.459
148.000	146.985	80.001	19.995	103.269	19.970	3.567	0.477
148.500	147.233	80.001	19.995	103.269	19.970	3.546	0.482
149.000	147.431	80.000	19.997	103.270	19.968	3.695	0.464
149.500	147.668	80.000	19.997	103.271	19.969	3.627	0.441
150.000	147.936	80.001	19.997	103.272	19.969	3.614	0.470
150.500	148.212	80.002	19.996	103.272	19.971	3.470	0.524
151.000	148.389	80.000	19.996	103.269	19.968	3.661	0.498
151.500	148.676	80.001	19.996	103.261	19.969	3.593	0.458
152.000	148.913	80.000	19.997	103.254	19.969	3.591	0.494
152.500	149.113	79.999	19.997	103.250	19.970	3.555	0.480
153.000	149.400	79.999	19.995	103.247	19.968	3.663	0.462
153.500	149.607	80.000	19.995	103.249	19.968	3.680	0.491
154.000	149.852	80.000	19.996	103.257	19.968	3.673	0.473
154.500	150.095	80.000	19.996	103.264	19.969	3.603	0.470
155.000	150.370	79.999	19.996	103.268	19.967	3.767	0.503
155.500	150.571	79.999	19.996	103.271	19.966	3.809	0.497
156.000	150.838	79.999	19.997	103.272	19.966	3.805	0.472
156.500	151.057	79.998	19.996	103.270	19.967	3.762	0.477
157.000	151.286	79.997	19.997	103.266	19.971	3.493	0.467
157.500	151.572	79.999	19.996	103.260	19.968	3.660	0.482
158.000	151.788	79.997	19.997	103.258	19.969	3.624	0.508
158.500	152.014	79.999	19.996	103.258	19.969	3.620	0.472
159.000	152.239	80.000	19.996	103.259	19.971	3.510	0.447
159.500	152.501	80.000	19.997	103.261	19.969	3.618	0.469
160.000	152.761	79.999	19.997	103.267	19.968	3.720	0.505
160.500	152.986	80.000	19.996	103.268	19.968	3.709	0.504
161.000	153.214	79.999	19.996	103.268	19.968	3.713	0.469
161.500	153.467	79.998	19.995	103.269	19.967	3.796	0.467
162.000	153.672	79.998	19.996	103.267	19.969	3.643	0.469
162.500	153.908	79.999	19.997	103.264	19.968	3.663	0.450
163.000	154.125	79.999	19.996	103.261	19.972	3.429	0.447
163.500	154.399	79.999	19.997	103.259	19.967	3.764	0.472
164.000	154.618	79.999	19.997	103.259	19.972	3.395	0.492
164.500	154.873	80.000	19.998	103.263	19.970	3.575	0.484
165.000	155.106	79.999	19.997	103.267	19.970	3.544	0.481
165.500	155.379	80.001	19.997	103.270	19.969	3.610	0.497
166.000	155.648	79.999	19.996	103.274	19.971	3.478	0.524
166.500	155.859	80.000	19.997	103.274	19.968	3.671	0.511
167.000	156.073	80.000	19.997	103.269	19.968	3.708	0.453
167.500	156.344	79.999	19.997	103.267	19.968	3.710	0.455
168.000	156.547	80.000	19.996	103.269	19.968	3.693	0.479
168.500	156.860	80.000	19.997	103.269	19.969	3.655	0.495
169.000	157.054	79.999	19.996	103.270	19.966	3.843	0.511
169.500	157.287	79.999	19.997	103.273	19.968	3.688	0.467
170.000	157.555	79.999	19.996	103.274	19.966	3.812	0.464
170.500	157.771	79.999	19.997	103.275	19.966	3.826	0.493
171.000	158.055	79.999	19.996	103.274	19.965	3.873	0.492
171.500	158.295	79.999	19.996	103.273	19.967	3.741	0.512
172.000	158.548	79.999	19.997	103.273	19.965	3.888	0.508
172.500	158.833	80.001	19.997	103.273	19.962	4.100	0.516
173.000	159.033	79.999	19.997	103.273	19.963	4.030	0.512
173.500	159.272	79.998	19.997	103.273	19.964	3.964	0.462
174.000	159.519	79.999	19.997	103.273	19.966	3.862	0.463
174.500	159.774	79.998	19.997	103.271	19.964	3.943	0.494
175.000	160.038	79.999	19.996	103.270	19.960	4.217	0.510
175.500	160.297	79.999	19.995	103.271	19.964	3.941	0.521
176.000	160.563	79.999	19.998	103.271	19.966	3.863	0.524
176.500	160.744	80.000	19.997	103.271	19.965	3.867	0.486
177.000	161.032	79.999	19.998	103.268	19.968	3.718	0.458
177.500	161.296	79.998	19.997	103.263	19.965	3.910	0.511
178.000	161.562	79.997	19.997	103.257	19.966	3.822	0.541
178.500	161.784	79.998	19.996	103.256	19.965	3.918	0.509
179.000	162.034	79.998	19.998	103.255	19.967	3.774	0.480
179.500	162.278	79.999	19.997	103.258	19.964	3.969	0.483
180.000	162.551	79.999	19.997	103.263	19.963	4.065	0.506
180.500	162.791	79.999	19.996	103.267	19.962	4.126	0.515
181.000	163.046	79.998	19.996	103.262	19.960	4.243	0.504
181.500	163.271	79.997	19.996	103.261	19.962	4.139	0.487
182.000	163.528	79.999	19.997	103.262	19.958	4.379	0.481
182.500	163.786	79.998	19.997	103.264	19.959	4.347	0.499
183.000	164.070	79.999	19.996	103.265	19.960	4.268	0.529
183.500	164.302	79.998	19.997	103.271	19.959	4.311	0.530
184.000	164.566	79.997	19.997	103.274	19.960	4.249	0.506
184.500	164.821	79.998	19.996	103.272	19.959	4.300	0.507
185.000	165.088	79.998	19.996	103.270	19.961	4.198	0.520
185.500	165.325	79.998	19.996	103.270	19.959	4.334	0.513
186.000	165.546	79.998	19.996	103.269	19.960	4.276	0.481
186.500	165.788	79.997	19.997	103.262	19.956	4.487	0.461
187.000	166.067	79.997	19.996	103.258	19.957	4.474	0.493
187.500	166.310	79.997	19.997	103.257	19.961	4.166	0.522
188.000	166.568	79.998	19.996	103.254	19.957	4.466	0.512
188.500	166.846	79.996	19.994	103.253	19.956	4.524	0.518
189.000	167.073	79.998	19.996	103.257	19.954	4.623	0.520
189.500	167.325	79.998	19.996	103.258	19.955	4.604	0.492
190.000	167.581	79.998	19.994	103.257	19.956	4.496	0.494
190.500	167.829	79.997	19.995	103.254	19.951	4.836	0.506
191.000	168.072	79.998	19.996	103.252	19.955	4.570	0.498
191.500	168.332	79.998	19.996	103.252	19.955	4.570	0.497
192.000	168.575	79.997	19.995	103.254	19.954	4.661	0.503
192.500	168.797	79.998	19.995	103.254	19.951	4.890	0.484
193.000	169.064	79.997	19.996	103.257	19.955	4.580	0.477
193.500	169.342	79.997	19.995	103.256	19.950	4.911	0.517
194.000	169.591	79.997	19.996	103.253	19.950	4.941	0.536
194.500	169.858	79.998	19.994	103.250	19.951	4.869	0.521
195.000	170.107	79.998	19.995	103.253	19.951	4.832	0.516
195.500	170.348	79.999	19.995	103.256	19.951	4.878	0.503
196.000	170.579	79.998	19.995	103.259	19.950	4.919	0.481
196.500	170.856	80.000	19.996	103.266	19.951	4.881	0.490
197.000	171.095	79.999	19.997	103.271	19.949	5.000	0.512
197.500	171.317	79.999	19.995	103.269	19.950	4.949	0.489
198.000	171.586	79.999	19.995	103.264	19.949	5.021	0.476
198.500	171.845	79.999	19.994	103.259	19.947	5.156	0.509
199.000	172.100	80.000	19.996	103.254	19.948	5.097	0.521
199.500	172.315	80.000	19.995	103.251	19.947	5.125	0.492
200.000	172.576	80.000	19.995	103.251	19.946	5.233	0.473
200.500	172.830	80.000	19.995	103.251	19.947	5.120	0.495
201.000	173.071	80.000	19.995	103.250	19.948	5.095	0.505
201.500	173.318	80.000	19.996	103.251	19.942	5.473	0.492
202.000	173.581	79.999	19.996	103.252	19.945	5.308	0.499
202.500	173.863	80.001	19.995	103.250	19.943	5.413	0.527
203.000	174.088	80.001	19.994	103.253	19.944	5.371	0.526
203.500	174.340	80.000	19.995	103.258	19.942	5.494	0.492
204.000	174.600	80.001	19.994	103.260	19.944	5.316	0.495
204.500	174.844	80.000	19.995	103.263	19.945	5.258	0.508
205.000	175.048	80.000	19.996	103.260	19.944	5.352	0.476
205.500	175.337	80.001	19.996	103.256	19.944	5.314	0.471
206.000	175.588	80.001	19.996	103.249	19.944	5.322	0.517
206.500	175.813	80.000	19.995	103.244	19.941	5.523	0.508
207.000	176.122	80.000	19.996	103.239	19.943	5.409	0.505
207.500	176.330	80.000	19.996	103.239	19.943	5.430	0.525
208.000	176.576	80.000	19.997	103.242	19.943	5.420	0.486
208.500	176.845	80.000	19.995	103.245	19.940	5.632	0.485
209.000	177.101	80.000	19.996	103.246	19.939	5.675	0.520
209.500	177.316	79.999	19.995	103.250	19.940	5.628	0.498
210.000	177.563	80.000	19.997	103.252	19.939	5.671	0.466
210.500	177.856	80.000	19.995	103.250	19.939	5.667	0.501
211.000	178.112	79.999	19.996	103.248	19.941	5.578	0.545
211.500	178.350	79.999	19.996	103.246	19.938	5.730	0.522
212.000	178.567	80.000	19.996	103.241	19.938	5.769	0.475
212.500	178.818	80.000	19.995	103.244	19.939	5.709	0.462
213.000	179.073	80.000	19.996	103.245	19.934	6.049	0.487
213.500	179.345	80.000	19.996	103.248	19.938	5.762	0.516
214.000	179.617	80.000	19.995	103.251	19.936	5.915	0.535
214.500	179.866	79.999	19.995	103.253	19.937	5.841	0.533
215.000	180.059	80.000	19.995	103.251	19.933	6.127	0.482
215.500	180.315	79.999	19.995	103.250	19.933	6.100	0.445
216.000	180.560	79.999	19.995	103.249	19.934	6.036	0.475
216.500	180.843	80.000	19.996	103.252	19.934	6.013	0.515
217.000	181.058	80.000	19.996	103.256	19.932	6.160	0.513
217.500	181.355	80.000	19.996	103.257	19.932	6.177	0.505
218.000	181.606	80.000	19.996	103.259	19.933	6.087	0.530
218.500	181.867	79.999	19.994	103.259	19.930	6.317	0.530
219.000	182.107	80.000	19.996	103.253	19.930	6.280	0.507
219.500	182.352	80.000	19.996	103.246	19.930	6.295	0.493
220.000	182.635	80.000	19.995	103.242	19.928	6.470	0.506
220.500	182.842	80.000	19.995	103.240	19.930	6.315	0.509
221.000	183.109	80.000	19.996	103.239	19.929	6.357	0.482
221.500	183.332	80.001	19.996	103.238	19.928	6.421	0.482
222.000	183.608	80.000	19.996	103.240	19.927	6.521	0.495
222.500	183.826	80.000	19.996	103.241	19.929	6.366	0.497
223.000	184.125	80.000	19.996	103.240	19.927	6.491	0.505
223.500	184.376	79.999	19.996	103.238	19.927	6.500	0.533
224.000	184.603	80.000	19.994	103.238	19.928	6.434	0.514
224.501	184.901	80.001	19.996	103.236	19.925	6.650	0.502
225.001	185.132	80.002	19.995	103.236	19.921	6.897	0.527
225.500	185.375	80.001	19.996	103.242	19.924	6.695	0.502
226.000	185.618	80.002	19.996	103.242	19.925	6.680	0.480
226.500	185.896	80.001	19.996	103.242	19.923	6.788	0.503
227.000	186.144	80.001	19.995	103.242	19.921	6.935	0.523
227.500	186.414	80.003	19.996	103.242	19.924	6.731	0.522
228.000	186.639	80.001	19.995	103.236	19.921	6.897	0.506
228.500	186.896	80.001	19.995	103.239	19.922	6.845	0.489
229.000	187.154	80.002	19.996	103.239	19.920	7.030	0.499
229.500	187.381	80.002	19.996	103.238	19.921	6.905	0.500
230.000	187.622	80.002	19.995	103.240	19.920	6.966	0.476
230.500	187.856	80.000	19.996	103.240	19.919	7.068	0.471
231.000	188.115	80.002	19.996	103.238	19.918	7.117	0.484
231.500	188.316	80.001	19.996	103.238	19.918	7.109	0.477
232.000	188.621	80.000	19.996	103.238	19.918	7.158	0.483
232.500	188.806	80.000	19.995	103.236	19.920	6.975	0.498
233.000	189.063	80.001	19.995	103.238	19.915	7.338	0.466
233.500	189.305	80.001	19.995	103.237	19.918	7.109	0.470
234.000	189.573	80.001	19.995	103.236	19.916	7.285	0.504
234.500	189.817	79.999	19.996	103.237	19.912	7.528	0.511
235.000	190.055	79.998	19.995	103.237	19.913	7.470	0.497
235.500	190.291	79.999	19.996	103.234	19.913	7.472	0.478
236.000	190.559	79.998	19.995	103.234	19.913	7.455	0.489
236.500	190.776	79.998	19.995	103.234	19.912	7.523	0.494
237.000	190.989	79.998	19.996	103.235	19.911	7.583	0.458
237.500	191.270	79.999	19.997	103.235	19.909	7.742	0.462
238.000	191.517	79.999	19.997	103.236	19.911	7.595	0.511
238.500	191.724	79.999	19.996	103.236	19.910	7.659	0.491
239.000	191.983	79.997	19.996	103.237	19.910	7.710	0.460
239.500	192.206	79.998	19.996	103.240	19.906	7.950	0.473
240.000	192.476	79.999	19.997	103.245	19.907	7.920	0.487
240.500	192.713	80.000	19.996	103.246	19.908	7.831	0.500
241.000	192.944	79.999	19.997	103.246	19.907	7.882	0.488
241.500	193.168	79.999	19.996	103.246	19.906	7.962	0.461
242.000	193.434	79.999	19.997	103.243	19.909	7.780	0.472
242.500	193.680	79.998	19.996	103.239	19.906	7.963	0.501
243.000	193.916	79.998	19.997	103.239	19.904	8.112	0.497
243.500	194.139	79.999	19.996	103.239	19.909	7.786	0.471
244.000	194.352	79.998	19.996	103.238	19.907	7.859	0.448
244.500	194.616	79.997	19.996	103.237	19.905	8.060	0.456
245.000	194.863	79.997	19.996	103.237	19.905	8.050	0.494
245.500	195.103	79.997	19.998	103.237	19.904	8.095	0.499
246.000	195.341	79.999	19.996	103.237	19.906	7.954	0.483
246.500	195.604	79.997	19.998	103.237	19.900	8.339	0.490
247.000	195.814	79.999	19.994	103.237	19.902	8.256	0.487
247.500	196.064	79.997	19.996	103.236	19.903	8.188	0.466
248.000	196.263	79.998	19.995	103.236	19.901	8.336	0.454
248.500	196.515	79.998	19.996	103.238	19.900	8.381	0.450
249.000	196.743	79.999	19.997	103.238	19.899	8.458	0.465
249.500	196.992	79.998	19.996	103.239	19.900	8.356	0.479
250.000	197.247	79.998	19.996	103.240	19.899	8.458	0.491
250.500	197.484	79.998	19.996	103.243	19.897	8.553	0.498
251.000	197.705	79.998	19.995	103.243	19.900	8.405	0.475
251.500	197.923	79.998	19.996	103.243	19.899	8.420	0.449
252.000	198.157	79.999	19.996	103.244	19.897	8.555	0.445
252.500	198.446	79.999	19.996	103.243	19.898	8.489	0.487
253.000	198.674	79.998	19.995	103.241	19.893	8.857	0.520
253.500	198.915	79.998	19.996	103.239	19.896	8.624	0.493
254.000	199.157	79.998	19.995	103.239	19.897	8.579	0.476
254.500	199.417	79.997	19.995	103.240	19.898	8.538	0.492
255.000	199.641	79.998	19.995	103.239	19.895	8.696	0.493
255.500	199.878	79.998	19.996	103.239	19.895	8.693	0.473
256.000	200.088	79.999	19.998	103.239	19.896	8.631	0.454
256.500	200.344	79.999	19.995	103.239	19.892	8.903	0.457
257.000	200.587	79.998	19.996	103.239	19.896	8.672	0.483
257.500	200.811	79.998	19.996	103.240	19.893	8.855	0.483
258.000	201.069	79.998	19.995	103.240	19.893	8.868	0.474
258.500	201.281	79.998	19.996	103.240	19.893	8.874	0.476
259.000	201.503	79.997	19.996	103.240	19.893	8.830	0.453
259.500	201.771	79.997	19.996	103.239	19.892	8.920	0.462
260.000	201.993	79.997	19.995	103.238	19.892	8.894	0.490
260.500	202.259	79.996	19.995	103.238	19.892	8.909	0.489
261.000	202.471	79.998	19.995	103.238	19.890	9.034	0.483
261.500	202.734	79.998	19.997	103.239	19.890	9.085	0.476
262.000	202.980	79.997	19.997	103.239	19.889	9.120	0.492
262.500	203.206	79.998	19.996	103.239	19.887	9.273	0.490
263.000	203.443	79.996	19.997	103.239	19.889	9.141	0.468
263.500	203.672	79.997	19.996	103.239	19.889	9.116	0.465
264.000	203.924	79.997	19.996	103.239	19.886	9.360	0.474
264.500	204.159	79.997	19.996	103.238	19.885	9.419	0.484
265.000	204.385	79.997	19.997	103.239	19.887	9.297	0.474
265.500	204.649	79.998	19.996	103.239	19.886	9.320	0.476
266.000	204.878	79.998	19.997	103.239	19.887	9.259	0.492
266.500	205.090	79.999	19.996	103.242	19.883	9.550	0.466
267.000	205.326	79.997	19.997	103.243	19.885	9.420	0.444
267.500	205.570	79.997	19.997	103.241	19.884	9.450	0.464
268.000	205.829	79.996	19.997	103.241	19.882	9.586	0.492
268.500	206.108	79.997	19.996	103.240	19.884	9.443	0.521
269.000	206.341	79.997	19.997	103.237	19.883	9.563	0.525
269.500	206.594	79.997	19.996	103.235	19.883	9.545	0.499
270.000	206.805	79.996	19.997	103.235	19.883	9.545	0.475
270.500	207.025	79.997	19.998	103.242	19.886	9.327	0.448
271.000	207.302	79.997	19.996	103.247	19.880	9.762	0.464
271.500	207.541	79.997	19.997	103.253	19.883	9.569	0.506
272.000	207.776	79.998	19.996	103.254	19.883	9.577	0.495
272.500	208.048	79.997	19.997	103.254	19.882	9.603	0.491
273.000	208.281	79.998	19.997	103.247	19.882	9.622	0.506
273.500	208.544	79.998	19.997	103.245	19.881	9.711	0.500
274.000	208.765	79.998	19.997	103.244	19.883	9.537	0.490
274.500	208.979	79.997	19.997	103.243	19.883	9.526	0.459
275.000	209.250	79.998	19.996	103.242	19.883	9.572	0.460
275.500	209.468	79.998	19.996	103.242	19.881	9.679	0.487
276.000	209.712	79.999	19.996	103.239	19.881	9.658	0.476
276.500	209.989	79.999	19.997	103.235	19.881	9.713	0.491
277.000	210.250	79.998	19.997	103.236	19.880	9.783	0.529
277.500	210.459	79.998	19.996	103.236	19.879	9.785	0.504
278.000	210.710	80.000	19.996	103.236	19.879	9.796	0.465
278.500	210.942	79.999	19.995	103.236	19.880	9.721	0.472
279.000	211.188	79.999	19.995	103.236	19.883	9.577	0.480
279.500	211.401	79.998	19.995	103.236	19.881	9.687	0.468
280.000	211.654	80.000	19.996	103.236	19.881	9.666	0.463
280.500	211.903	79.999	19.996	103.236	19.878	9.866	0.484
281.000	212.150	79.999	19.996	103.236	19.880	9.775	0.499
281.500	212.380	80.001	19.995	103.235	19.881	9.683	0.487
282.000	212.641	80.000	19.996	103.234	19.882	9.633	0.484
282.500	212.893	80.000	19.995	103.234	19.880	9.781	0.502
283.000	213.123	80.001	19.995	103.234	19.880	9.777	0.498
283.500	213.392	80.001	19.996	103.235	19.880	9.758	0.491
284.000	213.636	79.999	19.996	103.235	19.878	9.856	0.505
284.500	213.883	80.000	19.997	103.236	19.882	9.629	0.502
285.000	214.115	80.001	19.995	103.240	19.879	9.784	0.485
285.500	214.338	80.000	19.995	103.242	19.880	9.760	0.467
286.000	214.604	80.000	19.995	103.241	19.877	9.977	0.472
286.500	214.835	80.000	19.995	103.241	19.879	9.849	0.493
287.000	215.094	80.000	19.995	103.241	19.879	9.811	0.493
287.500	215.307	80.000	19.995	103.237	19.877	9.930	0.481
288.000	215.586	80.000	19.995	103.236	19.879	9.837	0.482
288.500	215.807	79.999	19.996	103.237	19.877	9.953	0.496
289.000	216.038	80.000	19.995	103.237	19.879	9.828	0.476
289.500	216.313	80.000	19.995	103.238	19.880	9.781	0.479
290.000	216.544	79.998	19.995	103.238	19.879	9.792	0.506
290.500	216.801	79.999	19.996	103.239	19.879	9.822	0.497
291.000	217.052	79.999	19.995	103.242	19.878	9.900	0.498
291.500	217.281	80.001	19.996	103.241	19.875	10.077	0.494
292.000	217.510	79.999	19.997	103.239	19.877	9.975	0.468
292.500	217.799	79.999	19.997	103.238	19.879	9.800	0.488
293.000	218.019	80.000	19.996	103.237	19.876	10.002	0.514
293.500	218.241	80.001	19.996	103.233	19.878	9.854	0.476
294.000	218.494	79.999	19.995	103.233	19.877	9.960	0.459
294.500	218.767	80.000	19.996	103.233	19.876	9.996	0.500
295.000	219.028	79.998	19.996	103.233	19.876	10.002	0.530
295.500	219.251	79.999	19.996	103.234	19.879	9.845	0.509
296.000	219.463	79.999	19.996	103.233	19.876	10.042	0.459
296.500	219.748	80.000	19.996	103.234	19.877	9.923	0.466
297.000	220.000	79.999	19.995	103.234	19.876	10.032	0.516
297.500	220.225	79.999	19.996	103.234	19.878	9.856	0.507
298.000	220.449	79.998	19.996	103.234	19.879	9.847	0.464
298.500	220.711	79.999	19.996	103.235	19.877	9.977	0.468
299.000	220.978	80.000	19.996	103.235	19.876	10.040	0.508
299.500	221.209	79.998	19.995	103.235	19.877	9.979	0.514
300.000	221.423	79.999	19.995	103.236	19.879	9.786	0.472
300.500	221.693	80.000	19.996	103.236	19.878	9.919	0.464
301.000	221.943	80.000	19.995	103.237	19.876	10.042	0.502
301.500	222.156	80.000	19.995	103.236	19.876	10.038	0.492
302.000	222.412	79.999	19.995	103.237	19.881	9.710	0.467
302.500	222.678	80.000	19.995	103.236	19.876	10.029	0.496
303.000	222.926	80.001	19.996	103.236	19.878	9.899	0.518
303.500	223.164	80.001	19.995	103.235	19.876	10.038	0.500
304.000	223.414	80.000	19.994	103.235	19.875	10.061	0.487
304.500	223.677	80.000	19.993	103.235	19.877	9.981	0.501
305.000	223.890	80.000	19.995	103.235	19.873	10.259	0.495
305.500	224.121	80.001	19.996	103.236	19.872	10.293	0.460
306.000	224.348	80.000	19.995	103.236	19.877	9.983	0.451
306.500	224.618	80.001	19.994	103.237	19.877	9.934	0.478
307.000	224.870	80.001	19.996	103.237	19.874	10.176	0.509
307.500	225.098	80.002	19.995	103.237	19.876	10.019	0.501
308.000	225.374	80.000	19.995	103.237	19.877	9.936	0.492
308.500	225.591	80.001	19.995	103.237	19.878	9.881	0.499
309.000	225.884	80.001	19.994	103.236	19.877	9.989	0.501
309.500	226.074	80.000	19.995	103.236	19.878	9.864	0.496
310.000	226.332	80.001	19.994	103.236	19.876	10.006	0.466
310.500	226.586	80.001	19.996	103.237	19.874	10.157	0.480
311.000	226.861	80.000	19.996	103.236	19.877	9.957	0.520
311.500	227.091	80.001	19.995	103.236	19.873	10.242	0.517
312.000	227.315	80.000	19.995	103.239	19.875	10.123	0.480
312.500	227.591	80.001	19.994	103.242	19.876	10.031	0.477
313.000	227.820	80.001	19.996	103.242	19.875	10.118	0.503
313.500	228.051	80.000	19.996	103.243	19.875	10.071	0.483
314.000	228.296	79.999	19.995	103.243	19.873	10.237	0.468
314.500	228.580	79.999	19.995	103.242	19.872	10.279	0.502
315.000	228.810	79.998	19.996	103.240	19.872	10.286	0.522
315.500	229.118	79.999	19.995	103.239	19.872	10.328	0.526
316.000	229.337	79.999	19.996	103.240	19.870	10.414	0.533
316.500	229.601	79.999	19.995	103.241	19.868	10.543	0.505
317.000	229.825	79.998	19.995	103.240	19.871	10.352	0.485
317.500	230.072	80.000	19.995	103.241	19.872	10.297	0.479
318.000	230.343	79.999	19.995	103.241	19.870	10.448	0.494
318.500	230.584	79.999	19.995	103.241	19.871	10.353	0.516
319.000	230.814	79.997	19.995	103.241	19.870	10.423	0.491
319.500	231.049	79.999	19.996	103.240	19.871	10.357	0.468
320.000	231.302	79.998	19.995	103.239	19.871	10.365	0.477
320.500	231.579	79.998	19.995	103.239	19.869	10.531	0.509
321.000	231.838	79.999	19.995	103.240	19.869	10.538	0.533
321.500	232.085	79.998	19.994	103.240	19.872	10.329	0.521
322.000	232.324	79.999	19.995	103.240	19.870	10.416	0.496
322.500	232.555	79.998	19.996	103.240	19.872	10.329	0.478
323.000	232.804	79.998	19.995	103.241	19.871	10.372	0.475
323.500	233.064	79.997	19.996	103.240	19.871	10.372	0.495
324.000	233.311	79.998	19.995	103.241	19.872	10.317	0.508
324.500	233.542	79.998	19.995	103.242	19.871	10.338	0.492
325.000	233.795	79.998	19.994	103.245	19.870	10.418	0.481
325.500	234.078	79.998	19.996	103.245	19.867	10.614	0.510
326.000	234.318	79.998	19.996	103.244	19.867	10.652	0.530
326.500	234.559	79.997	19.995	103.244	19.872	10.310	0.502
327.000	234.791	79.998	19.995	103.243	19.871	10.388	0.477
327.500	235.017	79.998	19.996	103.239	19.871	10.352	0.466
328.000	235.275	79.999	19.995	103.239	19.872	10.314	0.471
328.500	235.493	79.998	19.995	103.239	19.873	10.233	0.480
329.000	235.772	80.000	19.996	103.238	19.873	10.264	0.487
329.500	235.989	80.000	19.997	103.237	19.871	10.399	0.496
330.000	236.252	80.000	19.996	103.237	19.869	10.529	0.488
330.500	236.486	79.998	19.995	103.236	19.865	10.776	0.489
331.000	236.757	79.999	19.996	103.236	19.868	10.604	0.501
331.500	236.985	79.999	19.995	103.235	19.865	10.794	0.502
332.000	237.243	79.999	19.996	103.236	19.867	10.665	0.492
332.500	237.492	79.998	19.996	103.235	19.867	10.635	0.497
333.000	237.724	79.999	19.995	103.235	19.868	10.609	0.494
333.500	237.977	79.999	19.996	103.236	19.868	10.577	0.483
334.000	238.211	79.998	19.996	103.236	19.864	10.878	0.486
334.500	238.427	80.000	19.997	103.236	19.868	10.572	0.468
335.000	238.721	79.999	19.996	103.237	19.869	10.501	0.480
335.500	238.946	79.999	19.996	103.237	19.864	10.834	0.515
336.000	239.185	79.999	19.996	103.237	19.864	10.856	0.491
336.500	239.468	79.998	19.996	103.239	19.866	10.741	0.493
337.000	239.704	79.998	19.997	103.239	19.865	10.782	0.521
337.500	239.950	79.999	19.997	103.239	19.867	10.635	0.501
338.000	240.217	79.999	19.996	103.239	19.868	10.543	0.498
338.500	240.437	79.999	19.996	103.240	19.868	10.576	0.500
339.000	240.683	79.999	19.997	103.241	19.869	10.489	0.476
339.500	240.931	79.999	19.995	103.246	19.867	10.676	0.480
340.000	241.139	79.999	19.997	103.252	19.866	10.693	0.475
340.500	241.434	79.998	19.997	103.256	19.865	10.788	0.480
341.000	241.671	79.998	19.995	103.255	19.866	10.705	0.517
341.500	241.907	79.999	19.996	103.253	19.867	10.665	0.502
342.000	242.205	79.999	19.996	103.247	19.868	10.561	0.503
342.500	242.462	79.999	19.996	103.242	19.868	10.589	0.545
343.000	242.668	79.998	19.995	103.237	19.867	10.659	0.509
343.500	242.922	79.998	19.996	103.238	19.867	10.680	0.461
344.000	243.143	79.998	19.997	103.238	19.864	10.846	0.468
344.500	243.386	79.998	19.996	103.241	19.862	10.982	0.470
345.000	243.661	79.998	19.998	103.247	19.865	10.778	0.491
345.500	243.924	79.997	19.997	103.251	19.868	10.602	0.528
346.000	244.130	79.998	19.997	103.257	19.865	10.812	0.503
346.500	244.394	79.997	19.998	103.257	19.865	10.792	0.469
347.000	244.640	79.998	19.996	103.254	19.864	10.858	0.490
347.500	244.880	79.997	19.997	103.253	19.861	11.049	0.498
348.000	245.125	79.999	19.996	103.254	19.859	11.188	0.485
348.500	245.416	79.999	19.997	103.255	19.860	11.122	0.510
349.000	245.645	79.996	19.996	103.260	19.862	11.024	0.528
349.500	245.891	79.997	19.997	103.266	19.859	11.211	0.497
350.000	246.164	79.997	19.997	103.269	19.859	11.192	0.496
350.500	246.443	79.997	19.998	103.271	19.858	11.251	0.536
351.000	246.709	79.999	19.996	103.271	19.857	11.336	0.549
351.500	246.950	79.998	19.996	103.271	19.858	11.254	0.526
352.000	247.188	79.998	19.995	103.270	19.857	11.336	0.493
352.500	247.430	79.997	19.997	103.270	19.859	11.171	0.480
353.000	247.702	79.997	19.997	103.270	19.858	11.279	0.497
353.500	247.954	79.998	19.997	103.270	19.856	11.383	0.519
354.000	248.214	79.998	19.996	103.269	19.858	11.298	0.518
354.500	248.477	79.998	19.998	103.268	19.858	11.285	0.518
355.000	248.746	79.997	19.996	103.266	19.854	11.510	0.527
355.500	249.004	79.998	19.997	103.265	19.856	11.393	0.529
356.000	249.274	79.999	19.997	103.265	19.856	11.374	0.528
356.500	249.538	79.999	19.996	103.268	19.855	11.501	0.531
357.000	249.780	79.998	19.997	103.269	19.855	11.461	0.520
357.500	250.061	79.998	19.997	103.271	19.855	11.491	0.514
358.000	250.345	79.999	19.997	103.271	19.853	11.605	0.544
358.500	250.606	80.000	19.996	103.269	19.852	11.646	0.555
359.000	250.839	79.999	19.997	103.270	19.856	11.435	0.520
359.500	251.119	79.999	19.997	103.271	19.852	11.646	0.504
360.000	251.370	79.997	19.998	103.271	19.853	11.639	0.522
360.500	251.651	79.998	19.997	103.270	19.854	11.577	0.531
361.000	251.900	79.998	19.997	103.269	19.849	11.892	0.531
361.500	252.147	80.000	19.997	103.268	19.851	11.716	0.513
362.000	252.372	79.999	19.996	103.268	19.851	11.783	0.484
362.500	252.631	80.001	19.996	103.267	19.851	11.733	0.478
363.000	252.930	79.998	19.997	103.269	19.849	11.892	0.521
363.500	253.170	79.999	19.996	103.270	19.851	11.771	0.548
364.000	253.441	79.999	19.997	103.270	19.851	11.756	0.525
364.500	253.700	80.000	19.996	103.271	19.847	12.021	0.521
365.000	253.963	79.999	19.998	103.272	19.849	11.906	0.526
365.500	254.219	80.000	19.995	103.272	19.848	11.945	0.520
366.000	254.480	79.998	19.996	103.272	19.846	12.083	0.518
366.500	254.729	79.999	19.996	103.272	19.845	12.180	0.514
367.000	254.973	79.999	19.996	103.272	19.844	12.212	0.502
367.500	255.250	79.998	19.995	103.272	19.844	12.235	0.507
368.000	255.502	80.000	19.996	103.272	19.844	12.218	0.525
368.500	255.788	79.999	19.996	103.273	19.841	12.447	0.534
369.000	256.056	79.999	19.996	103.273	19.841	12.447	0.546
369.500	256.309	80.001	19.996	103.274	19.841	12.424	0.537
370.000	256.561	79.999	19.996	103.274	19.838	12.641	0.513
370.500	256.832	80.000	19.994	103.275	19.840	12.527	0.514
371.000	257.070	79.999	19.995	103.275	19.841	12.429	0.516
371.500	257.344	80.000	19.996	103.275	19.838	12.677	0.511
372.000	257.597	80.000	19.996	103.275	19.836	12.760	0.520
372.500	257.867	80.001	19.995	103.275	19.838	12.647	0.525
373.000	258.152	80.000	19.995	103.275	19.833	12.991	0.539
373.500	258.379	80.000	19.995	103.275	19.833	13.006	0.533
374.000	258.635	79.999	19.995	103.276	19.831	13.097	0.497
374.500	258.949	79.999	19.995	103.276	19.831	13.148	0.527
375.000	259.168	79.998	19.995	103.276	19.831	13.118	0.552
375.500	259.453	79.998	19.996	103.278	19.829	13.275	0.519
376.000	259.715	79.999	19.996	103.278	19.828	13.347	0.525
376.500	259.975	79.999	19.996	103.277	19.827	13.417	0.534
377.000	260.225	80.000	19.996	103.277	19.825	13.521	0.516
377.500	260.503	79.999	19.996	103.277	19.825	13.548	0.519
378.000	260.763	80.001	19.996	103.277	19.827	13.416	0.533
378.500	261.015	80.000	19.996	103.277	19.822	13.729	0.525
379.000	261.259	80.000	19.994	103.280	19.821	13.831	0.504
379.500	261.511	79.999	19.996	103.280	19.823	13.668	0.496
380.000	261.776	80.000	19.996	103.280	19.820	13.880	0.506
380.500	262.056	80.000	19.996	103.278	19.818	14.023	0.531
381.000	262.288	80.000	19.996	103.278	19.819	13.927	0.529
381.500	262.553	80.000	19.995	103.275	19.818	14.001	0.504
382.000	262.815	80.000	19.995	103.274	19.818	14.020	0.512
382.500	263.089	80.000	19.996	103.275	19.815	14.256	0.532
383.000	263.337	79.999	19.996	103.276	19.816	14.171	0.529
383.500	263.639	79.999	19.995	103.277	19.814	14.317	0.535
384.000	263.892	79.999	19.996	103.278	19.811	14.501	0.552
384.500	264.153	80.000	19.996	103.279	19.814	14.333	0.535
385.000	264.379	80.001	19.995	103.279	19.811	14.498	0.500
385.500	264.634	80.001	19.996	103.279	19.811	14.499	0.484
386.000	264.898	80.001	19.996	103.280	19.807	14.765	0.500
386.500	265.155	80.000	19.996	103.281	19.807	14.791	0.520
387.000	265.422	80.000	19.995	103.280	19.805	14.893	0.522
387.500	265.679	80.000	19.995	103.281	19.803	15.065	0.524
388.000	265.914	80.000	19.994	103.284	19.804	15.010	0.508
388.500	266.220	80.002	19.995	103.285	19.802	15.093	0.517
389.000	266.446	79.999	19.995	103.287	19.799	15.347	0.537
389.500	266.681	80.002	19.996	103.288	19.796	15.568	0.497
390.000	266.965	80.000	19.995	103.287	19.793	15.729	0.490
390.500	267.233	80.000	19.995	103.284	19.794	15.655	0.535
391.000	267.463	80.000	19.995	103.283	19.796	15.513	0.525
391.500	267.726	80.000	19.996	103.281	19.793	15.768	0.496
392.000	267.991	80.001	19.995	103.284	19.790	15.973	0.511
392.500	268.257	80.000	19.995	103.284	19.788	16.081	0.530
393.000	268.489	80.000	19.996	103.284	19.784	16.335	0.514
393.500	268.757	80.000	19.996	103.283	19.786	16.207	0.499
394.000	269.026	80.000	19.996	103.282	19.786	16.227	0.518
394.500	269.286	79.999	19.995	103.282	19.782	16.506	0.533
395.000	269.551	79.999	19.996	103.287	19.781	16.544	0.527
395.500	269.788	79.998	19.996	103.292	19.779	16.677	0.514
396.000	270.046	79.999	19.995	103.298	19.780	16.660	0.499
396.500	270.334	79.998	19.995	103.301	19.776	16.947	0.520
397.000	270.597	79.998	19.996	103.298	19.775	16.972	0.548
397.500	270.838	79.998	19.996	103.295	19.773	17.139	0.528
398.000	271.128	79.998	19.996	103.296	19.775	17.007	0.517
398.500	271.366	79.998	19.996	103.293	19.770	17.309	0.529
399.000	271.668	79.999	19.996	103.292	19.767	17.526	0.534
399.500	271.892	79.998	19.996	103.294	19.768	17.435	0.533
400.000	272.157	79.998	19.996	103.296	19.763	17.802	0.508
400.500	272.421	79.998	19.996	103.294	19.766	17.596	0.509
401.000	272.677	79.999	19.995	103.295	19.764	17.729	0.525
401.500	272.908	79.999	19.994	103.294	19.760	18.049	0.503
402.000	273.200	80.000	19.996	103.294	19.757	18.200	0.505
402.500	273.453	79.999	19.996	103.294	19.759	18.097	0.534
403.000	273.680	79.998	19.995	103.296	19.755	18.373	0.513
403.500	273.900	79.999	19.996	103.298	19.754	18.430	0.464
404.000	274.166	79.999	19.995	103.304	19.753	18.474	0.467
404.500	274.412	79.999	19.997	103.309	19.750	18.695	0.499
405.000	274.711	79.999	19.996	103.310	19.748	18.838	0.528
405.500	274.956	79.999	19.996	103.310	19.749	18.776	0.544
406.000	275.168	79.999	19.995	103.306	19.747	18.944	0.501
406.500	275.410	79.999	19.996	103.302	19.745	19.020	0.456
407.000	275.665	80.000	19.996	103.299	19.745	19.088	0.476
407.500	275.945	79.999	19.995	103.299	19.745	19.084	0.516
408.000	276.213	79.999	19.995	103.298	19.741	19.317	0.541
408.500	276.457	79.998	19.996	103.302	19.738	19.540	0.530
409.000	276.687	79.999	19.995	103.306	19.736	19.680	0.493
409.500	276.925	80.000	19.996	103.304	19.737	19.595	0.471
410.000	277.189	79.999	19.996	103.300	19.732	19.933	0.486
410.500	277.406	80.000	19.995	103.300	19.730	20.085	0.492
411.000	277.660	79.999	19.996	103.300	19.729	20.130	0.476
411.500	277.914	80.000	19.996	103.301	19.724	20.474	0.490
412.000	278.178	80.000	19.996	103.303	19.725	20.457	0.513
412.500	278.430	80.000	19.995	103.307	19.724	20.489	0.517
413.000	278.674	80.000	19.996	103.308	19.723	20.549	0.506
413.500	278.908	80.000	19.995	103.309	19.722	20.616	0.487
414.000	279.181	79.998	19.996	103.309	19.720	20.801	0.492
414.500	279.444	80.000	19.996	103.311	19.717	20.998	0.521
415.000	279.676	79.999	19.995	103.312	19.714	21.172	0.516
415.500	279.918	79.999	19.996	103.313	19.715	21.151	0.485
416.000	280.183	79.999	19.996	103.312	19.711	21.401	0.491
416.500	280.396	80.000	19.996	103.312	19.710	21.499	0.492
417.000	280.642	79.999	19.995	103.312	19.708	21.626	0.468
417.500	280.857	80.001	19.996	103.312	19.706	21.751	0.460
418.000	281.151	80.000	19.996	103.312	19.706	21.721	0.485
418.500	281.363	79.999	19.996	103.312	19.701	22.067	0.507
419.000	281.593	79.999	19.996	103.312	19.701	22.068	0.474
419.500	281.845	79.999	19.997	103.312	19.701	22.111	0.462
420.000	282.117	79.999	19.996	103.312	19.700	22.144	0.503
420.500	282.362	79.999	19.996	103.312	19.697	22.358	0.520
421.000	282.620	80.000	19.997	103.312	19.698	22.293	0.510
421.500	282.883	79.999	19.996	103.312	19.697	22.330	0.512
422.000	283.126	79.999	19.996	103.312	19.695	22.495	0.513
422.500	283.327	80.000	19.996	103.311	19.694	22.563	0.475
423.000	283.571	79.998	19.997	103.312	19.689	22.941	0.444
423.500	283.809	79.998	19.996	103.311	19.689	22.903	0.463
424.000	284.077	79.998	19.996	103.310	19.688	23.002	0.494
424.500	284.319	79.997	19.996	103.310	19.686	23.085	0.508
425.000	284.535	79.998	19.997	103.311	19.684	23.233	0.485
425.500	284.784	79.998	19.996	103.311	19.682	23.415	0.462
426.000	285.025	79.997	19.996	103.311	19.679	23.568	0.477
426.500	285.238	79.997	19.997	103.311	19.679	23.608	0.472
427.000	285.495	79.998	19.996	103.311	19.681	23.499	0.462
427.500	285.764	79.999	19.996	103.311	19.678	23.641	0.498
428.000	285.991	79.999	19.996	103.312	19.678	23.660	0.511
428.500	286.233	79.998	19.997	103.314	19.677	23.769	0.482
429.000	286.458	79.998	19.997	103.314	19.675	23.909	0.468
429.500	286.680	79.998	19.996	103.315	19.673	24.040	0.457
430.000	286.914	79.997	19.996	103.319	19.669	24.261	0.452
430.500	287.210	79.998	19.996	103.319	19.669	24.283	0.493
431.000	287.409	79.998	19.996	103.319	19.671	24.168	0.512
431.500	287.628	79.998	19.995	103.321	19.667	24.408	0.457
432.000	287.903	79.997	19.996	103.321	19.665	24.577	0.457
432.500	288.156	79.998	19.996	103.317	19.666	24.474	0.511
433.000	288.377	79.997	19.996	103.317	19.664	24.623	0.501
433.500	288.631	79.998	19.995	103.317	19.659	24.968	0.475
434.000	288.891	79.996	19.997	103.316	19.660	24.917	0.495
434.500	289.122	79.998	19.995	103.317	19.660	24.886	0.502
435.000	289.324	80.000	19.996	103.318	19.656	25.207	0.462
435.500	289.584	79.998	19.995	103.318	19.658	25.073	0.447
436.000	289.836	79.998	19.996	103.319	19.656	25.191	0.487
436.500	290.057	79.998	19.996	103.321	19.657	25.140	0.493
437.000	290.328	79.998	19.996	103.323	19.654	25.316	0.483
437.500	290.536	79.999	19.996	103.323	19.654	25.334	0.486
438.000	290.799	79.999	19.997	103.326	19.653	25.408	0.475
438.500	291.043	79.999	19.996	103.326	19.653	25.412	0.489
439.000	291.285	79.999	19.996	103.326	19.651	25.558	0.497
439.500	291.536	79.999	19.996	103.324	19.648	25.729	0.490
440.000	291.761	79.998	19.996	103.325	19.644	26.009	0.484
440.500	292.035	80.000	19.996	103.324	19.645	25.944	0.487
441.000	292.281	79.999	19.996	103.325	19.640	26.266	0.510
441.500	292.547	79.999	19.996	103.323	19.640	26.263	0.516
442.000	292.723	79.999	19.996	103.322	19.636	26.591	0.476
442.500	293.033	79.999	19.997	103.321	19.637	26.502	0.464
443.000	293.258	79.998	19.996	103.300	19.636	26.540	0.511
443.500	293.488	79.999	19.996	103.275	19.636	26.551	0.495
444.000	293.721	79.999	19.996	103.265	19.639	26.386	0.459
444.500	293.983	79.999	19.996	103.262	19.637	26.518	0.479
445.000	294.220	79.998	19.995	103.261	19.633	26.800	0.497
445.500	294.449	79.999	19.997	103.280	19.631	26.911	0.483
446.000	294.701	79.998	19.996	103.310	19.632	26.821	0.473
446.500	294.987	79.998	19.996	103.352	19.632	26.864	0.509
447.000	295.227	79.999	19.996	103.383	19.631	26.928	0.532
447.500	295.451	79.999	19.996	103.392	19.629	27.077	0.495
448.000	295.703	79.998	19.997	103.394	19.625	27.344	0.470
448.500	295.934	79.999	19.996	103.390	19.626	27.263	0.480
449.000	296.193	79.998	19.997	103.360	19.623	27.439	0.486
449.500	296.455	79.999	19.997	103.338	19.622	27.566	0.505
450.000	296.698	79.998	19.996	103.338	19.624	27.422	0.513
450.500	296.936	79.999	19.998	103.340	19.620	27.686	0.493
451.000	297.171	79.998	19.997	103.342	19.619	27.725	0.478
451.500	297.434	79.999	19.997	103.346	19.620	27.680	0.486
452.000	297.694	79.997	19.996	103.348	19.616	27.944	0.510
452.500	297.950	79.999	19.996	103.345	19.618	27.836	0.519
453.000	298.159	79.998	19.995	103.340	19.614	28.086	0.490
453.500	298.426	79.999	19.997	103.337	19.611	28.282	0.471
454.000	298.638	79.999	19.998	103.338	19.611	28.262	0.477
454.500	298.923	79.999	19.997	103.337	19.610	28.389	0.488
455.000	299.162	79.998	19.996	103.335	19.609	28.437	0.511
455.500	299.424	79.999	19.997	103.341	19.609	28.435	0.513
456.000	299.650	79.999	19.996	103.343	19.604	28.768	0.494
456.500	299.899	80.000	19.997	103.340	19.603	28.847	0.482
457.000	300.122	80.000	19.996	103.337	19.604	28.754	0.473
457.500	300.418	79.999	19.997	103.340	19.602	28.921	0.495
458.000	300.678	80.000	19.997	103.340	19.602	28.892	0.537
458.500	300.914	80.000	19.996	103.345	19.601	28.956	0.526
459.000	301.169	79.999	19.996	103.347	19.599	29.141	0.493
459.500	301.399	79.999	19.996	103.349	19.597	29.284	0.488
460.000	301.670	80.000	19.996	103.342	19.597	29.287	0.493
460.500	301.898	80.002	19.997	103.336	19.598	29.185	0.500
461.000	302.167	80.000	19.996	103.333	19.597	29.249	0.498
461.500	302.368	80.000	19.996	103.331	19.595	29.399	0.484
462.000	302.622	80.001	19.995	103.329	19.592	29.630	0.463
462.500	302.877	80.000	19.995	103.337	19.592	29.590	0.482
463.000	303.145	80.001	19.996	103.341	19.589	29.815	0.516
463.500	303.383	80.001	19.996	103.341	19.586	30.046	0.514
464.000	303.652	80.000	19.995	103.343	19.586	30.018	0.507
464.500	303.901	80.000	19.997	103.347	19.588	29.884	0.513
465.000	304.152	80.001	19.997	103.347	19.585	30.065	0.509
465.500	304.409	80.003	19.996	103.349	19.582	30.264	0.504
466.000	304.659	80.002	19.996	103.347	19.582	30.272	0.507
466.500	304.885	80.001	19.995	103.345	19.579	30.516	0.491
467.000	305.141	80.000	19.996	103.345	19.580	30.399	0.479
467.500	305.419	80.003	19.996	103.344	19.577	30.660	0.509
468.000	305.642	80.001	19.996	103.344	19.573	30.936	0.518
468.500	305.905	80.002	19.996	103.345	19.577	30.667	0.493
469.000	306.214	80.002	19.994	103.347	19.575	30.741	0.529
469.500	306.408	80.001	19.996	103.346	19.572	31.014	0.538
470.000	306.683	80.000	19.996	103.345	19.572	30.959	0.486
470.500	306.902	80.001	19.995	103.345	19.570	31.089	0.482
471.000	307.170	80.001	19.995	103.347	19.568	31.280	0.491
471.500	307.459	80.001	19.995	103.347	19.570	31.140	0.522
472.000	307.691	80.000	19.996	103.347	19.566	31.384	0.538
472.500	307.969	80.001	19.994	103.350	19.567	31.348	0.515
473.000	308.212	80.002	19.996	103.350	19.566	31.393	0.516
473.500	308.450	79.999	19.996	103.350	19.566	31.376	0.501
474.000	308.701	80.000	19.996	103.350	19.562	31.651	0.485
474.500	308.969	80.001	19.996	103.350	19.562	31.636	0.504
475.000	309.226	79.999	19.996	103.351	19.556	32.061	0.522
475.500	309.471	80.000	19.995	103.351	19.560	31.810	0.514
476.000	309.718	79.999	19.995	103.351	19.558	31.935	0.497
476.500	309.993	79.998	19.995	103.351	19.556	32.050	0.507
477.000	310.267	79.999	19.995	103.351	19.555	32.145	0.535
477.500	310.514	79.998	19.995	103.351	19.553	32.302	0.535
478.000	310.766	79.997	19.996	103.352	19.552	32.367	0.510
478.500	311.040	79.998	19.996	103.352	19.550	32.488	0.513
479.000	311.302	79.998	19.996	103.352	19.554	32.203	0.531
479.500	311.548	79.999	19.996	103.352	19.549	32.566	0.522
480.000	311.804	80.000	19.996	103.352	19.548	32.618	0.504
480.500	312.045	79.998	19.995	103.352	19.548	32.669	0.499
481.000	312.304	80.000	19.995	103.351	19.547	32.699	0.499
481.500	312.600	79.998	19.996	103.351	19.545	32.875	0.527
482.000	312.817	79.999	19.997	103.351	19.545	32.865	0.534
482.500	313.070	79.999	19.995	103.351	19.544	32.918	0.492
483.000	313.329	79.999	19.995	103.351	19.542	33.074	0.491
483.500	313.590	79.999	19.995	103.351	19.536	33.449	0.516
484.000	313.870	79.998	19.994	103.351	19.535	33.519	0.531
484.500	314.105	79.998	19.996	103.351	19.537	33.413	0.528
485.000	314.366	80.000	19.996	103.351	19.534	33.625	0.505
485.500	314.620	79.999	19.995	103.351	19.533	33.644	0.506
486.000	314.890	80.000	19.997	103.351	19.530	33.863	0.520
486.500	315.143	79.999	19.995	103.351	19.530	33.871	0.523
487.000	315.383	79.998	19.996	103.351	19.529	33.920	0.508
487.500	315.625	79.999	19.996	103.351	19.526	34.144	0.487
488.000	315.877	79.999	19.995	103.351	19.525	34.233	0.488
488.500	316.154	79.998	19.996	103.353	19.524	34.307	0.512
489.000	316.406	80.000	19.996	103.355	19.525	34.225	0.529
489.500	316.659	79.999	19.996	103.355	19.523	34.371	0.517
490.000	316.921	80.000	19.996	103.355	19.522	34.460	0.510
490.500	317.194	80.000	19.996	103.356	19.520	34.541	0.525
491.000	317.441	79.999	19.996	103.354	19.518	34.698	0.527
491.500	317.661	80.000	19.996	103.352	19.516	34.849	0.494
492.000	317.940	80.000	19.995	103.351	19.517	34.770	0.483
492.500	318.206	79.999	19.995	103.352	19.516	34.817	0.522
493.000	318.449	79.999	19.996	103.351	19.511	35.173	0.527
493.500	318.705	80.000	19.996	103.352	19.515	34.887	0.503
494.000	318.990	80.000	19.996	103.352	19.510	35.264	0.520
494.500	319.216	79.999	19.996	103.353	19.509	35.349	0.526
495.000	319.501	79.998	19.994	103.353	19.507	35.474	0.511
495.500	319.736	80.000	19.996	103.354	19.504	35.666	0.515
496.000	319.959	79.999	19.995	103.353	19.504	35.645	0.489
496.500	320.217	79.999	19.995	103.354	19.501	35.865	0.470
497.000	320.478	79.998	19.996	103.354	19.500	35.922	0.500
497.500	320.725	80.000	19.995	103.354	19.500	35.967	0.513
498.000	321.016	80.000	19.995	103.355	19.495	36.316	0.523
498.500	321.264	80.000	19.996	103.355	19.495	36.304	0.539
499.000	321.464	79.999	19.995	103.356	19.495	36.317	0.493
499.500	321.728	79.999	19.996	103.357	19.489	36.705	0.456
500.000	322.014	79.999	19.996	103.356	19.492	36.484	0.507
500.500	322.248	79.999	19.996	103.356	19.490	36.670	0.535
501.000	322.486	79.999	19.996	103.355	19.483	37.097	0.496
501.500	322.751	79.999	19.996	103.355	19.481	37.267	0.488
502.000	322.994	79.998	19.996	103.355	19.481	37.287	0.505
502.500	323.260	79.998	19.995	103.355	19.483	37.091	0.508
503.000	323.514	79.998	19.995	103.355	19.476	37.609	0.514
503.500	323.786	79.997	19.995	103.355	19.474	37.716	0.523
504.000	324.033	79.998	19.995	103.356	19.477	37.551	0.523
504.500	324.252	80.000	19.994	103.360	19.473	37.786	0.493
505.000	324.528	79.999	19.995	103.363	19.472	37.885	0.480
505.500	324.779	79.999	19.995	103.368	19.472	37.900	0.511
506.000	325.030	79.997	19.995	103.372	19.471	37.953	0.515
506.500	325.275	79.998	19.996	103.377	19.470	38.018	0.499
507.000	325.561	79.998	19.994	103.379	19.469	38.059	0.513
507.500	325.769	79.999	19.996	103.378	19.466	38.326	0.512
508.000	326.052	79.998	19.997	103.373	19.465	38.389	0.492
508.500	326.281	79.996	19.996	103.370	19.458	38.874	0.501
509.000	326.540	79.997	19.996	103.364	19.460	38.725	0.500
509.500	326.794	79.997	19.996	103.359	19.460	38.714	0.501
510.000	327.035	79.996	19.995	103.361	19.458	38.870	0.504
510.500	327.303	79.998	19.996	103.366	19.454	39.129	0.502
511.000	327.543	79.997	19.996	103.366	19.453	39.201	0.509
511.500	327.806	79.998	19.995	103.367	19.453	39.218	0.506
512.000	328.033	79.997	19.996	103.371	19.450	39.435	0.497
512.500	328.269	79.998	19.996	103.375	19.448	39.558	0.477
513.000	328.547	79.996	19.996	103.375	19.447	39.607	0.488
513.500	328.778	79.997	19.996	103.380	19.446	39.698	0.511
514.000	329.051	79.997	19.996	103.385	19.443	39.912	0.506
514.500	329.262	79.998	19.996	103.384	19.438	40.228	0.494
515.000	329.541	79.998	19.996	103.381	19.439	40.141	0.487
515.500	329.819	79.998	19.996	103.383	19.437	40.292	0.523
516.000	330.071	79.998	19.996	103.384	19.431	40.693	0.543
516.500	330.312	79.999	19.996	103.383	19.432	40.614	0.511
517.000	330.543	79.997	19.996	103.384	19.433	40.593	0.482
517.500	330.798	79.998	19.996	103.386	19.429	40.862	0.479
518.000	331.058	79.998	19.996	103.384	19.427	40.991	0.501
518.500	331.285	79.999	19.995	103.384	19.425	41.135	0.501
519.000	331.559	80.000	19.997	103.387	19.422	41.301	0.494
519.500	331.834	79.998	19.996	103.388	19.417	41.695	0.525
520.000	332.101	80.000	19.997	103.390	19.419	41.536	0.546
520.500	332.345	80.000	19.995	103.391	19.413	41.962	0.527
521.000	332.609	79.999	19.996	103.391	19.411	42.094	0.509
521.500	332.879	80.000	19.997	103.391	19.408	42.305	0.520
522.000	333.108	79.999	19.996	103.391	19.409	42.216	0.516
522.500	333.356	80.001	19.997	103.391	19.407	42.378	0.488
523.000	333.620	79.999	19.997	103.391	19.403	42.640	0.495
523.500	333.850	80.001	19.996	103.391	19.402	42.748	0.503
524.000	334.115	80.000	19.995	103.391	19.401	42.780	0.494
524.500	334.345	80.001	19.995	103.390	19.400	42.891	0.495
525.000	334.632	80.000	19.996	103.390	19.396	43.121	0.506
525.500	334.883	80.000	19.997	103.389	19.394	43.277	0.528
526.000	335.139	80.000	19.996	103.389	19.396	43.107	0.522
526.500	335.377	80.000	19.997	103.390	19.391	43.467	0.501
527.000	335.644	80.000	19.996	103.390	19.390	43.520	0.500
527.500	335.893	80.001	19.996	103.390	19.385	43.862	0.511
528.000	336.130	80.001	19.996	103.390	19.384	43.944	0.501
528.500	336.401	80.000	19.996	103.390	19.382	44.120	0.497
529.000	336.649	79.999	19.996	103.390	19.380	44.253	0.514
529.500	336.920	80.000	19.996	103.392	19.380	44.260	0.519
530.000	337.163	79.999	19.996	103.393	19.376	44.505	0.516
530.500	337.407	80.000	19.996	103.395	19.376	44.533	0.500
531.000	337.648	80.000	19.997	103.396	19.370	44.931	0.486
531.500	337.899	79.999	19.996	103.396	19.367	45.159	0.489
532.000	338.186	80.000	19.996	103.394	19.367	45.170	0.515
532.500	338.456	79.999	19.995	103.393	19.363	45.433	0.547
533.000	338.678	80.000	19.997	103.392	19.361	45.530	0.524
533.500	338.920	79.999	19.996	103.394	19.358	45.772	0.478
534.000	339.178	79.998	19.997	103.401	19.358	45.755	0.482
534.500	339.391	79.998	19.996	103.407	19.353	46.120	0.486
535.000	339.651	79.998	19.995	103.411	19.349	46.410	0.472
535.500	339.906	79.997	19.996	103.413	19.351	46.218	0.494
536.000	340.150	79.997	19.995	103.411	19.341	46.964	0.507
536.500	340.418	79.998	19.997	103.404	19.344	46.729	0.505
537.000	340.671	79.998	19.996	103.399	19.342	46.868	0.516
537.500	340.923	79.998	19.996	103.398	19.341	46.919	0.513
538.000	341.181	79.999	19.997	103.400	19.336	47.276	0.507
538.500	341.417	79.998	19.997	103.405	19.335	47.370	0.502
539.000	341.674	79.999	19.996	103.410	19.331	47.657	0.494
539.500	341.907	79.998	19.996	103.414	19.325	48.032	0.492
540.000	342.194	79.999	19.997	103.415	19.326	47.975	0.505
540.500	342.441	79.998	19.997	103.414	19.323	48.207	0.527
541.000	342.680	79.998	19.996	103.416	19.316	48.628	0.509
541.500	342.931	79.999	19.997	103.419	19.319	48.421	0.488
542.000	343.196	79.999	19.997	103.420	19.315	48.725	0.503
542.500	343.417	79.999	19.996	103.423	19.313	48.887	0.501
543.000	343.699	80.000	19.996	103.426	19.308	49.219	0.495
543.500	343.941	80.000	19.996	103.426	19.306	49.363	0.514
544.000	344.191	80.000	19.996	103.426	19.303	49.527	0.508
544.500	344.429	80.000	19.997	103.426	19.304	49.465	0.490
545.000	344.661	80.000	19.997	103.426	19.298	49.889	0.479
545.500	344.923	80.000	19.996	103.426	19.295	50.112	0.482
546.000	345.170	80.001	19.998	103.426	19.294	50.199	0.501
546.500	345.436	80.001	19.998	103.428	19.294	50.215	0.510
547.000	345.684	80.001	19.996	103.429	19.288	50.622	0.514
547.500	345.926	79.999	19.997	103.429	19.285	50.835	0.502
548.000	346.179	80.001	19.996	103.430	19.282	51.046	0.493
548.500	346.390	80.001	19.996	103.434	19.283	50.943	0.480
549.000	346.663	80.000	19.996	103.437	19.280	51.161	0.474
549.500	346.971	80.001	19.996	103.439	19.276	51.418	0.532
550.000	347.190	80.001	19.995	103.442	19.270	51.817	0.554
550.500	347.431	80.001	19.996	103.442	19.268	52.012	0.493
551.000	347.704	80.001	19.995	103.438	19.268	52.017	0.487
551.500	347.957	80.002	19.995	103.435	19.262	52.408	0.520
552.000	348.211	80.000	19.996	103.436	19.258	52.666	0.517
552.500	348.484	80.001	19.996	103.441	19.258	52.703	0.517
553.000	348.691	80.001	19.995	103.443	19.253	52.987	0.503
553.500	348.968	80.000	19.995	103.443	19.250	53.201	0.482
554.000	349.219	79.999	19.995	103.445	19.248	53.344	0.506
554.500	349.485	79.999	19.994	103.442	19.243	53.741	0.522
555.000	349.709	80.000	19.994	103.435	19.243	53.703	0.503
555.500	349.978	79.999	19.995	103.438	19.240	53.930	0.492
556.000	350.236	79.999	19.995	103.441	19.237	54.091	0.510
556.500	350.472	79.997	19.995	103.444	19.234	54.348	0.510
557.000	350.736	79.999	19.995	103.451	19.228	54.737	0.497
557.500	350.984	79.997	19.995	103.458	19.226	54.891	0.506
558.000	351.248	79.998	19.996	103.461	19.222	55.151	0.512
558.500	351.487	79.998	19.994	103.466	19.219	55.353	0.508
559.000	351.732	79.998	19.995	103.468	19.213	55.774	0.493
559.500	351.981	79.999	19.995	103.467	19.211	55.903	0.489
560.000	352.239	80.000	19.995	103.464	19.211	55.886	0.501
560.500	352.541	79.998	19.995	103.462	19.210	55.961	0.534
561.000	352.736	79.998	19.997	103.461	19.208	56.095	0.529
561.500	353.030	79.998	19.995	103.462	19.202	56.539	0.493
562.000	353.296	79.999	19.995	103.464	19.199	56.776	0.525
562.500	353.560	79.998	19.995	103.465	19.197	56.917	0.545
563.000	353.828	79.999	19.995	103.466	19.195	57.008	0.530
563.500	354.089	79.998	19.995	103.468	19.191	57.286	0.531
564.000	354.289	79.996	19.995	103.468	19.188	57.481	0.495
564.500	354.571	79.997	19.995	103.468	19.188	57.484	0.472
565.000	354.800	79.998	19.995	103.470	19.186	57.676	0.496
565.500	355.056	79.997	19.995	103.469	19.181	57.966	0.498
566.000	355.310	79.997	19.995	103.469	19.179	58.123	0.498
566.500	355.588	79.998	19.996	103.467	19.179	58.139	0.521
567.000	355.827	79.997	19.995	103.467	19.172	58.622	0.524
567.500	356.076	79.997	19.994	103.466	19.170	58.730	0.503
568.000	356.295	79.998	19.995	103.468	19.167	58.931	0.478
568.500	356.559	79.997	19.994	103.469	19.166	59.054	0.476
569.000	356.801	79.997	19.995	103.470	19.163	59.264	0.495
569.500	357.101	79.998	19.995	103.469	19.158	59.567	0.524
570.000	357.327	79.999	19.996	103.469	19.161	59.375	0.534
570.500	357.587	79.999	19.996	103.469	19.155	59.750	0.506
571.000	357.850	79.998	19.995	103.471	19.157	59.641	0.504
571.500	358.121	79.997	19.995	103.472	19.149	60.160	0.529
572.000	358.322	79.997	19.996	103.472	19.149	60.224	0.503
572.500	358.606	79.998	19.995	103.473	19.146	60.421	0.478
573.000	358.832	79.998	19.995	103.473	19.145	60.493	0.497
573.500	359.077	79.999	19.994	103.471	19.140	60.792	0.491
574.000	359.335	79.998	19.995	103.471	19.141	60.747	0.487
574.500	359.575	79.999	19.996	103.470	19.140	60.843	0.501
575.000	359.833	79.997	19.996	103.470	19.137	61.054	0.498
575.500	360.079	79.998	19.996	103.470	19.136	61.056	0.501
576.000	360.363	79.997	19.995	103.471	19.132	61.347	0.516
576.500	360.625	79.997	19.995	103.471	19.130	61.499	0.538
577.000	360.879	79.998	19.995	103.472	19.130	61.483	0.531
577.500	361.120	79.998	19.996	103.471	19.129	61.577	0.506
578.000	361.391	79.997	19.995	103.472	19.126	61.749	0.504
578.500	361.643	79.997	19.995	103.472	19.127	61.698	0.518
579.000	361.894	79.998	19.995	103.472	19.122	62.029	0.513
579.500	362.182	79.998	19.995	103.472	19.125	61.862	0.521
580.000	362.422	79.998	19.996	103.472	19.126	61.778	0.533
580.500	362.636	79.997	19.996	103.472	19.124	61.919	0.491
581.000	362.916	79.998	19.995	103.471	19.123	61.966	0.474
581.500	363.141	79.999	19.996	103.468	19.124	61.879	0.500
582.000	363.392	79.999	19.995	103.466	19.124	61.900	0.490
582.500	363.640	79.999	19.995	103.464	19.123	61.991	0.488
583.000	363.881	79.997	19.996	103.462	19.124	61.858	0.494
583.500	364.156	79.998	19.996	103.462	19.123	61.933	0.502
584.000	364.393	79.997	19.994	103.465	19.126	61.776	0.514
584.500	364.651	79.998	19.996	103.467	19.127	61.677	0.504
585.000	364.933	79.997	19.996	103.469	19.127	61.682	0.518
585.500	365.165	79.999	19.994	103.470	19.127	61.642	0.527
586.000	365.410	79.998	19.994	103.470	19.128	61.601	0.496
586.500	365.641	79.999	19.994	103.467	19.125	61.790	0.476
587.000	365.905	79.998	19.995	103.462	19.130	61.493	0.485
587.500	366.170	79.998	19.996	103.457	19.133	61.251	0.512
588.000	366.422	79.999	19.996	103.452	19.133	61.237	0.523
588.500	366.678	79.998	19.994	103.445	19.136	61.064	0.512
589.000	366.915	79.999	19.995	103.441	19.136	61.001	0.500
589.500	367.203	79.997	19.995	103.438	19.142	60.638	0.509
590.000	367.415	79.999	19.994	103.434	19.141	60.683	0.512
590.500	367.685	79.998	19.995	103.433	19.143	60.520	0.491
591.000	367.928	79.997	19.995	103.432	19.147	60.237	0.498
591.500	368.167	79.999	19.996	103.431	19.150	60.042	0.498
592.000	368.409	79.999	19.995	103.431	19.156	59.671	0.482
592.500	368.695	79.998	19.995	103.431	19.153	59.835	0.505
593.000	368.948	79.999	19.995	103.427	19.163	59.188	0.533
593.500	369.174	80.000	19.996	103.424	19.163	59.183	0.509
594.000	369.445	79.998	19.997	103.424	19.170	58.661	0.488
594.500	369.697	79.999	19.995	103.422	19.174	58.402	0.510
595.000	369.977	79.999	19.996	103.416	19.176	58.223	0.528
595.500	370.219	79.999	19.995	103.412	19.182	57.836	0.527
596.000	370.451	79.998	19.995	103.408	19.184	57.710	0.497
596.500	370.694	80.000	19.995	103.402	19.192	57.149	0.474
597.000	371.000	79.999	19.996	103.396	19.198	56.759	0.512
597.500	371.205	79.999	19.996	103.396	19.203	56.382	0.530
598.000	371.501	79.999	19.996	103.393	19.210	55.875	0.506
598.500	371.769	80.000	19.995	103.392	19.214	55.607	0.533
599.000	372.001	79.999	19.995	103.388	19.224	54.915	0.532
599.500	372.232	80.000	19.995	103.381	19.230	54.506	0.482
600.000	372.503	79.999	19.996	103.373	19.235	54.133	0.482
600.500	372.748	79.999	19.996	103.367	19.243	53.621	0.509
601.000	373.039	80.001	19.995	103.360	19.252	53.013	0.526
601.500	373.240	80.000	19.996	103.356	19.257	52.626	0.514
602.000	373.500	80.000	19.995	103.355	19.265	52.108	0.476
602.500	373.809	80.000	19.996	103.353	19.271	51.687	0.515
603.000	374.020	79.999	19.996	103.351	19.280	51.050	0.544
603.500	374.269	80.000	19.995	103.347	19.287	50.544	0.489
604.000	374.505	79.999	19.995	103.345	19.296	49.946	0.473
604.500	374.790	80.001	19.995	103.340	19.304	49.373	0.504
605.000	375.022	80.000	19.995	103.333	19.313	48.816	0.519
605.500	375.260	80.000	19.996	103.331	19.319	48.365	0.493
606.000	375.517	80.000	19.996	103.326	19.331	47.542	0.482
606.500	375.775	79.999	19.997	103.320	19.337	47.130	0.505
607.000	376.063	80.001	19.998	103.317	19.352	46.110	0.531
607.500	376.296	79.999	19.998	103.317	19.358	45.654	0.533
608.000	376.554	79.999	19.996	103.311	19.368	44.967	0.506
608.500	376.814	80.000	19.996	103.310	19.379	44.207	0.505
609.000	377.037	80.000	19.997	103.309	19.389	43.519	0.501
609.500	377.284	80.000	19.996	103.307	19.400	42.772	0.477
610.000	377.545	79.999	19.996	103.300	19.408	42.226	0.489
610.500	377.759	79.999	19.996	103.295	19.418	41.528	0.492
611.000	378.055	79.999	19.995	103.288	19.426	40.989	0.493
611.500	378.323	79.999	19.996	103.281	19.437	40.267	0.537
612.000	378.566	80.001	19.997	103.275	19.449	39.400	0.537
612.500	378.799	79.999	19.997	103.272	19.460	38.669	0.493
613.000	379.082	80.000	19.996	103.269	19.468	38.090	0.496
613.500	379.369	79.998	19.996	103.269	19.482	37.134	0.543
614.000	379.606	80.000	19.996	103.269	19.487	36.807	0.547
614.500	379.826	79.998	19.996	103.270	19.497	36.113	0.490
615.000	380.090	79.999	19.995	103.270	19.508	35.353	0.471
615.500	380.362	79.999	19.996	103.268	19.518	34.641	0.510
616.000	380.608	79.999	19.996	103.262	19.524	34.269	0.527
616.500	380.837	79.999	19.996	103.255	19.538	33.308	0.496
617.000	381.146	79.999	19.996	103.249	19.550	32.458	0.507
617.500	381.350	79.999	19.996	103.242	19.554	32.201	0.526
618.000	381.624	80.000	19.995	103.238	19.569	31.173	0.495
618.500	381.863	79.999	19.996	103.237	19.576	30.672	0.495
619.000	382.122	80.000	19.996	103.239	19.584	30.139	0.505
619.500	382.353	79.999	19.996	103.237	19.591	29.655	0.494
620.000	382.565	80.000	19.995	103.237	19.602	28.875	0.467
620.500	382.856	80.000	19.996	103.237	19.610	28.310	0.473
621.000	383.123	79.999	19.995	103.236	19.622	27.473	0.530
621.500	383.389	79.999	19.996	103.234	19.630	26.961	0.546
622.000	383.621	79.999	19.995	103.234	19.638	26.409	0.516
622.500	383.880	80.001	19.996	103.234	19.646	25.854	0.495
623.000	384.123	80.000	19.996	103.234	19.657	25.068	0.497
623.500	384.401	80.000	19.995	103.234	19.664	24.594	0.511
624.000	384.675	80.000	19.995	103.233	19.669	24.235	0.536
624.500	384.903	79.999	19.995	103.232	19.679	23.572	0.527
625.000	385.162	80.000	19.996	103.231	19.685	23.179	0.495
625.500	385.439	80.001	19.996	103.231	19.700	22.151	0.511
626.000	385.667	80.000	19.995	103.230	19.694	22.508	0.520
626.500	385.929	80.000	19.996	103.225	19.706	21.735	0.498
627.000	386.189	80.000	19.995	103.221	19.710	21.444	0.507
627.500	386.426	80.001	19.996	103.215	19.716	21.021	0.510
628.000	386.653	80.000	19.995	103.210	19.732	19.943	0.480
628.500	386.948	80.000	19.996	103.205	19.727	20.254	0.492
629.000	387.152	80.002	19.995	103.203	19.741	19.337	0.510
629.500	387.402	80.000	19.995	103.201	19.746	18.969	0.477
630.000	387.705	80.000	19.996	103.201	19.750	18.712	0.503
630.500	387.902	80.001	19.995	103.201	19.754	18.404	0.526
631.000	388.210	80.000	19.996	103.200	19.758	18.126	0.503
631.500	388.424	80.000	19.997	103.200	19.767	17.539	0.514
632.000	388.738	80.001	19.995	103.199	19.771	17.267	0.525
632.500	388.949	80.000	19.996	103.197	19.772	17.199	0.526
633.000	389.197	80.001	19.997	103.196	19.778	16.734	0.492
633.500	389.418	80.001	19.996	103.196	19.784	16.383	0.464
634.000	389.672	79.999	19.996	103.197	19.789	16.026	0.472
634.500	389.907	79.999	19.995	103.197	19.790	15.954	0.482
635.000	390.200	79.999	19.995	103.197	19.794	15.640	0.508
635.500	390.482	79.998	19.996	103.198	19.799	15.300	0.551
636.000	390.729	79.999	19.996	103.196	19.802	15.087	0.552
636.500	390.922	79.998	19.996	103.196	19.807	14.775	0.485
637.000	391.273	79.999	19.996	103.195	19.807	14.766	0.492
637.500	391.465	79.998	19.996	103.192	19.810	14.530	0.544
638.000	391.642	79.998	19.997	103.192	19.812	14.443	0.456
638.500	391.837	79.997	19.997	103.192	19.815	14.205	0.370
639.000	392.417	79.998	19.996	103.193	19.820	13.848	0.573
639.500	392.441	79.997	19.995	103.194	19.817	14.084	0.690
640.000	392.401	79.996	19.996	103.197	19.823	13.668	0.295
640.500	393.096	79.999	19.996	103.197	19.826	13.451	0.320
641.000	393.173	79.999	19.996	103.198	19.826	13.488	0.713
641.500	393.133	79.997	19.996	103.197	19.831	13.147	0.404
642.000	393.940	79.998	19.995	103.198	19.831	13.101	0.402
642.500	393.818	79.998	19.995	103.198	19.834	12.882	0.726
643.000	394.221	79.998	19.996	103.198	19.835	12.837	0.484
643.500	394.478	79.997	19.996	103.198	19.837	12.682	0.471
644.000	394.757	79.997	19.996	103.199	19.837	12.680	0.598
644.500	394.873	79.998	19.996	103.198	19.838	12.659	0.465
645.000	395.099	79.997	19.996	103.198	19.840	12.484	0.368
645.500	395.472	79.997	19.996	103.198	19.842	12.367	0.471
646.000	395.732	79.998	19.996	103.198	19.840	12.478	0.617
646.500	395.906	79.997	19.995	103.197	19.844	12.200	0.534
647.000	396.130	79.998	19.995	103.197	19.845	12.123	0.415
647.500	396.392	79.998	19.996	103.197	19.847	11.983	0.442
648.000	396.711	79.998	19.994	103.197	19.846	12.051	0.534
648.500	396.919	79.999	19.995	103.197	19.848	11.941	0.554
649.000	397.115	79.998	19.994	103.197	19.850	11.813	0.465
649.500	397.397	79.998	19.996	103.197	19.850	11.821	0.441
650.000	397.653	79.999	19.995	103.196	19.853	11.626	0.508
650.500	397.925	79.998	19.994	103.196	19.852	11.696	0.533
651.000	398.139	79.999	19.995	103.195	19.852	11.671	0.507
651.500	398.353	79.998	19.995	103.195	19.854	11.567	0.457
652.000	398.621	79.998	19.995	103.194	19.854	11.520	0.455
652.500	398.834	79.999	19.994	103.195	19.854	11.564	0.482
653.000	399.076	79.998	19.995	103.194	19.854	11.549	0.469
653.500	399.348	79.999	19.996	103.195	19.854	11.560	0.485
654.000	399.609	79.999	19.995	103.194	19.860	11.112	0.523
654.500	399.782	79.998	19.995	103.194	19.856	11.380	0.483
655.000	400.088	79.999	19.995	103.194	19.857	11.333	0.456
655.500	400.303	79.998	19.995	103.194	19.857	11.295	0.500
656.000	400.547	79.998	19.994	103.195	19.858	11.237	0.490
656.500	400.804	79.998	19.996	103.195	19.859	11.188	0.480
657.000	401.026	79.998	19.994	103.195	19.857	11.318	0.490
657.500	401.281	80.000	19.996	103.194	19.860	11.133	0.478
658.000	401.553	79.999	19.995	103.194	19.862	10.972	0.502
658.500	401.787	80.000	19.995	103.193	19.862	10.989	0.516
659.000	402.007	79.999	19.994	103.193	19.862	10.972	0.480
659.500	402.275	79.999	19.996	103.193	19.864	10.815	0.471
660.000	402.473	79.998	19.994	103.194	19.867	10.657	0.477
660.500	402.710	79.999	19.996	103.194	19.867	10.670	0.451
661.000	402.977	80.000	19.995	103.194	19.868	10.596	0.469
661.500	403.238	79.999	19.994	103.195	19.866	10.742	0.516
662.000	403.488	79.998	19.995	103.194	19.866	10.704	0.520
662.500	403.734	79.999	19.994	103.194	19.869	10.515	0.504
663.000	403.958	79.999	19.996	103.193	19.870	10.461	0.483
663.500	404.218	80.000	19.995	103.194	19.867	10.655	0.477
664.000	404.461	79.999	19.995	103.194	19.867	10.631	0.494
664.500	404.667	79.997	19.996	103.193	19.868	10.538	0.476
665.000	404.952	79.999	19.995	103.193	19.871	10.391	0.470
665.500	405.169	79.999	19.996	103.191	19.869	10.502	0.496
666.000	405.419	79.998	19.995	103.190	19.870	10.443	0.485
666.500	405.674	79.998	19.996	103.190	19.870	10.400	0.486
667.000	405.914	79.998	19.996	103.191	19.871	10.343	0.500
667.500	406.177	79.998	19.995	103.191	19.870	10.445	0.499
668.000	406.391	79.998	19.996	103.193	19.870	10.415	0.490
668.500	406.593	79.997	19.996	103.193	19.872	10.294	0.447
669.000	406.851	79.999	19.996	103.193	19.870	10.439	0.438
669.500	407.141	79.998	19.995	103.193	19.868	10.551	0.504
670.000	407.379	79.999	19.995	103.192	19.870	10.400	0.538
670.500	407.643	79.998	19.995	103.192	19.874	10.124	0.514
671.000	407.863	79.998	19.996	103.192	19.873	10.209	0.493
671.500	408.116	79.999	19.996	103.193	19.873	10.241	0.479
672.000	408.369	79.998	19.996	103.193	19.873	10.219	0.490
672.500	408.621	79.998	19.996	103.194	19.873	10.251	0.505
673.000	408.879	79.998	19.996	103.194	19.873	10.204	0.507
673.500	409.101	79.999	19.995	103.194	19.878	9.885	0.495
674.000	409.383	79.999	19.996	103.195	19.877	9.928	0.492
674.500	409.626	79.998	19.995	103.195	19.875	10.102	0.515
675.000	409.837	79.999	19.996	103.195	19.876	10.023	0.490
675.500	410.083	79.999	19.995	103.194	19.876	10.032	0.455
676.000	410.313	79.999	19.996	103.193	19.878	9.891	0.466
676.500	410.569	79.999	19.996	103.193	19.874	10.153	0.481
677.000	410.809	80.000	19.995	103.191	19.879	9.845	0.491
677.500	411.062	79.999	19.995	103.191	19.877	9.919	0.495
678.000	411.304	79.999	19.995	103.191	19.877	9.970	0.494
678.500	411.553	79.999	19.995	103.189	19.876	10.030	0.493
679.000	411.809	80.001	19.995	103.189	19.874	10.191	0.498
679.500	411.996	80.000	19.995	103.190	19.877	9.919	0.474
680.000	412.264	80.001	19.994	103.189	19.878	9.887	0.449
680.500	412.534	80.001	19.995	103.188	19.878	9.868	0.496
681.000	412.763	80.001	19.995	103.190	19.875	10.066	0.519
681.500	413.002	80.001	19.996	103.190	19.881	9.664	0.484
682.000	413.247	80.000	19.994	103.191	19.880	9.733	0.476
682.500	413.493	80.000	19.995	103.192	19.877	9.943	0.487
683.000	413.703	80.001	19.995	103.194	19.878	9.870	0.474
683.500	413.943	80.001	19.995	103.196	19.881	9.656	0.453
684.000	414.194	80.001	19.994	103.197	19.882	9.618	0.471
684.500	414.414	80.001	19.996	103.197	19.882	9.579	0.481
685.000	414.650	80.002	19.994	103.197	19.881	9.649	0.464
685.500	414.901	80.000	19.994	103.197	19.878	9.892	0.472
686.000	415.134	80.000	19.994	103.197	19.880	9.732	0.486
686.500	415.383	80.001	19.994	103.197	19.881	9.702	0.483
687.000	415.596	80.001	19.995	103.198	19.877	9.944	0.471
687.500	415.873	79.999	19.994	103.200	19.879	9.793	0.476
688.000	416.111	80.000	19.993	103.201	19.879	9.848	0.502
688.500	416.363	80.000	19.994	103.201	19.881	9.671	0.503
689.000	416.594	80.000	19.996	103.201	19.879	9.843	0.486
689.500	416.837	80.001	19.995	103.199	19.882	9.586	0.478
690.000	417.127	79.999	19.995	103.197	19.879	9.787	0.503
690.500	417.305	79.999	19.995	103.197	19.880	9.715	0.500
691.000	417.553	79.999	19.995	103.196	19.882	9.607	0.447
691.500	417.846	79.999	19.994	103.196	19.882	9.628	0.484
692.000	418.037	79.999	19.995	103.195	19.880	9.755	0.513
692.500	418.299	79.999	19.995	103.195	19.879	9.806	0.468
693.000	418.580	79.999	19.995	103.196	19.884	9.438	0.498
693.500	418.775	79.999	19.995	103.196	19.880	9.717	0.510
694.000	419.062	79.999	19.996	103.196	19.883	9.551	0.479
694.500	419.311	79.998	19.995	103.197	19.880	9.761	0.509
695.000	419.583	79.997	19.997	103.198	19.883	9.556	0.529
695.500	419.809	79.999	19.995	103.198	19.883	9.562	0.509
696.000	420.089	79.999	19.994	103.197	19.885	9.373	0.502
696.500	420.312	79.999	19.997	103.198	19.885	9.411	0.504
697.000	420.567	79.998	19.996	103.202	19.885	9.386	0.491
697.500	420.832	79.998	19.997	103.202	19.885	9.409	0.499
698.000	421.086	80.000	19.996	103.202	19.882	9.617	0.519
698.500	421.334	79.998	19.995	103.202	19.883	9.567	0.511
699.000	421.562	79.999	19.994	103.203	19.885	9.380	0.489
699.500	421.830	79.999	19.995	103.198	19.886	9.356	0.486
700.000	422.070	79.999	19.996	103.197	19.883	9.511	0.502
700.500	422.350	79.999	19.997	103.197	19.887	9.246	0.513
701.000	422.576	79.998	19.997	103.197	19.887	9.278	0.513
701.500	422.819	80.000	19.995	103.196	19.887	9.286	0.488
702.000	423.077	79.999	19.996	103.198	19.891	9.006	0.485
702.500	423.339	80.001	19.996	103.199	19.887	9.278	0.510
703.000	423.580	79.998	19.996	103.200	19.888	9.212	0.511
703.500	423.854	79.999	19.995	103.201	19.888	9.161	0.509
704.000	424.105	79.999	19.996	103.204	19.887	9.286	0.520
704.500	424.359	80.000	19.996	103.202	19.886	9.365	0.515
705.000	424.620	79.999	19.996	103.202	19.888	9.188	0.510
705.500	424.893	80.000	19.997	103.202	19.888	9.203	0.524
706.000	425.112	80.001	19.995	103.201	19.889	9.114	0.513
706.500	425.391	80.000	19.995	103.201	19.891	9.012	0.495
707.000	425.661	80.001	19.996	103.202	19.888	9.178	0.523
707.500	425.899	80.000	19.995	103.201	19.891	8.998	0.528
708.000	426.185	80.001	19.996	103.201	19.890	9.029	0.516
708.500	426.409	80.001	19.995	103.201	19.887	9.278	0.517
709.000	426.747	80.000	19.997	103.197	19.889	9.146	0.536
709.500	426.984	80.000	19.995	103.197	19.888	9.210	0.569
710.000	427.264	79.999	19.995	103.197	19.888	9.189	0.546
710.500	427.478	80.000	19.996	103.197	19.889	9.110	0.506
711.000	427.762	80.002	19.995	103.196	19.887	9.292	0.496
711.501	427.988	80.000	19.995	103.197	19.890	9.059	0.504
712.000	428.248	80.001	19.996	103.196	19.889	9.138	0.498
712.500	428.527	80.000	19.995	103.196	19.888	9.189	0.513
713.000	428.801	80.000	19.995	103.196	19.892	8.938	0.546
713.500	429.060	80.001	19.995	103.196	19.892	8.912	0.543
714.000	429.331	80.001	19.995	103.197	19.889	9.151	0.531
714.500	429.573	80.000	19.995	103.197	19.887	9.246	0.521
715.000	429.881	80.000	19.995	103.196	19.888	9.204	0.531
715.500	430.123	79.999	19.995	103.196	19.890	9.044	0.550
716.000	430.412	80.000	19.995	103.195	19.891	9.019	0.541
716.500	430.653	80.000	19.996	103.194	19.895	8.704	0.531
717.000	430.894	80.000	19.995	103.193	19.891	8.979	0.506
717.500	431.178	80.000	19.996	103.192	19.891	9.002	0.503
718.000	431.409	79.999	19.996	103.191	19.894	8.793	0.520
718.500	431.697	79.999	19.996	103.191	19.892	8.942	0.517
719.000	431.983	79.999	19.995	103.191	19.894	8.789	0.547
719.500	432.239	79.999	19.996	103.191	19.894	8.789	0.558
720.000	432.490	79.998	19.996	103.192	19.893	8.859	0.524
720.500	432.762	79.999	19.996	103.195	19.893	8.821	0.515
721.000	433.004	79.999	19.996	103.195	19.894	8.796	0.519
721.500	433.285	79.997	19.997	103.196	19.893	8.874	0.519
722.000	433.553	79.998	19.996	103.196	19.892	8.936	0.536
722.500	433.814	79.998	19.996	103.196	19.892	8.942	0.539
723.000	434.071	79.996	19.996	103.193	19.896	8.670	0.523
723.500	434.323	79.997	19.996	103.193	19.897	8.585	0.514
724.000	434.603	79.997	19.996	103.193	19.894	8.781	0.520
724.500	434.890	79.998	19.996	103.193	19.895	8.726	0.549
725.000	435.136	79.998	19.996	103.193	19.892	8.945	0.550
725.500	435.414	79.999	19.997	103.194	19.895	8.690	0.529
726.000	435.676	79.998	19.996	103.193	19.892	8.915	0.532
726.500	435.910	79.997	19.996	103.192	19.891	8.972	0.518
727.000	436.201	79.996	19.996	103.192	19.892	8.925	0.510
727.500	436.455	79.997	19.997	103.192	19.892	8.893	0.535
728.000	436.748	79.996	19.998	103.192	19.893	8.861	0.546
728.500	436.994	79.998	19.997	103.192	19.895	8.736	0.543
729.000	437.261	79.997	19.997	103.193	19.893	8.879	0.526
729.500	437.483	79.997	19.996	103.193	19.893	8.844	0.501
730.000	437.761	79.998	19.997	103.193	19.897	8.596	0.495
730.500	438.064	79.998	19.997	103.193	19.896	8.677	0.540
731.000	438.340	79.997	19.996	103.191	19.896	8.662	0.580
731.500	438.561	79.997	19.997	103.190	19.894	8.809	0.538
732.000	438.828	79.997	19.997	103.190	19.894	8.788	0.493
732.500	439.094	79.996	19.996	103.190	19.895	8.722	0.511
733.000	439.346	79.998	19.996	103.191	19.896	8.618	0.525
733.500	439.657	79.997	19.996	103.192	19.897	8.586	0.540
734.000	439.901	79.998	19.997	103.192	19.896	8.615	0.559
734.500	440.137	79.997	19.997	103.191	19.901	8.279	0.518
735.000	440.412	79.998	19.996	103.189	19.900	8.339	0.495
735.500	440.648	79.997	19.996	103.189	19.897	8.589	0.511
736.000	440.946	79.998	19.996	103.190	19.901	8.288	0.523
736.500	441.167	79.997	19.997	103.190	19.898	8.498	0.526
737.000	441.458	79.997	19.997	103.191	19.900	8.377	0.515
737.500	441.695	79.999	19.997	103.194	19.901	8.332	0.520
738.000	441.943	79.998	19.996	103.194	19.901	8.267	0.506
738.500	442.252	79.999	19.996	103.193	19.901	8.311	0.521
739.000	442.469	79.999	19.997	103.193	19.899	8.462	0.542
739.500	442.738	80.000	19.995	103.193	19.899	8.464	0.506
740.000	443.018	80.000	19.996	103.192	19.902	8.254	0.517
740.500	443.252	79.998	19.995	103.192	19.902	8.215	0.531
741.000	443.509	80.000	19.995	103.192	19.903	8.141	0.503
741.500	443.803	79.999	19.996	103.190	19.901	8.298	0.521
742.000	444.016	80.000	19.995	103.190	19.902	8.213	0.529
742.500	444.295	80.000	19.995	103.187	19.903	8.181	0.500
743.000	444.553	79.998	19.995	103.186	19.902	8.249	0.515
743.500	444.857	79.999	19.995	103.185	19.904	8.100	0.549
744.000	445.060	79.997	19.996	103.189	19.904	8.083	0.534
744.500	445.331	79.998	19.995	103.190	19.905	8.049	0.490
745.000	445.604	79.999	19.996	103.193	19.902	8.232	0.509
745.500	445.849	79.998	19.996	103.195	19.906	7.981	0.531
746.000	446.123	79.999	19.995	103.195	19.907	7.864	0.518
746.500	446.385	79.999	19.995	103.195	19.904	8.119	0.528
747.000	446.646	79.999	19.995	103.195	19.903	8.185	0.530
747.500	446.945	79.999	19.995	103.194	19.906	7.939	0.541
748.000	447.200	79.999	19.995	103.192	19.907	7.896	0.557
748.500	447.461	79.998	19.995	103.192	19.906	7.979	0.535
749.000	447.723	79.999	19.995	103.192	19.910	7.701	0.520
749.500	447.987	79.999	19.995	103.192	19.908	7.816	0.524
750.000	448.213	79.998	19.996	103.193	19.910	7.661	0.508
750.500	448.459	79.998	19.995	103.194	19.908	7.788	0.481
751.000	448.739	79.999	19.995	103.195	19.910	7.671	0.499
751.500	449.040	79.996	19.996	103.195	19.910	7.669	0.554
752.000	449.263	79.999	19.996	103.195	19.910	7.682	0.553
752.500	449.533	79.997	19.996	103.195	19.913	7.491	0.509
753.000	449.762	79.997	19.995	103.196	19.911	7.639	0.496
753.500	450.041	79.997	19.995	103.196	19.910	7.712	0.503
754.000	450.295	79.999	19.995	103.196	19.911	7.591	0.520
754.500	450.595	79.998	19.996	103.196	19.911	7.615	0.543
755.000	450.837	79.997	19.995	103.196	19.909	7.764	0.548
755.500	451.103	79.997	19.996	103.197	19.913	7.451	0.525
756.000	451.348	79.998	19.996	103.197	19.913	7.479	0.510
756.500	451.593	79.998	19.996	103.198	19.913	7.451	0.501
757.000	451.850	79.998	19.995	103.199	19.916	7.270	0.496
757.500	452.114	79.998	19.996	103.199	19.913	7.450	0.512
758.000	452.373	79.997	19.995	103.197	19.911	7.595	0.522
758.500	452.637	79.997	19.995	103.197	19.914	7.406	0.523
759.000	452.885	79.996	19.996	103.197	19.913	7.474	0.518
759.500	453.149	79.999	19.996	103.197	19.911	7.617	0.512
760.000	453.426	79.997	19.994	103.195	19.914	7.432	0.526
760.500	453.650	79.998	19.996	103.197	19.916	7.291	0.521
761.000	453.888	79.998	19.996	103.196	19.913	7.491	0.482
761.500	454.176	79.999	19.996	103.194	19.914	7.420	0.494
762.000	454.442	79.999	19.996	103.194	19.913	7.485	0.540
762.500	454.723	79.999	19.997	103.196	19.915	7.360	0.551
763.000	455.006	80.000	19.995	103.194	19.915	7.359	0.556
763.500	455.229	80.000	19.996	103.194	19.915	7.321	0.535
764.000	455.536	80.000	19.995	103.195	19.918	7.164	0.518
764.500	455.797	80.000	19.997	103.193	19.915	7.330	0.549
765.000	456.044	80.000	19.996	103.189	19.919	7.073	0.538
765.500	456.263	80.001	19.995	103.186	19.915	7.332	0.487
766.000	456.515	79.999	19.995	103.183	19.914	7.424	0.469
766.500	456.821	80.000	19.995	103.181	19.916	7.272	0.515
767.000	457.093	79.999	19.996	103.182	19.918	7.130	0.568
767.500	457.320	79.999	19.995	103.186	19.919	7.075	0.538
768.000	457.564	80.000	19.996	103.190	19.916	7.245	0.485
768.500	457.816	79.998	19.995	103.192	19.918	7.154	0.484
769.000	458.087	79.999	19.995	103.195	19.917	7.207	0.510
769.500	458.366	79.999	19.994	103.192	19.916	7.285	0.536
770.000	458.651	80.000	19.996	103.187	19.913	7.492	0.557
770.500	458.869	79.999	19.994	103.187	19.914	7.400	0.534
771.000	459.096	80.000	19.995	103.189	19.920	7.013	0.474
771.500	459.414	79.999	19.996	103.189	19.918	7.152	0.494
772.000	459.636	80.000	19.995	103.192	19.918	7.109	0.543
772.500	459.902	80.000	19.997	103.196	19.916	7.268	0.515
773.000	460.161	80.000	19.994	103.192	19.917	7.196	0.507
773.500	460.383	79.999	19.994	103.188	19.917	7.228	0.503
774.000	460.647	79.999	19.994	103.187	19.917	7.177	0.483
774.500	460.918	79.998	19.995	103.187	19.917	7.226	0.511
775.000	461.169	79.999	19.995	103.184	19.918	7.120	0.529
775.500	461.411	80.000	19.994	103.186	19.917	7.219	0.507
776.000	461.679	79.997	19.995	103.189	19.919	7.032	0.501
776.500	461.899	80.000	19.995	103.187	19.920	7.005	0.499
777.000	462.210	79.999	19.995	103.184	19.922	6.882	0.509
777.500	462.444	80.000	19.995	103.185	19.919	7.074	0.538
778.000	462.709	79.999	19.996	103.181	19.920	6.972	0.522
778.500	462.982	79.998	19.994	103.178	19.919	7.069	0.519
779.000	463.242	79.999	19.995	103.180	19.918	7.154	0.535
779.500	463.458	80.000	19.996	103.177	19.922	6.865	0.504
780.000	463.732	79.999	19.995	103.178	19.927	6.539	0.483
780.500	463.998	79.999	19.995	103.183	19.920	7.007	0.515
781.000	464.243	79.999	19.994	103.182	19.923	6.788	0.526
781.500	464.509	79.999	19.995	103.181	19.925	6.666	0.511
782.000	464.708	80.000	19.995	103.186	19.924	6.696	0.488
782.500	464.988	79.998	19.995	103.183	19.925	6.647	0.472
783.000	465.234	80.000	19.995	103.183	19.923	6.803	0.502
783.500	465.461	79.999	19.996	103.187	19.926	6.582	0.500
784.000	465.726	79.999	19.996	103.187	19.923	6.759	0.483
784.500	465.983	80.000	19.995	103.183	19.925	6.635	0.507
785.000	466.263	79.999	19.995	103.183	19.924	6.733	0.530
785.500	466.486	80.001	19.995	103.183	19.924	6.699	0.520
786.000	466.745	80.001	19.996	103.184	19.923	6.761	0.492
786.500	467.005	80.000	19.995	103.186	19.923	6.763	0.501
787.000	467.305	80.000	19.995	103.186	19.922	6.824	0.539
787.500	467.485	80.000	19.995	103.184	19.925	6.676	0.520
788.000	467.774	80.001	19.995	103.180	19.924	6.688	0.475
788.500	468.051	79.998	19.996	103.176	19.925	6.665	0.518
789.000	468.294	80.001	19.996	103.176	19.923	6.791	0.543
789.500	468.514	80.000	19.996	103.178	19.923	6.778	0.492
790.000	468.841	80.000	19.996	103.177	19.925	6.652	0.505
790.500	469.093	80.000	19.996	103.183	19.923	6.818	0.563
791.000	469.336	80.001	19.996	103.186	19.926	6.591	0.537
791.500	469.620	79.999	19.996	103.186	19.928	6.461	0.511
792.000	469.834	80.000	19.996	103.186	19.925	6.666	0.513
792.500	470.114	79.999	19.996	103.191	19.926	6.577	0.496
793.000	470.367	80.002	19.995	103.189	19.927	6.489	0.514
793.500	470.628	80.001	19.995	103.188	19.928	6.447	0.524
794.000	470.911	80.001	19.996	103.183	19.928	6.425	0.529
794.500	471.147	80.001	19.996	103.183	19.929	6.374	0.531
795.000	471.432	79.999	19.996	103.181	19.927	6.494	0.520
795.500	471.664	80.002	19.996	103.179	19.930	6.320	0.519
796.000	471.929	80.001	19.995	103.179	19.930	6.328	0.506
796.500	472.168	80.001	19.996	103.183	19.931	6.228	0.500
797.000	472.455	80.001	19.996	103.182	19.930	6.321	0.515
797.500	472.688	79.999	19.996	103.183	19.930	6.276	0.524
798.000	472.951	80.000	19.996	103.185	19.929	6.389	0.508
798.500	473.183	80.000	19.995	103.182	19.930	6.293	0.495
799.000	473.471	79.999	19.996	103.180	19.929	6.398	0.507
799.500	473.719	79.999	19.996	103.179	19.931	6.266	0.528
800.000	473.986	79.998	19.996	103.180	19.931	6.241	0.526
800.500	474.246	79.999	19.996	103.181	19.926	6.597	0.521
801.000	474.500	79.999	19.995	103.185	19.928	6.429	0.520
801.500	474.736	79.998	19.997	103.184	19.925	6.653	0.502
802.000	475.045	80.000	19.996	103.182	19.928	6.432	0.518
802.500	475.305	79.998	19.995	103.177	19.929	6.383	0.558
803.000	475.531	79.999	19.997	103.172	19.929	6.374	0.528
803.500	475.779	79.998	19.996	103.169	19.929	6.396	0.480
804.000	476.018	79.998	19.995	103.174	19.929	6.357	0.480
804.500	476.310	79.998	19.995	103.174	19.929	6.353	0.508
805.000	476.560	79.998	19.995	103.172	19.929	6.380	0.536
805.500	476.792	79.998	19.996	103.173	19.932	6.178	0.512
806.000	477.077	79.999	19.995	103.170	19.928	6.446	0.500
806.500	477.295	79.999	19.996	103.168	19.929	6.340	0.510
807.000	477.573	79.998	19.997	103.170	19.930	6.291	0.500
807.500	477.824	79.998	19.995	103.174	19.930	6.305	0.513
808.000	478.092	79.998	19.996	103.177	19.929	6.363	0.524
808.500	478.352	80.000	19.997	103.183	19.932	6.199	0.523
809.000	478.612	79.997	19.995	103.180	19.931	6.252	0.524
809.500	478.882	79.997	19.996	103.176	19.934	6.061	0.526
810.000	479.139	79.999	19.997	103.175	19.934	6.032	0.529
810.500	479.383	79.999	19.996	103.175	19.931	6.266	0.514
811.000	479.656	79.998	19.996	103.172	19.931	6.215	0.509
811.500	479.899	79.997	19.996	103.174	19.932	6.183	0.517
812.000	480.129	79.999	19.996	103.176	19.931	6.234	0.495
812.500	480.407	79.999	19.997	103.174	19.931	6.210	0.491
813.000	480.652	79.998	19.996	103.171	19.930	6.276	0.515
813.500	480.915	79.998	19.997	103.169	19.933	6.115	0.515
814.000	481.182	79.998	19.996	103.171	19.932	6.168	0.519
814.500	481.428	79.997	19.996	103.172	19.933	6.110	0.522
815.000	481.668	79.998	19.996	103.174	19.934	6.057	0.499
815.500	481.908	79.998	19.997	103.177	19.934	6.040	0.483
816.000	482.205	79.999	19.996	103.179	19.934	6.047	0.508
816.500	482.443	79.998	19.996	103.180	19.934	6.036	0.536
817.000	482.723	79.999	19.997	103.184	19.933	6.122	0.526
817.500	482.973	79.998	19.996	103.185	19.935	5.981	0.524
818.000	483.200	79.998	19.996	103.187	19.933	6.071	0.504
818.500	483.463	79.998	19.996	103.189	19.935	5.969	0.484
819.000	483.718	79.998	19.996	103.188	19.937	5.811	0.504
819.500	483.956	79.997	19.996	103.188	19.933	6.085	0.505
820.000	484.205	79.999	19.996	103.188	19.935	5.951	0.490
820.500	484.482	79.998	19.996	103.184	19.933	6.084	0.506
821.000	484.736	79.998	19.996	103.177	19.935	5.989	0.529
821.500	484.969	79.997	19.997	103.175	19.935	5.943	0.509
822.000	485.235	79.999	19.997	103.175	19.936	5.881	0.493
822.500	485.462	79.998	19.997	103.173	19.937	5.811	0.495
823.000	485.773	79.998	19.996	103.177	19.934	6.045	0.516
823.500	485.994	79.998	19.996	103.180	19.938	5.743	0.535
824.000	486.290	79.999	19.995	103.177	19.938	5.735	0.525
824.500	486.530	79.998	19.998	103.178	19.938	5.741	0.527
825.000	486.772	79.998	19.996	103.182	19.936	5.901	0.509
825.500	487.037	79.997	19.998	103.181	19.933	6.113	0.494
826.000	487.277	79.997	19.997	103.180	19.936	5.896	0.506
826.500	487.535	79.998	19.996	103.181	19.935	5.934	0.501
827.000	487.787	79.997	19.996	103.181	19.937	5.825	0.504
827.500	488.062	79.998	19.995	103.176	19.937	5.851	0.519
828.000	488.295	79.998	19.995	103.170	19.938	5.787	0.518
828.500	488.574	79.998	19.995	103.169	19.935	5.934	0.510
829.000	488.826	79.997	19.996	103.168	19.936	5.866	0.522
829.500	489.074	79.998	19.996	103.170	19.933	6.081	0.516
830.000	489.331	79.998	19.996	103.174	19.932	6.138	0.503
830.500	489.565	79.999	19.995	103.178	19.934	5.998	0.498
831.000	489.819	79.997	19.996	103.181	19.936	5.872	0.489
831.500	490.095	79.997	19.995	103.185	19.931	6.218	0.509
832.000	490.347	79.997	19.995	103.180	19.936	5.862	0.529
832.500	490.599	79.997	19.996	103.177	19.935	5.987	0.516
833.000	490.832	79.996	19.995	103.176	19.934	6.010	0.494
833.500	491.135	79.998	19.996	103.177	19.934	6.047	0.510
834.000	491.342	79.999	19.996	103.173	19.931	6.209	0.523
834.500	491.611	79.997	19.995	103.174	19.939	5.690	0.493
835.000	491.905	79.998	19.996	103.174	19.936	5.909	0.520
835.500	492.120	79.999	19.995	103.172	19.935	5.986	0.536
836.000	492.395	79.996	19.996	103.171	19.934	6.031	0.499
836.500	492.635	79.999	19.996	103.177	19.936	5.913	0.502
837.000	492.881	79.998	19.996	103.182	19.934	6.007	0.501
837.500	493.137	79.999	19.995	103.186	19.936	5.917	0.494
838.000	493.387	79.998	19.995	103.187	19.936	5.909	0.504
838.500	493.683	79.998	19.995	103.185	19.937	5.801	0.526
839.000	493.918	79.999	19.997	103.180	19.936	5.879	0.539
839.500	494.163	79.997	19.996	103.175	19.934	6.024	0.506
840.000	494.433	79.999	19.996	103.171	19.937	5.845	0.498
840.500	494.712	79.999	19.995	103.176	19.941	5.563	0.532
841.000	494.972	80.000	19.995	103.180	19.935	5.932	0.544
841.500	495.215	79.999	19.995	103.184	19.940	5.649	0.521
842.000	495.470	80.000	19.995	103.189	19.939	5.711	0.501
842.500	495.728	80.000	19.995	103.188	19.941	5.579	0.506
843.000	495.966	80.000	19.995	103.181	19.939	5.694	0.504
843.500	496.203	80.000	19.996	103.180	19.938	5.785	0.485
844.000	496.462	79.999	19.996	103.181	19.937	5.798	0.485
844.500	496.729	80.001	19.995	103.176	19.938	5.773	0.511
845.000	496.974	80.001	19.995	103.174	19.938	5.741	0.519
845.500	497.281	80.001	19.996	103.173	19.939	5.678	0.532
846.000	497.517	80.002	19.996	103.167	19.940	5.633	0.548
846.500	497.747	80.001	19.995	103.162	19.942	5.506	0.504
847.000	497.982	80.000	19.996	103.163	19.940	5.644	0.465
847.500	498.253	80.000	19.995	103.167	19.937	5.854	0.486
848.000	498.521	80.000	19.995	103.169	19.937	5.804	0.523
848.500	498.748	80.002	19.995	103.174	19.939	5.672	0.517
849.000	499.034	80.000	19.995	103.173	19.941	5.572	0.504
849.500	499.279	80.000	19.995	103.170	19.942	5.495	0.522
850.000	499.509	80.000	19.997	103.170	19.940	5.631	0.503
850.500	499.793	80.002	19.996	103.171	19.937	5.792	0.494
851.000	500.045	79.999	19.996	103.167	19.939	5.682	0.525
851.500	500.280	79.999	19.996	103.170	19.939	5.718	0.512
852.000	500.540	79.999	19.995	103.176	19.938	5.754	0.491
852.500	500.805	79.999	19.995	103.175	19.940	5.645	0.510
853.000	501.045	79.999	19.996	103.174	19.937	5.844	0.515
853.500	501.338	79.999	19.995	103.176	19.937	5.816	0.519
854.000	501.576	80.000	19.996	103.177	19.939	5.663	0.532
854.500	501.807	80.001	19.995	103.175	19.937	5.823	0.500
855.000	502.105	79.999	19.997	103.177	19.938	5.744	0.499
855.500	502.335	79.999	19.996	103.177	19.937	5.824	0.528
856.000	502.598	79.998	19.994	103.174	19.937	5.824	0.511
856.500	502.859	80.000	19.997	103.168	19.935	5.927	0.509
857.000	503.127	80.000	19.995	103.162	19.940	5.638	0.526
857.500	503.365	79.999	19.996	103.157	19.937	5.797	0.517
858.000	503.632	80.000	19.995	103.157	19.941	5.525	0.505
858.500	503.923	79.999	19.996	103.159	19.939	5.684	0.531
859.000	504.144	80.000	19.995	103.160	19.942	5.472	0.535
859.500	504.409	80.000	19.995	103.161	19.942	5.497	0.499
860.000	504.667	80.001	19.995	103.161	19.942	5.493	0.505
860.500	504.930	80.000	19.995	103.162	19.942	5.476	0.522
861.000	505.190	79.999	19.994	103.164	19.946	5.196	0.522
861.500	505.421	80.001	19.994	103.165	19.948	5.056	0.507
862.000	505.663	79.999	19.995	103.168	19.944	5.308	0.482
862.500	505.970	80.000	19.995	103.174	19.948	5.034	0.511
863.000	506.197	79.999	19.996	103.177	19.948	5.073	0.541
863.500	506.453	80.001	19.995	103.181	19.953	4.726	0.508
864.000	506.728	80.000	19.996	103.186	19.954	4.669	0.507
864.500	506.990	80.000	19.996	103.191	19.955	4.612	0.535
865.000	507.221	80.001	19.995	103.192	19.957	4.455	0.515
865.500	507.462	80.001	19.995	103.196	19.957	4.459	0.482
866.000	507.711	80.001	19.995	103.196	19.957	4.419	0.481
866.500	507.989	79.999	19.994	103.196	19.960	4.255	0.509
867.000	508.244	80.000	19.994	103.196	19.960	4.210	0.530
867.500	508.507	80.001	19.995	103.195	19.960	4.257	0.526
868.000	508.728	80.001	19.994	103.193	19.962	4.117	0.501
868.500	508.988	80.002	19.996	103.193	19.962	4.096	0.482
869.000	509.246	80.002	19.995	103.193	19.964	3.953	0.499
869.500	509.530	80.002	19.996	103.193	19.964	3.981	0.530
870.000	509.763	80.002	19.994	103.195	19.966	3.838	0.529
870.500	510.033	80.001	19.995	103.195	19.966	3.807	0.510
871.000	510.282	80.001	19.995	103.195	19.965	3.877	0.511
871.500	510.551	80.001	19.995	103.195	19.963	4.053	0.518
872.000	510.803	80.002	19.995	103.194	19.965	3.900	0.519
872.500	511.031	80.002	19.996	103.192	19.964	3.941	0.501
873.000	511.310	80.002	19.996	103.192	19.965	3.911	0.494
873.500	511.567	80.003	19.995	103.191	19.964	3.939	0.522
874.000	511.834	80.003	19.994	103.192	19.965	3.928	0.530
874.500	512.088	80.003	19.996	103.192	19.965	3.898	0.522
875.000	512.339	80.002	19.995	103.186	19.962	4.134	0.513
875.500	512.577	80.001	19.995	103.179	19.961	4.202	0.497
876.000	512.868	80.001	19.995	103.176	19.962	4.108	0.509
876.500	513.098	80.001	19.995	103.176	19.960	4.229	0.525
877.000	513.331	80.000	19.995	103.176	19.962	4.106	0.492
877.500	513.605	80.000	19.995	103.179	19.960	4.221	0.485
878.000	513.868	80.001	19.995	103.182	19.959	4.289	0.522
878.500	514.175	80.001	19.996	103.179	19.959	4.325	0.554
879.000	514.424	80.000	19.996	103.172	19.960	4.234	0.563
879.500	514.695	80.001	19.995	103.172	19.955	4.591	0.538
880.000	514.929	80.000	19.997	103.175	19.960	4.255	0.513
880.500	515.192	79.998	19.996	103.177	19.959	4.324	0.501
881.000	515.453	79.999	19.996	103.179	19.958	4.396	0.510
881.500	515.698	79.999	19.996	103.181	19.956	4.519	0.515
882.000	515.958	79.999	19.996	103.176	19.959	4.311	0.506
882.500	516.183	79.999	19.995	103.171	19.960	4.209	0.495
883.000	516.453	79.998	19.996	103.171	19.960	4.255	0.490
883.500	516.695	79.998	19.996	103.169	19.957	4.479	0.504
884.000	517.002	79.997	19.996	103.167	19.961	4.177	0.531
884.500	517.209	79.999	19.998	103.165	19.956	4.521	0.531
885.000	517.462	79.998	19.998	103.170	19.958	4.351	0.487
885.500	517.752	80.000	19.999	103.172	19.955	4.595	0.501
886.000	517.977	79.998	19.997	103.179	19.958	4.393	0.529
886.500	518.250	79.999	19.996	103.187	19.956	4.512	0.507
887.000	518.463	79.998	19.997	103.194	19.956	4.517	0.492
887.500	518.700	79.999	19.996	103.192	19.954	4.631	0.468
888.000	518.995	79.998	19.996	103.189	19.959	4.304	0.491
888.500	519.257	79.997	19.998	103.184	19.956	4.519	0.545
889.000	519.489	79.997	19.997	103.181	19.957	4.462	0.526
889.500	519.721	79.999	19.996	103.177	19.954	4.645	0.479
890.000	520.023	79.998	19.997	103.176	19.955	4.577	0.499
890.500	520.222	79.999	19.995	103.171	19.954	4.662	0.518
891.000	520.483	79.998	19.996	103.174	19.954	4.625	0.481
891.500	520.750	79.999	19.995	103.169	19.956	4.549	0.494
892.000	520.982	79.997	19.996	103.167	19.956	4.515	0.513
892.500	521.259	79.999	19.995	103.164	19.954	4.625	0.504
893.000	521.503	79.998	19.996	103.163	19.956	4.544	0.515
893.500	521.738	79.998	19.996	103.162	19.956	4.509	0.500
894.000	521.997	79.999	19.996	103.167	19.952	4.779	0.487
894.500	522.229	79.998	19.996	103.170	19.954	4.657	0.493
895.000	522.546	80.000	19.995	103.171	19.954	4.653	0.520
895.500	522.775	79.999	19.996	103.174	19.953	4.752	0.547
896.000	523.028	79.997	19.996	103.177	19.955	4.565	0.514
896.500	523.281	80.000	19.995	103.178	19.955	4.612	0.494
897.000	523.542	79.998	19.996	103.177	19.952	4.795	0.510
897.500	523.795	80.000	19.996	103.178	19.954	4.672	0.514
898.000	524.056	79.999	19.996	103.176	19.956	4.525	0.514
898.500	524.315	79.999	19.996	103.173	19.954	4.640	0.517
899.000	524.565	79.998	19.996	103.168	19.954	4.643	0.515
899.500	524.828	79.999	19.995	103.166	19.953	4.697	0.511
900.000	525.067	79.997	19.995	103.164	19.952	4.778	0.507
900.500	525.303	79.999	19.995	103.164	19.950	4.902	0.489
901.000	525.588	79.998	19.996	103.164	19.954	4.672	0.498
901.500	525.807	79.999	19.996	103.166	19.952	4.806	0.512
902.000	526.083	79.998	19.995	103.172	19.950	4.913	0.499
902.500	526.364	79.999	19.996	103.173	19.952	4.766	0.526
903.000	526.578	79.999	19.996	103.173	19.954	4.655	0.526
903.500	526.869	79.999	19.997	103.170	19.951	4.878	0.500
904.000	527.121	79.999	19.996	103.170	19.952	4.823	0.524
904.500	527.400	79.999	19.995	103.164	19.953	4.698	0.537
905.000	527.623	79.998	19.995	103.164	19.954	4.679	0.517
905.500	527.912	79.998	19.997	103.165	19.954	4.647	0.507
906.000	528.184	79.999	19.997	103.170	19.952	4.766	0.536
906.500	528.413	79.999	19.996	103.176	19.952	4.796	0.531
907.000	528.667	79.998	19.997	103.181	19.954	4.658	0.492
907.500	528.957	79.998	19.996	103.179	19.952	4.823	0.514
908.000	529.210	79.997	19.996	103.179	19.951	4.846	0.544
908.500	529.451	79.998	19.997	103.173	19.952	4.778	0.519
909.000	529.712	79.998	19.997	103.169	19.954	4.653	0.498
909.500	529.980	79.999	19.997	103.164	19.952	4.795	0.516
910.000	530.230	79.998	19.997	103.166	19.953	4.704	0.524
910.500	530.532	79.997	19.997	103.169	19.949	4.985	0.535
911.000	530.760	79.998	19.997	103.171	19.949	5.004	0.541
911.500	531.018	79.998	19.998	103.166	19.952	4.783	0.508
912.000	531.267	79.998	19.997	103.165	19.952	4.778	0.497
912.500	531.534	79.997	19.996	103.163	19.954	4.676	0.512
913.000	531.784	79.997	19.996	103.161	19.950	4.899	0.517
913.500	532.053	79.997	19.997	103.160	19.953	4.712	0.518
914.000	532.326	79.997	19.997	103.166	19.952	4.821	0.530
914.500	532.559	79.998	19.996	103.168	19.950	4.897	0.524
915.000	532.837	79.997	19.997	103.168	19.949	4.982	0.508
915.500	533.093	79.998	19.998	103.165	19.952	4.810	0.522
916.000	533.373	79.996	19.997	103.164	19.952	4.800	0.535
916.500	533.599	79.997	19.996	103.158	19.951	4.865	0.521
917.000	533.857	79.997	19.996	103.156	19.950	4.931	0.495
917.500	534.140	79.998	19.996	103.157	19.949	5.014	0.513
918.000	534.389	79.996	19.997	103.161	19.951	4.832	0.536
918.500	534.701	79.998	19.997	103.164	19.949	5.016	0.546
919.000	534.967	79.998	19.996	103.168	19.947	5.161	0.570
919.500	535.258	79.998	19.996	103.171	19.950	4.921	0.567
920.000	535.491	79.997	19.997	103.176	19.950	4.944	0.540
920.500	535.733	79.998	19.997	103.172	19.947	5.102	0.500
921.000	536.013	79.997	19.996	103.170	19.948	5.081	0.499
921.500	536.256	79.998	19.995	103.166	19.950	4.919	0.523
922.000	536.535	79.999	19.996	103.165	19.954	4.655	0.522
922.500	536.797	79.997	19.996	103.163	19.948	5.061	0.532
923.000	537.050	79.999	19.996	103.168	19.949	4.976	0.528
923.500	537.310	79.999	19.995	103.174	19.949	4.993	0.514
924.000	537.565	79.998	19.995	103.176	19.949	5.017	0.514
924.500	537.832	79.998	19.996	103.175	19.950	4.957	0.518
925.000	538.087	79.999	19.995	103.172	19.949	4.991	0.523
925.500	538.310	79.999	19.995	103.172	19.949	4.981	0.500
926.000	538.617	79.999	19.995	103.169	19.951	4.885	0.504
926.500	538.868	79.999	19.996	103.169	19.948	5.072	0.544
927.000	539.145	80.000	19.995	103.169	19.948	5.068	0.543
927.500	539.393	80.000	19.995	103.168	19.946	5.204	0.527
928.000	539.695	80.000	19.995	103.169	19.949	4.998	0.538
928.500	539.929	79.998	19.995	103.167	19.947	5.142	0.543
929.000	540.158	80.002	19.996	103.167	19.947	5.123	0.499
929.500	540.430	80.001	19.995	103.168	19.951	4.881	0.482
930.000	540.713	80.001	19.996	103.170	19.947	5.131	0.528
930.500	540.942	80.000	19.995	103.164	19.951	4.881	0.534
931.000	541.182	80.001	19.996	103.163	19.947	5.109	0.490
931.500	541.470	80.001	19.995	103.162	19.947	5.125	0.499
932.000	541.726	80.002	19.995	103.161	19.948	5.043	0.536
932.500	541.980	80.002	19.996	103.161	19.951	4.883	0.527
933.000	542.239	80.001	19.995	103.164	19.949	4.986	0.511
933.500	542.476	80.001	19.995	103.169	19.948	5.061	0.505
934.000	542.736	80.001	19.995	103.169	19.947	5.107	0.497
934.500	543.023	80.000	19.995	103.168	19.949	4.967	0.522
935.000	543.241	80.001	19.995	103.167	19.952	4.759	0.526
935.500	543.521	80.000	19.995	103.163	19.948	5.091	0.502
936.000	543.806	80.000	19.995	103.157	19.947	5.110	0.531
936.500	544.052	80.000	19.995	103.157	19.953	4.724	0.548
937.000	544.293	80.000	19.996	103.157	19.950	4.904	0.509
937.500	544.568	80.000	19.996	103.156	19.951	4.840	0.502
938.000	544.792	80.000	19.995	103.159	19.949	5.021	0.508
938.500	545.033	80.000	19.995	103.162	19.952	4.819	0.482
939.000	545.303	80.001	19.996	103.165	19.953	4.746	0.488
939.500	545.597	80.000	19.995	103.168	19.951	4.884	0.537
940.000	545.836	80.000	19.995	103.169	19.953	4.753	0.548
940.500	546.064	80.001	19.995	103.167	19.949	4.982	0.500
941.000	546.338	80.000	19.996	103.165	19.955	4.551	0.484
941.500	546.589	80.000	19.995	103.161	19.953	4.696	0.514
942.000	546.896	79.999	19.995	103.158	19.952	4.779	0.542
942.500	547.138	80.000	19.995	103.158	19.951	4.872	0.553
943.000	547.356	80.000	19.995	103.160	19.952	4.798	0.504
943.500	547.632	79.998	19.996	103.167	19.958	4.406	0.477
944.000	547.886	79.998	19.995	103.172	19.951	4.829	0.512
944.500	548.141	79.999	19.996	103.175	19.953	4.744	0.519
945.000	548.379	79.999	19.996	103.177	19.954	4.625	0.501
945.500	548.603	80.000	19.996	103.176	19.953	4.700	0.478
946.000	548.851	80.001	19.996	103.169	19.953	4.736	0.467
946.500	549.162	80.000	19.996	103.166	19.955	4.553	0.516
947.000	549.430	79.998	19.997	103.164	19.954	4.666	0.569
947.500	549.706	79.999	19.996	103.162	19.950	4.948	0.562
948.000	549.950	79.998	19.994	103.161	19.954	4.668	0.532
948.500	550.193	79.999	19.996	103.163	19.950	4.942	0.503
949.000	550.443	80.001	19.996	103.165	19.954	4.679	0.490
949.500	550.679	80.000	19.995	103.169	19.950	4.934	0.490
950.000	550.950	80.000	19.996	103.169	19.953	4.730	0.497
950.500	551.169	80.002	19.996	103.171	19.951	4.836	0.498
951.000	551.447	80.000	19.995	103.172	19.953	4.734	0.493
951.500	551.762	80.001	19.995	103.171	19.953	4.689	0.545
952.000	551.930	80.000	19.995	103.168	19.951	4.866	0.538
952.500	552.257	80.001	19.995	103.169	19.952	4.762	0.489
953.000	552.476	80.001	19.995	103.167	19.952	4.764	0.521
953.500	552.736	80.002	19.996	103.165	19.952	4.823	0.513
954.000	552.990	80.001	19.996	103.168	19.952	4.811	0.497
954.500	553.270	80.003	19.994	103.167	19.948	5.044	0.524
955.000	553.499	80.002	19.995	103.166	19.949	4.981	0.521
955.500	553.779	80.001	19.995	103.166	19.952	4.819	0.509
956.000	553.995	80.002	19.995	103.165	19.954	4.643	0.502
956.500	554.302	80.001	19.995	103.160	19.952	4.757	0.509
957.000	554.545	80.000	19.995	103.163	19.951	4.858	0.537
957.500	554.816	80.001	19.996	103.168	19.953	4.743	0.532
958.000	555.038	80.000	19.995	103.170	19.953	4.689	0.504
958.500	555.285	80.000	19.995	103.171	19.953	4.725	0.481
959.000	555.525	80.001	19.996	103.170	19.954	4.674	0.478
959.500	555.816	80.000	19.995	103.167	19.952	4.783	0.509
960.000	556.044	80.000	19.995	103.164	19.953	4.702	0.526
960.500	556.303	80.000	19.994	103.161	19.953	4.689	0.503
961.000	556.514	79.999	19.994	103.164	19.954	4.687	0.478
961.500	556.778	79.999	19.994	103.166	19.957	4.475	0.473
962.000	557.005	79.999	19.996	103.165	19.952	4.813	0.483
962.500	557.290	79.998	19.995	103.164	19.951	4.879	0.501
963.000	557.512	79.998	19.994	103.166	19.950	4.940	0.510
963.500	557.751	79.997	19.996	103.162	19.951	4.858	0.484
964.000	558.032	79.998	19.994	103.160	19.953	4.726	0.490
964.500	558.298	79.997	19.996	103.160	19.952	4.766	0.534
965.000	558.540	79.998	19.995	103.162	19.950	4.894	0.527
965.500	558.799	79.997	19.995	103.165	19.959	4.284	0.504
966.000	559.015	79.999	19.996	103.165	19.952	4.807	0.488
966.500	559.262	79.999	19.995	103.166	19.954	4.634	0.469
967.000	559.483	79.998	19.996	103.165	19.952	4.789	0.466
967.500	559.760	79.998	19.995	103.164	19.954	4.641	0.483
968.000	559.964	79.998	19.996	103.160	19.950	4.949	0.489
968.500	560.238	79.998	19.995	103.160	19.950	4.896	0.479
969.000	560.483	79.998	19.995	103.164	19.953	4.747	0.499
969.500	560.707	79.998	19.995	103.168	19.956	4.517	0.494
970.000	560.987	79.999	19.995	103.169	19.953	4.749	0.486
970.500	561.225	79.997	19.996	103.169	19.953	4.753	0.511
971.000	561.470	79.998	19.996	103.169	19.950	4.906	0.501
971.500	561.711	79.998	19.995	103.165	19.952	4.772	0.484
972.000	561.968	79.999	19.996	103.161	19.952	4.815	0.492
972.500	562.209	79.998	19.996	103.160	19.951	4.844	0.498
973.000	562.482	79.999	19.995	103.160	19.955	4.562	0.506
973.500	562.684	79.999	19.995	103.160	19.953	4.745	0.494
974.000	562.947	79.998	19.996	103.159	19.951	4.826	0.470
974.500	563.188	79.999	19.995	103.158	19.951	4.879	0.485
975.000	563.414	79.999	19.996	103.156	19.952	4.770	0.486
975.500	563.667	79.998	19.996	103.156	19.952	4.794	0.473
976.000	563.945	79.999	19.996	103.155	19.951	4.847	0.505
976.500	564.141	79.998	19.995	103.155	19.950	4.914	0.503
977.000	564.401	79.998	19.996	103.157	19.951	4.850	0.464
977.500	564.642	79.998	19.996	103.160	19.953	4.704	0.478
978.000	564.870	79.998	19.996	103.160	19.951	4.855	0.485
978.500	565.143	79.997	19.997	103.160	19.949	4.970	0.485
979.000	565.361	79.998	19.997	103.161	19.951	4.892	0.496
979.500	565.615	79.999	19.996	103.159	19.953	4.734	0.481
980.000	565.842	79.999	19.996	103.159	19.951	4.856	0.477
980.500	566.119	80.001	19.997	103.162	19.955	4.579	0.493
981.000	566.344	79.998	19.996	103.164	19.948	5.034	0.503
981.500	566.595	79.999	19.997	103.163	19.953	4.698	0.489
982.000	566.812	79.999	19.997	103.165	19.950	4.894	0.472
982.500	567.072	79.999	19.996	103.165	19.952	4.762	0.473
983.000	567.338	79.999	19.996	103.164	19.950	4.938	0.502
983.500	567.612	80.000	19.996	103.164	19.950	4.905	0.533
984.000	567.806	80.000	19.996	103.165	19.950	4.917	0.504
984.500	568.059	80.000	19.996	103.162	19.951	4.840	0.458
985.000	568.293	80.000	19.996	103.161	19.955	4.611	0.467
985.500	568.526	80.000	19.996	103.158	19.951	4.856	0.477
986.000	568.786	80.000	19.997	103.157	19.951	4.836	0.480
986.500	569.048	80.000	19.996	103.161	19.952	4.775	0.508
987.000	569.299	79.999	19.996	103.165	19.954	4.668	0.517
987.500	569.559	80.000	19.997	103.171	19.954	4.670	0.511
988.000	569.790	79.998	19.996	103.173	19.953	4.694	0.501
988.500	570.066	80.000	19.997	103.173	19.949	4.968	0.499
989.000	570.279	79.998	19.996	103.171	19.953	4.751	0.498
989.500	570.495	79.999	19.997	103.167	19.951	4.864	0.459
990.000	570.781	79.998	19.996	103.160	19.950	4.943	0.465
990.500	571.020	79.998	19.996	103.158	19.951	4.873	0.514
991.000	571.261	79.998	19.996	103.157	19.950	4.898	0.503
991.500	571.524	79.997	19.996	103.154	19.949	4.995	0.492
992.000	571.794	79.999	19.996	103.155	19.950	4.920	0.519
992.500	572.018	79.999	19.996	103.155	19.950	4.952	0.513
993.000	572.277	79.998	19.996	103.155	19.952	4.772	0.488
993.500	572.544	79.999	19.996	103.155	19.952	4.787	0.504
994.000	572.777	79.998	19.996	103.156	19.950	4.917	0.513
994.500	573.017	79.999	19.996	103.156	19.950	4.909	0.487
995.000	573.280	79.998	19.995	103.157	19.951	4.875	0.488
995.500	573.533	79.998	19.997	103.158	19.951	4.860	0.510
996.000	573.775	79.998	19.996	103.158	19.950	4.926	0.506
996.500	574.037	79.998	19.998	103.158	19.951	4.860	0.499
997.000	574.265	79.998	19.997	103.160	19.950	4.941	0.496
997.500	574.537	79.998	19.996	103.161	19.951	4.847	0.495
998.000	574.821	79.998	19.996	103.161	19.951	4.839	0.528
998.500	575.076	79.999	19.996	103.161	19.950	4.917	0.547
999.000	575.320	79.997	19.998	103.161	19.951	4.892	0.519
999.500	575.545	79.998	19.996	103.159	19.951	4.841	0.484
1000.000	575.801	79.998	19.996	103.157	19.951	4.892	0.475
1000.500	576.060	79.997	19.997	103.155	19.948	5.085	0.498
1001.000	576.300	79.998	19.998	103.155	19.952	4.771	0.507
1001.500	576.532	79.999	19.997	103.158	19.953	4.737	0.486
1002.000	576.810	79.998	19.996	103.165	19.953	4.734	0.491
1002.500	577.023	79.998	19.996	103.170	19.956	4.524	0.501
1003.000	577.300	79.998	19.996	103.175	19.951	4.873	0.491
1003.500	577.507	79.998	19.996	103.176	19.953	4.726	0.487
1004.000	577.791	79.998	19.996	103.173	19.954	4.651	0.488
1004.500	578.002	80.000	19.997	103.167	19.951	4.844	0.493
1005.000	578.269	79.998	19.999	103.163	19.949	4.970	0.486
1005.500	578.542	79.999	19.997	103.160	19.949	5.019	0.509
1006.000	578.769	80.000	19.997	103.159	19.950	4.957	0.520
1006.500	579.027	79.998	19.997	103.158	19.950	4.923	0.492
1007.000	579.256	79.999	19.998	103.158	19.950	4.955	0.485
1007.500	579.528	79.999	19.997	103.156	19.948	5.096	0.494
1008.000	579.788	79.998	19.998	103.154	19.948	5.095	0.516
1008.500	580.032	79.998	19.997	103.154	19.950	4.940	0.518
1009.000	580.292	79.998	19.996	103.155	19.951	4.868	0.504
1009.500	580.515	79.999	19.997	103.156	19.950	4.908	0.494
1010.000	580.774	79.997	19.998	103.156	19.952	4.774	0.482
1010.500	580.982	79.999	19.996	103.156	19.951	4.857	0.475
1011.000	581.306	79.999	19.996	103.157	19.949	4.979	0.500
1011.500	581.539	79.998	19.996	103.157	19.953	4.692	0.544
1012.000	581.779	79.999	19.997	103.157	19.949	4.994	0.514
1012.500	582.025	79.998	19.996	103.157	19.948	5.077	0.479
1013.000	582.246	79.999	19.997	103.157	19.949	4.968	0.477
1013.500	582.512	79.999	19.996	103.157	19.950	4.908	0.477
1014.000	582.780	79.999	19.996	103.157	19.946	5.210	0.511
1014.500	583.026	79.999	19.994	103.158	19.945	5.272	0.524
1015.000	583.278	79.999	19.996	103.161	19.949	4.981	0.506
1015.500	583.561	79.999	19.995	103.165	19.949	5.021	0.516
1016.000	583.779	79.998	19.995	103.165	19.950	4.943	0.518
1016.500	584.047	80.000	19.995	103.165	19.949	5.028	0.494
1017.000	584.280	79.999	19.997	103.164	19.948	5.040	0.494
1017.500	584.539	79.999	19.996	103.163	19.950	4.900	0.496
1018.000	584.797	79.999	19.995	103.159	19.947	5.145	0.504
1018.500	585.032	80.000	19.995	103.159	19.947	5.115	0.505
1019.000	585.294	79.998	19.995	103.162	19.946	5.191	0.495
1019.500	585.527	79.999	19.995	103.163	19.948	5.042	0.497
1020.000	585.786	79.998	19.994	103.162	19.946	5.184	0.493
1020.500	586.041	80.000	19.995	103.162	19.947	5.127	0.503
1021.000	586.270	80.000	19.994	103.162	19.948	5.069	0.499
1021.500	586.552	79.999	19.995	103.159	19.947	5.129	0.498
1022.000	586.778	79.999	19.995	103.159	19.947	5.105	0.509
1022.500	587.062	80.000	19.995	103.159	19.951	4.829	0.509
1023.000	587.330	79.999	19.995	103.159	19.950	4.897	0.531
1023.500	587.539	79.999	19.995	103.159	19.950	4.934	0.515
1024.000	587.830	79.999	19.994	103.163	19.947	5.168	0.488
1024.499	588.069	80.000	19.995	103.163	19.947	5.121	0.515
1024.999	588.284	79.999	19.995	103.163	19.948	5.055	0.492
1025.499	588.591	79.999	19.994	103.163	19.943	5.386	0.488
1025.999	588.844	79.999	19.995	103.163	19.946	5.189	0.541
1026.499	589.090	79.999	19.996	103.159	19.944	5.307	0.529
1026.999	589.334	80.000	19.995	103.159	19.947	5.144	0.495
1027.499	589.589	79.999	19.994	103.159	19.946	5.197	0.495
1027.999	589.839	79.999	19.996	103.160	19.947	5.168	0.502
1028.500	590.073	79.999	19.995	103.159	19.945	5.244	0.494
1029.000	590.319	80.000	19.995	103.160	19.946	5.228	0.482
1029.499	590.577	79.999	19.995	103.162	19.945	5.289	0.492
1029.999	590.837	79.999	19.995	103.162	19.945	5.270	0.511
1030.499	591.130	79.998	19.995	103.163	19.944	5.310	0.536
1030.999	591.375	79.999	19.995	103.166	19.945	5.297	0.546
1031.499	591.626	80.001	19.995	103.170	19.948	5.061	0.517
1031.999	591.857	80.001	19.996	103.174	19.946	5.212	0.489
1032.499	592.107	80.001	19.994	103.174	19.949	5.017	0.481
1032.999	592.371	80.001	19.995	103.174	19.945	5.247	0.497
1033.499	592.606	80.001	19.994	103.171	19.944	5.348	0.506
1033.999	592.844	80.001	19.995	103.167	19.944	5.321	0.486
1034.499	593.121	80.001	19.995	103.166	19.945	5.246	0.494
1034.999	593.367	80.000	19.996	103.166	19.944	5.361	0.519
1035.499	593.618	80.001	19.995	103.164	19.944	5.310	0.510
1035.999	593.883	80.000	19.994	103.164	19.946	5.195	0.507
1036.499	594.164	80.002	19.995	103.168	19.942	5.448	0.531
1036.999	594.417	80.002	19.994	103.170	19.942	5.446	0.540
1037.499	594.700	80.001	19.996	103.171	19.945	5.299	0.535
1037.999	594.946	80.003	19.996	103.171	19.944	5.336	0.533
1038.499	595.212	80.002	19.996	103.171	19.943	5.398	0.521
1038.999	595.461	80.002	19.995	103.166	19.945	5.291	0.514
1039.499	595.709	80.000	19.995	103.161	19.945	5.261	0.505
1039.999	595.958	80.002	19.995	103.158	19.944	5.327	0.497
1040.500	596.207	80.001	19.995	103.161	19.946	5.204	0.498
1041.000	596.441	80.001	19.996	103.164	19.948	5.087	0.491
1041.499	596.709	80.001	19.995	103.168	19.944	5.329	0.492
1041.999	596.925	79.999	19.996	103.169	19.946	5.208	0.492
1042.499	597.196	80.000	19.995	103.171	19.948	5.068	0.485
1042.999	597.434	80.001	19.995	103.166	19.943	5.414	0.498
1043.499	597.721	80.001	19.995	103.163	19.944	5.340	0.517
1043.999	597.945	80.000	19.995	103.161	19.947	5.146	0.518
1044.499	598.192	79.999	19.996	103.163	19.944	5.348	0.491
1044.999	598.437	79.999	19.996	103.165	19.949	5.012	0.482
1045.499	598.723	79.999	19.996	103.170	19.943	5.416	0.511
1045.999	598.947	79.998	19.995	103.172	19.944	5.338	0.520
1046.499	599.237	79.999	19.997	103.173	19.947	5.117	0.512
1046.999	599.471	79.998	19.996	103.172	19.945	5.244	0.519
1047.499	599.725	79.999	19.996	103.168	19.946	5.221	0.506
1047.999	599.975	80.000	19.997	103.163	19.948	5.093	0.496
1048.499	600.205	80.000	19.996	103.162	19.945	5.290	0.492
1048.999	600.485	80.000	19.996	103.160	19.943	5.413	0.495
1049.500	600.726	80.000	19.996	103.160	19.944	5.367	0.515
1050.000	600.996	80.000	19.996	103.160	19.945	5.303	0.516
1050.499	601.207	79.999	19.996	103.161	19.945	5.299	0.496
1050.999	601.530	80.000	19.995	103.162	19.945	5.285	0.508
1051.499	601.744	79.999	19.996	103.161	19.943	5.382	0.536
1051.999	602.016	79.998	19.995	103.160	19.943	5.429	0.511
1052.499	602.245	80.000	19.996	103.161	19.947	5.112	0.494
1052.999	602.488	80.000	19.996	103.162	19.946	5.232	0.486
1053.499	602.754	80.000	19.996	103.160	19.945	5.289	0.490
1053.999	603.033	80.000	19.995	103.160	19.947	5.112	0.527
1054.500	603.305	79.999	19.994	103.160	19.948	5.085	0.548
1055.001	603.528	79.999	19.995	103.164	19.947	5.127	0.523
1055.500	603.796	79.999	19.995	103.165	19.947	5.106	0.493
1055.999	604.033	80.000	19.995	103.166	19.951	4.883	0.498
1056.499	604.250	80.000	19.995	103.167	19.948	5.091	0.479
1056.999	604.551	79.999	19.996	103.167	19.950	4.951	0.486
1057.500	604.788	80.000	19.996	103.161	19.947	5.121	0.528
1058.000	605.062	80.000	19.996	103.163	19.949	4.970	0.525
1058.499	605.307	79.999	19.994	103.163	19.951	4.891	0.515
1058.999	605.577	80.000	19.997	103.166	19.946	5.219	0.517
1059.499	605.831	79.999	19.995	103.172	19.949	5.021	0.520
1059.999	606.050	80.000	19.994	103.176	19.947	5.113	0.498
1060.499	606.343	80.000	19.995	103.173	19.947	5.153	0.492
1060.999	606.617	80.000	19.996	103.173	19.949	4.983	0.540
1061.499	606.826	80.001	19.996	103.170	19.949	5.013	0.526
1061.999	607.085	80.001	19.996	103.164	19.949	5.028	0.476
1062.499	607.355	80.000	19.995	103.161	19.946	5.228	0.498
1062.999	607.600	79.999	19.996	103.165	19.947	5.134	0.522
1063.499	607.871	80.000	19.996	103.163	19.947	5.113	0.516
1063.999	608.134	79.999	19.996	103.163	19.948	5.047	0.525
1064.499	608.368	80.000	19.998	103.162	19.948	5.083	0.515
1064.999	608.621	79.999	19.998	103.162	19.947	5.104	0.492
1065.499	608.909	80.001	19.996	103.158	19.947	5.164	0.514
1065.999	609.152	79.999	19.996	103.159	19.944	5.342	0.536
1066.499	609.410	80.000	19.996	103.161	19.948	5.070	0.516
1066.999	609.679	80.000	19.996	103.163	19.945	5.280	0.514
1067.500	609.914	79.998	19.997	103.163	19.946	5.198	0.515
1068.000	610.193	80.000	19.996	103.165	19.948	5.045	0.509
1068.499	610.498	79.999	19.997	103.165	19.944	5.310	0.549
1068.999	610.729	80.000	19.997	103.162	19.944	5.317	0.560
1069.499	610.994	79.999	19.996	103.160	19.945	5.304	0.516
1069.999	611.275	80.000	19.998	103.158	19.942	5.453	0.521
1070.499	611.491	79.999	19.998	103.157	19.942	5.478	0.522
1070.999	611.769	80.000	19.997	103.156	19.941	5.578	0.495
1071.499	612.008	79.999	19.997	103.157	19.944	5.374	0.505
1071.999	612.228	79.999	19.998	103.157	19.943	5.434	0.488
1072.499	612.520	79.999	19.997	103.158	19.943	5.438	0.486
1072.999	612.803	79.998	19.996	103.158	19.945	5.289	0.544
1073.499	613.042	79.998	19.996	103.158	19.945	5.274	0.548
1073.999	613.283	79.999	19.996	103.158	19.943	5.427	0.500
1074.499	613.557	79.998	19.997	103.159	19.943	5.423	0.498
1074.999	613.794	79.999	19.997	103.158	19.941	5.527	0.514
1075.499	614.056	79.998	19.997	103.158	19.944	5.355	0.505
1075.999	614.320	79.999	19.997	103.159	19.941	5.529	0.512
1076.499	614.578	79.997	19.997	103.159	19.942	5.450	0.524
1076.999	614.854	79.998	19.996	103.159	19.946	5.204	0.528
1077.499	615.123	79.999	19.997	103.160	19.947	5.134	0.539
1077.999	615.337	79.999	19.996	103.160	19.948	5.098	0.514
1078.499	615.617	79.999	19.995	103.161	19.946	5.188	0.489
1079.000	615.873	79.999	19.997	103.160	19.948	5.086	0.515
1079.500	616.124	79.998	19.997	103.160	19.948	5.083	0.522
1079.999	616.376	79.998	19.997	103.159	19.947	5.151	0.505
1080.499	616.638	79.998	19.997	103.158	19.945	5.285	0.508
1080.999	616.854	79.998	19.997	103.158	19.943	5.391	0.496
1081.499	617.124	79.998	19.996	103.159	19.945	5.283	0.481
1081.999	617.365	79.999	19.996	103.160	19.945	5.272	0.498
1082.499	617.606	80.000	19.996	103.160	19.947	5.100	0.497
1082.999	617.859	79.998	19.995	103.161	19.943	5.417	0.488
1083.499	618.092	79.998	19.996	103.161	19.948	5.042	0.490
1083.999	618.362	79.999	19.996	103.160	19.943	5.397	0.494
1084.500	618.628	79.998	19.995	103.159	19.944	5.374	0.520
1085.001	618.829	79.997	19.997	103.159	19.943	5.401	0.502
1085.501	619.117	79.999	19.996	103.158	19.942	5.476	0.478
1086.000	619.351	79.999	19.996	103.164	19.945	5.289	0.505
1086.499	619.623	79.998	19.995	103.166	19.943	5.418	0.514
1086.999	619.875	79.998	19.995	103.167	19.948	5.036	0.515
1087.499	620.112	79.999	19.996	103.166	19.946	5.176	0.506
1087.999	620.372	79.999	19.995	103.166	19.945	5.278	0.493
1088.499	620.580	80.000	19.997	103.160	19.944	5.313	0.483
1088.999	620.899	80.001	19.995	103.157	19.941	5.519	0.498
1089.499	621.149	80.000	19.996	103.151	19.945	5.302	0.548
1090.000	621.368	80.000	19.995	103.149	19.943	5.410	0.519
1090.500	621.627	80.000	19.995	103.147	19.945	5.268	0.473
1090.999	621.880	79.999	19.997	103.148	19.945	5.251	0.495
1091.500	622.123	80.001	19.996	103.150	19.946	5.187	0.504
1092.000	622.395	80.000	19.996	103.155	19.945	5.274	0.505
1092.499	622.638	80.001	19.996	103.158	19.946	5.199	0.515
1092.999	622.894	79.999	19.997	103.160	19.945	5.240	0.506
1093.500	623.172	80.000	19.996	103.161	19.944	5.353	0.516
1094.001	623.391	80.000	19.997	103.161	19.947	5.140	0.516
1094.500	623.647	80.000	19.996	103.162	19.945	5.296	0.486
1094.999	623.910	80.001	19.996	103.161	19.945	5.243	0.497
1095.500	624.140	79.999	19.997	103.162	19.947	5.123	0.506
1096.000	624.399	80.000	19.996	103.164	19.949	4.973	0.491
1096.499	624.644	79.999	19.996	103.163	19.946	5.215	0.496
1097.000	624.900	80.000	19.995	103.163	19.951	4.855	0.502
1097.501	625.129	80.000	19.996	103.163	19.950	4.911	0.493
1098.000	625.376	80.001	19.997	103.162	19.950	4.960	0.480
1098.499	625.627	79.999	19.996	103.159	19.947	5.107	0.487
1098.999	625.898	80.000	19.997	103.158	19.946	5.224	0.510
1099.500	626.122	79.999	19.996	103.157	19.946	5.217	0.509
1100.001	626.415	79.999	19.996	103.157	19.948	5.045	0.506
1100.500	626.602	80.000	19.996	103.156	19.948	5.041	0.498
1100.999	626.897	80.000	19.997	103.156	19.948	5.051	0.481
1101.499	627.187	79.999	19.997	103.157	19.947	5.111	0.533
1101.999	627.409	80.000	19.998	103.160	19.948	5.079	0.548
1102.500	627.636	79.998	19.999	103.160	19.947	5.143	0.481
1103.000	627.919	79.999	19.997	103.162	19.944	5.308	0.480
1103.499	628.157	80.000	19.997	103.163	19.946	5.215	0.515
1103.999	628.387	79.999	19.998	103.163	19.945	5.240	0.494
1104.499	628.653	79.999	19.997	103.160	19.944	5.355	0.482
1104.999	628.916	79.998	19.996	103.159	19.945	5.287	0.512
1105.499	629.171	79.999	19.997	103.157	19.946	5.232	0.523
1105.999	629.413	79.999	19.997	103.156	19.947	5.166	0.508
1106.499	629.655	80.000	19.997	103.157	19.945	5.293	0.490
1106.999	629.918	79.999	19.997	103.157	19.942	5.495	0.495
1107.499	630.154	80.001	19.997	103.157	19.946	5.236	0.502
1107.999	630.441	80.000	19.995	103.156	19.945	5.283	0.511
1108.499	630.681	80.000	19.996	103.156	19.944	5.338	0.525
1108.999	630.906	80.001	19.997	103.155	19.944	5.349	0.496
1109.499	631.173	80.001	19.996	103.155	19.943	5.417	0.478
1109.999	631.442	79.999	19.997	103.154	19.948	5.068	0.514
1110.499	631.699	80.001	19.995	103.154	19.945	5.274	0.531
1110.999	631.969	80.002	19.996	103.154	19.945	5.298	0.527
1111.499	632.210	80.001	19.996	103.155	19.944	5.334	0.519
1111.999	632.437	80.001	19.996	103.155	19.945	5.296	0.489
1112.499	632.663	80.001	19.995	103.158	19.945	5.270	0.460
1112.999	632.908	80.002	19.995	103.158	19.946	5.206	0.462
1113.499	633.187	80.000	19.995	103.158	19.946	5.179	0.498
1113.999	633.461	80.002	19.995	103.157	19.945	5.304	0.538
1114.499	633.672	80.002	19.996	103.156	19.943	5.408	0.519
1114.999	633.948	80.000	19.995	103.154	19.946	5.232	0.486
1115.499	634.156	80.002	19.995	103.154	19.945	5.266	0.486
1115.999	634.487	80.001	19.996	103.154	19.943	5.379	0.512
1116.499	634.706	80.002	19.996	103.155	19.945	5.260	0.545
1116.999	634.945	80.000	19.997	103.156	19.944	5.315	0.504
1117.500	635.205	80.001	19.996	103.158	19.943	5.427	0.478
1118.000	635.458	80.002	19.994	103.159	19.945	5.242	0.506
1118.499	635.697	80.001	19.995	103.159	19.942	5.487	0.503
1118.999	635.994	80.002	19.996	103.159	19.938	5.736	0.514
1119.499	636.261	80.002	19.996	103.158	19.941	5.536	0.550
1120.000	636.472	80.002	19.995	103.156	19.941	5.529	0.521
1120.500	636.689	80.003	19.995	103.155	19.943	5.389	0.453
1120.999	636.977	80.002	19.996	103.155	19.943	5.438	0.467
1121.499	637.254	80.000	19.995	103.155	19.942	5.496	0.535
1121.999	637.470	80.001	19.995	103.155	19.940	5.619	0.529
1122.499	637.705	80.001	19.995	103.157	19.939	5.665	0.472
1122.999	637.985	80.002	19.995	103.157	19.939	5.714	0.483
1123.500	638.201	80.000	19.994	103.153	19.941	5.519	0.505
1124.000	638.470	80.000	19.995	103.154	19.944	5.357	0.491
1124.499	638.714	80.001	19.996	103.154	19.945	5.283	0.499
1124.999	638.990	80.000	19.996	103.153	19.941	5.568	0.516
1125.499	639.233	80.000	19.996	103.153	19.942	5.459	0.520
1125.999	639.491	79.999	19.995	103.156	19.945	5.302	0.510
1126.499	639.758	79.999	19.996	103.156	19.941	5.535	0.513
1126.999	640.005	80.000	19.995	103.156	19.943	5.404	0.519
1127.499	640.277	79.999	19.995	103.155	19.943	5.427	0.517
1127.999	640.517	79.999	19.995	103.155	19.940	5.631	0.515
1128.499	640.766	79.998	19.997	103.155	19.942	5.483	0.501
1128.999	641.039	80.000	19.996	103.155	19.941	5.557	0.506
1129.499	641.254	79.998	19.996	103.156	19.944	5.359	0.505
1129.999	641.554	80.000	19.995	103.156	19.939	5.718	0.501
1130.499	641.787	79.998	19.995	103.156	19.940	5.585	0.524
1130.999	642.036	79.999	19.996	103.156	19.940	5.589	0.508
1131.499	642.286	79.998	19.996	103.156	19.943	5.417	0.491
1131.999	642.522	79.999	19.995	103.156	19.944	5.359	0.493
1132.499	642.803	80.000	19.996	103.156	19.942	5.449	0.501
1132.999	643.030	79.998	19.996	103.157	19.942	5.484	0.512
1133.500	643.260	79.998	19.995	103.157	19.940	5.604	0.483
1134.000	643.541	79.999	19.996	103.156	19.942	5.502	0.484
1134.499	643.803	79.999	19.996	103.156	19.942	5.497	0.527
1134.999	644.064	80.000	19.995	103.156	19.935	5.946	0.533
1135.499	644.280	80.000	19.996	103.155	19.944	5.374	0.500
1135.999	644.554	79.999	19.997	103.155	19.939	5.716	0.484
1136.499	644.802	80.000	19.995	103.157	19.938	5.744	0.506
1136.999	645.063	80.000	19.995	103.160	19.941	5.531	0.515
1137.499	645.297	80.001	19.995	103.161	19.938	5.748	0.502
1137.999	645.617	80.000	19.995	103.161	19.938	5.719	0.525
1138.499	645.838	80.000	19.996	103.160	19.935	5.991	0.547
1138.999	646.099	79.999	19.996	103.160	19.937	5.855	0.512
1139.499	646.341	79.998	19.995	103.158	19.936	5.882	0.492
1139.999	646.568	79.999	19.995	103.157	19.936	5.906	0.486
1140.499	646.857	79.998	19.995	103.158	19.939	5.702	0.492
1140.999	647.072	79.999	19.996	103.158	19.939	5.676	0.510
1141.499	647.351	79.999	19.995	103.159	19.939	5.676	0.499
1141.999	647.606	79.998	19.995	103.159	19.942	5.485	0.514
1142.499	647.868	79.998	19.994	103.159	19.945	5.295	0.526
1142.999	648.092	79.999	19.993	103.159	19.938	5.748	0.502
1143.499	648.348	79.999	19.995	103.160	19.939	5.714	0.484
1143.999	648.627	79.999	19.995	103.161	19.939	5.699	0.508
1144.499	648.893	79.998	19.995	103.160	19.939	5.685	0.540
1144.999	649.121	79.999	19.995	103.159	19.941	5.576	0.520
1145.499	649.404	79.999	19.996	103.159	19.942	5.492	0.503
1146.000	649.652	79.999	19.994	103.159	19.943	5.394	0.521
1146.500	649.920	80.000	19.994	103.158	19.942	5.456	0.524
1147.000	650.149	80.000	19.995	103.159	19.943	5.417	0.507
1147.500	650.434	79.999	19.996	103.159	19.938	5.738	0.505
1147.999	650.667	80.000	19.995	103.158	19.939	5.695	0.516
1148.500	650.926	80.001	19.995	103.158	19.945	5.268	0.505
1149.000	651.158	80.000	19.994	103.157	19.941	5.555	0.492
1149.499	651.414	80.000	19.996	103.157	19.940	5.646	0.489
1149.999	651.695	79.999	19.995	103.157	19.938	5.759	0.512
1150.499	651.917	79.998	19.995	103.157	19.938	5.738	0.520
1150.999	652.170	79.999	19.995	103.157	19.941	5.561	0.489
1151.499	652.414	79.998	19.995	103.157	19.942	5.512	0.486
1151.999	652.666	79.998	19.995	103.157	19.942	5.451	0.497
1152.499	652.921	79.999	19.994	103.156	19.944	5.351	0.501
1152.999	653.162	79.999	19.996	103.157	19.942	5.500	0.502
1153.499	653.387	79.997	19.995	103.157	19.941	5.514	0.481
1153.999	653.690	79.999	19.996	103.155	19.939	5.695	0.497
1154.499	653.919	79.998	19.996	103.156	19.942	5.506	0.530
1155.000	654.201	79.998	19.995	103.156	19.940	5.649	0.521
1155.500	654.470	79.998	19.995	103.157	19.939	5.708	0.531
1155.999	654.730	79.999	19.995	103.152	19.944	5.326	0.540
1156.499	654.993	79.998	19.996	103.148	19.942	5.462	0.526
1156.999	655.242	79.998	19.995	103.148	19.941	5.545	0.518
1157.499	655.438	79.998	19.996	103.149	19.940	5.611	0.478
1157.999	655.691	79.997	19.995	103.147	19.944	5.350	0.447
1158.499	655.968	79.997	19.995	103.152	19.944	5.345	0.490
1158.999	656.199	79.997	19.996	103.159	19.944	5.354	0.519
1159.499	656.472	79.997	19.996	103.159	19.942	5.487	0.506
1159.999	656.681	79.998	19.995	103.158	19.941	5.523	0.493
1160.499	656.968	79.999	19.996	103.160	19.947	5.164	0.489
1160.999	657.194	79.997	19.996	103.160	19.943	5.388	0.504
1161.499	657.423	79.998	19.996	103.157	19.946	5.190	0.484
1161.999	657.680	79.997	19.996	103.156	19.943	5.428	0.470
1162.499	657.950	79.997	19.996	103.157	19.942	5.500	0.506
1162.999	658.149	79.997	19.997	103.157	19.941	5.530	0.498
1163.499	658.375	79.997	19.996	103.157	19.938	5.778	0.447
1163.999	658.642	79.997	19.996	103.160	19.940	5.627	0.460
1164.499	658.917	79.997	19.995	103.161	19.942	5.445	0.518
1164.999	659.134	79.998	19.996	103.159	19.941	5.557	0.517
1165.499	659.386	79.999	19.995	103.158	19.940	5.625	0.481
1165.999	659.624	79.998	19.996	103.154	19.939	5.683	0.480
1166.499	659.866	79.999	19.996	103.151	19.944	5.372	0.485
1166.999	660.103	79.999	19.997	103.148	19.940	5.591	0.480
1167.499	660.364	79.998	19.996	103.144	19.945	5.304	0.488
1167.999	660.627	79.998	19.996	103.142	19.938	5.731	0.510
1168.499	660.855	79.999	19.996	103.142	19.940	5.619	0.507
1169.000	661.062	79.998	19.996	103.144	19.943	5.385	0.463
1169.500	661.317	79.999	19.996	103.145	19.945	5.293	0.449
1169.999	661.596	79.999	19.996	103.147	19.941	5.578	0.498
1170.500	661.794	80.000	19.996	103.147	19.943	5.410	0.506
1171.001	662.034	79.999	19.995	103.150	19.938	5.761	0.458
1171.500	662.267	79.999	19.995	103.148	19.939	5.657	0.455
1171.999	662.526	80.000	19.997	103.148	19.941	5.579	0.482
1172.499	662.797	80.000	19.996	103.149	19.942	5.470	0.511
1172.999	663.047	79.999	19.996	103.150	19.940	5.589	0.525
1173.499	663.277	80.001	19.995	103.150	19.941	5.553	0.500
1174.000	663.534	80.000	19.996	103.153	19.940	5.589	0.484
1174.500	663.764	80.001	19.996	103.153	19.936	5.861	0.488
1174.999	663.965	80.001	19.997	103.155	19.943	5.408	0.459
1175.499	664.261	80.000	19.996	103.155	19.942	5.468	0.464
1175.999	664.510	80.000	19.996	103.155	19.938	5.757	0.521
1176.499	664.753	80.000	19.995	103.155	19.940	5.647	0.518
1177.000	665.027	79.999	19.995	103.155	19.939	5.712	0.504
1177.501	665.253	79.999	19.995	103.154	19.938	5.734	0.508
1178.000	665.516	80.001	19.995	103.154	19.938	5.779	0.494
1178.499	665.782	80.000	19.996	103.154	19.938	5.768	0.509
1178.999	666.030	80.000	19.996	103.155	19.939	5.700	0.522
1179.499	666.299	79.998	19.995	103.155	19.939	5.653	0.516
1179.999	666.562	79.999	19.996	103.156	19.940	5.649	0.525
1180.499	666.843	80.000	19.997	103.156	19.936	5.882	0.538
1180.999	667.080	80.000	19.996	103.156	19.940	5.644	0.531
1181.499	667.346	80.000	19.996	103.154	19.940	5.583	0.511
1181.999	667.603	80.000	19.996	103.155	19.942	5.508	0.513
1182.499	667.897	79.999	19.995	103.153	19.941	5.561	0.537
1182.999	668.150	80.000	19.996	103.153	19.941	5.519	0.549
1183.499	668.416	79.999	19.995	103.153	19.938	5.727	0.533
1183.999	668.645	79.999	19.995	103.153	19.938	5.738	0.507
1184.499	668.918	79.999	19.997	103.153	19.940	5.621	0.499
1184.999	669.180	79.998	19.998	103.156	19.942	5.477	0.519
1185.499	669.455	79.998	19.996	103.156	19.941	5.572	0.536
1185.999	669.713	80.000	19.996	103.156	19.940	5.617	0.535
1186.500	669.995	79.999	19.995	103.156	19.939	5.711	0.537
1187.000	670.265	80.000	19.996	103.156	19.938	5.749	0.546
1187.499	670.520	80.000	19.996	103.154	19.935	5.980	0.539
1187.999	670.809	79.998	19.997	103.154	19.938	5.749	0.534
1188.500	671.088	80.000	19.996	103.153	19.942	5.474	0.555
1189.000	671.343	80.000	19.997	103.152	19.938	5.753	0.551
1189.500	671.586	80.000	19.996	103.150	19.940	5.636	0.516
1190.000	671.859	79.998	19.996	103.151	19.941	5.576	0.507
1190.500	672.146	79.998	19.995	103.151	19.938	5.777	0.538
1191.000	672.416	79.998	19.996	103.152	19.939	5.658	0.559
1191.500	672.684	79.999	19.996	103.154	19.935	5.930	0.548
1192.000	672.927	79.999	19.996	103.155	19.937	5.817	0.524
1192.499	673.244	79.998	19.996	103.155	19.941	5.519	0.535
1192.999	673.528	80.000	19.996	103.155	19.940	5.617	0.581
1193.499	673.747	80.000	19.997	103.154	19.936	5.921	0.552
1193.999	674.072	79.998	19.996	103.153	19.941	5.521	0.523
1194.499	674.323	79.998	19.997	103.151	19.940	5.616	0.560
1194.999	674.584	79.999	19.996	103.151	19.940	5.631	0.544
1195.499	674.890	80.000	19.996	103.151	19.938	5.731	0.540
1195.999	675.157	80.000	19.996	103.150	19.939	5.693	0.570
1196.499	675.427	80.000	19.997	103.150	19.934	6.050	0.555
1196.999	675.692	80.000	19.997	103.151	19.935	5.952	0.536
1197.499	675.974	79.999	19.995	103.151	19.937	5.848	0.541
1197.999	676.260	80.001	19.996	103.151	19.940	5.646	0.557
1198.499	676.525	80.000	19.997	103.152	19.939	5.680	0.559
1198.999	676.820	80.001	19.996	103.154	19.941	5.553	0.555
1199.499	677.057	80.001	19.996	103.153	19.939	5.678	0.546
1199.999	677.319	80.000	19.996	103.153	19.937	5.836	0.515
1200.499	677.618	80.000	19.995	103.153	19.940	5.598	0.530
1200.999	677.851	80.000	19.996	103.151	19.937	5.831	0.547
1201.499	678.147	80.000	19.995	103.149	19.938	5.765	0.530
1201.999	678.386	80.000	19.994	103.148	19.939	5.663	0.532
1202.500	678.707	79.999	19.996	103.149	19.941	5.561	0.548
1203.000	678.944	80.000	19.995	103.149	19.937	5.836	0.559
1203.499	679.209	80.000	19.996	103.151	19.937	5.795	0.530
1203.999	679.516	80.000	19.995	103.156	19.939	5.704	0.537
1204.499	679.783	80.000	19.995	103.157	19.937	5.829	0.573
1204.999	680.003	80.000	19.995	103.158	19.942	5.508	0.531
1205.499	680.275	80.000	19.995	103.158	19.941	5.521	0.489
1206.000	680.582	79.999	19.995	103.158	19.943	5.385	0.535
1206.500	680.884	79.999	19.994	103.156	19.938	5.768	0.594
1206.999	681.158	80.000	19.995	103.157	19.943	5.376	0.593
1207.499	681.460	79.997	19.994	103.159	19.940	5.646	0.576
1208.000	681.705	80.000	19.996	103.160	19.940	5.600	0.562
1208.500	681.973	79.999	19.996	103.160	19.941	5.546	0.530
1208.999	682.242	79.999	19.995	103.160	19.940	5.644	0.524
1209.499	682.527	79.999	19.995	103.160	19.939	5.680	0.546
1209.999	682.815	79.998	19.995	103.159	19.942	5.457	0.564
1210.499	683.050	79.998	19.995	103.155	19.941	5.570	0.548
1210.999	683.320	79.997	19.995	103.154	19.938	5.734	0.514
1211.500	683.640	79.999	19.995	103.154	19.937	5.855	0.547
1212.000	683.942	79.999	19.995	103.154	19.939	5.665	0.606
1212.499	684.180	80.000	19.995	103.155	19.938	5.768	0.581
1212.999	684.457	80.000	19.996	103.156	19.941	5.536	0.527
1213.499	684.721	79.998	19.994	103.157	19.935	5.957	0.528
1213.999	684.981	79.998	19.994	103.155	19.939	5.689	0.533
1214.499	685.266	79.998	19.995	103.153	19.942	5.452	0.535
1214.999	685.521	79.997	19.995	103.151	19.939	5.654	0.542
1215.499	685.772	79.998	19.995	103.152	19.938	5.739	0.523
1216.000	686.077	79.999	19.995	103.152	19.939	5.707	0.531
1216.500	686.332	79.999	19.996	103.154	19.941	5.559	0.558
1216.999	686.624	79.998	19.995	103.155	19.939	5.698	0.553
1217.499	686.903	79.998	19.996	103.157	19.940	5.581	0.559
1217.999	687.168	79.998	19.994	103.157	19.942	5.498	0.557
1218.499	687.440	79.999	19.995	103.157	19.938	5.734	0.541
1218.999	687.740	79.998	19.995	103.155	19.937	5.830	0.555
1219.499	688.000	79.998	19.996	103.155	19.940	5.604	0.566
1219.999	688.268	79.999	19.997	103.155	19.940	5.647	0.544
1220.499	688.529	79.998	19.995	103.156	19.937	5.849	0.528
1220.999	688.800	79.998	19.996	103.156	19.939	5.664	0.530
1221.500	689.065	79.998	19.996	103.156	19.940	5.621	0.534
1222.001	689.283	79.998	19.995	103.156	19.937	5.794	0.510
1222.501	689.564	79.998	19.996	103.157	19.934	6.026	0.491
1223.000	689.860	79.997	19.995	103.157	19.939	5.692	0.538
1223.500	690.113	79.998	19.995	103.157	19.941	5.558	0.563
1224.000	690.428	79.998	19.996	103.158	19.937	5.813	0.558
1224.499	690.653	79.998	19.995	103.156	19.940	5.611	0.554
1224.999	690.884	79.999	19.995	103.150	19.940	5.617	0.498
1225.499	691.167	79.997	19.994	103.144	19.940	5.585	0.485
1225.999	691.442	79.998	19.994	103.143	19.941	5.556	0.536
1226.499	691.702	79.998	19.996	103.142	19.939	5.650	0.546
1226.999	691.980	79.999	19.996	103.145	19.936	5.865	0.537
1227.499	692.241	79.997	19.996	103.151	19.940	5.610	0.539
1227.999	692.508	79.999	19.995	103.155	19.938	5.775	0.534
1228.499	692.758	79.997	19.995	103.156	19.940	5.607	0.523
1228.999	693.029	79.998	19.995	103.157	19.942	5.450	0.519
1229.499	693.278	79.999	19.995	103.155	19.942	5.486	0.520
1229.999	693.552	79.998	19.996	103.148	19.938	5.743	0.521
1230.499	693.809	79.999	19.995	103.149	19.937	5.809	0.527
1230.999	694.120	79.998	19.995	103.149	19.940	5.641	0.549
1231.499	694.369	79.998	19.995	103.148	19.941	5.528	0.564
1231.999	694.625	79.999	19.997	103.148	19.940	5.621	0.533
1232.499	694.848	79.998	19.995	103.151	19.938	5.749	0.492
1232.999	695.171	79.998	19.993	103.146	19.938	5.780	0.512
1233.499	695.419	79.999	19.996	103.141	19.939	5.708	0.558
1233.999	695.684	79.998	19.996	103.139	19.940	5.644	0.542
1234.499	695.934	79.999	19.996	103.140	19.941	5.513	0.514
1235.000	696.202	79.999	19.994	103.142	19.941	5.564	0.517
1235.500	696.441	79.999	19.996	103.146	19.943	5.381	0.513
1235.999	696.693	79.999	19.995	103.150	19.941	5.526	0.499
1236.499	696.956	79.999	19.995	103.150	19.939	5.660	0.503
1237.000	697.228	79.999	19.996	103.145	19.939	5.694	0.525
1237.501	697.484	80.000	19.996	103.139	19.940	5.615	0.531
1238.000	697.716	80.000	19.995	103.135	19.939	5.713	0.508
1238.499	697.975	80.000	19.996	103.133	19.938	5.719	0.490
1238.999	698.215	79.999	19.996	103.134	19.942	5.489	0.495
1239.499	698.467	79.999	19.996	103.137	19.938	5.768	0.495
1239.999	698.731	79.998	19.996	103.136	19.941	5.576	0.504
1240.499	698.975	79.999	19.997	103.135	19.940	5.611	0.512
1240.999	699.205	79.999	19.996	103.133	19.942	5.510	0.491
1241.499	699.464	79.997	19.995	103.133	19.941	5.547	0.482
1241.999	699.707	79.998	19.995	103.135	19.939	5.670	0.496
1242.499	699.983	79.997	19.996	103.143	19.942	5.443	0.510
1242.999	700.248	79.999	19.996	103.150	19.942	5.496	0.530
1243.499	700.497	79.998	19.994	103.154	19.944	5.366	0.528
1243.999	700.746	79.997	19.995	103.155	19.943	5.439	0.506
1244.499	700.961	79.998	19.996	103.154	19.940	5.596	0.481
1244.999	701.214	79.999	19.996	103.154	19.945	5.268	0.466
1245.499	701.499	79.997	19.995	103.154	19.941	5.536	0.503
1245.999	701.734	79.998	19.996	103.154	19.940	5.649	0.529
1246.499	701.987	79.997	19.995	103.154	19.941	5.521	0.504
1246.999	702.209	79.999	19.994	103.151	19.940	5.615	0.481
1247.499	702.484	79.999	19.997	103.149	19.938	5.761	0.486
1247.999	702.735	79.999	19.996	103.149	19.943	5.387	0.512
1248.499	702.954	80.000	19.996	103.144	19.938	5.734	0.498
1248.999	703.222	79.999	19.996	103.143	19.936	5.876	0.478
1249.499	703.501	79.999	19.996	103.147	19.937	5.798	0.517
1249.999	703.741	79.999	19.997	103.150	19.937	5.794	0.533
1250.499	703.969	79.999	19.996	103.151	19.940	5.598	0.494
1250.999	704.233	80.000	19.997	103.154	19.939	5.715	0.480
1251.499	704.482	79.998	19.996	103.153	19.939	5.696	0.503
1251.999	704.728	80.000	19.994	103.153	19.939	5.702	0.504
1252.499	704.979	79.998	19.996	103.151	19.937	5.813	0.496
1253.000	705.229	79.999	19.996	103.150	19.939	5.691	0.499
1253.500	705.450	80.001	19.996	103.151	19.935	5.975	0.486
1253.999	705.728	79.999	19.996	103.152	19.937	5.804	0.485
1254.499	705.978	79.999	19.996	103.150	19.937	5.851	0.513
1255.000	706.219	80.001	19.996	103.149	19.938	5.752	0.510
1255.500	706.487	80.000	19.996	103.149	19.939	5.698	0.500
1256.000	706.707	79.998	19.997	103.149	19.936	5.869	0.499
1256.500	706.981	80.001	19.997	103.149	19.937	5.817	0.491
1256.999	707.220	80.000	19.997	103.151	19.935	5.966	0.503
1257.500	707.502	80.000	19.998	103.154	19.937	5.834	0.517
1258.000	707.742	79.999	19.996	103.154	19.937	5.817	0.521
1258.499	707.986	80.000	19.997	103.155	19.939	5.679	0.503
1258.999	708.262	79.999	19.997	103.155	19.937	5.805	0.502
1259.499	708.516	80.001	19.997	103.154	19.937	5.847	0.525
1259.999	708.681	79.997	19.996	103.151	19.936	5.907	0.474
1260.499	709.015	80.001	19.996	103.147	19.936	5.888	0.459
1260.999	709.269	80.001	19.998	103.143	19.934	6.050	0.543
1261.499	709.536	80.000	19.997	103.142	19.940	5.580	0.554
1261.999	709.762	79.999	19.996	103.141	19.939	5.662	0.507
1262.499	709.963	79.999	19.996	103.144	19.935	5.940	0.461
1262.999	710.245	79.999	19.995	103.146	19.938	5.777	0.455
1263.499	710.503	80.000	19.996	103.149	19.936	5.897	0.511
1263.999	710.735	79.998	19.995	103.149	19.938	5.770	0.514
1264.499	711.005	79.998	19.996	103.145	19.937	5.838	0.496
1265.000	711.247	79.999	19.995	103.143	19.939	5.717	0.507
1265.500	711.492	79.998	19.995	103.142	19.938	5.738	0.499
1265.999	711.728	79.999	19.995	103.141	19.936	5.894	0.484
1266.499	711.982	80.000	19.996	103.139	19.937	5.843	0.485
1266.999	712.218	79.999	19.995	103.140	19.938	5.766	0.490
1267.499	712.480	79.999	19.996	103.141	19.935	5.960	0.494
1267.999	712.699	79.999	19.997	103.143	19.942	5.448	0.490
1268.499	712.948	79.998	19.995	103.141	19.938	5.767	0.475
1268.999	713.186	79.999	19.996	103.141	19.940	5.643	0.478
1269.499	713.438	79.999	19.996	103.145	19.940	5.643	0.489
1269.999	713.686	80.000	19.996	103.140	19.939	5.714	0.495
1270.500	713.929	79.999	19.995	103.139	19.933	6.110	0.495
1271.000	714.141	79.999	19.996	103.139	19.941	5.530	0.473
1271.499	714.389	80.001	19.997	103.140	19.936	5.906	0.458
1271.999	714.637	79.999	19.997	103.136	19.942	5.453	0.478
1272.499	714.917	79.999	19.995	103.137	19.940	5.590	0.512
1272.999	715.146	79.999	19.996	103.140	19.938	5.743	0.518
1273.499	715.397	79.999	19.996	103.144	19.938	5.751	0.495
1273.999	715.648	79.999	19.995	103.150	19.936	5.864	0.492
1274.499	715.849	79.998	19.996	103.155	19.938	5.785	0.477
1275.000	716.119	80.000	19.996	103.158	19.936	5.904	0.461
1275.500	716.370	79.999	19.997	103.156	19.940	5.619	0.495
1275.999	716.611	80.001	19.996	103.155	19.936	5.917	0.507
1276.499	716.868	80.001	19.996	103.152	19.935	5.964	0.496
1276.999	717.097	79.999	19.996	103.149	19.937	5.817	0.492
1277.500	717.340	80.001	19.997	103.145	19.935	5.940	0.479
1278.000	717.596	79.999	19.995	103.140	19.939	5.666	0.486
1278.499	717.859	80.001	19.996	103.135	19.939	5.711	0.509
1278.999	718.119	80.000	19.997	103.134	19.936	5.901	0.521
1279.500	718.313	80.000	19.996	103.137	19.939	5.653	0.488
1280.001	718.584	80.001	19.996	103.142	19.934	6.034	0.459
1280.500	718.807	80.000	19.996	103.148	19.935	5.978	0.479
1280.999	719.060	80.001	19.998	103.154	19.937	5.802	0.485
1281.499	719.314	80.001	19.997	103.156	19.935	5.955	0.492
1281.999	719.568	80.001	19.997	103.156	19.936	5.879	0.507
1282.499	719.813	80.001	19.996	103.151	19.936	5.885	0.503
1282.999	720.060	80.000	19.998	103.147	19.938	5.730	0.496
1283.499	720.293	80.001	19.996	103.147	19.936	5.859	0.486
1283.999	720.526	80.001	19.997	103.145	19.935	5.976	0.473
1284.499	720.829	79.999	19.996	103.144	19.938	5.761	0.501
1284.999	721.068	80.000	19.997	103.148	19.934	6.001	0.539
1285.499	721.307	80.001	19.996	103.151	19.929	6.354	0.510
1285.999	721.570	80.000	19.998	103.151	19.934	6.042	0.490
1286.499	721.837	79.998	19.996	103.152	19.934	6.042	0.516
1286.999	722.070	79.999	19.996	103.151	19.934	6.033	0.515
1287.499	722.332	79.999	19.997	103.146	19.937	5.808	0.498
1287.999	722.589	79.999	19.996	103.146	19.938	5.774	0.507
1288.499	722.836	79.999	19.996	103.147	19.931	6.235	0.512
1288.999	723.068	79.998	19.996	103.148	19.933	6.091	0.491
1289.499	723.348	79.998	19.996	103.150	19.932	6.153	0.495
1289.999	723.608	79.998	19.996	103.156	19.934	6.053	0.526
1290.499	723.859	79.997	19.995	103.156	19.934	6.012	0.526
1290.999	724.127	79.998	19.996	103.154	19.935	5.961	0.515
1291.499	724.370	79.999	19.996	103.154	19.934	6.057	0.515
1291.999	724.624	79.998	19.998	103.153	19.935	5.938	0.504
1292.499	724.895	79.998	19.995	103.150	19.934	6.040	0.511
1292.999	725.154	79.998	19.996	103.151	19.936	5.879	0.528
1293.499	725.387	79.998	19.997	103.153	19.937	5.825	0.511
1293.999	725.644	79.998	19.996	103.152	19.933	6.102	0.491
1294.499	725.939	79.998	19.995	103.153	19.937	5.810	0.521
1294.999	726.175	79.998	19.996	103.156	19.935	5.970	0.541
1295.499	726.464	79.998	19.995	103.155	19.936	5.885	0.528
1295.999	726.726	79.998	19.996	103.155	19.936	5.923	0.538
1296.499	726.997	79.999	19.996	103.154	19.936	5.891	0.542
1296.999	727.275	80.000	19.996	103.154	19.934	6.018	0.541
1297.499	727.525	79.999	19.995	103.153	19.936	5.910	0.538
1297.999	727.741	79.998	19.995	103.152	19.935	5.932	0.497
1298.499	728.054	79.999	19.997	103.153	19.929	6.399	0.498
1298.999	728.295	79.998	19.998	103.153	19.932	6.180	0.542
1299.500	728.562	80.001	19.997	103.153	19.936	5.908	0.531
1300.000	728.830	80.000	19.997	103.154	19.928	6.468	0.521
1300.499	729.073	80.000	19.997	103.154	19.932	6.161	0.523
1300.999	729.365	80.000	19.996	103.154	19.933	6.091	0.523
1301.499	729.657	80.001	19.998	103.154	19.934	6.043	0.560
1301.999	729.884	80.000	19.996	103.154	19.932	6.172	0.551
1302.499	730.120	79.999	19.994	103.153	19.930	6.279	0.491
1302.999	730.429	79.999	19.995	103.154	19.934	6.009	0.504
1303.500	730.686	79.999	19.996	103.152	19.933	6.088	0.555
1304.000	730.943	79.998	19.995	103.151	19.932	6.179	0.540
1304.499	731.216	80.000	19.997	103.150	19.933	6.094	0.522
1304.999	731.503	80.001	19.998	103.151	19.932	6.168	0.545
1305.499	731.780	79.999	19.995	103.151	19.933	6.112	0.562
1305.999	732.029	80.000	19.996	103.152	19.931	6.204	0.545
1306.499	732.329	79.999	19.996	103.153	19.929	6.395	0.537
1306.999	732.582	79.999	19.997	103.154	19.929	6.366	0.551
1307.499	732.852	79.999	19.996	103.155	19.932	6.174	0.538
1307.999	733.130	79.999	19.996	103.155	19.931	6.204	0.536
1308.499	733.377	79.998	19.997	103.156	19.929	6.342	0.536
1308.999	733.667	79.999	19.996	103.152	19.933	6.112	0.531
1309.499	733.907	80.000	19.995	103.149	19.933	6.121	0.534
1309.999	734.185	80.000	19.997	103.149	19.932	6.161	0.524
1310.499	734.483	80.000	19.997	103.149	19.929	6.382	0.547
1311.000	734.672	80.001	19.995	103.149	19.929	6.374	0.532
1311.500	734.955	80.000	19.996	103.149	19.933	6.095	0.480
1311.999	735.251	80.000	19.996	103.147	19.935	5.993	0.525
1312.499	735.519	79.999	19.995	103.145	19.936	5.902	0.571
1312.999	735.771	80.000	19.996	103.142	19.930	6.280	0.542
1313.500	736.066	79.999	19.996	103.136	19.934	6.031	0.534
1314.001	736.347	79.999	19.995	103.134	19.935	5.932	0.561
1314.500	736.594	79.999	19.995	103.138	19.934	6.053	0.552
1314.999	736.863	79.999	19.994	103.138	19.936	5.862	0.523
1315.499	737.132	79.999	19.996	103.141	19.930	6.312	0.527
1315.999	737.382	79.998	19.995	103.147	19.932	6.142	0.528
1316.499	737.674	79.999	19.996	103.153	19.931	6.242	0.531
1316.999	737.937	79.997	19.996	103.149	19.935	5.950	0.548
1317.499	738.216	79.998	19.995	103.148	19.931	6.233	0.548
1317.999	738.476	79.999	19.995	103.147	19.934	6.044	0.540
1318.499	738.753	79.999	19.996	103.147	19.934	6.042	0.538
1318.999	739.019	80.000	19.997	103.147	19.933	6.070	0.540
1319.499	739.268	79.997	19.996	103.150	19.934	6.043	0.529
1319.999	739.563	79.998	19.996	103.151	19.935	5.972	0.530
1320.499	739.812	79.998	19.997	103.152	19.930	6.327	0.544
1320.999	740.084	79.998	19.996	103.149	19.929	6.342	0.532
1321.499	740.361	80.000	19.996	103.148	19.930	6.321	0.535
1321.999	740.634	79.998	19.996	103.147	19.933	6.070	0.550
1322.499	740.936	79.997	19.996	103.148	19.932	6.185	0.563
1322.999	741.201	79.999	19.997	103.148	19.932	6.197	0.570
1323.500	741.492	79.999	19.996	103.149	19.939	5.704	0.561
1324.000	741.733	79.999	19.997	103.150	19.935	5.957	0.544
1324.499	742.028	79.998	19.996	103.152	19.931	6.259	0.534
1325.000	742.305	79.998	19.995	103.150	19.932	6.144	0.554
1325.500	742.594	80.000	19.996	103.149	19.929	6.374	0.569
1325.999	742.885	79.999	19.997	103.151	19.932	6.187	0.573
1326.499	743.155	79.999	19.996	103.152	19.930	6.291	0.571
