Sample ID:	C:\MCC\MCC Cal\Test\Triexta_Carpet_High_Pile_MCC_30K_min_211117_R3.txt
Sample Weight (mg):	4.38
Heating Rate (C/s):	0.5
Combustor Temp (C):	900
N2 Flow Rate (cc/min):	80
O2 Flow Rate (cc/min):	20
Calibration File:	C:\MCC\MCC Cal\Coeff1 JN10440_30_210304.txt.txt
T Correction Coefficients:	0	1.024463	0
Time Shift (s):	14
*
Time (s)	Temperature (C)	N2 flow rate (cc/min)	O2 flow rate (cc/min)	Flow Rate (cc/min)	Oxygen (%)	HRR (W/g)	Heating rate (C/s)
0.000	107.133	80.002	19.996	102.986	20.054	-0.190	0.006
0.500	107.150	80.002	19.996	102.986	20.054	-0.206	0.024
1.000	107.169	80.000	19.997	102.991	20.052	-0.010	0.027
1.500	107.149	80.005	19.998	103.000	20.052	-0.069	0.018
2.000	107.152	80.002	19.997	103.005	20.054	-0.174	-0.009
2.500	107.171	80.005	19.995	103.009	20.056	-0.360	0.002
3.000	107.128	79.999	19.997	103.010	20.054	-0.168	-0.001
3.500	107.140	79.999	19.996	103.003	20.053	-0.135	-0.027
4.000	107.136	80.001	19.996	102.996	20.053	-0.145	-0.011
4.500	107.136	80.004	19.996	102.997	20.053	-0.141	0.001
5.000	107.134	79.999	19.996	103.000	20.053	-0.127	-0.003
5.500	107.160	80.003	19.995	103.002	20.054	-0.196	0.011
6.000	107.167	79.999	19.996	103.008	20.052	-0.036	0.029
6.500	107.158	79.999	19.997	103.009	20.054	-0.192	0.015
7.000	107.180	80.001	19.994	103.005	20.052	-0.063	0.005
7.500	107.155	80.002	19.995	103.001	20.054	-0.192	0.005
8.000	107.173	80.003	19.995	103.004	20.055	-0.260	-0.005
8.500	107.176	79.999	19.996	103.006	20.058	-0.513	0.007
9.000	107.122	80.002	19.995	103.011	20.055	-0.232	-0.015
9.500	107.188	79.996	19.996	103.013	20.055	-0.236	-0.020
10.000	107.154	80.003	19.995	103.012	20.057	-0.408	0.022
10.500	107.154	80.000	19.996	103.010	20.057	-0.440	-0.001
11.000	107.155	80.002	19.996	103.008	20.056	-0.297	-0.016
11.500	107.165	80.001	19.995	103.009	20.056	-0.325	0.007
12.000	107.171	80.003	19.995	103.017	20.058	-0.466	0.014
12.500	107.180	80.001	19.995	103.030	20.055	-0.256	0.016
13.000	107.167	80.002	19.995	103.039	20.051	0.044	0.006
13.500	107.151	80.001	19.996	103.049	20.050	0.095	-0.017
14.000	107.144	80.001	19.995	103.057	20.053	-0.113	-0.026
14.500	107.183	80.001	19.996	103.063	20.049	0.190	0.005
15.000	107.169	80.002	19.995	103.065	20.049	0.182	0.028
15.500	107.152	80.001	19.995	103.068	20.046	0.384	-0.003
16.000	107.177	79.998	19.995	103.069	20.046	0.394	-0.011
16.500	107.148	80.003	19.995	103.075	20.049	0.176	0.002
17.000	107.217	80.002	19.996	103.082	20.044	0.573	0.018
17.500	107.211	80.000	19.996	103.090	20.040	0.832	0.051
18.000	107.205	80.000	19.996	103.095	20.041	0.807	0.025
18.500	107.252	80.005	19.994	103.101	20.042	0.704	0.014
19.000	107.255	80.003	19.995	103.104	20.040	0.813	0.046
19.500	107.251	80.004	19.994	103.104	20.039	0.938	0.025
20.000	107.313	80.004	19.996	103.104	20.039	0.887	0.029
20.500	107.319	80.010	19.995	103.107	20.043	0.647	0.063
21.000	107.310	79.999	19.995	103.107	20.042	0.710	0.033
21.500	107.345	79.995	19.995	103.104	20.039	0.906	0.012
22.000	107.383	80.002	19.996	103.103	20.039	0.906	0.049
22.500	107.394	80.001	19.995	103.102	20.041	0.803	0.061
23.000	107.424	80.000	19.996	103.101	20.039	0.904	0.045
23.500	107.452	80.000	19.995	103.101	20.036	1.120	0.049
24.000	107.431	80.000	19.995	103.105	20.034	1.269	0.032
24.500	107.484	80.002	19.996	103.108	20.039	0.906	0.019
25.000	107.491	80.002	19.995	103.113	20.034	1.255	0.046
25.500	107.527	80.016	19.994	103.118	20.033	1.390	0.052
26.001	107.575	80.001	19.995	103.126	20.030	1.606	0.064
26.500	107.593	80.002	19.994	103.112	20.028	1.735	0.075
27.000	107.667	80.004	19.996	103.098	20.031	1.515	0.079
27.500	107.666	80.003	19.994	103.096	20.028	1.747	0.082
28.000	107.733	80.007	19.994	103.101	20.027	1.822	0.069
28.500	107.748	79.996	19.998	103.105	20.026	1.874	0.074
29.000	107.776	80.001	19.995	103.130	20.028	1.739	0.063
29.500	107.810	79.999	19.995	103.178	20.025	1.967	0.053
30.000	107.852	80.002	19.996	103.211	20.024	2.013	0.069
30.500	107.927	80.002	19.995	103.219	20.025	1.959	0.096
31.000	107.990	80.002	19.995	103.228	20.024	2.033	0.128
31.500	108.014	80.003	19.996	103.234	20.022	2.148	0.113
32.001	108.097	80.003	19.996	103.216	20.020	2.291	0.097
32.500	108.109	79.999	19.996	103.197	20.026	1.886	0.101
33.000	108.161	80.000	19.995	103.194	20.022	2.172	0.080
33.500	108.231	80.001	19.994	103.189	20.020	2.339	0.093
34.000	108.260	80.004	19.995	103.184	20.019	2.365	0.110
34.500	108.317	80.002	19.995	103.182	20.024	2.041	0.092
35.000	108.401	80.000	19.995	103.181	20.020	2.293	0.114
35.500	108.445	79.997	19.995	103.185	20.023	2.085	0.135
36.000	108.516	80.001	19.995	103.189	20.023	2.079	0.121
36.500	108.603	80.002	19.995	103.190	20.016	2.611	0.136
37.000	108.651	80.002	19.997	103.190	20.022	2.152	0.146
37.500	108.731	79.999	19.995	103.190	20.023	2.125	0.132
38.000	108.781	80.001	19.997	103.186	20.025	1.974	0.129
38.500	108.847	80.001	19.995	103.185	20.019	2.367	0.123
39.000	108.922	80.001	19.996	103.184	20.020	2.353	0.129
39.500	108.983	80.001	19.995	103.183	20.023	2.123	0.138
40.000	109.078	80.000	19.995	103.182	20.021	2.259	0.145
40.500	109.133	80.003	19.995	103.183	20.019	2.361	0.153
41.000	109.242	80.005	19.994	103.182	20.018	2.492	0.157
41.500	109.288	79.997	19.997	103.187	20.022	2.184	0.159
42.000	109.420	80.005	19.994	103.193	20.020	2.297	0.166
42.500	109.480	79.984	19.996	103.199	20.016	2.638	0.185
43.000	109.574	80.012	19.997	103.206	20.020	2.347	0.173
43.500	109.637	80.007	19.995	103.212	20.022	2.135	0.156
44.000	109.731	80.014	19.993	103.215	20.022	2.180	0.157
44.500	109.784	80.001	19.996	103.222	20.016	2.619	0.152
45.000	109.902	80.005	19.995	103.223	20.018	2.428	0.159
45.500	109.951	80.005	19.996	103.225	20.023	2.131	0.170
46.000	110.080	79.998	19.996	103.225	20.019	2.407	0.173
46.500	110.153	80.000	19.997	103.224	20.015	2.674	0.190
47.000	110.243	80.003	19.995	103.219	20.016	2.581	0.182
47.500	110.338	80.000	19.995	103.220	20.019	2.379	0.174
48.000	110.424	80.007	19.997	103.220	20.013	2.795	0.183
48.500	110.552	80.011	19.993	103.220	20.013	2.811	0.197
49.000	110.632	79.995	19.997	103.222	20.013	2.815	0.211
49.500	110.738	80.012	19.995	103.220	20.011	2.956	0.197
50.000	110.868	80.005	19.995	103.222	20.008	3.202	0.211
50.500	110.964	80.006	19.996	103.222	20.013	2.831	0.231
51.000	111.044	80.004	19.996	103.222	20.012	2.893	0.201
51.500	111.168	80.008	19.996	103.220	20.010	3.065	0.190
52.000	111.274	80.004	19.995	103.224	20.014	2.724	0.217
52.500	111.388	80.002	19.996	103.222	20.018	2.438	0.226
53.000	111.509	80.003	19.995	103.222	20.010	3.021	0.228
53.500	111.639	80.004	19.995	103.223	20.015	2.696	0.243
54.001	111.759	80.003	19.996	103.226	20.012	2.894	0.250
54.500	111.851	80.001	19.995	103.227	20.018	2.464	0.231
55.000	111.940	80.003	19.995	103.234	20.011	2.950	0.197
55.500	112.088	80.003	19.996	103.237	20.015	2.704	0.209
56.000	112.189	80.001	19.995	103.236	20.010	3.087	0.243
56.500	112.342	80.003	19.996	103.235	20.013	2.821	0.252
57.000	112.409	80.008	19.995	103.233	20.009	3.147	0.237
57.500	112.538	80.005	19.998	103.227	20.013	2.855	0.208
58.000	112.641	80.000	19.995	103.225	20.011	3.006	0.214
58.500	112.783	80.003	19.996	103.225	20.009	3.127	0.239
59.000	112.903	80.004	19.996	103.225	20.018	2.480	0.253
59.500	113.062	80.007	19.994	103.227	20.015	2.688	0.270
60.000	113.197	80.010	19.995	103.229	20.011	3.010	0.287
60.500	113.304	80.005	19.994	103.234	20.013	2.839	0.268
61.000	113.435	80.008	19.993	103.238	20.008	3.191	0.240
61.500	113.560	80.009	19.994	103.240	20.009	3.119	0.247
62.000	113.666	79.996	19.997	103.241	20.014	2.746	0.243
62.500	113.798	80.005	19.995	103.235	20.009	3.115	0.234
63.000	113.916	80.000	19.996	103.230	20.012	2.934	0.244
63.500	114.055	80.001	19.996	103.225	20.010	3.067	0.254
64.000	114.163	80.003	19.994	103.223	20.006	3.373	0.252
64.500	114.287	80.009	19.995	103.225	20.010	3.066	0.239
65.000	114.458	80.001	19.996	103.229	20.005	3.451	0.263
65.500	114.581	79.991	19.996	103.229	20.010	3.048	0.294
66.000	114.754	80.003	19.995	103.230	20.009	3.104	0.295
66.501	114.889	80.015	19.995	103.229	20.008	3.163	0.302
67.001	115.008	80.013	19.995	103.230	20.012	2.872	0.281
67.501	115.130	80.015	19.992	103.234	20.009	3.104	0.247
68.001	115.291	80.002	19.994	103.238	20.007	3.278	0.262
68.500	115.424	80.002	19.996	103.240	20.006	3.322	0.289
69.000	115.594	80.002	19.994	103.240	20.009	3.139	0.299
69.500	115.692	80.002	19.995	103.236	20.012	2.917	0.285
70.000	115.859	80.002	19.995	103.236	20.007	3.241	0.266
70.500	115.980	80.002	19.995	103.237	20.010	3.066	0.276
71.001	116.144	80.008	19.993	103.239	20.010	3.070	0.287
71.501	116.232	80.001	19.994	103.243	20.009	3.090	0.268
72.000	116.410	80.002	19.995	103.242	20.012	2.921	0.259
72.500	116.545	80.003	19.994	103.238	20.012	2.913	0.290
73.000	116.710	80.004	19.994	103.234	20.010	3.056	0.307
73.500	116.847	80.005	19.994	103.231	20.009	3.116	0.301
74.000	117.015	80.007	19.993	103.230	20.011	2.951	0.303
74.500	117.131	80.008	19.995	103.236	20.005	3.395	0.294
75.000	117.292	80.006	19.992	103.244	20.007	3.256	0.281
75.501	117.459	80.018	19.992	103.253	20.007	3.268	0.303
76.001	117.632	80.003	19.997	103.263	20.012	2.931	0.334
76.501	117.767	80.008	19.998	103.265	20.010	3.062	0.323
77.000	117.917	80.008	19.995	103.264	20.005	3.415	0.296
77.500	118.070	80.005	19.995	103.264	20.006	3.312	0.294
78.001	118.216	80.001	19.997	103.263	20.007	3.273	0.301
78.501	118.361	80.000	19.996	103.259	20.011	3.003	0.295
79.000	118.544	79.997	19.996	103.260	20.004	3.459	0.310
79.500	118.687	80.004	19.996	103.261	20.007	3.311	0.327
80.000	118.879	80.001	19.995	103.260	20.009	3.120	0.330
80.500	119.033	80.000	19.995	103.259	20.002	3.640	0.341
81.000	119.175	80.002	19.996	103.260	20.008	3.213	0.321
81.500	119.346	79.997	19.997	103.261	20.007	3.308	0.304
82.000	119.523	80.001	19.996	103.264	20.007	3.261	0.331
82.500	119.714	79.994	19.996	103.264	20.005	3.403	0.358
83.000	119.851	80.001	19.997	103.263	20.005	3.457	0.348
83.500	120.047	80.004	19.998	103.263	20.004	3.479	0.330
84.000	120.168	80.002	19.996	103.262	20.005	3.392	0.325
84.500	120.360	79.998	19.996	103.258	20.003	3.571	0.315
85.001	120.506	80.007	19.996	103.256	20.000	3.801	0.326
85.501	120.694	79.996	19.997	103.258	20.004	3.519	0.336
86.001	120.888	80.007	19.996	103.258	20.004	3.491	0.358
86.500	121.047	80.003	19.998	103.260	20.001	3.710	0.367
87.000	121.230	80.001	19.996	103.260	19.998	3.940	0.348
87.500	121.397	80.000	19.996	103.264	20.002	3.618	0.346
88.000	121.600	80.002	19.996	103.263	20.003	3.537	0.360
88.501	121.733	80.006	19.996	103.263	20.003	3.591	0.353
89.001	121.932	79.996	19.998	103.264	20.000	3.787	0.334
89.500	122.143	80.008	19.995	103.265	20.004	3.460	0.371
90.000	122.327	80.001	19.996	103.268	20.001	3.746	0.402
90.500	122.517	80.003	19.996	103.273	20.001	3.696	0.384
91.000	122.665	79.993	19.996	103.273	20.001	3.749	0.356
91.500	122.887	80.001	19.996	103.270	20.005	3.416	0.354
92.000	123.035	79.999	19.994	103.272	20.000	3.813	0.370
92.500	123.245	80.007	19.996	103.265	19.998	3.964	0.363
93.000	123.411	79.991	19.996	103.261	20.000	3.797	0.367
93.500	123.636	79.996	19.996	103.259	20.000	3.785	0.384
94.000	123.835	80.003	19.995	103.264	20.000	3.769	0.408
94.500	123.987	80.003	19.996	103.267	20.001	3.739	0.388
95.000	124.182	79.997	19.996	103.272	19.997	4.043	0.349
95.500	124.372	79.999	19.995	103.276	20.000	3.793	0.366
96.000	124.555	80.001	19.995	103.283	20.007	3.301	0.378
96.500	124.763	80.002	19.996	103.285	19.999	3.880	0.382
97.000	124.928	80.009	19.993	103.281	20.004	3.463	0.382
97.500	125.110	80.000	19.993	103.277	19.999	3.826	0.360
98.000	125.323	80.003	19.995	103.273	20.002	3.606	0.371
98.500	125.502	80.003	19.995	103.272	20.004	3.483	0.394
99.000	125.702	79.997	19.994	103.272	20.002	3.622	0.385
99.500	125.901	79.992	19.996	103.277	20.003	3.538	0.389
100.000	126.082	80.004	19.995	103.276	20.004	3.501	0.390
100.500	126.292	80.009	19.992	103.283	20.001	3.715	0.386
101.000	126.480	80.002	19.995	103.284	20.002	3.606	0.395
101.500	126.728	80.006	19.993	103.281	20.005	3.457	0.417
102.000	126.921	80.004	19.996	103.280	20.001	3.741	0.438
102.500	127.086	80.011	19.994	103.286	20.001	3.741	0.400
103.000	127.299	80.002	19.995	103.283	20.003	3.572	0.368
103.500	127.461	80.003	19.996	103.279	20.004	3.517	0.377
104.000	127.725	80.005	19.995	103.274	19.999	3.864	0.400
104.500	127.917	80.007	19.995	103.269	20.006	3.330	0.441
105.000	128.109	80.004	19.996	103.263	20.003	3.559	0.420
105.500	128.314	80.006	19.996	103.263	20.001	3.737	0.391
106.000	128.537	79.999	19.996	103.267	20.003	3.543	0.413
106.500	128.693	80.007	19.992	103.270	20.001	3.747	0.403
107.000	128.961	80.006	19.993	103.273	20.003	3.561	0.401
107.500	129.115	80.001	19.996	103.274	20.002	3.664	0.423
108.000	129.341	80.003	19.995	103.271	20.002	3.648	0.401
108.500	129.537	80.001	19.995	103.271	20.002	3.632	0.401
109.000	129.741	80.005	19.995	103.268	20.002	3.644	0.411
109.500	129.960	80.002	19.995	103.265	19.997	4.029	0.412
110.000	130.147	80.007	19.994	103.263	19.998	3.963	0.414
110.500	130.356	79.999	19.995	103.262	19.999	3.846	0.401
111.000	130.585	80.001	19.995	103.257	20.001	3.717	0.417
111.500	130.819	80.004	19.994	103.258	20.001	3.715	0.451
112.000	131.003	80.002	19.994	103.260	20.002	3.618	0.440
112.500	131.202	80.003	19.995	103.260	20.004	3.528	0.400
113.000	131.440	80.000	19.996	103.260	20.004	3.497	0.410
113.500	131.654	79.999	19.994	103.263	20.003	3.538	0.445
114.000	131.855	80.000	19.995	103.266	20.004	3.519	0.433
114.500	132.049	80.002	19.996	103.267	20.002	3.614	0.405
115.000	132.325	80.002	19.995	103.268	20.003	3.592	0.433
115.500	132.515	80.006	19.996	103.270	20.002	3.642	0.468
116.000	132.698	80.000	19.994	103.269	20.000	3.806	0.419
116.500	132.927	80.003	19.994	103.269	20.003	3.578	0.392
117.000	133.116	80.012	19.993	103.269	20.003	3.538	0.415
117.500	133.346	80.002	19.995	103.270	19.998	3.908	0.418
118.000	133.569	79.999	19.995	103.271	20.003	3.582	0.436
118.500	133.795	80.005	19.997	103.272	19.998	3.906	0.451
119.000	134.036	80.006	19.996	103.272	20.001	3.691	0.458
119.500	134.233	80.000	19.995	103.271	20.003	3.592	0.452
120.000	134.452	80.002	19.995	103.268	19.999	3.884	0.427
120.500	134.618	79.998	19.995	103.265	20.003	3.588	0.401
121.000	134.877	80.000	19.996	103.264	20.002	3.624	0.405
121.500	135.075	80.000	19.995	103.262	19.999	3.880	0.441
122.000	135.288	80.001	19.994	103.261	20.001	3.725	0.434
122.500	135.478	80.002	19.995	103.263	20.001	3.711	0.407
123.000	135.716	80.002	19.994	103.262	20.001	3.703	0.416
123.500	135.931	80.003	19.996	103.262	19.998	3.900	0.441
124.000	136.170	80.002	19.996	103.263	19.997	4.015	0.453
124.500	136.348	80.001	19.995	103.263	19.994	4.251	0.435
125.000	136.606	80.000	19.994	103.263	20.001	3.715	0.427
125.501	136.855	80.002	19.994	103.263	19.997	3.995	0.472
126.001	137.063	80.003	19.994	103.264	20.000	3.763	0.482
126.500	137.295	80.002	19.995	103.263	20.001	3.719	0.449
127.000	137.505	80.003	19.995	103.264	19.998	3.922	0.442
127.501	137.751	80.003	19.995	103.264	20.004	3.479	0.449
128.000	137.936	80.002	19.995	103.264	19.998	3.904	0.443
128.500	138.172	80.003	19.995	103.264	19.994	4.194	0.426
129.001	138.402	80.003	19.994	103.264	20.001	3.719	0.443
129.500	138.651	80.001	19.995	103.265	19.999	3.872	0.472
130.000	138.847	80.003	19.996	103.263	19.997	3.985	0.462
130.500	139.043	80.000	19.996	103.264	19.998	3.960	0.418
131.000	139.262	80.002	19.995	103.262	19.997	4.046	0.403
131.500	139.503	80.005	19.995	103.262	19.995	4.132	0.438
132.000	139.723	80.004	19.994	103.262	19.997	4.043	0.461
132.500	139.928	80.002	19.995	103.265	19.998	3.944	0.443
133.000	140.175	80.002	19.996	103.265	19.994	4.251	0.438
133.500	140.416	80.003	19.995	103.265	20.000	3.792	0.470
134.000	140.592	80.002	19.994	103.266	19.999	3.859	0.452
134.500	140.877	80.001	19.994	103.265	19.998	3.920	0.439
135.000	141.090	80.004	19.995	103.262	20.000	3.821	0.479
135.500	141.302	80.004	19.995	103.262	19.997	3.990	0.461
136.000	141.484	80.003	19.995	103.262	19.997	4.037	0.409
136.500	141.762	80.004	19.995	103.265	19.996	4.063	0.427
137.000	141.985	80.002	19.996	103.265	19.999	3.886	0.481
137.500	142.182	80.003	19.995	103.266	19.999	3.833	0.461
138.000	142.399	80.003	19.995	103.267	19.995	4.190	0.417
138.500	142.646	80.004	19.996	103.268	19.996	4.049	0.438
139.000	142.876	80.001	19.995	103.266	20.000	3.817	0.470
139.500	143.123	80.001	19.995	103.267	19.998	3.949	0.477
140.001	143.355	80.001	19.994	103.268	19.996	4.076	0.478
140.501	143.555	80.002	19.995	103.271	19.999	3.880	0.456
141.000	143.792	80.004	19.994	103.275	20.000	3.790	0.434
141.500	144.054	80.004	19.995	103.283	20.000	3.790	0.468
142.000	144.264	80.001	19.996	103.295	19.998	3.957	0.486
142.500	144.496	80.003	19.995	103.310	20.001	3.737	0.457
143.000	144.730	80.002	19.996	103.335	20.003	3.584	0.454
143.500	144.961	80.002	19.996	103.380	20.004	3.530	0.466
144.000	145.194	80.003	19.996	103.410	20.001	3.707	0.465
144.500	145.401	80.005	19.995	103.413	20.006	3.377	0.452
145.000	145.631	80.003	19.995	103.405	20.002	3.612	0.438
145.500	145.897	80.002	19.996	103.382	20.002	3.671	0.466
146.000	146.137	80.003	19.995	103.334	20.004	3.495	0.501
146.500	146.328	80.001	19.995	103.295	19.999	3.858	0.469
147.000	146.520	80.002	19.996	103.277	20.002	3.625	0.407
147.500	146.820	80.003	19.997	103.271	19.999	3.881	0.438
148.000	147.008	80.005	19.995	103.272	20.000	3.800	0.490
148.500	147.274	80.002	19.995	103.274	19.998	3.935	0.471
149.000	147.551	80.005	19.995	103.274	20.002	3.606	0.498
149.500	147.733	80.006	19.996	103.274	19.999	3.832	0.501
150.000	147.995	80.001	19.997	103.271	19.997	4.002	0.451
150.500	148.210	80.003	19.996	103.264	19.999	3.897	0.461
151.000	148.415	80.004	19.995	103.258	20.000	3.766	0.448
151.500	148.652	80.006	19.995	103.259	19.995	4.126	0.431
152.000	148.895	80.002	19.994	103.258	19.999	3.842	0.461
152.500	149.145	80.004	19.996	103.256	20.002	3.622	0.487
153.000	149.362	80.004	19.996	103.256	19.998	3.905	0.480
153.500	149.627	80.003	19.994	103.256	19.998	3.899	0.475
154.000	149.838	80.006	19.994	103.256	20.001	3.723	0.479
154.500	150.079	80.005	19.994	103.256	19.995	4.185	0.463
155.000	150.340	80.006	19.995	103.257	19.997	4.030	0.477
155.500	150.568	80.003	19.994	103.257	20.000	3.792	0.496
156.000	150.806	80.005	19.994	103.258	19.998	3.939	0.478
156.500	150.998	80.006	19.996	103.257	19.999	3.836	0.448
157.000	151.257	80.002	19.994	103.256	19.995	4.161	0.440
157.500	151.495	80.003	19.995	103.253	19.995	4.177	0.474
158.000	151.723	80.005	19.996	103.254	19.995	4.138	0.481
158.500	152.004	80.005	19.995	103.253	19.995	4.182	0.487
159.000	152.195	80.002	19.996	103.253	19.995	4.188	0.491
159.500	152.436	80.000	19.995	103.254	19.994	4.197	0.452
160.000	152.690	80.004	19.995	103.257	19.994	4.211	0.463
160.500	152.932	80.000	19.995	103.257	19.998	3.947	0.495
161.000	153.147	80.003	19.996	103.254	19.995	4.165	0.477
161.500	153.391	80.003	19.995	103.254	19.999	3.892	0.458
162.000	153.624	80.005	19.995	103.255	20.000	3.794	0.468
162.500	153.915	80.000	19.995	103.254	20.001	3.749	0.501
163.000	154.109	80.004	19.996	103.255	20.004	3.530	0.505
163.500	154.333	80.001	19.995	103.258	20.001	3.731	0.452
164.000	154.565	80.001	19.997	103.258	20.000	3.798	0.437
164.500	154.781	80.004	19.995	103.258	19.996	4.071	0.451
165.000	155.038	80.001	19.997	103.258	19.995	4.162	0.460
165.500	155.284	80.002	19.996	103.258	19.999	3.884	0.488
166.000	155.516	79.999	19.996	103.257	19.998	3.899	0.491
166.500	155.750	80.002	19.995	103.256	19.999	3.840	0.472
167.000	155.979	80.001	19.995	103.256	19.996	4.078	0.465
167.500	156.186	80.001	19.996	103.257	20.003	3.577	0.450
168.000	156.441	80.002	19.997	103.258	19.999	3.843	0.449
168.500	156.664	79.999	19.996	103.261	20.001	3.744	0.470
169.000	156.917	80.000	19.996	103.268	19.997	3.976	0.477
169.500	157.168	80.001	19.996	103.267	20.000	3.820	0.490
170.000	157.412	80.004	19.995	103.267	19.994	4.229	0.500
170.500	157.629	79.999	19.996	103.267	19.999	3.828	0.478
171.000	157.860	80.000	19.996	103.264	19.998	3.959	0.454
171.500	158.093	80.000	19.996	103.259	19.997	3.975	0.456
172.000	158.356	79.997	19.997	103.260	19.991	4.469	0.480
172.500	158.569	80.002	19.996	103.259	19.993	4.282	0.486
173.000	158.775	80.001	19.996	103.258	19.996	4.062	0.448
173.500	159.072	79.999	19.997	103.259	19.996	4.088	0.461
174.000	159.313	80.002	19.997	103.259	19.995	4.175	0.521
174.500	159.559	80.000	19.997	103.260	19.997	3.975	0.512
175.000	159.775	80.000	19.996	103.257	19.997	4.021	0.474
175.500	160.032	80.000	19.996	103.242	19.992	4.406	0.468
176.000	160.282	79.999	19.997	103.224	19.994	4.251	0.490
176.500	160.533	80.001	19.997	103.212	19.991	4.437	0.504
177.000	160.793	80.000	19.997	103.203	19.991	4.441	0.506
177.500	160.990	80.000	19.996	103.202	19.994	4.205	0.484
178.000	161.255	80.000	19.996	103.210	19.996	4.096	0.459
178.500	161.513	80.000	19.995	103.224	19.994	4.251	0.492
179.000	161.735	80.000	19.996	103.235	19.993	4.318	0.501
179.500	161.984	79.999	19.996	103.243	19.992	4.408	0.475
180.000	162.232	80.000	19.996	103.248	19.996	4.108	0.484
180.500	162.466	80.000	19.996	103.254	19.992	4.392	0.490
181.000	162.714	80.000	19.996	103.259	19.996	4.070	0.482
181.500	162.953	80.002	19.996	103.259	19.994	4.215	0.485
182.001	163.236	79.999	19.996	103.259	19.994	4.209	0.504
182.501	163.489	80.000	19.997	103.260	19.991	4.449	0.529
183.000	163.710	80.001	19.996	103.260	19.993	4.306	0.505
183.500	163.941	80.003	19.996	103.259	19.992	4.402	0.463
184.000	164.231	80.001	19.995	103.261	19.994	4.215	0.487
184.501	164.467	80.001	19.996	103.262	19.997	3.995	0.523
185.000	164.714	79.999	19.996	103.262	19.994	4.259	0.504
185.500	164.971	80.002	19.997	103.263	19.995	4.191	0.493
186.000	165.208	80.001	19.996	103.264	19.994	4.237	0.499
186.500	165.454	80.001	19.996	103.263	19.990	4.497	0.489
187.000	165.708	80.000	19.995	103.262	19.994	4.199	0.492
187.500	165.974	79.998	19.995	103.261	20.000	3.818	0.510
188.000	166.200	80.002	19.996	103.261	19.991	4.449	0.506
188.500	166.446	80.001	19.995	103.260	19.993	4.298	0.482
189.000	166.728	80.000	19.993	103.261	19.989	4.634	0.500
189.500	166.956	79.999	19.997	103.261	19.991	4.426	0.519
190.000	167.204	80.003	19.997	103.260	19.995	4.120	0.493
190.500	167.434	80.000	19.996	103.261	19.989	4.576	0.477
191.000	167.685	80.000	19.997	103.261	19.994	4.213	0.480
191.500	167.959	80.001	19.996	103.261	19.992	4.358	0.503
192.000	168.192	80.000	19.996	103.261	19.993	4.301	0.516
192.501	168.452	80.001	19.997	103.261	19.994	4.257	0.500
193.000	168.716	80.002	19.995	103.261	19.996	4.072	0.508
193.500	168.948	80.001	19.995	103.261	19.999	3.870	0.510
194.000	169.198	80.002	19.994	103.261	19.997	4.031	0.489
194.500	169.427	80.002	19.994	103.261	19.997	4.039	0.481
195.000	169.750	80.001	19.995	103.262	19.998	3.919	0.515
195.500	169.958	79.998	19.994	103.262	19.996	4.050	0.541
196.000	170.200	79.999	19.997	103.262	19.993	4.299	0.491
196.500	170.466	80.000	19.996	103.262	19.993	4.283	0.479
197.000	170.711	80.001	19.995	103.261	19.995	4.152	0.510
197.500	170.979	80.001	19.996	103.261	19.993	4.334	0.512
198.000	171.221	80.000	19.994	103.262	19.993	4.310	0.511
198.500	171.505	79.998	19.995	103.262	19.995	4.179	0.518
199.000	171.738	80.001	19.995	103.262	19.993	4.336	0.521
199.500	171.948	80.001	19.995	103.262	19.994	4.251	0.480
200.000	172.202	79.999	19.995	103.262	19.996	4.094	0.453
200.500	172.466	80.001	19.995	103.263	19.994	4.255	0.491
201.000	172.731	80.000	19.996	103.263	19.998	3.961	0.524
201.500	172.984	80.001	19.994	103.263	19.997	3.991	0.524
202.000	173.214	80.002	19.995	103.264	19.997	4.030	0.500
202.500	173.479	80.002	19.996	103.264	20.002	3.673	0.489
203.000	173.735	80.001	19.995	103.263	19.996	4.110	0.508
203.500	173.980	80.002	19.994	103.264	19.998	3.917	0.511
204.000	174.220	80.002	19.995	103.264	19.997	4.018	0.493
204.500	174.472	80.001	19.994	103.264	19.997	3.979	0.489
205.000	174.726	80.001	19.995	103.264	19.997	4.026	0.499
205.500	174.971	80.002	19.994	103.264	20.000	3.794	0.503
206.000	175.266	80.001	19.994	103.264	19.995	4.191	0.520
206.500	175.502	80.002	19.995	103.263	19.997	4.034	0.535
207.000	175.744	80.002	19.994	103.263	19.994	4.235	0.505
207.500	176.047	80.003	19.995	103.262	19.997	3.989	0.511
208.000	176.272	80.002	19.995	103.262	19.997	4.032	0.536
208.501	176.541	80.001	19.995	103.261	19.995	4.151	0.511
209.000	176.780	80.002	19.996	103.262	19.992	4.358	0.501
209.500	177.011	80.004	19.995	103.261	19.997	3.988	0.489
210.000	177.299	80.004	19.995	103.261	19.995	4.191	0.494
210.500	177.557	80.002	19.996	103.260	19.998	3.963	0.532
211.000	177.770	80.003	19.994	103.259	19.996	4.072	0.508
211.500	178.041	80.003	19.995	103.258	19.997	4.026	0.478
212.000	178.302	80.002	19.995	103.256	19.995	4.167	0.508
212.500	178.549	80.004	19.995	103.255	19.997	4.014	0.520
213.000	178.789	80.003	19.995	103.255	19.994	4.207	0.498
213.500	179.066	80.003	19.995	103.255	19.995	4.183	0.502
214.000	179.339	80.002	19.996	103.255	19.997	3.986	0.534
214.500	179.580	80.003	19.996	103.256	19.998	3.906	0.532
215.000	179.824	80.002	19.994	103.256	19.997	4.039	0.500
215.500	180.082	80.005	19.994	103.254	19.995	4.137	0.494
216.000	180.305	80.002	19.995	103.255	20.001	3.684	0.491
216.500	180.603	80.003	19.995	103.255	19.996	4.051	0.501
217.000	180.800	80.003	19.994	103.256	19.992	4.355	0.508
217.500	181.084	80.001	19.994	103.256	19.997	4.000	0.488
218.000	181.326	80.003	19.995	103.257	20.000	3.756	0.504
218.500	181.589	80.003	19.995	103.257	19.994	4.236	0.516
219.001	181.823	80.002	19.995	103.253	20.001	3.749	0.501
219.500	182.103	80.002	19.995	103.253	20.002	3.674	0.506
220.000	182.349	80.004	19.995	103.253	19.997	4.027	0.520
220.500	182.612	80.002	19.994	103.252	19.996	4.052	0.517
221.000	182.831	80.002	19.996	103.252	19.997	4.028	0.496
221.500	183.085	80.003	19.996	103.256	19.999	3.838	0.478
222.000	183.336	80.003	19.997	103.255	19.997	4.015	0.489
222.500	183.591	80.003	19.999	103.256	19.998	3.922	0.505
223.000	183.861	80.004	19.997	103.257	19.997	4.007	0.515
223.500	184.086	80.002	19.998	103.254	19.999	3.850	0.510
224.000	184.312	80.003	19.997	103.250	19.999	3.826	0.473
224.500	184.579	80.002	19.995	103.246	19.999	3.831	0.472
225.000	184.885	80.004	19.995	103.239	20.000	3.753	0.533
225.500	185.088	80.001	19.995	103.233	19.998	3.969	0.540
226.000	185.343	80.003	19.996	103.231	19.999	3.886	0.483
226.500	185.602	80.003	19.995	103.234	19.995	4.183	0.486
227.000	185.904	80.003	19.996	103.233	19.999	3.884	0.537
227.500	186.146	80.004	19.995	103.237	20.001	3.725	0.553
228.000	186.418	80.004	19.994	103.238	19.996	4.046	0.529
228.500	186.656	80.005	19.995	103.237	19.996	4.047	0.512
229.000	186.893	80.005	19.995	103.232	19.996	4.076	0.492
229.500	187.150	80.004	19.995	103.229	19.994	4.205	0.484
230.000	187.415	80.003	19.995	103.223	19.999	3.825	0.508
230.500	187.676	80.006	19.995	103.216	19.997	3.989	0.525
231.000	187.925	80.004	19.994	103.210	20.000	3.813	0.518
231.500	188.150	80.004	19.994	103.208	19.998	3.944	0.492
232.000	188.396	80.003	19.994	103.209	19.996	4.065	0.473
232.500	188.658	80.004	19.995	103.210	19.998	3.965	0.490
233.001	188.911	80.005	19.994	103.213	19.996	4.075	0.511
233.500	189.177	80.003	19.994	103.216	19.999	3.838	0.517
234.000	189.430	80.004	19.994	103.217	20.001	3.749	0.519
234.500	189.632	80.003	19.995	103.217	19.994	4.199	0.487
235.000	189.892	80.004	19.995	103.218	19.998	3.949	0.459
235.500	190.161	80.003	19.994	103.219	19.999	3.856	0.496
236.000	190.414	80.004	19.995	103.218	19.994	4.249	0.525
236.500	190.643	80.003	19.995	103.215	19.999	3.870	0.502
237.000	190.909	80.004	19.996	103.209	20.002	3.622	0.489
237.500	191.124	80.005	19.995	103.209	20.001	3.727	0.488
238.000	191.392	80.005	19.995	103.208	20.002	3.627	0.482
238.500	191.644	80.003	19.996	103.208	19.996	4.087	0.502
239.000	191.877	80.002	19.996	103.211	20.001	3.692	0.502
239.500	192.132	80.002	19.995	103.217	19.998	3.932	0.487
240.000	192.374	80.002	19.995	103.217	20.001	3.682	0.492
240.500	192.619	80.000	19.995	103.218	19.999	3.851	0.492
241.000	192.858	80.001	19.995	103.219	20.002	3.623	0.486
241.500	193.105	80.002	19.995	103.218	20.000	3.811	0.486
242.000	193.385	80.003	19.994	103.218	20.000	3.768	0.507
242.500	193.621	80.001	19.996	103.218	19.996	4.051	0.521
243.000	193.845	79.999	19.996	103.217	20.003	3.579	0.488
243.500	194.086	80.002	19.995	103.218	19.998	3.934	0.463
244.000	194.338	80.002	19.995	103.220	20.002	3.643	0.479
244.500	194.639	80.000	19.996	103.217	20.004	3.512	0.523
245.000	194.871	80.001	19.995	103.216	20.005	3.405	0.543
245.500	195.085	80.003	19.996	103.217	20.001	3.726	0.490
246.000	195.333	80.002	19.994	103.218	20.002	3.657	0.454
246.500	195.570	80.000	19.995	103.217	20.001	3.731	0.474
247.000	195.814	80.001	19.995	103.219	20.000	3.797	0.483
247.500	196.066	80.000	19.997	103.220	20.003	3.600	0.488
248.000	196.299	80.000	19.995	103.214	20.000	3.789	0.491
248.500	196.537	80.000	19.994	103.206	20.002	3.638	0.478
249.000	196.812	79.999	19.995	103.198	20.000	3.799	0.492
249.500	197.035	80.001	19.995	103.191	20.003	3.553	0.506
250.000	197.290	80.000	19.995	103.185	20.002	3.662	0.488
250.500	197.529	80.000	19.994	103.183	19.999	3.896	0.486
251.000	197.746	80.001	19.994	103.183	19.999	3.829	0.475
251.500	198.064	80.000	19.994	103.183	19.996	4.057	0.496
252.000	198.246	80.001	19.995	103.183	19.999	3.845	0.518
252.500	198.550	80.001	19.996	103.184	20.002	3.674	0.493
253.000	198.759	80.000	19.994	103.184	20.002	3.618	0.499
253.500	199.010	80.000	19.995	103.183	20.001	3.702	0.487
254.000	199.237	80.004	19.995	103.181	20.000	3.781	0.470
254.500	199.522	80.001	19.995	103.181	19.995	4.186	0.495
255.000	199.706	79.999	19.996	103.181	19.999	3.884	0.490
255.500	199.983	80.001	19.994	103.180	20.000	3.799	0.465
256.000	200.229	80.001	19.997	103.182	19.998	3.922	0.492
256.500	200.459	79.999	19.998	103.190	20.002	3.638	0.499
257.000	200.683	80.001	19.995	103.197	20.002	3.676	0.465
257.500	200.964	80.000	19.995	103.205	20.001	3.690	0.480
258.000	201.205	80.002	19.997	103.213	19.999	3.878	0.514
258.500	201.440	80.000	19.995	103.220	20.000	3.811	0.499
259.000	201.712	80.001	19.996	103.222	19.993	4.265	0.492
259.500	201.919	80.001	19.996	103.223	19.999	3.880	0.493
260.000	202.190	80.001	19.995	103.223	19.999	3.837	0.478
260.500	202.401	80.002	19.996	103.222	19.998	3.906	0.480
261.000	202.677	80.000	19.996	103.222	20.000	3.805	0.484
261.500	202.866	79.998	19.996	103.222	20.001	3.694	0.476
262.000	203.140	80.002	19.996	103.221	19.998	3.938	0.464
262.500	203.387	80.002	19.995	103.221	20.000	3.805	0.492
263.000	203.635	80.000	19.996	103.222	19.998	3.958	0.508
263.500	203.853	80.001	19.995	103.222	20.001	3.717	0.481
264.000	204.119	80.000	19.996	103.221	20.001	3.700	0.475
264.500	204.392	80.001	19.995	103.222	20.002	3.636	0.512
265.000	204.616	80.000	19.996	103.223	20.001	3.688	0.519
265.500	204.828	80.003	19.995	103.222	20.000	3.791	0.467
266.000	205.076	80.000	19.995	103.223	20.002	3.618	0.448
266.500	205.325	80.001	19.995	103.224	20.001	3.737	0.478
267.000	205.622	80.001	19.997	103.223	20.001	3.696	0.521
267.500	205.788	80.000	19.996	103.224	20.004	3.529	0.505
268.000	206.047	80.001	19.996	103.224	20.003	3.575	0.445
268.500	206.339	80.001	19.996	103.224	19.999	3.844	0.488
269.000	206.559	80.001	19.996	103.223	20.003	3.602	0.531
269.500	206.809	79.999	19.997	103.223	19.999	3.890	0.491
270.000	207.044	80.001	19.996	103.223	20.003	3.589	0.477
270.500	207.305	79.998	19.995	103.223	20.001	3.680	0.490
271.000	207.542	79.999	19.996	103.222	20.003	3.593	0.497
271.500	207.819	79.999	19.997	103.223	20.004	3.513	0.506
272.000	208.012	79.999	19.996	103.222	20.001	3.690	0.492
272.500	208.265	80.001	19.997	103.222	19.998	3.914	0.458
273.000	208.507	80.001	19.996	103.221	20.002	3.614	0.470
273.500	208.784	79.999	19.997	103.221	20.004	3.509	0.507
274.000	209.004	80.000	19.995	103.220	20.001	3.713	0.508
274.500	209.253	80.001	19.996	103.220	20.002	3.624	0.483
275.000	209.510	80.001	19.996	103.220	20.002	3.612	0.488
275.500	209.757	80.000	19.997	103.220	20.002	3.648	0.505
276.000	209.980	80.001	19.996	103.220	20.004	3.519	0.487
276.500	210.246	80.001	19.996	103.219	20.002	3.644	0.480
277.000	210.494	80.002	19.995	103.220	20.003	3.557	0.502
277.500	210.699	80.000	19.995	103.220	19.999	3.884	0.483
278.000	210.964	80.002	19.995	103.220	20.003	3.602	0.461
278.500	211.220	79.999	19.996	103.221	20.000	3.805	0.496
279.000	211.451	80.001	19.996	103.221	20.002	3.610	0.505
279.500	211.700	80.001	19.996	103.221	19.999	3.872	0.484
280.000	211.936	80.001	19.996	103.221	20.002	3.632	0.482
280.500	212.192	80.001	19.995	103.221	19.998	3.912	0.488
281.000	212.456	80.000	19.996	103.220	20.001	3.721	0.506
281.500	212.690	80.000	19.996	103.221	20.001	3.702	0.509
282.000	212.955	80.000	19.994	103.220	20.001	3.703	0.498
282.500	213.182	80.002	19.995	103.220	20.002	3.652	0.495
283.000	213.412	80.003	19.994	103.218	20.004	3.521	0.475
283.500	213.661	80.001	19.995	103.218	20.002	3.672	0.468
284.000	213.871	80.001	19.995	103.218	20.000	3.771	0.469
284.500	214.153	80.002	19.995	103.217	20.002	3.614	0.475
285.000	214.397	80.002	19.995	103.217	19.998	3.906	0.509
285.500	214.634	80.000	19.995	103.219	20.002	3.650	0.504
286.000	214.901	80.003	19.995	103.219	20.003	3.537	0.492
286.500	215.127	80.002	19.996	103.218	20.001	3.719	0.498
287.000	215.371	80.004	19.994	103.218	19.997	3.971	0.481
287.500	215.616	80.003	19.995	103.219	20.007	3.293	0.480
288.000	215.884	80.002	19.996	103.218	20.005	3.440	0.502
288.500	216.080	80.003	19.997	103.218	20.003	3.575	0.489
289.000	216.361	80.004	19.995	103.218	19.999	3.892	0.470
289.500	216.610	80.003	19.996	103.219	20.003	3.565	0.503
290.000	216.853	80.002	19.995	103.219	19.998	3.940	0.511
290.500	217.090	80.004	19.994	103.219	20.005	3.452	0.486
291.000	217.332	80.004	19.994	103.220	20.001	3.707	0.480
291.500	217.599	80.001	19.995	103.219	20.001	3.715	0.494
292.000	217.842	80.002	19.995	103.218	20.003	3.537	0.509
292.500	218.050	80.001	19.996	103.218	20.000	3.781	0.480
293.000	218.293	80.004	19.994	103.217	20.005	3.436	0.451
293.500	218.553	80.002	19.994	103.217	20.003	3.547	0.477
294.000	218.783	80.005	19.995	103.217	20.005	3.434	0.496
294.500	219.050	80.003	19.995	103.219	20.000	3.759	0.493
295.000	219.295	80.003	19.995	103.218	19.999	3.886	0.505
295.500	219.526	80.003	19.995	103.219	20.005	3.414	0.494
296.000	219.789	80.004	19.995	103.218	20.001	3.696	0.485
296.500	220.028	80.000	19.995	103.218	20.000	3.823	0.498
297.000	220.266	80.002	19.995	103.217	20.005	3.400	0.489
297.500	220.508	80.004	19.995	103.218	20.007	3.287	0.479
298.000	220.785	80.001	19.996	103.218	20.002	3.670	0.500
298.500	220.998	80.002	19.995	103.218	20.006	3.356	0.504
299.000	221.260	80.004	19.995	103.218	20.004	3.529	0.482
299.500	221.494	80.003	19.996	103.218	20.003	3.573	0.486
300.000	221.745	80.005	19.995	103.217	20.008	3.218	0.491
300.500	221.961	80.002	19.996	103.217	20.006	3.335	0.476
301.000	222.221	80.002	19.995	103.217	20.005	3.420	0.471
301.500	222.457	80.003	19.995	103.217	20.006	3.372	0.486
302.000	222.710	80.000	19.994	103.217	20.004	3.509	0.493
302.500	222.967	80.002	19.995	103.217	20.005	3.396	0.500
303.001	223.199	80.003	19.994	103.217	20.006	3.349	0.500
303.501	223.489	80.001	19.994	103.218	20.001	3.690	0.505
304.001	223.681	80.003	19.996	103.218	20.005	3.406	0.502
304.500	223.926	80.002	19.995	103.218	20.006	3.372	0.459
305.000	224.183	80.002	19.995	103.218	20.003	3.567	0.469
305.500	224.389	80.003	19.996	103.219	20.004	3.478	0.482
306.000	224.676	80.001	19.994	103.219	20.004	3.505	0.478
306.500	224.914	80.003	19.994	103.219	20.005	3.406	0.509
307.000	225.185	80.004	19.995	103.218	20.001	3.690	0.517
307.500	225.446	80.003	19.995	103.218	20.005	3.394	0.521
308.000	225.658	80.004	19.994	103.218	20.004	3.517	0.503
308.500	225.852	80.005	19.995	103.218	19.999	3.872	0.440
309.001	226.132	80.004	19.995	103.218	20.001	3.735	0.440
309.500	226.359	80.004	19.995	103.221	19.998	3.962	0.490
310.000	226.614	80.003	19.994	103.222	20.000	3.819	0.494
310.500	226.844	80.005	19.995	103.222	20.004	3.507	0.484
311.000	227.093	80.003	19.995	103.223	20.003	3.575	0.482
311.501	227.337	80.006	19.994	103.223	19.998	3.954	0.487
312.000	227.599	80.002	19.996	103.222	20.002	3.664	0.500
312.500	227.815	80.005	19.994	103.221	20.004	3.495	0.492
313.000	228.089	80.004	19.995	103.221	20.004	3.464	0.484
313.501	228.325	80.005	19.995	103.221	20.001	3.692	0.500
314.000	228.620	80.004	19.994	103.221	20.004	3.481	0.521
314.500	228.850	80.004	19.995	103.220	20.005	3.454	0.528
315.000	229.087	80.004	19.994	103.221	20.003	3.549	0.496
315.500	229.333	80.003	19.993	103.222	19.999	3.853	0.475
316.000	229.586	80.003	19.995	103.222	19.998	3.914	0.491
316.500	229.855	80.004	19.995	103.222	20.004	3.503	0.510
317.001	230.044	80.002	19.994	103.223	20.000	3.765	0.490
317.500	230.300	80.004	19.994	103.222	20.001	3.720	0.452
318.000	230.556	80.004	19.995	103.221	20.003	3.543	0.479
318.500	230.787	80.005	19.996	103.221	20.001	3.684	0.500
319.000	231.022	80.003	19.994	103.222	20.001	3.718	0.477
319.500	231.257	80.002	19.994	103.221	20.001	3.714	0.468
320.000	231.515	80.002	19.994	103.222	20.000	3.767	0.481
320.500	231.774	80.002	19.995	103.221	20.001	3.727	0.505
321.000	231.984	80.002	19.996	103.221	20.003	3.531	0.493
321.500	232.260	80.001	19.995	103.221	20.002	3.604	0.477
322.000	232.469	80.000	19.994	103.221	20.001	3.680	0.486
322.500	232.700	80.001	19.993	103.221	20.003	3.589	0.463
323.000	232.935	80.000	19.994	103.221	20.003	3.543	0.453
323.500	233.191	80.001	19.996	103.221	20.000	3.787	0.478
324.000	233.433	80.001	19.995	103.221	20.002	3.622	0.494
324.500	233.671	80.001	19.995	103.222	20.001	3.686	0.489
325.000	233.942	80.001	19.994	103.222	20.000	3.813	0.495
325.500	234.178	79.999	19.994	103.223	20.004	3.507	0.508
326.000	234.414	80.001	19.996	103.223	20.005	3.436	0.489
326.500	234.659	80.000	19.996	103.224	20.002	3.674	0.476
327.000	234.924	80.000	19.996	103.223	20.001	3.723	0.495
327.500	235.142	80.000	19.994	103.223	20.002	3.650	0.497
328.000	235.428	80.001	19.995	103.221	19.998	3.953	0.494
328.500	235.655	80.001	19.995	103.222	19.998	3.914	0.509
329.000	235.874	80.001	19.995	103.221	20.003	3.592	0.480
329.500	236.119	79.998	19.994	103.222	20.002	3.638	0.455
330.000	236.371	80.001	19.996	103.221	20.001	3.682	0.481
330.500	236.637	79.998	19.996	103.221	20.003	3.579	0.508
331.000	236.851	80.001	19.995	103.220	19.997	3.987	0.499
331.500	237.106	80.001	19.995	103.219	19.997	4.029	0.475
332.000	237.355	80.002	19.995	103.219	20.003	3.535	0.487
332.500	237.610	79.999	19.996	103.220	20.003	3.575	0.504
333.000	237.834	80.000	19.994	103.221	19.996	4.049	0.491
333.500	238.083	79.999	19.995	103.219	20.000	3.783	0.476
334.000	238.310	80.002	19.994	103.217	20.000	3.805	0.474
334.500	238.567	80.002	19.995	103.217	20.000	3.813	0.480
335.000	238.820	80.001	19.996	103.217	19.999	3.864	0.497
335.500	239.057	80.000	19.995	103.217	20.001	3.729	0.500
336.000	239.292	80.001	19.995	103.219	20.000	3.805	0.481
336.500	239.512	80.003	19.996	103.222	20.005	3.420	0.463
337.000	239.774	80.002	19.996	103.221	20.001	3.696	0.469
337.500	239.990	80.004	19.995	103.220	20.000	3.773	0.480
338.000	240.299	80.000	19.995	103.220	19.999	3.834	0.502
338.500	240.511	80.002	19.994	103.219	19.996	4.060	0.523
339.000	240.751	80.002	19.994	103.218	20.000	3.783	0.487
339.500	241.013	80.002	19.996	103.218	20.002	3.662	0.477
340.000	241.241	80.001	19.995	103.218	20.000	3.803	0.496
340.500	241.462	80.002	19.995	103.217	20.001	3.703	0.470
341.000	241.733	80.002	19.996	103.218	20.002	3.662	0.471
341.500	241.940	80.001	19.995	103.218	19.996	4.066	0.485
342.000	242.228	80.001	19.995	103.218	19.997	3.977	0.486
342.500	242.465	80.002	19.996	103.218	19.999	3.880	0.510
343.000	242.747	80.004	19.995	103.218	20.000	3.759	0.522
343.500	242.988	80.002	19.994	103.217	20.003	3.541	0.521
344.000	243.232	80.002	19.996	103.217	19.998	3.916	0.504
344.500	243.488	80.002	19.994	103.216	19.992	4.394	0.492
345.000	243.728	80.001	19.995	103.216	19.997	4.005	0.498
345.500	243.965	80.000	19.995	103.216	19.997	3.987	0.486
346.000	244.221	80.001	19.995	103.217	19.997	4.000	0.485
346.500	244.456	80.001	19.995	103.217	19.999	3.877	0.492
347.000	244.731	80.004	19.996	103.217	19.997	3.998	0.501
347.500	244.972	80.001	19.996	103.217	19.996	4.075	0.513
348.000	245.231	80.002	19.995	103.217	19.996	4.064	0.508
348.500	245.492	80.001	19.996	103.213	19.997	3.976	0.510
349.000	245.695	80.000	19.995	103.211	19.995	4.133	0.492
349.500	245.928	80.000	19.996	103.210	19.998	3.901	0.450
350.000	246.233	80.001	19.996	103.209	19.999	3.845	0.488
350.500	246.434	79.999	19.996	103.210	19.998	3.924	0.522
351.000	246.699	80.001	19.996	103.214	20.003	3.591	0.486
351.500	246.994	80.000	19.996	103.217	19.999	3.823	0.513
352.000	247.195	80.001	19.996	103.216	19.995	4.150	0.528
352.500	247.450	80.001	19.996	103.215	19.994	4.190	0.476
353.000	247.690	80.000	19.996	103.214	19.998	3.942	0.475
353.500	247.933	80.001	19.997	103.213	19.998	3.912	0.489
354.000	248.204	79.999	19.996	103.212	19.994	4.246	0.499
354.500	248.481	79.998	19.995	103.211	19.995	4.131	0.531
355.000	248.677	80.000	19.996	103.214	19.993	4.311	0.511
355.500	248.953	79.999	19.995	103.211	19.995	4.166	0.473
356.000	249.194	79.999	19.997	103.209	19.999	3.893	0.494
356.500	249.474	80.000	19.997	103.206	19.995	4.127	0.519
357.000	249.732	80.002	19.996	103.200	19.997	4.014	0.530
357.500	249.992	79.999	19.996	103.195	19.994	4.255	0.528
358.000	250.247	80.000	19.996	103.195	19.996	4.063	0.516
358.500	250.514	80.001	19.997	103.191	19.996	4.099	0.518
359.000	250.775	80.000	19.996	103.191	19.999	3.851	0.525
359.500	251.009	80.001	19.996	103.195	19.998	3.952	0.511
360.000	251.259	80.001	19.997	103.194	19.997	4.033	0.489
360.500	251.509	80.001	19.996	103.189	19.997	4.000	0.492
361.000	251.782	80.001	19.996	103.189	19.997	3.984	0.511
361.500	252.041	80.000	19.996	103.185	19.993	4.327	0.527
362.000	252.281	80.000	19.996	103.181	19.997	4.017	0.516
362.500	252.521	80.001	19.996	103.182	19.995	4.131	0.490
363.000	252.791	79.999	19.997	103.183	19.998	3.944	0.495
363.500	253.035	79.999	19.995	103.182	19.998	3.934	0.512
364.000	253.281	80.002	19.996	103.182	19.997	4.018	0.502
364.500	253.560	80.002	19.996	103.183	19.994	4.208	0.508
365.000	253.815	80.001	19.996	103.182	20.000	3.786	0.529
365.500	254.023	80.000	19.995	103.182	19.994	4.234	0.498
366.000	254.325	80.002	19.996	103.183	19.997	4.025	0.486
366.500	254.562	80.003	19.996	103.182	19.997	3.972	0.525
367.000	254.778	80.003	19.996	103.181	19.998	3.911	0.497
367.500	255.089	80.003	19.995	103.181	19.994	4.206	0.490
368.000	255.291	80.002	19.996	103.181	19.995	4.145	0.520
368.500	255.593	80.003	19.995	103.181	19.996	4.085	0.508
369.000	255.817	80.003	19.995	103.181	19.992	4.369	0.515
369.500	256.122	80.001	19.995	103.180	19.994	4.216	0.528
370.000	256.354	80.001	19.994	103.180	19.996	4.093	0.532
370.500	256.606	80.001	19.995	103.179	19.993	4.265	0.510
371.000	256.823	80.001	19.994	103.179	19.990	4.555	0.477
371.500	257.095	80.002	19.995	103.179	19.996	4.077	0.479
372.000	257.339	80.003	19.995	103.179	19.992	4.392	0.502
372.500	257.626	80.002	19.994	103.180	19.994	4.244	0.524
373.000	257.885	80.002	19.994	103.181	19.992	4.349	0.539
373.500	258.131	80.003	19.995	103.181	19.991	4.432	0.526
374.000	258.391	80.002	19.995	103.182	19.989	4.581	0.506
374.500	258.679	80.001	19.994	103.183	19.992	4.402	0.527
375.000	258.915	80.002	19.995	103.182	19.990	4.547	0.536
375.500	259.191	80.001	19.994	103.183	19.988	4.680	0.518
376.000	259.442	80.003	19.996	103.183	19.993	4.273	0.519
376.500	259.678	80.002	19.995	103.182	19.994	4.244	0.507
377.000	259.932	80.000	19.995	103.183	19.990	4.499	0.489
377.500	260.190	80.002	19.997	103.184	19.994	4.220	0.502
378.000	260.434	79.999	19.995	103.184	19.993	4.323	0.507
378.500	260.697	80.002	19.996	103.184	19.993	4.271	0.504
379.000	260.943	80.001	19.996	103.184	19.991	4.414	0.508
379.500	261.206	80.000	19.996	103.184	19.995	4.132	0.509
380.000	261.458	80.001	19.996	103.184	19.992	4.398	0.512
380.500	261.716	80.000	19.995	103.183	19.995	4.134	0.512
381.000	261.987	80.002	19.996	103.184	19.994	4.192	0.520
381.500	262.196	80.001	19.995	103.184	19.991	4.434	0.505
382.000	262.445	80.003	19.995	103.183	19.992	4.380	0.469
382.500	262.691	80.001	19.995	103.183	19.993	4.323	0.476
383.000	262.973	80.003	19.994	103.183	19.994	4.200	0.512
383.500	263.221	80.000	19.994	103.182	19.993	4.265	0.529
384.000	263.477	80.000	19.994	103.181	19.993	4.273	0.517
384.500	263.727	80.002	19.995	103.181	19.993	4.293	0.505
385.001	263.969	80.002	19.994	103.181	19.993	4.305	0.499
385.500	264.247	80.002	19.995	103.180	19.994	4.261	0.506
386.000	264.454	80.001	19.994	103.181	19.995	4.188	0.502
386.501	264.750	80.001	19.995	103.181	19.992	4.352	0.494
387.000	265.019	80.002	19.995	103.181	19.992	4.370	0.534
387.500	265.287	80.002	19.995	103.181	19.995	4.184	0.551
388.000	265.491	80.002	19.994	103.180	19.992	4.364	0.505
388.500	265.754	80.002	19.995	103.179	19.993	4.263	0.470
389.000	266.017	80.004	19.994	103.177	19.994	4.247	0.497
389.500	266.244	80.002	19.995	103.178	19.992	4.398	0.509
390.000	266.513	80.003	19.995	103.177	19.994	4.204	0.493
390.501	266.796	80.002	19.995	103.178	19.994	4.214	0.524
391.000	267.002	80.001	19.995	103.178	19.992	4.354	0.520
391.500	267.316	80.004	19.995	103.179	19.990	4.505	0.505
392.000	267.551	80.004	19.994	103.178	19.994	4.218	0.535
392.500	267.823	80.003	19.994	103.178	19.994	4.259	0.528
393.000	268.087	80.003	19.995	103.178	19.992	4.343	0.521
393.500	268.331	80.002	19.994	103.179	19.995	4.156	0.522
394.000	268.563	80.002	19.994	103.180	19.995	4.140	0.492
394.501	268.838	80.004	19.994	103.180	19.993	4.337	0.491
395.000	269.074	80.003	19.994	103.180	19.990	4.507	0.510
395.500	269.338	80.003	19.994	103.181	19.991	4.436	0.505
396.000	269.599	80.005	19.993	103.181	19.991	4.441	0.512
396.500	269.872	80.004	19.994	103.178	19.991	4.473	0.530
397.000	270.155	80.003	19.994	103.176	19.990	4.549	0.545
397.500	270.380	80.003	19.994	103.176	19.992	4.354	0.532
398.000	270.671	80.003	19.994	103.176	19.989	4.598	0.512
398.500	270.910	80.002	19.995	103.173	19.993	4.336	0.523
399.000	271.156	80.003	19.994	103.177	19.993	4.334	0.508
399.500	271.409	80.002	19.994	103.178	19.989	4.620	0.492
400.000	271.675	80.004	19.993	103.177	19.992	4.388	0.509
400.500	271.960	80.001	19.995	103.176	19.990	4.549	0.535
401.000	272.219	80.003	19.995	103.177	19.995	4.176	0.547
401.500	272.456	80.002	19.994	103.175	19.990	4.491	0.520
402.000	272.726	80.003	19.995	103.174	19.994	4.225	0.502
402.500	272.965	80.001	19.995	103.174	19.993	4.263	0.508
403.000	273.204	80.001	19.995	103.175	19.991	4.425	0.493
403.500	273.487	80.001	19.995	103.175	19.988	4.667	0.500
404.000	273.726	80.001	19.994	103.176	19.994	4.193	0.522
404.500	273.974	80.000	19.994	103.178	19.990	4.540	0.504
405.000	274.208	80.003	19.995	103.178	19.992	4.348	0.484
405.500	274.478	80.002	19.994	103.175	19.991	4.428	0.493
406.000	274.752	80.001	19.995	103.173	19.989	4.570	0.524
406.500	275.001	80.001	19.995	103.173	19.988	4.699	0.533
407.000	275.250	80.002	19.994	103.173	19.994	4.221	0.511
407.500	275.504	80.001	19.994	103.171	19.991	4.417	0.501
408.000	275.742	80.002	19.996	103.172	19.992	4.346	0.498
408.500	276.006	80.002	19.994	103.172	19.995	4.116	0.497
409.000	276.246	80.000	19.995	103.168	19.992	4.346	0.503
409.500	276.494	80.001	19.994	103.168	19.992	4.374	0.496
410.000	276.745	80.002	19.996	103.170	19.989	4.610	0.494
410.500	277.011	80.000	19.994	103.172	19.990	4.553	0.508
411.001	277.266	80.001	19.995	103.171	19.991	4.412	0.519
411.501	277.496	80.002	19.995	103.174	19.992	4.350	0.503
412.000	277.774	80.001	19.995	103.172	19.992	4.372	0.496
412.500	278.006	80.001	19.995	103.172	19.991	4.415	0.509
413.000	278.276	80.001	19.996	103.171	19.993	4.312	0.506
413.500	278.509	80.002	19.996	103.168	19.986	4.786	0.503
414.000	278.780	80.002	19.994	103.165	19.992	4.400	0.504
414.500	278.994	80.002	19.995	103.165	19.988	4.701	0.494
415.000	279.290	80.001	19.995	103.164	19.990	4.523	0.498
415.500	279.559	80.002	19.995	103.164	19.989	4.574	0.538
416.000	279.813	80.002	19.996	103.170	19.988	4.661	0.544
416.500	280.068	80.001	19.995	103.173	19.989	4.578	0.516
417.000	280.280	80.001	19.996	103.171	19.988	4.672	0.488
417.500	280.548	80.002	19.995	103.165	19.990	4.543	0.473
418.000	280.799	80.000	19.995	103.163	19.983	5.025	0.499
418.500	281.026	80.002	19.996	103.162	19.987	4.765	0.499
419.000	281.297	80.001	19.995	103.164	19.987	4.739	0.488
419.500	281.510	80.000	19.996	103.167	19.992	4.362	0.491
420.000	281.798	80.001	19.996	103.174	19.987	4.715	0.493
420.500	282.005	80.000	19.996	103.176	19.992	4.390	0.498
421.000	282.243	80.001	19.995	103.175	19.990	4.539	0.470
421.500	282.535	80.002	19.996	103.174	19.988	4.636	0.488
422.000	282.787	80.000	19.996	103.171	19.987	4.739	0.537
422.500	283.055	80.001	19.996	103.171	19.986	4.814	0.532
423.000	283.274	80.002	19.996	103.167	19.989	4.610	0.504
423.500	283.516	80.000	19.996	103.166	19.990	4.553	0.474
424.000	283.774	80.001	19.995	103.168	19.989	4.588	0.480
424.500	284.025	80.002	19.996	103.169	19.992	4.362	0.505
425.000	284.275	80.001	19.997	103.168	19.991	4.434	0.505
425.500	284.524	80.000	19.996	103.168	19.987	4.769	0.500
426.000	284.799	80.000	19.996	103.170	19.990	4.551	0.511
426.500	285.042	80.001	19.995	103.169	19.989	4.579	0.521
427.000	285.306	80.001	19.996	103.171	19.988	4.648	0.513
427.500	285.517	80.001	19.996	103.171	19.987	4.773	0.491
428.000	285.741	80.001	19.996	103.174	19.988	4.650	0.455
428.500	286.028	80.002	19.996	103.174	19.986	4.846	0.472
429.000	286.284	80.002	19.995	103.174	19.989	4.610	0.527
429.500	286.506	80.002	19.996	103.172	19.989	4.610	0.511
430.000	286.789	80.000	19.995	103.170	19.990	4.529	0.492
430.500	287.028	80.000	19.996	103.169	19.989	4.622	0.513
431.000	287.246	80.001	19.997	103.169	19.989	4.587	0.489
431.500	287.542	80.001	19.996	103.168	19.990	4.493	0.485
432.000	287.754	80.000	19.995	103.170	19.989	4.620	0.511
432.500	287.990	80.002	19.996	103.175	19.987	4.707	0.478
433.000	288.248	80.001	19.996	103.177	19.992	4.362	0.471
433.500	288.549	80.001	19.996	103.175	19.987	4.745	0.526
434.000	288.762	80.001	19.995	103.175	19.987	4.777	0.536
434.500	289.018	80.001	19.995	103.175	19.986	4.811	0.492
435.000	289.267	80.001	19.996	103.175	19.988	4.632	0.487
435.500	289.499	80.001	19.995	103.176	19.989	4.576	0.493
436.000	289.766	80.000	19.995	103.180	19.985	4.876	0.490
436.501	289.980	80.001	19.996	103.180	19.982	5.132	0.490
437.000	290.251	80.000	19.995	103.181	19.981	5.205	0.483
437.500	290.508	79.999	19.996	103.181	19.986	4.792	0.506
438.001	290.763	79.999	19.994	103.181	19.981	5.147	0.520
438.500	290.990	80.000	19.996	103.182	19.982	5.115	0.497
439.000	291.262	80.002	19.995	103.183	19.982	5.133	0.491
439.500	291.475	79.999	19.995	103.182	19.981	5.149	0.492
440.000	291.722	80.001	19.996	103.183	19.984	4.927	0.473
440.501	292.054	80.000	19.996	103.182	19.987	4.751	0.519
441.001	292.267	80.000	19.997	103.183	19.984	4.925	0.562
441.500	292.537	80.000	19.995	103.183	19.983	5.064	0.514
442.000	292.752	80.000	19.995	103.183	19.984	4.927	0.484
442.500	292.979	80.001	19.995	103.182	19.983	5.060	0.464
443.000	293.240	80.002	19.996	103.179	19.988	4.651	0.465
443.500	293.464	80.000	19.995	103.177	19.984	4.974	0.486
444.000	293.724	80.000	19.996	103.177	19.984	4.977	0.484
444.500	293.997	80.003	19.995	103.177	19.979	5.298	0.509
445.000	294.209	80.001	19.995	103.176	19.984	4.953	0.509
445.500	294.459	80.001	19.997	103.178	19.985	4.866	0.473
446.000	294.733	80.002	19.996	103.178	19.984	4.955	0.493
446.500	294.951	80.001	19.995	103.176	19.981	5.173	0.509
447.000	295.205	80.002	19.996	103.172	19.984	4.939	0.482
447.500	295.461	80.002	19.995	103.173	19.982	5.108	0.490
448.000	295.666	80.001	19.995	103.167	19.980	5.249	0.485
448.500	295.950	80.003	19.996	103.166	19.982	5.072	0.475
449.000	296.168	80.002	19.996	103.166	19.983	5.015	0.495
449.500	296.404	80.002	19.997	103.164	19.982	5.122	0.478
450.000	296.649	80.004	19.995	103.163	19.982	5.098	0.468
450.500	296.863	80.003	19.996	103.167	19.984	4.983	0.470
451.000	297.121	80.003	19.996	103.168	19.981	5.150	0.465
451.500	297.364	80.003	19.995	103.168	19.981	5.191	0.487
452.000	297.579	80.002	19.996	103.174	19.985	4.916	0.480
452.500	297.824	80.001	19.996	103.173	19.985	4.856	0.459
453.000	298.078	80.002	19.996	103.168	19.984	4.961	0.479
453.500	298.324	80.002	19.996	103.164	19.984	4.943	0.499
454.000	298.573	80.002	19.996	103.162	19.984	4.957	0.498
454.500	298.790	80.001	19.996	103.163	19.982	5.106	0.481
455.000	299.049	80.002	19.995	103.166	19.982	5.118	0.471
455.500	299.313	80.003	19.996	103.173	19.984	4.979	0.499
456.000	299.547	80.000	19.996	103.177	19.981	5.162	0.511
456.500	299.774	79.999	19.995	103.179	19.981	5.187	0.480
457.000	300.013	80.001	19.995	103.178	19.981	5.215	0.464
457.500	300.255	80.001	19.995	103.179	19.979	5.314	0.473
458.000	300.471	80.001	19.995	103.179	19.982	5.134	0.469
458.500	300.736	80.002	19.995	103.180	19.980	5.251	0.469
459.000	300.936	80.001	19.996	103.178	19.980	5.227	0.473
459.500	301.176	80.001	19.995	103.178	19.981	5.177	0.452
460.000	301.485	80.002	19.995	103.177	19.981	5.163	0.495
460.500	301.661	80.000	19.996	103.176	19.980	5.254	0.517
461.000	301.932	80.001	19.994	103.177	19.984	4.949	0.466
461.500	302.206	80.003	19.994	103.179	19.977	5.473	0.496
462.000	302.394	80.001	19.995	103.181	19.982	5.106	0.504
462.500	302.678	80.002	19.995	103.181	19.981	5.175	0.467
463.000	302.890	80.002	19.996	103.184	19.978	5.370	0.484
463.500	303.138	80.002	19.994	103.181	19.978	5.384	0.478
464.000	303.376	80.001	19.994	103.179	19.979	5.348	0.473
464.500	303.597	80.002	19.996	103.178	19.979	5.328	0.472
465.000	303.845	80.002	19.995	103.179	19.979	5.310	0.464
465.500	304.101	80.002	19.995	103.178	19.979	5.360	0.487
466.000	304.364	80.004	19.995	103.181	19.974	5.675	0.512
466.500	304.617	80.002	19.994	103.182	19.975	5.606	0.517
467.000	304.860	80.004	19.996	103.181	19.973	5.768	0.506
467.500	305.092	80.003	19.994	103.181	19.975	5.598	0.485
468.000	305.345	80.003	19.995	103.181	19.976	5.556	0.480
468.500	305.584	80.004	19.995	103.181	19.974	5.683	0.489
469.000	305.836	80.002	19.994	103.181	19.969	6.074	0.491
469.500	306.098	80.004	19.994	103.178	19.972	5.822	0.502
470.000	306.340	80.004	19.994	103.178	19.973	5.786	0.509
470.500	306.570	80.004	19.995	103.177	19.973	5.782	0.488
471.000	306.798	80.005	19.995	103.175	19.971	5.891	0.465
471.500	307.059	80.005	19.994	103.172	19.974	5.714	0.474
472.000	307.301	80.003	19.994	103.174	19.974	5.691	0.496
472.500	307.571	80.004	19.994	103.174	19.974	5.683	0.508
473.000	307.793	80.004	19.996	103.175	19.974	5.701	0.502
473.500	308.050	80.005	19.995	103.176	19.973	5.792	0.485
474.000	308.275	80.006	19.995	103.179	19.970	5.994	0.481
474.500	308.539	80.003	19.995	103.180	19.974	5.683	0.486
475.000	308.776	80.005	19.994	103.179	19.976	5.574	0.496
475.500	309.047	80.003	19.995	103.179	19.972	5.841	0.505
476.000	309.310	80.003	19.995	103.179	19.969	6.030	0.521
476.500	309.519	80.005	19.994	103.179	19.971	5.923	0.503
477.000	309.803	80.004	19.995	103.179	19.972	5.814	0.482
477.500	310.048	80.004	19.994	103.180	19.966	6.266	0.511
478.000	310.287	80.005	19.994	103.179	19.970	5.957	0.506
478.500	310.558	80.003	19.995	103.179	19.972	5.865	0.497
479.000	310.798	80.005	19.995	103.179	19.968	6.117	0.511
479.500	311.037	80.003	19.995	103.179	19.969	6.074	0.495
480.000	311.271	80.004	19.995	103.179	19.969	6.038	0.476
480.500	311.534	80.005	19.995	103.178	19.969	6.095	0.484
481.000	311.798	80.003	19.995	103.177	19.965	6.339	0.512
481.500	312.036	80.002	19.994	103.175	19.969	6.046	0.515
482.000	312.285	80.002	19.996	103.174	19.969	6.067	0.495
482.500	312.527	80.002	19.994	103.174	19.969	6.079	0.489
483.000	312.752	80.002	19.996	103.175	19.966	6.281	0.479
483.500	313.019	80.003	19.995	103.175	19.970	5.957	0.480
484.000	313.307	80.001	19.995	103.177	19.969	6.042	0.524
484.500	313.553	80.002	19.996	103.174	19.969	6.086	0.545
485.000	313.793	80.002	19.994	103.174	19.970	6.019	0.509
485.500	314.048	80.001	19.995	103.172	19.967	6.239	0.490
486.000	314.291	80.001	19.996	103.170	19.966	6.263	0.497
486.500	314.583	80.000	19.995	103.171	19.968	6.109	0.517
487.000	314.824	80.003	19.995	103.174	19.965	6.373	0.534
487.500	315.059	80.003	19.995	103.176	19.965	6.327	0.505
488.000	315.296	80.001	19.994	103.177	19.966	6.315	0.474
488.500	315.592	80.001	19.995	103.180	19.965	6.337	0.502
489.000	315.831	80.002	19.995	103.180	19.964	6.460	0.534
489.500	316.106	80.003	19.995	103.179	19.962	6.553	0.525
490.000	316.312	80.004	19.995	103.177	19.965	6.335	0.497
490.500	316.572	80.001	19.995	103.177	19.966	6.311	0.473
491.000	316.794	80.002	19.995	103.177	19.964	6.397	0.473
491.500	317.055	80.003	19.995	103.176	19.964	6.440	0.482
492.000	317.266	80.002	19.995	103.175	19.966	6.295	0.477
492.500	317.564	80.002	19.996	103.175	19.965	6.367	0.491
493.000	317.817	80.002	19.996	103.170	19.967	6.222	0.530
493.500	318.045	80.001	19.994	103.166	19.962	6.569	0.516
494.000	318.313	80.002	19.995	103.162	19.961	6.655	0.489
494.500	318.536	80.002	19.995	103.157	19.967	6.240	0.494
495.000	318.795	80.002	19.994	103.152	19.964	6.439	0.486
495.500	319.040	80.002	19.995	103.154	19.962	6.579	0.492
496.000	319.290	80.002	19.995	103.157	19.960	6.696	0.499
496.500	319.527	80.001	19.995	103.160	19.963	6.539	0.492
497.000	319.787	80.001	19.995	103.166	19.964	6.433	0.493
497.500	320.045	80.003	19.994	103.173	19.968	6.173	0.507
498.000	320.292	80.002	19.995	103.173	19.963	6.522	0.511
498.500	320.554	80.001	19.995	103.175	19.963	6.523	0.507
499.000	320.777	80.002	19.995	103.177	19.963	6.490	0.497
499.500	321.059	80.003	19.995	103.177	19.962	6.581	0.495
500.000	321.268	80.003	19.996	103.176	19.962	6.581	0.498
500.500	321.540	80.001	19.995	103.176	19.963	6.514	0.486
501.000	321.811	80.002	19.996	103.175	19.961	6.654	0.512
501.500	322.040	80.003	19.995	103.174	19.961	6.688	0.521
502.000	322.271	80.002	19.995	103.174	19.959	6.817	0.480
502.500	322.534	80.001	19.994	103.172	19.960	6.696	0.477
503.000	322.768	80.003	19.996	103.172	19.958	6.893	0.495
503.500	323.024	80.002	19.995	103.172	19.958	6.891	0.494
504.000	323.250	80.000	19.994	103.174	19.962	6.588	0.486
504.500	323.518	80.002	19.995	103.175	19.961	6.673	0.488
505.000	323.708	80.000	19.995	103.177	19.960	6.758	0.476
505.500	324.003	80.004	19.995	103.178	19.960	6.742	0.471
506.000	324.268	80.003	19.996	103.181	19.963	6.492	0.522
506.500	324.494	80.001	19.994	103.179	19.956	7.032	0.526
507.000	324.719	80.003	19.995	103.177	19.957	6.980	0.471
507.500	324.982	79.999	19.995	103.174	19.957	6.946	0.470
508.000	325.216	80.002	19.996	103.177	19.958	6.873	0.493
508.500	325.449	80.000	19.995	103.175	19.958	6.885	0.482
509.000	325.676	80.002	19.994	103.174	19.954	7.171	0.464
509.500	325.956	79.999	19.995	103.172	19.955	7.089	0.483
510.000	326.183	80.001	19.995	103.172	19.957	6.962	0.507
510.500	326.459	80.003	19.995	103.171	19.953	7.220	0.505
511.000	326.734	80.001	19.996	103.173	19.953	7.210	0.527
511.500	326.934	80.002	19.996	103.176	19.958	6.859	0.513
512.000	327.221	80.001	19.996	103.175	19.954	7.180	0.481
512.500	327.424	80.002	19.994	103.177	19.953	7.210	0.489
513.000	327.701	80.000	19.995	103.178	19.954	7.202	0.484
513.500	327.939	80.003	19.995	103.178	19.956	6.994	0.497
514.000	328.186	80.002	19.995	103.179	19.954	7.160	0.500
514.500	328.417	80.001	19.996	103.183	19.954	7.188	0.482
515.000	328.683	80.000	19.995	103.185	19.952	7.339	0.487
515.500	328.932	80.000	19.996	103.185	19.953	7.248	0.506
516.000	329.161	80.000	19.997	103.184	19.953	7.234	0.497
516.500	329.360	79.999	19.997	103.184	19.953	7.270	0.453
517.000	329.630	80.000	19.995	103.183	19.952	7.280	0.449
517.500	329.881	79.999	19.996	103.181	19.952	7.325	0.495
518.000	330.164	80.000	19.995	103.181	19.949	7.569	0.528
518.500	330.387	80.000	19.995	103.181	19.955	7.119	0.520
519.001	330.642	80.001	19.995	103.180	19.950	7.438	0.492
519.500	330.887	80.001	19.996	103.181	19.949	7.505	0.489
520.000	331.117	80.001	19.997	103.183	19.950	7.486	0.487
520.500	331.371	80.000	19.995	103.183	19.948	7.581	0.480
521.000	331.597	80.000	19.996	103.184	19.947	7.715	0.483
521.500	331.876	80.001	19.995	103.184	19.952	7.321	0.492
522.000	332.099	80.001	19.997	103.183	19.949	7.551	0.503
522.500	332.346	80.001	19.995	103.182	19.949	7.507	0.486
523.000	332.590	80.001	19.996	103.178	19.946	7.743	0.481
523.500	332.822	80.002	19.995	103.177	19.949	7.557	0.483
524.000	333.083	80.001	19.995	103.177	19.947	7.691	0.485
524.500	333.305	80.002	19.994	103.179	19.948	7.592	0.488
525.000	333.545	80.000	19.995	103.179	19.948	7.618	0.472
525.500	333.839	80.002	19.995	103.182	19.946	7.779	0.498
526.000	334.084	80.003	19.996	103.183	19.949	7.545	0.536
526.500	334.325	80.003	19.994	103.184	19.944	7.870	0.512
527.000	334.561	80.003	19.995	103.183	19.942	8.023	0.482
527.500	334.852	80.003	19.995	103.183	19.948	7.610	0.502
528.000	335.085	80.003	19.995	103.182	19.941	8.090	0.526
528.500	335.323	80.004	19.995	103.178	19.940	8.189	0.498
529.000	335.557	80.002	19.996	103.177	19.943	7.989	0.471
529.500	335.832	80.003	19.996	103.177	19.940	8.175	0.490
530.000	336.063	80.004	19.995	103.177	19.941	8.157	0.507
530.500	336.338	80.004	19.995	103.177	19.942	8.051	0.506
531.000	336.566	80.002	19.995	103.179	19.940	8.201	0.504
531.500	336.800	80.003	19.995	103.177	19.941	8.142	0.483
532.000	337.075	80.004	19.996	103.175	19.940	8.229	0.486
532.500	337.289	80.003	19.996	103.175	19.940	8.189	0.499
533.000	337.560	80.004	19.995	103.176	19.937	8.408	0.487
533.500	337.796	80.003	19.996	103.176	19.939	8.275	0.496
534.000	338.040	80.004	19.995	103.177	19.936	8.489	0.494
534.500	338.312	80.003	19.995	103.178	19.936	8.455	0.498
535.000	338.552	80.003	19.995	103.175	19.938	8.322	0.514
535.500	338.797	80.002	19.997	103.172	19.935	8.572	0.499
536.000	339.034	80.003	19.995	103.172	19.934	8.606	0.484
536.501	339.306	80.002	19.995	103.173	19.938	8.370	0.495
537.000	339.546	80.003	19.996	103.173	19.932	8.774	0.510
537.500	339.768	80.003	19.996	103.176	19.934	8.661	0.487
538.000	340.016	80.002	19.996	103.179	19.932	8.784	0.466
538.500	340.250	80.002	19.996	103.174	19.929	9.008	0.476
539.000	340.511	80.001	19.997	103.171	19.927	9.119	0.489
539.500	340.756	80.003	19.997	103.171	19.928	9.113	0.501
540.000	341.020	80.002	19.996	103.171	19.927	9.117	0.507
540.500	341.264	80.001	19.997	103.171	19.933	8.743	0.508
541.000	341.511	80.003	19.995	103.176	19.931	8.842	0.500
541.500	341.748	79.999	19.995	103.179	19.927	9.183	0.488
542.000	341.957	80.001	19.996	103.179	19.931	8.870	0.465
542.500	342.221	80.002	19.996	103.178	19.929	8.969	0.459
543.000	342.490	80.000	19.995	103.178	19.927	9.179	0.503
543.500	342.709	80.001	19.995	103.178	19.925	9.287	0.511
544.000	342.932	80.001	19.996	103.179	19.924	9.380	0.465
544.500	343.217	80.001	19.996	103.178	19.926	9.225	0.475
545.000	343.475	80.002	19.996	103.178	19.922	9.515	0.526
545.500	343.698	80.001	19.995	103.176	19.923	9.481	0.512
546.000	343.958	80.003	19.996	103.175	19.919	9.753	0.482
546.500	344.205	80.002	19.996	103.174	19.921	9.602	0.495
547.000	344.466	80.003	19.995	103.175	19.919	9.735	0.507
547.500	344.673	80.001	19.995	103.176	19.919	9.707	0.487
548.000	344.926	80.003	19.995	103.177	19.918	9.836	0.464
548.500	345.196	80.003	19.996	103.178	19.916	9.955	0.492
549.000	345.450	80.003	19.994	103.178	19.917	9.913	0.523
549.500	345.700	80.004	19.995	103.178	19.913	10.202	0.514
550.000	345.953	80.003	19.995	103.178	19.911	10.351	0.504
550.500	346.234	80.006	19.996	103.179	19.913	10.163	0.518
551.000	346.465	80.003	19.996	103.179	19.911	10.335	0.523
551.501	346.702	80.006	19.996	103.179	19.908	10.573	0.491
552.000	346.983	80.005	19.996	103.180	19.908	10.565	0.493
552.500	347.219	80.005	19.997	103.180	19.907	10.633	0.517
553.000	347.461	80.005	19.995	103.181	19.908	10.574	0.497
553.500	347.699	80.005	19.995	103.181	19.906	10.680	0.479
554.000	347.964	80.006	19.996	103.183	19.903	10.904	0.491
554.500	348.247	80.003	19.994	103.184	19.904	10.855	0.526
555.000	348.494	80.005	19.995	103.186	19.902	10.989	0.539
555.500	348.749	80.004	19.993	103.185	19.897	11.371	0.516
556.000	349.005	80.005	19.995	103.185	19.899	11.238	0.506
556.500	349.237	80.004	19.995	103.188	19.899	11.205	0.500
557.000	349.497	80.006	19.995	103.187	19.896	11.425	0.490
557.500	349.778	80.006	19.995	103.186	19.896	11.465	0.516
558.000	350.034	80.004	19.995	103.186	19.895	11.489	0.539
558.500	350.294	80.005	19.996	103.188	19.893	11.621	0.527
559.000	350.561	80.003	19.995	103.185	19.893	11.687	0.521
559.500	350.794	80.004	19.995	103.182	19.891	11.790	0.513
560.000	351.043	80.004	19.995	103.182	19.889	11.977	0.492
560.500	351.302	80.004	19.994	103.182	19.888	12.043	0.495
561.000	351.577	80.003	19.995	103.181	19.889	11.972	0.521
561.500	351.849	80.003	19.995	103.181	19.890	11.853	0.540
562.000	352.101	80.002	19.994	103.182	19.887	12.103	0.535
562.500	352.337	80.002	19.995	103.181	19.884	12.338	0.506
563.000	352.629	80.002	19.994	103.182	19.883	12.354	0.508
563.500	352.874	80.003	19.994	103.187	19.883	12.380	0.532
564.000	353.167	80.002	19.994	103.193	19.881	12.548	0.537
564.500	353.411	80.001	19.994	103.194	19.881	12.534	0.538
565.000	353.677	80.002	19.995	103.198	19.878	12.764	0.524
565.500	353.941	80.001	19.994	103.199	19.874	13.033	0.520
566.000	354.232	80.003	19.994	103.195	19.874	13.051	0.542
566.500	354.491	80.003	19.995	103.188	19.874	13.081	0.553
567.000	354.728	80.001	19.995	103.190	19.870	13.320	0.523
567.500	355.017	80.002	19.995	103.190	19.869	13.447	0.511
568.000	355.270	80.001	19.995	103.190	19.869	13.437	0.535
568.500	355.511	80.002	19.994	103.191	19.868	13.517	0.518
569.000	355.789	80.000	19.995	103.192	19.865	13.723	0.506
569.500	356.081	80.002	19.994	103.192	19.864	13.801	0.545
570.000	356.338	80.001	19.995	103.190	19.861	13.979	0.560
570.500	356.575	80.001	19.995	103.193	19.862	13.910	0.522
571.000	356.853	80.002	19.996	103.196	19.857	14.269	0.504
571.500	357.135	80.002	19.995	103.199	19.859	14.142	0.537
572.000	357.402	80.001	19.994	103.202	19.855	14.453	0.555
572.500	357.658	80.003	19.995	103.204	19.854	14.491	0.536
573.000	357.936	80.002	19.994	103.207	19.853	14.632	0.528
573.500	358.223	80.001	19.994	103.211	19.852	14.705	0.549
574.000	358.482	80.000	19.994	103.213	19.850	14.813	0.555
574.500	358.746	80.002	19.996	103.213	19.849	14.920	0.534
575.000	359.000	80.006	19.994	103.213	19.848	14.986	0.521
575.500	359.274	80.004	19.995	103.208	19.846	15.136	0.524
576.000	359.545	80.003	19.995	103.208	19.843	15.325	0.537
576.500	359.793	80.000	19.994	103.205	19.839	15.595	0.532
577.000	360.071	80.003	19.994	103.204	19.838	15.668	0.522
577.500	360.335	80.005	19.995	103.208	19.837	15.781	0.534
578.000	360.586	80.001	19.994	103.213	19.835	15.884	0.529
578.500	360.861	80.002	19.995	103.214	19.833	16.091	0.520
579.000	361.123	80.000	19.994	103.219	19.830	16.293	0.531
579.500	361.411	80.002	19.995	103.221	19.826	16.547	0.543
580.000	361.678	80.001	19.995	103.221	19.822	16.866	0.553
580.500	361.929	80.002	19.994	103.220	19.823	16.777	0.537
581.000	362.188	80.001	19.994	103.219	19.821	16.971	0.514
581.500	362.466	80.002	19.995	103.219	19.814	17.451	0.524
582.000	362.753	80.002	19.994	103.220	19.815	17.360	0.551
582.500	363.018	80.001	19.995	103.220	19.811	17.654	0.558
583.000	363.227	80.002	19.995	103.220	19.812	17.592	0.513
583.500	363.537	80.002	19.994	103.220	19.809	17.816	0.497
584.000	363.790	80.001	19.994	103.222	19.807	17.961	0.541
584.500	364.083	80.000	19.994	103.221	19.803	18.274	0.554
585.000	364.353	79.999	19.995	103.222	19.798	18.634	0.554
585.500	364.609	80.002	19.994	103.222	19.794	18.953	0.545
586.000	364.890	80.004	19.994	103.225	19.792	19.102	0.531
586.500	365.175	80.006	19.993	103.224	19.788	19.346	0.551
587.000	365.446	80.006	19.994	103.226	19.783	19.763	0.561
587.500	365.689	80.002	19.994	103.227	19.781	19.890	0.536
588.000	365.968	80.000	19.994	103.227	19.777	20.216	0.519
588.500	366.268	80.003	19.994	103.225	19.775	20.312	0.550
589.000	366.515	80.003	19.994	103.225	19.775	20.354	0.563
589.500	366.796	80.002	19.994	103.224	19.770	20.670	0.538
590.000	367.014	80.000	19.994	103.223	19.766	21.008	0.514
590.500	367.296	80.001	19.996	103.224	19.760	21.424	0.500
591.000	367.570	80.002	19.995	103.224	19.756	21.749	0.528
591.500	367.865	80.002	19.994	103.224	19.752	22.038	0.563
592.000	368.088	80.000	19.995	103.223	19.754	21.897	0.544
592.500	368.380	80.002	19.995	103.223	19.748	22.354	0.516
593.000	368.616	80.002	19.996	103.224	19.741	22.859	0.521
593.500	368.892	80.004	19.995	103.224	19.737	23.146	0.520
594.000	369.189	79.997	19.996	103.223	19.731	23.572	0.543
594.500	369.468	80.000	19.995	103.223	19.728	23.822	0.575
595.000	369.704	80.002	19.994	103.223	19.727	23.874	0.546
595.500	369.966	80.002	19.994	103.223	19.721	24.292	0.506
596.000	370.252	80.004	19.995	103.223	19.716	24.640	0.522
596.500	370.524	80.000	19.995	103.223	19.715	24.751	0.553
597.000	370.760	80.001	19.995	103.223	19.709	25.194	0.533
597.500	371.034	80.001	19.995	103.224	19.702	25.690	0.509
598.000	371.286	80.002	19.994	103.225	19.698	26.014	0.518
598.500	371.542	80.002	19.995	103.229	19.695	26.236	0.517
599.000	371.843	80.002	19.995	103.232	19.692	26.463	0.533
599.500	372.083	80.000	19.995	103.233	19.687	26.807	0.549
600.000	372.337	80.002	19.996	103.236	19.675	27.706	0.518
600.500	372.596	80.001	19.996	103.239	19.675	27.712	0.503
601.000	372.887	80.001	19.995	103.239	19.669	28.141	0.531
601.500	373.137	80.000	19.995	103.238	19.666	28.383	0.546
602.000	373.432	80.002	19.995	103.237	19.660	28.792	0.543
602.500	373.680	80.001	19.995	103.234	19.654	29.240	0.544
603.000	373.962	80.001	19.996	103.232	19.650	29.548	0.537
603.500	374.223	80.000	19.995	103.235	19.644	29.989	0.536
604.000	374.515	80.002	19.995	103.240	19.638	30.458	0.548
604.500	374.713	80.003	19.996	103.246	19.630	31.018	0.521
605.000	375.027	80.003	19.996	103.251	19.627	31.246	0.501
605.500	375.260	80.002	19.996	103.253	19.621	31.682	0.530
606.000	375.506	80.001	19.995	103.253	19.613	32.251	0.513
606.500	375.818	80.003	19.994	103.253	19.608	32.666	0.519
607.000	376.082	80.002	19.996	103.253	19.602	33.091	0.567
607.500	376.348	80.003	19.995	103.254	19.593	33.700	0.553
608.000	376.602	80.001	19.996	103.255	19.587	34.165	0.525
608.500	376.865	80.003	19.996	103.256	19.583	34.485	0.518
609.000	377.122	80.003	19.995	103.256	19.578	34.832	0.518
609.500	377.370	80.005	19.995	103.258	19.568	35.611	0.513
610.000	377.648	80.004	19.996	103.259	19.565	35.787	0.516
610.500	377.939	80.003	19.995	103.262	19.558	36.290	0.547
611.000	378.180	80.004	19.996	103.263	19.550	36.911	0.550
611.501	378.428	80.004	19.995	103.264	19.545	37.261	0.510
612.000	378.735	80.003	19.996	103.263	19.538	37.815	0.522
612.500	378.970	80.004	19.996	103.262	19.529	38.469	0.548
613.000	379.218	80.002	19.994	103.263	19.526	38.644	0.512
613.500	379.473	80.003	19.996	103.264	19.515	39.460	0.493
614.000	379.739	80.003	19.996	103.269	19.509	39.918	0.512
614.500	380.023	80.002	19.994	103.272	19.504	40.287	0.536
615.000	380.265	80.003	19.996	103.280	19.492	41.214	0.538
615.500	380.548	80.002	19.995	103.283	19.486	41.611	0.525
616.000	380.800	80.003	19.995	103.288	19.477	42.315	0.530
616.500	381.069	80.004	19.996	103.290	19.474	42.495	0.528
617.000	381.333	80.003	19.995	103.295	19.460	43.505	0.527
617.500	381.581	80.001	19.996	103.295	19.454	43.976	0.522
618.000	381.858	80.002	19.996	103.297	19.446	44.562	0.519
618.500	382.110	80.004	19.995	103.296	19.436	45.339	0.527
619.000	382.373	80.005	19.993	103.296	19.430	45.763	0.522
619.500	382.622	80.002	19.996	103.297	19.422	46.305	0.513
620.000	382.860	80.002	19.995	103.297	19.412	47.058	0.500
620.500	383.141	80.002	19.995	103.297	19.402	47.833	0.503
621.000	383.432	80.002	19.995	103.298	19.394	48.397	0.545
621.500	383.668	80.002	19.995	103.298	19.388	48.862	0.550
622.000	383.909	80.001	19.994	103.298	19.376	49.706	0.502
622.500	384.180	80.001	19.995	103.298	19.367	50.403	0.495
623.000	384.445	80.006	19.996	103.299	19.360	50.937	0.524
623.500	384.690	80.002	19.995	103.301	19.347	51.902	0.523
624.000	385.004	80.002	19.996	103.304	19.340	52.350	0.534
624.500	385.261	80.001	19.996	103.309	19.330	53.107	0.565
625.000	385.517	80.002	19.996	103.316	19.322	53.721	0.542
625.500	385.759	80.003	19.995	103.321	19.310	54.603	0.506
626.000	386.016	80.004	19.996	103.327	19.300	55.302	0.499
626.500	386.308	80.000	19.996	103.331	19.292	55.945	0.524
627.000	386.537	80.000	19.996	103.332	19.285	56.451	0.535
627.500	386.785	80.001	19.996	103.331	19.273	57.291	0.499
628.000	387.063	80.001	19.995	103.332	19.262	58.137	0.501
628.500	387.315	80.001	19.996	103.333	19.251	58.919	0.528
629.000	387.548	80.004	19.995	103.334	19.239	59.805	0.507
629.500	387.798	80.003	19.995	103.336	19.231	60.403	0.484
630.000	388.066	80.004	19.996	103.338	19.221	61.147	0.501
630.500	388.335	80.005	19.996	103.338	19.209	62.015	0.528
631.001	388.590	80.002	19.995	103.339	19.201	62.609	0.530
631.500	388.840	80.003	19.995	103.339	19.186	63.714	0.514
632.000	389.102	80.002	19.995	103.340	19.178	64.348	0.509
632.500	389.356	80.003	19.995	103.340	19.170	64.934	0.514
633.000	389.597	80.004	19.995	103.343	19.154	66.103	0.505
633.500	389.890	80.005	19.996	103.349	19.148	66.575	0.515
634.000	390.146	80.002	19.996	103.356	19.135	67.513	0.542
634.500	390.380	80.004	19.997	103.359	19.127	68.126	0.520
635.000	390.634	80.001	19.996	103.361	19.112	69.222	0.489
635.500	390.891	80.004	19.996	103.364	19.103	69.872	0.500
636.000	391.122	80.004	19.995	103.366	19.091	70.766	0.499
636.500	391.377	80.004	19.996	103.365	19.078	71.697	0.487
637.000	391.650	80.005	19.996	103.368	19.065	72.650	0.507
637.500	391.928	80.002	19.996	103.372	19.057	73.300	0.540
638.000	392.168	80.004	19.995	103.373	19.045	74.160	0.535
638.500	392.381	80.004	19.995	103.373	19.031	75.163	0.485
639.000	392.652	80.002	19.995	103.373	19.023	75.759	0.469
639.500	392.915	80.004	19.995	103.374	19.008	76.862	0.509
640.000	393.203	80.003	19.995	103.374	18.994	77.928	0.542
640.500	393.424	80.003	19.995	103.375	18.985	78.551	0.530
641.000	393.717	80.004	19.995	103.375	18.974	79.403	0.512
641.500	393.967	80.002	19.995	103.378	18.962	80.271	0.529
642.000	394.215	80.001	19.995	103.381	18.951	81.098	0.521
642.500	394.461	80.003	19.995	103.383	18.942	81.738	0.495
643.000	394.746	80.001	19.995	103.386	18.931	82.592	0.512
643.500	394.959	80.001	19.996	103.392	18.919	83.476	0.515
644.000	395.238	80.001	19.995	103.396	18.908	84.277	0.495
644.500	395.463	80.001	19.995	103.398	18.893	85.356	0.498
645.000	395.763	80.002	19.995	103.401	18.881	86.231	0.515
645.500	395.980	80.000	19.994	103.403	18.871	86.999	0.521
646.000	396.233	80.000	19.994	103.404	18.861	87.741	0.493
646.500	396.466	80.001	19.995	103.407	18.850	88.531	0.478
647.000	396.760	80.001	19.995	103.410	18.838	89.435	0.507
647.500	397.000	80.003	19.993	103.414	18.827	90.266	0.531
648.000	397.241	80.002	19.994	103.418	18.816	91.011	0.508
648.500	397.500	80.001	19.994	103.421	18.803	91.978	0.491
649.000	397.765	80.001	19.995	103.423	18.791	92.874	0.512
649.500	397.990	80.000	19.994	103.424	18.784	93.410	0.507
650.000	398.264	80.002	19.995	103.424	18.771	94.357	0.494
650.500	398.529	80.000	19.995	103.427	18.762	94.994	0.519
651.000	398.792	80.002	19.995	103.428	18.754	95.620	0.533
651.500	399.001	80.000	19.996	103.426	18.743	96.436	0.500
652.000	399.252	80.000	19.994	103.427	18.733	97.145	0.466
652.500	399.518	80.001	19.994	103.430	18.721	98.068	0.489
653.000	399.772	80.002	19.994	103.429	18.710	98.877	0.518
653.500	399.995	80.000	19.994	103.430	18.704	99.308	0.498
654.000	400.232	80.001	19.994	103.434	18.692	100.206	0.468
654.500	400.500	79.999	19.995	103.437	18.680	101.040	0.483
655.000	400.739	80.000	19.995	103.442	18.671	101.695	0.506
655.500	400.972	80.000	19.994	103.446	18.665	102.170	0.490
656.000	401.249	79.999	19.995	103.449	18.653	103.075	0.491
656.500	401.476	80.001	19.994	103.452	18.644	103.727	0.507
657.000	401.710	80.002	19.995	103.453	18.640	104.019	0.482
657.500	401.962	80.001	19.994	103.451	18.628	104.942	0.473
658.000	402.211	80.002	19.994	103.451	18.620	105.539	0.493
658.500	402.451	80.000	19.995	103.451	18.610	106.222	0.495
659.000	402.676	80.002	19.995	103.450	18.601	106.906	0.477
659.500	402.963	80.000	19.996	103.450	18.593	107.508	0.488
660.000	403.217	80.001	19.994	103.452	18.588	107.885	0.526
660.500	403.442	80.001	19.995	103.452	18.576	108.735	0.510
661.000	403.714	80.001	19.996	103.453	18.570	109.178	0.488
661.500	403.961	80.001	19.995	103.453	18.562	109.768	0.508
662.000	404.146	80.002	19.995	103.453	18.555	110.281	0.476
662.500	404.387	80.002	19.996	103.453	18.548	110.842	0.429
663.000	404.665	80.001	19.995	103.453	18.539	111.456	0.473
663.500	404.921	80.001	19.995	103.453	18.533	111.940	0.527
664.000	405.158	80.000	19.996	103.453	18.526	112.462	0.513
664.500	405.408	80.000	19.995	103.452	18.520	112.913	0.490
665.000	405.675	80.002	19.995	103.452	18.512	113.482	0.502
665.500	405.910	79.996	19.995	103.453	18.509	113.745	0.509
666.000	406.126	80.000	19.995	103.452	18.502	114.211	0.476
666.500	406.392	80.001	19.995	103.454	18.497	114.606	0.466
667.000	406.631	80.000	19.995	103.456	18.493	114.881	0.493
667.500	406.878	80.002	19.996	103.461	18.487	115.336	0.496
668.000	407.145	80.001	19.994	103.464	18.483	115.647	0.500
668.500	407.378	80.003	19.995	103.466	18.476	116.124	0.507
669.000	407.652	80.001	19.994	103.468	18.472	116.399	0.503
669.500	407.899	80.000	19.995	103.471	18.466	116.838	0.514
670.000	408.150	80.002	19.995	103.473	18.467	116.807	0.509
670.500	408.395	80.002	19.995	103.477	18.459	117.380	0.498
671.000	408.645	80.001	19.996	103.476	18.460	117.319	0.496
671.500	408.862	80.000	19.995	103.475	18.451	117.954	0.481
672.000	409.083	80.001	19.995	103.470	18.453	117.826	0.452
672.500	409.360	80.002	19.995	103.468	18.450	118.086	0.468
673.000	409.558	80.001	19.995	103.468	18.447	118.302	0.487
673.500	409.830	80.002	19.995	103.474	18.445	118.419	0.472
674.000	410.090	80.001	19.995	103.477	18.441	118.697	0.501
674.500	410.340	80.001	19.994	103.483	18.437	119.045	0.521
675.000	410.578	80.002	19.994	103.486	18.435	119.133	0.499
675.500	410.800	80.001	19.994	103.487	18.436	119.045	0.474
676.000	411.045	80.002	19.996	103.488	18.435	119.169	0.464
676.500	411.292	80.002	19.995	103.489	18.435	119.154	0.479
677.000	411.548	80.002	19.996	103.491	18.429	119.599	0.497
677.500	411.804	80.002	19.996	103.491	18.429	119.584	0.508
678.000	412.035	80.002	19.995	103.490	18.430	119.480	0.500
678.500	412.269	80.002	19.994	103.486	18.434	119.185	0.476
679.000	412.512	80.002	19.995	103.483	18.433	119.303	0.471
679.500	412.740	80.002	19.995	103.479	18.432	119.328	0.474
680.000	412.998	80.002	19.996	103.476	18.433	119.286	0.478
680.500	413.223	80.004	19.994	103.474	18.435	119.164	0.484
681.001	413.468	80.003	19.996	103.475	18.435	119.159	0.476
681.500	413.717	80.002	19.995	103.475	18.434	119.185	0.482
682.000	413.995	80.004	19.995	103.475	18.437	118.958	0.511
682.500	414.214	80.002	19.995	103.476	18.439	118.852	0.512
683.000	414.439	80.003	19.995	103.479	18.440	118.740	0.470
683.500	414.665	80.001	19.995	103.482	18.443	118.519	0.447
684.000	414.942	80.002	19.995	103.485	18.445	118.405	0.477
684.500	415.161	80.003	19.994	103.486	18.449	118.059	0.500
685.000	415.422	80.004	19.995	103.486	18.451	117.923	0.488
685.500	415.682	80.003	19.995	103.482	18.454	117.718	0.500
686.000	415.934	80.002	19.996	103.478	18.456	117.572	0.517
686.500	416.147	80.003	19.994	103.474	18.459	117.326	0.489
687.000	416.409	80.003	19.995	103.471	18.465	116.921	0.470
687.500	416.642	80.004	19.995	103.467	18.468	116.726	0.485
688.000	416.898	80.003	19.994	103.466	18.472	116.420	0.492
688.500	417.174	80.005	19.995	103.463	18.479	115.915	0.510
689.000	417.414	80.003	19.995	103.463	18.484	115.489	0.524
689.500	417.612	80.004	19.995	103.461	18.487	115.300	0.477
690.000	417.820	80.004	19.995	103.459	18.492	114.888	0.422
690.500	418.104	80.005	19.994	103.457	18.499	114.380	0.449
691.000	418.361	80.004	19.996	103.457	18.504	113.997	0.516
691.500	418.602	80.003	19.996	103.456	18.509	113.609	0.519
692.000	418.852	80.005	19.994	103.457	18.517	113.052	0.495
692.500	419.111	80.001	19.994	103.457	18.521	112.748	0.500
693.000	419.343	80.003	19.995	103.457	18.529	112.155	0.500
693.500	419.562	80.004	19.995	103.456	18.537	111.596	0.471
694.000	419.831	80.007	19.994	103.455	18.542	111.201	0.469
694.500	420.069	80.003	19.995	103.456	18.548	110.752	0.498
695.000	420.351	80.003	19.994	103.455	18.559	109.976	0.514
695.500	420.579	80.004	19.994	103.455	18.559	109.943	0.515
696.000	420.826	80.002	19.995	103.456	18.568	109.251	0.492
696.500	421.043	80.001	19.996	103.456	18.580	108.382	0.470
697.000	421.275	80.002	19.995	103.455	18.586	107.925	0.457
697.500	421.518	80.002	19.995	103.456	18.594	107.394	0.462
698.000	421.742	80.003	19.995	103.454	18.606	106.473	0.471
698.500	421.993	80.002	19.995	103.452	18.614	105.918	0.471
699.000	422.212	80.003	19.996	103.452	18.620	105.462	0.472
699.500	422.508	80.001	19.995	103.451	18.629	104.779	0.493
700.000	422.725	80.002	19.995	103.447	18.637	104.154	0.515
700.500	422.975	80.002	19.996	103.445	18.646	103.541	0.490
701.000	423.199	80.001	19.995	103.439	18.656	102.772	0.470
701.500	423.454	80.002	19.994	103.432	18.667	101.967	0.476
702.000	423.703	80.002	19.996	103.428	18.674	101.412	0.492
702.500	423.955	80.000	19.995	103.425	18.683	100.787	0.502
703.000	424.185	80.002	19.995	103.423	18.693	100.011	0.491
703.500	424.434	80.001	19.995	103.423	18.703	99.295	0.481
704.000	424.692	80.001	19.995	103.422	18.715	98.394	0.493
704.500	424.910	80.001	19.994	103.420	18.725	97.700	0.491
705.000	425.198	80.001	19.995	103.419	18.733	97.062	0.491
705.500	425.425	80.001	19.995	103.417	18.743	96.352	0.511
706.000	425.658	80.002	19.995	103.417	18.754	95.512	0.488
706.500	425.907	80.003	19.996	103.417	18.764	94.810	0.471
707.000	426.162	80.002	19.995	103.417	18.774	94.022	0.493
707.500	426.418	80.001	19.995	103.414	18.787	93.090	0.507
708.000	426.633	80.003	19.995	103.411	18.799	92.237	0.492
708.500	426.884	80.001	19.994	103.409	18.808	91.537	0.469
709.000	427.116	80.003	19.994	103.406	18.817	90.857	0.474
709.500	427.385	80.000	19.995	103.405	18.829	90.013	0.492
710.000	427.604	80.002	19.995	103.403	18.836	89.498	0.494
710.500	427.869	80.003	19.995	103.400	18.845	88.811	0.486
711.000	428.145	80.003	19.996	103.395	18.857	87.962	0.513
711.500	428.388	80.003	19.994	103.390	18.868	87.084	0.530
712.000	428.652	80.003	19.994	103.383	18.881	86.145	0.513
712.500	428.927	80.004	19.995	103.379	18.886	85.790	0.523
713.000	429.150	80.003	19.995	103.379	18.899	84.809	0.519
713.500	429.411	80.003	19.994	103.378	18.911	83.952	0.491
714.000	429.631	80.004	19.994	103.378	18.918	83.402	0.483
714.500	429.872	80.005	19.995	103.377	18.929	82.615	0.471
715.000	430.126	80.003	19.996	103.376	18.940	81.774	0.478
715.500	430.368	80.002	19.995	103.373	18.948	81.199	0.495
716.000	430.643	80.003	19.994	103.369	18.958	80.460	0.507
716.500	430.860	80.003	19.996	103.368	18.968	79.699	0.505
717.000	431.124	80.004	19.995	103.364	18.979	78.952	0.486
717.500	431.369	80.006	19.994	103.361	18.991	78.014	0.495
718.000	431.651	80.005	19.994	103.359	19.000	77.375	0.518
718.500	431.877	80.005	19.994	103.357	19.011	76.588	0.517
719.000	432.132	80.005	19.995	103.350	19.024	75.604	0.494
719.500	432.379	80.003	19.995	103.347	19.033	74.950	0.492
720.000	432.637	80.004	19.995	103.342	19.041	74.325	0.503
720.500	432.887	80.004	19.995	103.339	19.051	73.599	0.506
721.000	433.162	80.003	19.996	103.338	19.064	72.627	0.516
721.500	433.385	80.006	19.995	103.338	19.072	72.050	0.512
722.000	433.643	80.002	19.995	103.336	19.085	71.120	0.490
722.500	433.924	80.005	19.996	103.335	19.094	70.448	0.510
723.000	434.181	80.003	19.996	103.332	19.102	69.869	0.538
723.500	434.431	80.001	19.994	103.327	19.112	69.080	0.522
724.000	434.655	80.002	19.996	103.321	19.119	68.605	0.491
724.500	434.885	80.001	19.995	103.317	19.131	67.741	0.465
725.000	435.132	79.999	19.997	103.312	19.141	66.999	0.466
725.500	435.362	79.999	19.995	103.306	19.153	66.117	0.477
726.000	435.689	80.004	19.995	103.302	19.157	65.820	0.517
726.500	435.877	79.999	19.997	103.303	19.170	64.851	0.536
727.000	436.166	80.003	19.996	103.300	19.176	64.419	0.496
727.500	436.410	80.001	19.996	103.298	19.183	63.893	0.505
728.000	436.645	80.001	19.996	103.298	19.193	63.169	0.506
728.500	436.894	80.001	19.995	103.297	19.202	62.447	0.481
729.000	437.189	80.004	19.997	103.295	19.210	61.879	0.514
729.500	437.372	79.996	19.997	103.294	19.222	60.995	0.512
730.000	437.668	80.000	19.996	103.292	19.228	60.576	0.479
730.500	437.923	80.001	19.996	103.292	19.233	60.180	0.515
731.000	438.159	80.000	19.996	103.294	19.242	59.518	0.521
731.500	438.406	80.001	19.996	103.292	19.253	58.750	0.487
732.000	438.646	80.000	19.995	103.287	19.264	57.898	0.485
732.500	438.937	80.001	19.996	103.285	19.272	57.358	0.509
733.000	439.159	80.002	19.996	103.281	19.280	56.762	0.521
733.500	439.417	80.001	19.996	103.275	19.291	55.932	0.496
734.000	439.653	80.001	19.996	103.271	19.300	55.231	0.488
734.500	439.912	80.003	19.995	103.269	19.312	54.377	0.495
735.000	440.181	80.001	19.996	103.265	19.321	53.719	0.511
735.500	440.411	80.001	19.995	103.261	19.333	52.842	0.513
736.000	440.642	80.001	19.996	103.259	19.340	52.298	0.480
736.500	440.892	80.003	19.996	103.258	19.352	51.448	0.471
737.000	441.151	80.003	19.996	103.258	19.360	50.843	0.495
737.500	441.410	80.001	19.995	103.257	19.371	50.025	0.513
738.000	441.661	80.002	19.996	103.257	19.380	49.403	0.514
738.500	441.890	80.001	19.995	103.257	19.389	48.685	0.495
739.000	442.127	80.002	19.996	103.255	19.395	48.253	0.473
739.500	442.423	80.003	19.995	103.249	19.405	47.510	0.500
740.000	442.642	80.002	19.996	103.248	19.415	46.809	0.524
740.500	442.947	80.001	19.995	103.247	19.424	46.145	0.519
741.000	443.155	80.002	19.995	103.246	19.431	45.630	0.519
741.500	443.376	80.002	19.995	103.247	19.443	44.707	0.471
742.000	443.609	80.002	19.995	103.248	19.451	44.163	0.441
742.500	443.870	80.004	19.995	103.245	19.458	43.619	0.474
743.000	444.131	80.002	19.996	103.240	19.462	43.309	0.508
743.500	444.353	80.000	19.995	103.236	19.473	42.518	0.502
744.000	444.632	80.002	19.995	103.230	19.481	41.944	0.492
744.500	444.888	80.005	19.995	103.230	19.487	41.474	0.518
745.000	445.111	80.000	19.996	103.229	19.496	40.847	0.507
745.500	445.364	80.002	19.995	103.227	19.501	40.456	0.477
746.000	445.611	80.003	19.995	103.224	19.505	40.139	0.488
746.500	445.869	80.003	19.996	103.224	19.512	39.663	0.503
747.000	446.100	80.000	19.996	103.222	19.516	39.358	0.497
747.500	446.350	80.002	19.995	103.217	19.522	38.908	0.485
748.000	446.635	80.001	19.995	103.217	19.526	38.609	0.508
748.500	446.896	80.004	19.995	103.216	19.534	38.058	0.541
749.000	447.104	79.997	19.995	103.217	19.535	37.961	0.507
749.500	447.349	80.003	19.996	103.217	19.542	37.418	0.461
750.000	447.609	80.001	19.995	103.219	19.548	37.010	0.479
750.500	447.851	80.004	19.995	103.216	19.552	36.720	0.504
751.000	448.093	80.008	19.995	103.215	19.554	36.575	0.493
751.500	448.320	80.005	19.994	103.212	19.554	36.587	0.477
752.000	448.575	80.006	19.993	103.207	19.561	36.045	0.476
752.500	448.842	79.997	19.994	103.207	19.564	35.849	0.502
753.000	449.080	80.005	19.995	103.209	19.566	35.667	0.514
753.500	449.304	80.007	19.995	103.210	19.569	35.426	0.483
754.000	449.550	79.997	19.997	103.207	19.571	35.292	0.466
754.500	449.880	80.016	19.993	103.208	19.572	35.228	0.523
755.000	450.089	80.003	19.996	103.207	19.578	34.793	0.558
755.500	450.389	80.000	19.996	103.201	19.577	34.877	0.524
756.000	450.584	80.008	19.993	103.195	19.581	34.597	0.502
756.500	450.843	80.001	19.995	103.194	19.583	34.406	0.474
757.000	451.079	80.002	19.995	103.190	19.586	34.242	0.474
757.500	451.380	80.001	19.995	103.185	19.586	34.213	0.516
758.000	451.638	79.999	19.994	103.186	19.589	34.024	0.549
758.501	451.884	80.001	19.994	103.186	19.588	34.055	0.532
759.001	452.111	80.002	19.995	103.184	19.592	33.743	0.488
759.500	452.361	80.002	19.994	103.185	19.590	33.929	0.475
760.000	452.619	80.010	19.993	103.185	19.585	34.250	0.493
760.500	452.837	80.002	19.996	103.186	19.592	33.796	0.492
761.000	453.101	80.001	19.995	103.186	19.590	33.906	0.479
761.500	453.349	80.002	19.994	103.186	19.592	33.786	0.498
762.000	453.615	80.003	19.995	103.186	19.595	33.559	0.513
762.500	453.874	80.002	19.995	103.186	19.594	33.594	0.519
763.000	454.081	80.002	19.995	103.183	19.592	33.734	0.495
763.500	454.366	80.004	19.996	103.183	19.596	33.485	0.479
764.000	454.622	80.007	19.995	103.179	19.597	33.431	0.516
764.500	454.845	80.005	19.994	103.178	19.591	33.839	0.510
765.000	455.102	80.000	19.995	103.172	19.595	33.553	0.480
765.500	455.366	80.004	19.995	103.166	19.596	33.461	0.500
766.000	455.628	80.004	19.995	103.164	19.595	33.518	0.523
766.500	455.863	80.001	19.995	103.161	19.595	33.542	0.511
767.000	456.113	80.004	19.995	103.159	19.592	33.771	0.491
767.500	456.330	80.003	19.995	103.163	19.594	33.624	0.476
768.000	456.606	80.002	19.994	103.165	19.591	33.837	0.480
768.500	456.848	80.003	19.994	103.161	19.592	33.743	0.506
769.001	457.106	80.007	19.995	103.165	19.590	33.875	0.509
769.500	457.332	80.004	19.995	103.168	19.591	33.846	0.492
770.000	457.589	80.005	19.995	103.166	19.588	34.034	0.483
770.500	457.845	80.006	19.994	103.163	19.586	34.176	0.498
771.000	458.056	79.999	19.995	103.165	19.586	34.168	0.490
771.500	458.326	80.008	19.994	103.164	19.586	34.224	0.474
772.000	458.592	80.004	19.994	103.166	19.584	34.374	0.509
772.500	458.836	80.007	19.995	103.163	19.584	34.350	0.522
773.000	459.117	80.004	19.995	103.165	19.584	34.319	0.517
773.500	459.341	79.997	19.995	103.171	19.586	34.182	0.516
774.000	459.595	79.986	19.994	103.173	19.584	34.344	0.492
774.500	459.904	79.997	19.994	103.169	19.581	34.531	0.520
775.000	460.151	80.017	19.993	103.169	19.587	34.148	0.560
775.500	460.409	80.006	19.995	103.168	19.583	34.387	0.531
776.000	460.653	79.998	19.993	103.161	19.581	34.553	0.504
776.500	460.920	80.007	19.993	103.158	19.582	34.461	0.506
777.000	461.156	80.002	19.993	103.157	19.585	34.245	0.507
777.500	461.447	80.003	19.994	103.156	19.581	34.532	0.515
778.000	461.702	80.002	19.995	103.154	19.584	34.316	0.537
778.500	461.965	80.002	19.994	103.153	19.583	34.396	0.532
779.000	462.224	80.003	19.995	103.151	19.581	34.555	0.520
779.500	462.484	80.003	19.995	103.147	19.586	34.175	0.521
780.000	462.754	80.002	19.994	103.145	19.584	34.366	0.525
780.500	463.015	80.002	19.993	103.146	19.586	34.166	0.530
781.000	463.253	79.998	19.995	103.146	19.585	34.269	0.514
781.500	463.536	80.001	19.995	103.144	19.586	34.225	0.510
782.000	463.792	80.004	19.993	103.143	19.590	33.914	0.530
782.501	464.047	80.003	19.994	103.144	19.591	33.793	0.526
783.000	464.334	80.005	19.994	103.144	19.593	33.693	0.527
783.500	464.581	80.001	19.994	103.143	19.588	34.082	0.538
784.000	464.844	80.003	19.995	103.145	19.593	33.678	0.522
784.500	465.136	79.999	19.996	103.144	19.595	33.506	0.533
785.000	465.392	79.989	19.995	103.142	19.599	33.239	0.551
785.500	465.649	80.002	19.995	103.139	19.602	33.042	0.530
786.000	465.925	80.003	19.995	103.138	19.603	32.937	0.523
786.500	466.157	80.008	19.994	103.135	19.606	32.713	0.521
787.000	466.431	80.000	19.996	103.133	19.608	32.611	0.507
787.500	466.740	80.001	19.996	103.130	19.612	32.308	0.544
788.000	467.001	80.001	19.995	103.131	19.618	31.854	0.577
788.500	467.307	80.004	19.995	103.131	19.621	31.618	0.568
789.000	467.585	80.004	19.994	103.131	19.626	31.292	0.576
789.500	467.848	80.002	19.995	103.131	19.625	31.298	0.562
790.000	468.130	80.006	19.995	103.132	19.631	30.881	0.543
790.500	468.408	80.003	19.995	103.130	19.637	30.467	0.553
791.000	468.648	80.003	19.995	103.125	19.639	30.290	0.539
791.500	468.941	80.003	19.995	103.125	19.647	29.725	0.526
792.000	469.212	80.005	19.994	103.125	19.651	29.400	0.548
792.500	469.475	80.003	19.995	103.125	19.654	29.190	0.549
793.000	469.750	80.001	19.994	103.124	19.659	28.834	0.536
793.500	470.034	80.005	19.995	103.125	19.665	28.378	0.549
794.000	470.274	80.001	19.996	103.122	19.669	28.137	0.541
794.500	470.583	80.003	19.994	103.117	19.670	28.014	0.536
795.000	470.884	80.000	19.996	103.118	19.677	27.514	0.579
795.500	471.130	80.005	19.994	103.119	19.683	27.064	0.579
796.000	471.400	80.004	19.996	103.121	19.684	26.973	0.532
796.500	471.690	80.004	19.996	103.126	19.691	26.482	0.538
797.000	471.951	80.005	19.996	103.132	19.694	26.270	0.556
797.500	472.221	80.003	19.996	103.132	19.699	25.871	0.541
798.000	472.534	80.005	19.995	103.134	19.703	25.622	0.557
798.500	472.807	80.005	19.994	103.136	19.711	25.053	0.585
799.000	473.020	80.005	19.995	103.136	19.710	25.102	0.536
799.500	473.356	80.003	19.996	103.136	19.718	24.537	0.517
800.000	473.642	80.004	19.995	103.137	19.722	24.216	0.585
800.500	473.923	80.004	19.995	103.137	19.726	23.899	0.594
801.000	474.198	80.003	19.996	103.137	19.729	23.702	0.561
801.500	474.507	80.005	19.994	103.136	19.734	23.292	0.570
802.000	474.779	80.003	19.995	103.135	19.741	22.817	0.582
802.500	475.088	80.003	19.996	103.134	19.744	22.614	0.581
803.000	475.350	80.004	19.995	103.136	19.749	22.232	0.577
803.500	475.602	80.000	19.995	103.136	19.752	22.002	0.542
804.000	475.871	80.002	19.994	103.136	19.760	21.451	0.517
804.500	476.176	80.001	19.996	103.138	19.762	21.261	0.547
805.000	476.431	80.001	19.996	103.138	19.767	20.896	0.568
805.500	476.730	80.003	19.995	103.139	19.770	20.668	0.557
806.000	477.012	80.000	19.994	103.139	19.772	20.544	0.567
806.500	477.281	80.000	19.996	103.139	19.779	20.044	0.566
807.001	477.578	80.000	19.995	103.139	19.783	19.759	0.559
807.500	477.858	80.004	19.994	103.139	19.788	19.370	0.571
808.000	478.119	80.004	19.995	103.139	19.788	19.382	0.559
808.500	478.403	80.005	19.995	103.139	19.795	18.866	0.543
809.000	478.662	80.001	19.996	103.140	19.798	18.650	0.544
809.500	478.982	80.003	19.996	103.139	19.804	18.212	0.561
810.000	479.225	80.004	19.995	103.139	19.808	17.875	0.571
810.500	479.478	80.004	19.996	103.138	19.809	17.794	0.530
811.000	479.724	79.999	19.996	103.139	19.813	17.505	0.498
811.500	480.055	80.000	19.996	103.138	19.820	16.985	0.538
812.001	480.325	79.998	19.996	103.138	19.823	16.803	0.589
812.500	480.613	80.007	19.994	103.137	19.826	16.565	0.579
813.000	480.856	79.996	19.996	103.139	19.830	16.246	0.544
813.500	481.138	80.001	19.996	103.137	19.835	15.917	0.528
814.000	481.442	80.002	19.996	103.139	19.837	15.773	0.555
814.500	481.711	80.003	19.995	103.139	19.840	15.541	0.579
815.000	481.991	80.000	19.996	103.140	19.841	15.468	0.561
815.500	482.290	80.006	19.995	103.139	19.849	14.909	0.564
816.000	482.570	80.000	19.996	103.141	19.851	14.707	0.578
816.500	482.832	80.007	19.994	103.139	19.857	14.298	0.560
817.000	483.079	79.999	19.997	103.142	19.858	14.245	0.526
817.500	483.376	79.998	19.995	103.142	19.861	13.999	0.527
818.001	483.662	80.000	19.997	103.142	19.864	13.810	0.564
818.501	483.931	80.000	19.996	103.141	19.865	13.678	0.569
819.000	484.237	79.998	19.997	103.141	19.867	13.592	0.565
819.500	484.472	80.002	19.996	103.139	19.874	13.049	0.557
820.000	484.751	80.001	19.996	103.139	19.879	12.710	0.528
820.500	485.014	80.004	19.995	103.140	19.878	12.768	0.528
821.000	485.313	80.002	19.995	103.139	19.884	12.330	0.552
821.501	485.571	80.002	19.995	103.141	19.885	12.260	0.560
822.000	485.858	80.000	19.995	103.142	19.886	12.143	0.551
822.500	486.154	80.001	19.996	103.141	19.889	11.913	0.564
823.000	486.425	80.002	19.995	103.142	19.891	11.761	0.575
823.500	486.713	80.000	19.995	103.142	19.895	11.533	0.563
824.000	487.006	79.998	19.995	103.142	19.896	11.414	0.570
824.500	487.241	80.001	19.995	103.141	19.898	11.281	0.554
825.000	487.478	79.999	19.996	103.142	19.900	11.158	0.500
825.500	487.759	80.010	19.995	103.143	19.901	11.093	0.495
826.000	488.039	80.003	19.995	103.144	19.902	10.964	0.540
826.500	488.329	80.003	19.996	103.145	19.903	10.921	0.566
827.000	488.631	80.003	19.995	103.145	19.906	10.669	0.581
827.500	488.869	80.005	19.993	103.145	19.908	10.548	0.566
828.000	489.146	79.999	19.994	103.146	19.908	10.512	0.527
828.500	489.403	79.999	19.996	103.144	19.911	10.312	0.524
829.000	489.710	80.005	19.994	103.144	19.908	10.514	0.549
829.500	489.999	80.001	19.995	103.145	19.911	10.290	0.580
830.000	490.267	80.003	19.995	103.144	19.911	10.337	0.577
830.500	490.537	80.001	19.994	103.144	19.912	10.221	0.547
831.000	490.790	79.996	19.995	103.145	19.912	10.229	0.531
831.500	491.059	79.994	19.997	103.145	19.916	9.939	0.523
832.000	491.367	80.004	19.995	103.143	19.915	10.006	0.549
832.500	491.620	79.997	19.995	103.144	19.917	9.858	0.569
833.000	491.887	79.999	19.994	103.144	19.918	9.834	0.541
833.500	492.196	79.999	19.994	103.142	19.920	9.675	0.548
834.000	492.476	79.999	19.994	103.143	19.922	9.497	0.582
834.500	492.709	79.998	19.994	103.143	19.921	9.601	0.551
835.000	493.034	80.001	19.994	103.143	19.918	9.777	0.536
835.500	493.271	80.001	19.996	103.143	19.924	9.378	0.560
836.000	493.539	79.999	19.996	103.143	19.922	9.497	0.533
836.500	493.855	80.001	19.995	103.144	19.922	9.479	0.544
837.000	494.095	80.009	19.993	103.144	19.924	9.398	0.570
837.500	494.366	80.001	19.995	103.147	19.925	9.330	0.534
838.000	494.634	80.001	19.995	103.148	19.927	9.130	0.525
838.500	494.914	80.000	19.994	103.149	19.928	9.079	0.544
839.001	495.179	79.998	19.995	103.149	19.927	9.160	0.547
839.500	495.414	79.999	19.994	103.148	19.928	9.067	0.523
840.000	495.744	79.997	19.995	103.145	19.927	9.170	0.532
840.500	496.005	80.002	19.994	103.145	19.929	8.975	0.578
841.000	496.288	80.003	19.993	103.144	19.928	9.065	0.568
841.500	496.541	80.003	19.995	103.146	19.929	8.991	0.540
842.000	496.830	79.998	19.994	103.146	19.930	8.924	0.539
842.500	497.068	80.002	19.994	103.143	19.929	8.997	0.534
843.000	497.333	80.003	19.994	103.144	19.931	8.868	0.515
843.500	497.572	80.001	19.995	103.145	19.929	8.981	0.503
844.000	497.906	80.001	19.994	103.143	19.932	8.765	0.539
844.500	498.152	80.000	19.994	103.143	19.931	8.838	0.577
845.000	498.396	80.004	19.993	103.147	19.932	8.771	0.535
845.500	498.691	80.000	19.995	103.149	19.930	8.951	0.515
846.000	498.955	79.999	19.995	103.147	19.932	8.755	0.549
846.500	499.212	80.004	19.994	103.147	19.929	8.965	0.540
847.000	499.465	80.000	19.995	103.147	19.937	8.443	0.515
847.500	499.749	80.002	19.995	103.147	19.935	8.534	0.524
848.000	500.027	80.001	19.995	103.144	19.934	8.609	0.550
848.500	500.290	80.006	19.995	103.143	19.933	8.684	0.552
849.000	500.567	80.010	19.993	103.143	19.933	8.724	0.541
849.500	500.816	80.003	19.994	103.144	19.933	8.686	0.533
850.000	501.095	80.003	19.995	103.143	19.934	8.635	0.526
850.500	501.352	80.002	19.995	103.144	19.931	8.833	0.532
851.000	501.645	80.002	19.995	103.144	19.933	8.730	0.543
851.500	501.900	79.998	19.996	103.142	19.936	8.514	0.549
852.000	502.197	80.005	19.994	103.140	19.932	8.795	0.550
852.500	502.465	80.004	19.996	103.141	19.933	8.720	0.558
853.000	502.716	80.004	19.995	103.141	19.933	8.698	0.542
853.500	502.985	80.005	19.995	103.141	19.934	8.668	0.520
854.000	503.254	79.980	19.995	103.141	19.933	8.688	0.529
854.500	503.478	80.008	19.994	103.139	19.930	8.904	0.515
855.000	503.774	79.992	19.996	103.139	19.934	8.613	0.507
855.500	504.051	79.988	19.995	103.135	19.935	8.543	0.546
856.000	504.318	80.007	19.995	103.136	19.936	8.476	0.558
856.500	504.569	80.006	19.996	103.137	19.933	8.690	0.531
857.000	504.816	80.003	19.995	103.140	19.932	8.781	0.508
857.500	505.104	80.022	19.994	103.141	19.933	8.718	0.517
858.000	505.346	80.002	19.996	103.148	19.931	8.825	0.532
858.500	505.660	80.015	19.994	103.144	19.932	8.791	0.543
859.000	505.897	80.012	19.994	103.146	19.932	8.789	0.554
859.500	506.170	80.002	19.994	103.146	19.934	8.654	0.531
860.000	506.450	80.009	19.994	103.145	19.933	8.740	0.532
860.500	506.702	79.998	19.994	103.143	19.934	8.605	0.542
861.000	506.974	80.001	19.995	103.146	19.935	8.587	0.528
861.500	507.262	80.007	19.995	103.142	19.931	8.856	0.542
862.000	507.510	80.004	19.994	103.143	19.932	8.779	0.548
862.500	507.775	80.004	19.995	103.143	19.931	8.835	0.525
863.000	508.038	80.004	19.995	103.141	19.931	8.872	0.521
863.500	508.259	80.004	19.996	103.142	19.931	8.823	0.506
864.000	508.557	80.002	19.995	103.143	19.931	8.847	0.501
864.500	508.796	80.002	19.994	103.142	19.932	8.769	0.528
865.000	509.031	80.006	19.995	103.142	19.932	8.773	0.505
865.500	509.343	80.004	19.995	103.142	19.931	8.853	0.511
866.000	509.609	80.004	19.993	103.142	19.933	8.690	0.563
866.500	509.845	80.003	19.995	103.141	19.930	8.900	0.540
867.000	510.124	80.003	19.995	103.142	19.933	8.686	0.509
867.500	510.372	80.003	19.995	103.142	19.927	9.122	0.521
868.000	510.643	79.999	19.995	103.142	19.926	9.214	0.523
868.500	510.906	80.006	19.994	103.141	19.927	9.120	0.527
869.000	511.161	80.005	19.995	103.142	19.931	8.852	0.525
869.500	511.437	80.004	19.995	103.142	19.931	8.848	0.524
870.001	511.681	80.002	19.994	103.142	19.931	8.872	0.525
870.501	511.908	80.001	19.994	103.142	19.932	8.785	0.496
871.001	512.168	80.005	19.994	103.142	19.931	8.866	0.479
871.500	512.467	80.004	19.995	103.142	19.933	8.706	0.523
872.000	512.684	80.008	19.993	103.141	19.932	8.791	0.538
872.500	512.907	80.004	19.994	103.141	19.932	8.803	0.478
873.000	513.245	80.004	19.994	103.141	19.932	8.765	0.500
873.500	513.501	80.004	19.994	103.142	19.932	8.781	0.577
874.000	513.754	80.001	19.994	103.142	19.932	8.747	0.552
874.500	514.025	79.999	19.994	103.143	19.934	8.646	0.516
875.000	514.294	80.003	19.995	103.142	19.927	9.144	0.532
875.500	514.526	80.005	19.994	103.143	19.932	8.785	0.521
876.000	514.803	80.000	19.994	103.142	19.930	8.932	0.505
876.500	515.075	80.010	19.994	103.142	19.930	8.910	0.529
877.000	515.352	80.001	19.996	103.143	19.928	9.063	0.549
877.500	515.608	80.009	19.995	103.143	19.930	8.896	0.541
878.000	515.838	80.002	19.993	103.143	19.930	8.926	0.510
878.500	516.124	80.017	19.993	103.144	19.930	8.918	0.501
879.000	516.327	79.992	19.996	103.144	19.931	8.837	0.502
879.500	516.618	80.006	19.995	103.140	19.929	9.021	0.491
880.000	516.895	80.009	19.995	103.140	19.930	8.942	0.531
880.500	517.099	80.001	19.995	103.140	19.930	8.926	0.525
881.000	517.382	80.005	19.994	103.137	19.929	8.975	0.484
881.501	517.622	80.003	19.995	103.137	19.926	9.241	0.506
882.000	517.878	80.001	19.996	103.140	19.932	8.809	0.510
882.500	518.125	80.003	19.995	103.140	19.932	8.753	0.499
883.000	518.389	80.002	19.995	103.140	19.932	8.801	0.507
883.500	518.657	80.006	19.995	103.142	19.932	8.793	0.522
884.000	518.933	80.004	19.996	103.141	19.928	9.091	0.538
884.500	519.190	80.002	19.995	103.141	19.933	8.730	0.538
885.000	519.443	80.002	19.995	103.141	19.931	8.833	0.522
885.500	519.713	80.002	19.995	103.141	19.929	9.011	0.517
886.000	519.973	80.000	19.995	103.141	19.934	8.665	0.527
886.500	520.242	80.004	19.995	103.141	19.934	8.645	0.530
887.000	520.485	79.999	19.995	103.140	19.932	8.799	0.521
887.500	520.768	80.003	19.995	103.141	19.932	8.809	0.519
888.000	521.035	80.003	19.995	103.142	19.930	8.914	0.538
888.500	521.278	80.002	19.996	103.141	19.931	8.884	0.530
889.000	521.519	80.003	19.996	103.142	19.932	8.793	0.497
889.500	521.775	80.001	19.996	103.143	19.931	8.847	0.490
890.000	522.026	80.001	19.995	103.143	19.931	8.880	0.502
890.500	522.285	79.997	19.997	103.144	19.933	8.738	0.508
891.000	522.515	80.004	19.995	103.144	19.930	8.940	0.499
891.500	522.828	79.993	19.997	103.144	19.930	8.932	0.516
892.000	523.084	80.002	19.996	103.141	19.929	8.999	0.556
892.501	523.319	79.999	19.995	103.140	19.930	8.962	0.530
893.000	523.595	80.002	19.995	103.139	19.931	8.886	0.501
893.500	523.828	80.002	19.994	103.140	19.927	9.130	0.510
894.000	524.104	80.001	19.994	103.140	19.927	9.150	0.509
894.500	524.348	80.001	19.995	103.143	19.930	8.934	0.515
895.000	524.575	80.001	19.995	103.143	19.930	8.924	0.496
895.500	524.877	80.000	19.994	103.143	19.931	8.865	0.500
896.000	525.106	80.002	19.995	103.144	19.929	9.011	0.529
896.500	525.406	80.006	19.993	103.144	19.930	8.910	0.530
897.000	525.667	80.001	19.996	103.146	19.930	8.962	0.545
897.500	525.910	80.002	19.995	103.146	19.930	8.944	0.533
898.000	526.170	80.001	19.995	103.146	19.930	8.948	0.504
898.500	526.413	79.997	19.996	103.145	19.928	9.077	0.502
899.000	526.689	80.003	19.994	103.144	19.933	8.732	0.511
899.500	526.931	80.000	19.995	103.144	19.928	9.041	0.519
900.000	527.171	79.999	19.995	103.143	19.929	9.017	0.501
900.500	527.429	80.001	19.996	103.143	19.928	9.041	0.490
901.000	527.706	79.999	19.995	103.142	19.929	8.976	0.516
901.500	527.947	80.001	19.996	103.143	19.928	9.094	0.526
902.000	528.213	80.002	19.995	103.142	19.928	9.073	0.512
902.500	528.445	80.002	19.995	103.143	19.925	9.281	0.503
903.000	528.738	80.003	19.994	103.142	19.927	9.148	0.511
903.500	529.010	79.999	19.995	103.144	19.928	9.104	0.545
904.001	529.219	80.004	19.995	103.144	19.928	9.088	0.523
904.500	529.540	80.002	19.995	103.144	19.926	9.239	0.506
905.000	529.755	80.000	19.995	103.145	19.929	9.007	0.534
905.500	529.988	80.000	19.995	103.145	19.924	9.346	0.492
906.000	530.264	79.998	19.995	103.145	19.923	9.473	0.478
906.500	530.533	80.003	19.996	103.145	19.924	9.338	0.526
907.000	530.743	79.997	19.995	103.145	19.923	9.443	0.512
907.500	530.993	80.001	19.996	103.144	19.923	9.463	0.469
908.000	531.263	80.002	19.995	103.144	19.924	9.340	0.490
908.500	531.554	80.001	19.996	103.145	19.921	9.618	0.541
909.000	531.809	80.000	19.997	103.144	19.922	9.487	0.554
909.500	532.062	80.000	19.996	103.144	19.924	9.352	0.527
910.000	532.314	80.001	19.996	103.145	19.922	9.479	0.506
910.500	532.562	79.997	19.997	103.145	19.920	9.628	0.502
911.000	532.845	80.005	19.996	103.144	19.920	9.643	0.515
911.500	533.066	79.998	19.997	103.146	19.925	9.295	0.517
912.000	533.357	80.000	19.996	103.144	19.925	9.281	0.508
912.500	533.598	80.002	19.996	103.143	19.921	9.580	0.522
913.000	533.819	80.000	19.996	103.142	19.923	9.463	0.497
913.500	534.095	79.998	19.997	103.142	19.924	9.394	0.480
914.000	534.345	80.001	19.996	103.141	19.921	9.604	0.512
914.500	534.633	80.001	19.997	103.143	19.923	9.435	0.532
915.000	534.837	79.998	19.996	103.142	19.922	9.534	0.515
915.500	535.115	80.002	19.996	103.144	19.918	9.794	0.487
916.000	535.352	79.998	19.997	103.144	19.920	9.655	0.498
916.500	535.612	80.001	19.997	103.143	19.919	9.742	0.506
917.000	535.885	79.999	19.997	103.142	19.918	9.784	0.515
917.500	536.137	80.002	19.997	103.143	19.919	9.744	0.529
918.000	536.425	80.001	19.995	103.141	19.919	9.705	0.533
918.500	536.633	80.000	19.996	103.141	19.917	9.859	0.518
919.000	536.934	80.002	19.997	103.142	19.914	10.113	0.502
919.500	537.179	80.002	19.995	103.142	19.916	9.931	0.527
920.000	537.421	80.001	19.995	103.141	19.917	9.889	0.517
920.501	537.655	80.002	19.995	103.141	19.916	9.919	0.482
921.000	537.891	80.000	19.995	103.141	19.914	10.079	0.473
921.500	538.165	80.001	19.995	103.141	19.917	9.891	0.490
922.000	538.409	80.000	19.996	103.141	19.917	9.885	0.514
922.500	538.694	80.000	19.995	103.141	19.916	9.960	0.523
923.000	538.933	80.003	19.996	103.142	19.915	10.064	0.526
923.500	539.221	80.002	19.994	103.142	19.916	9.925	0.526
924.000	539.463	80.003	19.995	103.141	19.912	10.250	0.529
924.500	539.683	80.001	19.996	103.142	19.913	10.155	0.496
925.000	539.956	80.002	19.996	103.142	19.915	10.040	0.478
925.500	540.229	80.001	19.995	103.141	19.914	10.095	0.519
926.000	540.477	80.003	19.995	103.141	19.913	10.193	0.533
926.500	540.746	80.002	19.995	103.141	19.917	9.879	0.519
927.000	540.981	80.003	19.995	103.138	19.914	10.107	0.510
927.500	541.219	80.001	19.996	103.138	19.913	10.196	0.489
928.000	541.499	80.001	19.995	103.139	19.915	9.994	0.496
928.500	541.705	80.002	19.994	103.139	19.914	10.077	0.502
929.000	541.972	80.004	19.995	103.140	19.911	10.299	0.480
929.500	542.236	80.002	19.995	103.142	19.914	10.105	0.502
930.000	542.492	80.004	19.994	103.142	19.915	10.040	0.525
930.500	542.729	80.002	19.995	103.142	19.914	10.095	0.506
931.000	542.960	80.004	19.997	103.142	19.913	10.159	0.480
931.500	543.277	80.003	19.996	103.140	19.912	10.218	0.508
932.000	543.486	80.004	19.994	103.140	19.913	10.157	0.537
932.500	543.700	80.003	19.995	103.140	19.913	10.193	0.475
933.000	543.946	80.005	19.994	103.140	19.912	10.224	0.441
933.500	544.218	80.005	19.995	103.141	19.912	10.238	0.488
934.000	544.460	80.001	19.997	103.141	19.911	10.357	0.516
934.500	544.717	80.006	19.995	103.140	19.911	10.335	0.507
935.000	544.957	80.002	19.994	103.140	19.910	10.371	0.498
935.500	545.213	80.004	19.994	103.141	19.910	10.426	0.497
936.000	545.473	80.004	19.996	103.141	19.911	10.294	0.506
936.500	545.723	80.000	19.995	103.141	19.912	10.276	0.513
937.000	545.973	80.006	19.995	103.142	19.911	10.311	0.505
937.500	546.194	80.003	19.996	103.141	19.913	10.206	0.486
938.000	546.456	80.003	19.995	103.139	19.912	10.232	0.477
938.500	546.757	79.999	19.995	103.139	19.911	10.349	0.523
939.000	547.011	80.002	19.995	103.140	19.909	10.492	0.559
939.500	547.231	80.003	19.994	103.140	19.911	10.296	0.514
940.000	547.483	80.001	19.996	103.141	19.910	10.367	0.473
940.500	547.764	80.001	19.994	103.141	19.911	10.345	0.503
941.000	548.019	80.003	19.995	103.141	19.911	10.332	0.535
941.500	548.292	80.000	19.994	103.140	19.910	10.389	0.532
942.000	548.532	80.001	19.994	103.142	19.910	10.393	0.520
942.500	548.756	80.002	19.996	103.142	19.911	10.338	0.488
943.000	549.043	80.004	19.995	103.143	19.910	10.368	0.488
943.500	549.245	80.007	19.995	103.143	19.909	10.461	0.500
944.000	549.509	80.005	19.995	103.143	19.909	10.447	0.478
944.500	549.769	80.002	19.995	103.142	19.908	10.516	0.495
945.000	550.051	80.003	19.995	103.142	19.908	10.538	0.533
945.500	550.308	80.002	19.995	103.142	19.910	10.421	0.540
946.000	550.551	80.001	19.994	103.142	19.907	10.635	0.519
946.500	550.819	80.002	19.995	103.141	19.906	10.684	0.506
947.000	551.042	80.002	19.995	103.142	19.909	10.446	0.501
947.500	551.309	80.003	19.995	103.142	19.910	10.403	0.490
948.000	551.569	80.004	19.994	103.142	19.911	10.355	0.509
948.500	551.794	80.002	19.995	103.142	19.912	10.232	0.506
949.000	552.065	79.999	19.995	103.144	19.910	10.399	0.491
949.500	552.320	80.000	19.995	103.143	19.912	10.244	0.511
950.000	552.597	80.005	19.994	103.143	19.914	10.133	0.529
950.500	552.850	80.003	19.996	103.144	19.913	10.207	0.531
951.000	553.107	80.003	19.994	103.143	19.911	10.316	0.520
951.500	553.378	80.003	19.994	103.142	19.912	10.268	0.519
952.000	553.629	80.000	19.995	103.144	19.910	10.433	0.525
952.500	553.862	80.006	19.995	103.145	19.911	10.316	0.503
953.000	554.146	80.002	19.994	103.145	19.912	10.268	0.501
953.500	554.391	80.007	19.993	103.147	19.909	10.458	0.523
954.001	554.674	80.003	19.994	103.148	19.913	10.197	0.529
954.500	554.937	80.004	19.994	103.146	19.909	10.474	0.537
955.000	555.169	80.003	19.994	103.145	19.906	10.655	0.520
955.500	555.413	80.006	19.994	103.145	19.911	10.300	0.486
956.000	555.704	80.004	19.994	103.145	19.908	10.553	0.506
956.500	555.959	80.004	19.994	103.143	19.910	10.427	0.541
957.000	556.231	80.006	19.994	103.145	19.911	10.324	0.537
957.500	556.415	80.003	19.994	103.144	19.910	10.383	0.491
958.000	556.699	80.002	19.994	103.144	19.909	10.470	0.462
958.500	556.987	80.004	19.994	103.144	19.911	10.296	0.520
959.000	557.234	80.003	19.994	103.144	19.910	10.425	0.553
959.500	557.442	80.000	19.994	103.143	19.909	10.451	0.495
960.000	557.727	80.006	19.993	103.143	19.910	10.409	0.474
960.501	558.005	80.004	19.993	103.144	19.909	10.483	0.528
961.000	558.264	80.004	19.993	103.143	19.910	10.419	0.550
961.500	558.535	80.002	19.994	103.143	19.910	10.397	0.534
962.000	558.749	80.006	19.993	103.144	19.911	10.332	0.507
962.500	559.014	80.001	19.994	103.143	19.914	10.138	0.482
963.000	559.300	80.005	19.993	103.143	19.911	10.292	0.515
963.500	559.531	80.004	19.995	103.145	19.908	10.564	0.534
964.000	559.797	80.003	19.993	103.144	19.907	10.651	0.507
964.500	560.074	80.002	19.994	103.144	19.907	10.635	0.520
965.000	560.279	80.004	19.994	103.144	19.909	10.478	0.512
965.500	560.537	80.003	19.994	103.145	19.908	10.571	0.472
966.000	560.783	80.002	19.994	103.143	19.907	10.605	0.484
966.500	561.072	79.999	19.994	103.145	19.906	10.671	0.519
967.000	561.305	80.003	19.996	103.143	19.905	10.788	0.528
967.500	561.564	80.001	19.995	103.143	19.907	10.649	0.507
968.000	561.847	80.002	19.996	103.145	19.905	10.774	0.518
968.500	562.085	79.999	19.995	103.144	19.909	10.480	0.532
969.000	562.332	80.003	19.995	103.144	19.908	10.537	0.503
969.500	562.605	80.001	19.996	103.144	19.910	10.361	0.502
970.000	562.854	80.004	19.995	103.144	19.906	10.662	0.521
970.500	563.105	80.000	19.996	103.145	19.906	10.698	0.511
971.000	563.364	80.002	19.995	103.147	19.907	10.617	0.505
971.500	563.617	80.000	19.995	103.149	19.906	10.724	0.511
972.000	563.859	79.998	19.996	103.150	19.905	10.788	0.504
972.500	564.115	80.001	19.995	103.149	19.908	10.564	0.497
973.000	564.360	79.999	19.995	103.148	19.904	10.819	0.499
973.500	564.610	79.999	19.995	103.148	19.904	10.851	0.498
974.000	564.873	80.003	19.994	103.145	19.904	10.819	0.504
974.500	565.109	80.001	19.995	103.145	19.904	10.827	0.506
975.000	565.374	80.001	19.996	103.145	19.905	10.771	0.500
975.500	565.613	80.001	19.995	103.145	19.903	10.892	0.503
976.000	565.909	79.999	19.996	103.144	19.904	10.867	0.519
976.500	566.171	80.003	19.997	103.144	19.903	10.942	0.547
977.000	566.404	80.003	19.995	103.145	19.905	10.740	0.527
977.500	566.658	80.001	19.995	103.146	19.902	10.956	0.491
978.000	566.865	80.001	19.996	103.145	19.902	10.990	0.474
978.500	567.163	80.001	19.995	103.146	19.905	10.769	0.483
979.000	567.398	80.004	19.995	103.145	19.903	10.875	0.519
979.500	567.690	80.000	19.995	103.143	19.900	11.140	0.530
980.000	567.892	79.999	19.996	103.141	19.903	10.908	0.511
980.500	568.179	79.999	19.995	103.140	19.901	11.049	0.491
981.000	568.435	80.001	19.995	103.139	19.901	11.055	0.516
981.500	568.646	80.002	19.996	103.139	19.902	10.983	0.505
982.000	568.937	80.001	19.995	103.141	19.903	10.880	0.484
982.501	569.212	79.999	19.994	103.142	19.900	11.100	0.534
983.000	569.481	80.002	19.994	103.145	19.902	10.985	0.555
983.500	569.743	80.003	19.995	103.145	19.901	11.041	0.538
984.000	569.994	80.003	19.995	103.146	19.902	10.999	0.522
984.500	570.276	80.001	19.995	103.146	19.901	11.065	0.523
985.000	570.493	80.004	19.995	103.144	19.902	11.001	0.516
985.501	570.748	80.003	19.995	103.143	19.897	11.344	0.485
986.000	570.972	80.002	19.995	103.143	19.901	11.073	0.475
986.500	571.242	80.002	19.995	103.143	19.898	11.279	0.487
987.000	571.498	80.001	19.995	103.144	19.898	11.261	0.511
987.500	571.754	80.002	19.995	103.144	19.898	11.295	0.519
988.000	572.030	79.999	19.996	103.144	19.899	11.182	0.522
988.500	572.249	80.003	19.995	103.144	19.899	11.212	0.513
989.000	572.526	80.001	19.995	103.145	19.898	11.305	0.495
989.500	572.805	80.000	19.995	103.143	19.897	11.358	0.526
990.000	573.061	80.002	19.995	103.143	19.894	11.590	0.545
990.500	573.349	80.001	19.995	103.142	19.893	11.666	0.540
991.001	573.574	80.002	19.995	103.142	19.897	11.380	0.529
991.500	573.840	79.999	19.996	103.142	19.897	11.367	0.502
992.000	574.105	80.001	19.994	103.142	19.897	11.351	0.511
992.500	574.371	80.003	19.996	103.142	19.895	11.498	0.531
993.000	574.647	80.001	19.996	103.142	19.892	11.684	0.537
993.500	574.879	80.000	19.995	103.143	19.894	11.573	0.526
994.000	575.169	80.003	19.995	103.142	19.891	11.781	0.515
994.500	575.430	80.000	19.996	103.142	19.890	11.844	0.536
995.000	575.661	80.000	19.995	103.142	19.891	11.826	0.521
995.500	575.956	80.002	19.995	103.143	19.891	11.786	0.509
996.000	576.230	79.999	19.995	103.143	19.886	12.163	0.548
996.500	576.466	79.999	19.997	103.142	19.891	11.812	0.540
997.000	576.727	80.001	19.996	103.142	19.889	11.971	0.503
997.500	576.989	80.001	19.995	103.143	19.888	11.997	0.510
998.000	577.247	80.000	19.996	103.142	19.888	11.988	0.521
998.500	577.505	80.000	19.996	103.142	19.886	12.191	0.518
999.000	577.745	79.999	19.996	103.142	19.884	12.302	0.507
999.500	578.024	79.999	19.996	103.144	19.886	12.139	0.508
1000.000	578.246	79.999	19.996	103.144	19.888	12.001	0.510
1000.500	578.522	80.000	19.998	103.145	19.888	12.032	0.500
1001.000	578.756	80.000	19.996	103.145	19.885	12.229	0.504
1001.500	579.072	79.999	19.997	103.147	19.881	12.516	0.530
1002.000	579.289	79.999	19.997	103.146	19.883	12.393	0.542
1002.500	579.589	80.001	19.996	103.147	19.882	12.480	0.525
1003.000	579.783	79.999	19.997	103.149	19.882	12.445	0.505
1003.500	580.083	80.001	19.996	103.150	19.882	12.449	0.494
1004.000	580.316	80.002	19.996	103.149	19.881	12.526	0.514
1004.500	580.606	80.001	19.997	103.147	19.880	12.577	0.528
1005.000	580.882	80.002	19.997	103.145	19.881	12.538	0.544
1005.500	581.116	80.001	19.995	103.144	19.879	12.665	0.538
1006.000	581.357	80.001	19.995	103.142	19.875	13.000	0.493
1006.500	581.631	80.001	19.994	103.144	19.881	12.544	0.495
1007.000	581.851	80.003	19.996	103.144	19.879	12.663	0.505
1007.500	582.082	80.001	19.996	103.145	19.879	12.647	0.472
1008.000	582.368	80.002	19.997	103.144	19.877	12.828	0.484
1008.500	582.648	80.002	19.995	103.144	19.878	12.765	0.541
1009.000	582.892	80.001	19.995	103.142	19.879	12.698	0.545
1009.500	583.100	80.003	19.995	103.141	19.876	12.914	0.488
1010.000	583.395	80.002	19.996	103.143	19.876	12.924	0.478
1010.500	583.617	80.004	19.995	103.142	19.876	12.879	0.510
1011.000	583.860	80.001	19.994	103.145	19.874	13.010	0.491
1011.500	584.127	79.999	19.995	103.146	19.872	13.188	0.487
1012.000	584.431	80.003	19.994	103.146	19.872	13.173	0.540
1012.500	584.632	80.002	19.993	103.145	19.873	13.104	0.538
1013.000	584.896	80.003	19.994	103.145	19.873	13.133	0.485
1013.500	585.209	80.003	19.994	103.143	19.871	13.262	0.522
1014.000	585.444	80.002	19.995	103.143	19.871	13.294	0.562
1014.500	585.691	80.002	19.994	103.144	19.869	13.408	0.514
1015.000	585.926	80.003	19.994	103.144	19.867	13.527	0.482
1015.500	586.153	80.004	19.995	103.144	19.869	13.377	0.473
1016.000	586.481	80.002	19.995	103.144	19.871	13.270	0.509
1016.500	586.659	80.002	19.994	103.144	19.870	13.335	0.531
1017.000	586.955	80.004	19.995	103.143	19.864	13.810	0.490
1017.500	587.226	80.003	19.994	103.144	19.865	13.718	0.520
1018.000	587.437	80.004	19.995	103.144	19.868	13.496	0.524
1018.500	587.681	80.001	19.995	103.145	19.864	13.812	0.469
1019.000	587.940	80.002	19.995	103.147	19.860	14.069	0.479
1019.500	588.189	80.003	19.995	103.150	19.867	13.575	0.505
1020.000	588.474	80.003	19.994	103.157	19.858	14.232	0.521
1020.500	588.806	80.002	19.996	103.159	19.862	13.910	0.576
1021.000	588.967	80.001	19.994	103.161	19.858	14.190	0.555
1021.500	589.259	80.001	19.994	103.164	19.863	13.825	0.473
1022.000	589.484	80.003	19.994	103.164	19.857	14.299	0.485
1022.500	589.820	80.002	19.994	103.157	19.856	14.390	0.539
1023.000	590.022	80.002	19.994	103.155	19.856	14.388	0.549
1023.500	590.274	80.002	19.996	103.153	19.856	14.346	0.496
1024.000	590.520	80.003	19.994	103.148	19.857	14.326	0.476
1024.500	590.801	80.000	19.994	103.146	19.856	14.344	0.512
1025.000	591.026	80.000	19.995	103.149	19.853	14.563	0.517
1025.500	591.257	80.001	19.994	103.157	19.856	14.393	0.482
1026.001	591.584	80.004	19.994	103.159	19.853	14.585	0.507
1026.501	591.789	80.000	19.995	103.164	19.849	14.873	0.545
1027.000	592.096	80.001	19.995	103.163	19.848	14.926	0.522
1027.501	592.278	80.000	19.993	103.162	19.846	15.112	0.501
1028.001	592.624	80.004	19.996	103.159	19.850	14.807	0.509
1028.501	592.814	80.003	19.995	103.165	19.841	15.443	0.532
1029.001	593.089	80.003	19.995	103.167	19.846	15.134	0.500
1029.501	593.441	80.002	19.994	103.174	19.840	15.554	0.546
1030.000	593.580	80.001	19.994	103.180	19.838	15.728	0.559
1030.500	593.900	80.001	19.993	103.181	19.837	15.758	0.475
1031.001	594.133	80.004	19.993	103.180	19.836	15.849	0.506
1031.501	594.387	79.997	19.995	103.180	19.833	16.037	0.520
1032.000	594.700	80.011	19.993	103.177	19.835	15.917	0.527
1032.501	594.976	80.000	19.995	103.180	19.819	17.099	0.578
1033.001	595.225	80.009	19.993	103.181	19.843	15.338	0.557
1033.500	595.435	80.006	19.994	103.180	19.826	16.593	0.492
1034.000	595.688	80.004	19.992	103.175	19.822	16.888	0.461
1034.500	596.000	80.003	19.995	103.175	19.820	17.041	0.514
1035.000	596.142	80.005	19.994	103.174	19.825	16.664	0.509
1035.500	596.501	80.010	19.993	103.175	19.812	17.600	0.478
1036.000	596.774	80.001	19.997	103.179	19.804	18.209	0.566
1036.501	596.973	80.006	19.994	103.183	19.800	18.462	0.552
1037.001	597.173	80.004	19.995	103.186	19.801	18.395	0.436
1037.500	597.594	80.004	19.996	103.184	19.818	17.147	0.510
1038.000	597.708	80.001	19.995	103.182	19.810	17.728	0.578
1038.500	598.010	80.004	19.994	103.179	19.812	17.606	0.476
1039.000	598.296	80.004	19.994	103.180	19.790	19.235	0.502
1039.500	598.655	80.002	19.995	103.178	19.807	17.976	0.616
1040.000	598.763	80.002	19.994	103.179	19.793	19.007	0.556
1040.500	598.981	80.007	19.994	103.179	19.785	19.575	0.396
1041.000	599.296	80.009	19.994	103.175	19.795	18.851	0.430
1041.501	599.575	80.003	19.993	103.176	19.780	19.977	0.563
1042.001	599.961	80.003	19.994	103.176	19.794	18.912	0.629
1042.500	599.904	80.002	19.995	103.176	19.783	19.711	0.497
1043.000	600.365	80.006	19.993	103.176	19.780	19.963	0.366
1043.500	600.436	80.004	19.994	103.180	19.779	20.042	0.468
1044.000	600.825	79.999	19.994	103.179	19.775	20.350	0.496
1044.500	601.204	80.001	19.996	103.178	19.777	20.199	0.614
1045.000	601.398	80.001	19.994	103.178	19.772	20.578	0.671
1045.500	601.585	80.005	19.994	103.177	19.771	20.649	0.477
1046.001	601.994	79.999	19.996	103.178	19.769	20.750	0.489
1046.501	601.705	79.997	19.995	103.178	19.762	21.291	0.358
1047.000	602.727	80.015	19.991	103.179	19.763	21.210	0.426
1047.500	602.067	80.001	19.994	103.185	19.759	21.480	0.548
1048.000	603.027	80.001	19.993	103.185	19.759	21.486	0.331
1048.500	602.896	80.003	19.994	103.186	19.757	21.624	0.564
1049.000	603.743	80.000	19.994	103.186	19.755	21.819	0.772
1049.500	603.093	80.007	19.993	103.186	19.753	21.970	0.457
1050.000	603.811	79.998	19.994	103.182	19.750	22.144	0.132
1050.500	604.160	80.004	19.994	103.181	19.748	22.297	0.567
1051.000	603.948	80.003	19.993	103.183	19.748	22.333	0.603
1051.500	604.694	80.001	19.997	103.185	19.745	22.517	0.336
1052.000	605.582	80.000	19.995	103.185	19.746	22.490	1.084
1052.500	605.733	80.008	19.994	103.184	19.745	22.536	1.336
1053.000	605.051	80.002	19.994	103.185	19.739	22.957	0.254
1053.500	605.806	80.002	19.995	103.183	19.737	23.143	-0.229
1054.000	606.188	80.003	19.995	103.182	19.734	23.363	0.605
1054.500	605.914	80.003	19.995	103.181	19.737	23.149	0.622
1055.000	606.301	80.001	19.995	103.184	19.733	23.401	0.111
1055.500	606.684	80.003	19.994	103.184	19.729	23.707	0.442
1056.001	607.134	80.000	19.994	103.185	19.731	23.548	0.801
1056.501	607.115	79.999	19.994	103.183	19.728	23.790	0.632
1057.000	607.312	80.001	19.994	103.183	19.730	23.657	0.305
1057.500	607.761	80.003	19.995	103.181	19.728	23.758	0.412
1058.000	607.923	80.004	19.995	103.181	19.727	23.823	0.629
1058.501	608.164	80.001	19.995	103.181	19.725	23.969	0.507
1059.001	608.365	80.000	19.995	103.182	19.725	24.019	0.422
1059.500	608.589	80.006	19.994	103.182	19.723	24.130	0.433
1060.000	608.936	80.000	19.996	103.184	19.719	24.409	0.498
1060.500	609.104	79.998	19.995	103.183	19.721	24.276	0.543
1061.000	609.387	80.000	19.996	103.182	19.720	24.369	0.482
1061.500	609.698	80.003	19.994	103.183	19.721	24.273	0.522
1062.000	609.974	79.999	19.997	103.185	19.717	24.577	0.590
1062.500	610.191	80.004	19.994	103.184	19.717	24.602	0.540
1063.001	610.403	80.001	19.996	103.185	19.718	24.479	0.461
1063.501	610.754	79.996	19.997	103.186	19.721	24.327	0.496
1064.001	610.940	80.000	19.995	103.184	19.715	24.733	0.550
1064.501	611.189	80.000	19.997	103.182	19.716	24.677	0.486
1065.000	611.459	80.002	19.994	103.182	19.715	24.739	0.477
1065.500	611.680	80.002	19.995	103.182	19.716	24.652	0.505
1066.000	611.921	79.999	19.995	103.182	19.718	24.535	0.476
1066.500	612.161	80.003	19.995	103.183	19.717	24.557	0.472
1067.000	612.488	80.003	19.995	103.182	19.715	24.742	0.524
1067.501	612.711	79.999	19.996	103.181	19.717	24.609	0.558
1068.001	612.966	80.002	19.995	103.180	19.719	24.414	0.514
1068.500	613.240	80.004	19.995	103.180	19.721	24.292	0.503
1069.000	613.501	80.010	19.994	103.181	19.718	24.487	0.532
1069.500	613.687	79.999	19.995	103.183	19.722	24.236	0.491
1070.001	613.977	79.999	19.995	103.186	19.720	24.330	0.461
1070.501	614.247	80.004	19.997	103.186	19.720	24.328	0.518
1071.000	614.444	80.001	19.995	103.185	19.722	24.209	0.513
1071.500	614.740	80.001	19.996	103.183	19.724	24.039	0.480
1072.000	614.975	80.003	19.995	103.182	19.728	23.745	0.512
1072.500	615.207	80.000	19.994	103.179	19.728	23.741	0.499
1073.000	615.512	80.003	19.994	103.180	19.729	23.672	0.502
1073.500	615.746	79.998	19.995	103.180	19.731	23.541	0.538
1074.000	615.977	80.001	19.995	103.180	19.734	23.345	0.503
1074.500	616.227	80.002	19.994	103.179	19.736	23.157	0.473
1075.000	616.548	80.000	19.995	103.179	19.741	22.812	0.525
1075.500	616.731	80.003	19.995	103.179	19.743	22.699	0.538
1076.000	617.014	79.998	19.995	103.179	19.748	22.267	0.485
1076.500	617.255	79.999	19.995	103.179	19.749	22.249	0.495
1077.000	617.454	80.001	19.995	103.180	19.754	21.883	0.482
1077.500	617.770	80.003	19.995	103.180	19.758	21.589	0.478
1078.000	618.024	80.001	19.995	103.182	19.760	21.412	0.542
1078.500	618.270	79.999	19.995	103.182	19.762	21.271	0.535
1079.000	618.521	80.002	19.996	103.178	19.768	20.852	0.499
1079.500	618.754	80.000	19.995	103.177	19.772	20.507	0.491
1080.000	618.990	79.999	19.995	103.177	19.772	20.545	0.476
1080.500	619.240	79.999	19.994	103.173	19.782	19.837	0.477
1081.000	619.502	80.000	19.996	103.167	19.786	19.544	0.499
1081.500	619.785	79.998	19.995	103.170	19.790	19.184	0.529
1082.000	620.008	79.998	19.996	103.168	19.796	18.797	0.525
1082.500	620.277	79.999	19.995	103.163	19.799	18.527	0.499
1083.000	620.510	79.999	19.994	103.161	19.803	18.232	0.497
1083.500	620.765	79.997	19.995	103.160	19.807	17.992	0.495
1084.000	621.005	79.999	19.995	103.154	19.813	17.557	0.491
1084.500	621.244	80.003	19.996	103.151	19.815	17.360	0.487
1085.000	621.511	80.000	19.996	103.151	19.822	16.870	0.492
1085.500	621.754	80.000	19.996	103.153	19.829	16.345	0.508
1086.000	622.013	79.998	19.997	103.154	19.832	16.147	0.506
1086.500	622.252	79.999	19.995	103.156	19.832	16.152	0.500
1087.000	622.497	79.987	19.997	103.155	19.841	15.453	0.491
1087.500	622.761	80.000	19.995	103.156	19.843	15.323	0.496
1088.000	623.004	80.004	19.996	103.159	19.850	14.795	0.508
1088.500	623.242	79.998	19.995	103.164	19.854	14.520	0.494
1089.000	623.509	79.992	19.997	103.163	19.856	14.328	0.493
1089.501	623.714	80.003	19.996	103.162	19.863	13.836	0.488
1090.001	624.004	80.017	19.996	103.159	19.863	13.826	0.484
1090.500	624.257	80.012	19.994	103.155	19.869	13.389	0.519
1091.000	624.468	80.002	19.995	103.151	19.871	13.240	0.503
1091.500	624.684	80.002	19.996	103.149	19.876	12.897	0.446
1092.000	624.962	80.001	19.996	103.150	19.877	12.819	0.461
1092.500	625.216	80.000	19.996	103.155	19.877	12.792	0.513
1093.000	625.386	79.999	19.997	103.152	19.882	12.469	0.478
1093.500	625.685	79.999	19.996	103.150	19.882	12.428	0.447
1094.000	625.919	80.003	19.996	103.149	19.885	12.260	0.501
1094.500	626.147	80.002	19.996	103.150	19.884	12.304	0.498
1095.001	626.423	79.999	19.996	103.144	19.888	11.996	0.483
1095.501	626.636	80.000	19.995	103.142	19.889	11.930	0.497
1096.000	626.913	80.005	19.995	103.140	19.894	11.585	0.490
1096.500	627.133	80.001	19.997	103.140	19.897	11.376	0.493
1097.001	627.361	79.997	19.995	103.138	19.896	11.455	0.472
1097.501	627.596	80.002	19.996	103.138	19.896	11.437	0.455
1098.001	627.832	80.002	19.995	103.140	19.897	11.324	0.467
1098.500	628.072	80.006	19.995	103.142	19.901	11.021	0.473
1099.000	628.342	80.001	19.996	103.143	19.903	10.907	0.493
1099.500	628.581	80.000	19.995	103.143	19.902	10.957	0.510
1100.001	628.798	80.003	19.995	103.144	19.901	11.032	0.483
1100.501	629.030	80.008	19.995	103.140	19.906	10.666	0.452
1101.000	629.281	80.005	19.995	103.141	19.905	10.751	0.466
1101.500	629.486	79.990	19.996	103.138	19.902	10.956	0.470
1102.000	629.796	80.010	19.994	103.132	19.906	10.675	0.485
1102.500	630.000	80.004	19.994	103.128	19.906	10.694	0.514
1103.000	630.231	80.007	19.995	103.130	19.906	10.723	0.475
1103.500	630.468	80.003	19.994	103.129	19.909	10.432	0.451
1104.000	630.696	80.002	19.994	103.131	19.907	10.628	0.466
1104.500	630.967	80.002	19.995	103.138	19.911	10.329	0.482
1105.000	631.197	80.007	19.995	103.140	19.912	10.239	0.500
1105.501	631.437	80.003	19.995	103.141	19.911	10.322	0.485
1106.001	631.689	80.002	19.995	103.140	19.912	10.231	0.481
1106.501	631.908	80.004	19.994	103.135	19.910	10.424	0.481
1107.000	632.132	80.002	19.995	103.130	19.913	10.146	0.457
1107.500	632.360	80.004	19.995	103.125	19.914	10.073	0.448
1108.000	632.595	80.008	19.993	103.121	19.917	9.876	0.458
1108.501	632.862	80.004	19.994	103.121	19.920	9.631	0.482
1109.001	633.112	80.004	19.995	103.122	19.915	10.041	0.510
1109.500	633.341	80.002	19.995	103.125	19.919	9.742	0.498
1110.000	633.599	80.003	19.994	103.130	19.916	9.971	0.483
1110.500	633.837	80.004	19.995	103.134	19.917	9.859	0.491
1111.000	634.083	80.005	19.994	103.133	19.918	9.804	0.490
1111.500	634.290	80.000	19.995	103.137	19.915	10.018	0.468
1112.000	634.543	80.003	19.994	103.133	19.919	9.727	0.457
1112.500	634.781	80.003	19.994	103.129	19.915	10.011	0.476
1113.000	635.051	80.005	19.995	103.128	19.915	10.013	0.499
1113.500	635.298	80.001	19.994	103.122	19.916	9.991	0.512
1114.000	635.581	80.002	19.995	103.115	19.918	9.837	0.524
1114.500	635.790	80.002	19.994	103.115	19.916	9.971	0.511
1115.000	636.024	80.016	19.994	103.118	19.917	9.909	0.467
1115.500	636.258	80.005	19.994	103.122	19.917	9.893	0.456
1116.000	636.501	79.997	19.994	103.126	19.916	9.955	0.472
1116.500	636.717	80.008	19.994	103.129	19.915	10.010	0.468
1117.000	636.989	80.001	19.995	103.127	19.917	9.852	0.473
1117.500	637.178	80.002	19.995	103.122	19.916	9.972	0.475
1118.000	637.459	79.994	19.994	103.116	19.917	9.861	0.466
1118.500	637.700	79.995	19.995	103.114	19.921	9.617	0.496
1119.000	637.901	80.008	19.995	103.112	19.920	9.697	0.482
1119.500	638.208	79.995	19.996	103.110	19.918	9.823	0.475
1120.001	638.443	80.003	19.995	103.110	19.918	9.794	0.525
1120.501	638.685	79.998	19.995	103.111	19.920	9.627	0.509
1121.001	638.949	79.996	19.995	103.110	19.919	9.718	0.492
1121.500	639.152	80.005	19.994	103.113	19.918	9.788	0.486
1122.000	639.430	79.997	19.997	103.118	19.917	9.871	0.474
1122.500	639.709	80.012	19.993	103.121	19.918	9.778	0.519
1123.000	639.915	80.018	19.994	103.126	19.921	9.621	0.521
1123.500	640.140	80.009	19.995	103.131	19.919	9.723	0.458
1124.000	640.332	79.993	19.996	103.131	19.915	10.061	0.424
1124.500	640.612	80.001	19.995	103.131	19.919	9.744	0.445
1125.000	640.832	80.007	19.994	103.132	19.910	10.390	0.486
1125.500	641.071	80.000	19.995	103.123	19.920	9.686	0.480
1126.000	641.330	79.994	19.996	103.122	19.920	9.658	0.479
1126.500	641.557	80.006	19.994	103.121	19.919	9.720	0.492
1127.000	641.820	80.008	19.994	103.120	19.923	9.429	0.488
1127.500	642.033	80.005	19.994	103.122	19.919	9.742	0.483
1128.000	642.306	79.998	19.995	103.130	19.920	9.665	0.481
1128.500	642.579	80.006	19.994	103.132	19.918	9.822	0.516
1129.000	642.785	79.999	19.993	103.134	19.919	9.758	0.512
1129.500	643.039	80.005	19.995	103.138	19.921	9.580	0.469
1130.000	643.245	80.001	19.996	103.137	19.922	9.546	0.460
1130.500	643.515	80.001	19.994	103.136	19.923	9.433	0.468
1131.001	643.731	80.001	19.994	103.136	19.921	9.560	0.481
1131.501	644.010	79.999	19.995	103.136	19.924	9.362	0.491
1132.000	644.227	80.000	19.995	103.134	19.923	9.411	0.496
1132.500	644.511	80.002	19.994	103.135	19.919	9.701	0.498
1133.000	644.764	80.000	19.996	103.136	19.919	9.703	0.519
1133.500	644.949	80.003	19.994	103.137	19.918	9.784	0.488
1134.000	645.245	80.001	19.995	103.139	19.920	9.644	0.459
1134.500	645.431	80.000	19.995	103.140	19.919	9.751	0.481
1135.000	645.725	80.003	19.994	103.136	19.918	9.792	0.481
1135.500	645.899	80.002	19.994	103.135	19.920	9.689	0.474
1136.000	646.229	80.003	19.994	103.133	19.920	9.654	0.486
1136.500	646.427	80.002	19.995	103.133	19.921	9.578	0.516
1137.000	646.678	80.003	19.995	103.132	19.919	9.731	0.489
1137.500	646.993	80.000	19.995	103.136	19.919	9.766	0.508
1138.000	646.973	80.000	19.994	103.138	19.919	9.719	0.431
1138.500	647.776	80.000	19.995	103.140	19.918	9.776	0.539
1139.000	647.989	80.005	19.994	103.139	19.919	9.718	0.900
1139.500	647.554	80.002	19.995	103.141	19.922	9.550	0.397
1140.000	648.067	80.002	19.995	103.142	19.920	9.645	-0.073
1140.500	648.486	80.002	19.994	103.141	19.917	9.855	0.505
1141.000	648.740	80.002	19.994	103.141	19.920	9.687	0.803
1141.500	648.883	80.003	19.995	103.140	19.919	9.729	0.535
1142.000	649.169	80.000	19.995	103.139	19.918	9.802	0.413
1142.500	649.376	80.003	19.993	103.137	19.919	9.743	0.461
1143.000	649.697	80.000	19.995	103.140	19.918	9.802	0.510
1143.500	649.876	80.001	19.994	103.139	19.918	9.816	0.514
1144.000	650.175	80.004	19.995	103.141	19.919	9.701	0.489
1144.500	650.487	80.003	19.995	103.141	19.923	9.473	0.544
1145.000	650.638	80.003	19.994	103.143	19.919	9.743	0.537
1145.500	650.916	80.006	19.993	103.142	19.918	9.808	0.446
1146.000	651.203	80.001	19.994	103.143	19.922	9.515	0.497
1146.500	651.405	80.001	19.994	103.143	19.920	9.665	0.527
1147.000	651.652	80.000	19.995	103.144	19.918	9.778	0.469
1147.500	651.890	80.000	19.995	103.144	19.918	9.818	0.467
1148.000	652.153	80.001	19.995	103.142	19.919	9.739	0.493
1148.500	652.401	80.003	19.995	103.142	19.917	9.887	0.506
1149.000	652.679	80.001	19.995	103.141	19.920	9.693	0.519
1149.500	652.944	80.001	19.997	103.138	19.918	9.780	0.535
1150.000	653.171	80.003	19.996	103.137	19.921	9.618	0.517
1150.500	653.424	80.002	19.994	103.140	19.917	9.854	0.486
1151.000	653.651	80.001	19.995	103.138	19.918	9.840	0.480
1151.500	653.918	80.001	19.995	103.137	19.919	9.731	0.487
1152.000	654.177	80.000	19.995	103.140	19.918	9.779	0.510
1152.501	654.408	80.002	19.996	103.140	19.918	9.810	0.508
1153.001	654.665	80.001	19.995	103.139	19.917	9.850	0.489
1153.500	654.939	80.000	19.994	103.141	19.922	9.541	0.510
1154.000	655.197	80.002	19.995	103.143	19.918	9.842	0.531
1154.500	655.427	80.003	19.994	103.143	19.919	9.715	0.510
1155.001	655.722	80.001	19.995	103.144	19.919	9.729	0.506
1155.501	655.966	80.002	19.994	103.143	19.919	9.767	0.532
1156.000	656.220	80.001	19.997	103.144	19.915	10.056	0.518
1156.500	656.441	79.999	19.996	103.144	19.919	9.705	0.487
1157.000	656.707	80.001	19.996	103.143	19.919	9.767	0.481
1157.500	656.955	80.001	19.996	103.143	19.917	9.913	0.500
1158.001	657.218	80.001	19.996	103.143	19.915	10.016	0.513
1158.501	657.507	80.001	19.995	103.143	19.916	9.963	0.532
1159.001	657.762	80.001	19.996	103.143	19.916	9.953	0.547
1159.501	658.026	80.000	19.996	103.144	19.918	9.806	0.531
1160.001	658.245	80.001	19.996	103.143	19.917	9.907	0.501
1160.501	658.540	80.000	19.995	103.143	19.916	9.937	0.499
1161.000	658.772	80.000	19.996	103.144	19.916	9.933	0.521
1161.500	659.010	80.000	19.995	103.144	19.916	9.943	0.499
1162.000	659.271	80.001	19.995	103.143	19.918	9.826	0.485
1162.500	659.510	79.999	19.995	103.144	19.915	10.026	0.499
1163.001	659.755	80.000	19.995	103.145	19.917	9.871	0.491
1163.501	660.015	80.001	19.996	103.145	19.914	10.121	0.494
1164.000	660.252	80.001	19.995	103.144	19.915	10.018	0.501
1164.501	660.532	80.001	19.996	103.145	19.916	9.953	0.507
1165.001	660.778	80.001	19.995	103.144	19.915	10.008	0.521
1165.500	661.070	80.002	19.995	103.144	19.916	9.957	0.532
1166.000	661.305	80.002	19.996	103.144	19.915	10.030	0.532
1166.500	661.555	80.002	19.995	103.144	19.916	9.980	0.506
1167.000	661.770	80.002	19.995	103.144	19.919	9.768	0.475
1167.500	662.079	80.005	19.994	103.144	19.917	9.873	0.494
1168.000	662.355	80.001	19.996	103.144	19.920	9.697	0.555
1168.501	662.562	80.005	19.995	103.143	19.916	9.966	0.534
1169.001	662.842	80.003	19.994	103.143	19.917	9.893	0.485
1169.500	663.066	80.004	19.994	103.144	19.918	9.800	0.495
1170.000	663.374	80.000	19.995	103.144	19.918	9.834	0.518
1170.500	663.592	80.003	19.995	103.143	19.918	9.812	0.529
1171.000	663.844	80.003	19.994	103.143	19.916	9.969	0.498
1171.501	664.082	80.004	19.995	103.143	19.913	10.157	0.480
1172.001	664.338	80.002	19.995	103.142	19.917	9.875	0.492
1172.500	664.570	79.997	19.995	103.141	19.915	10.050	0.491
1173.000	664.872	80.006	19.995	103.142	19.915	10.030	0.511
1173.500	665.121	80.004	19.994	103.142	19.915	10.064	0.543
1174.000	665.369	80.003	19.996	103.142	19.920	9.628	0.524
1174.500	665.629	80.004	19.995	103.143	19.913	10.207	0.502
1175.000	665.884	80.002	19.995	103.142	19.907	10.585	0.511
1175.500	666.155	80.001	19.995	103.141	19.914	10.107	0.521
1176.000	666.407	80.004	19.994	103.140	19.918	9.816	0.524
1176.500	666.621	80.004	19.996	103.140	19.917	9.866	0.494
1177.000	666.920	80.005	19.995	103.140	19.917	9.879	0.490
1177.500	667.134	80.004	19.995	103.141	19.914	10.101	0.513
1178.000	667.364	80.001	19.995	103.141	19.917	9.846	0.479
1178.500	667.639	80.002	19.994	103.142	19.917	9.852	0.474
1179.000	667.926	80.002	19.996	103.140	19.916	9.979	0.533
1179.500	668.154	80.003	19.996	103.141	19.914	10.124	0.538
1180.001	668.420	80.002	19.996	103.141	19.917	9.846	0.504
1180.501	668.692	80.001	19.996	103.141	19.915	10.058	0.516
1181.000	668.943	80.004	19.996	103.141	19.914	10.115	0.531
1181.501	669.195	80.004	19.995	103.141	19.916	9.931	0.513
1182.001	669.476	80.001	19.996	103.142	19.916	9.958	0.519
1182.501	669.686	80.000	19.996	103.141	19.915	10.050	0.512
1183.001	669.932	80.004	19.996	103.142	19.914	10.111	0.473
1183.500	670.203	80.003	19.996	103.143	19.916	9.941	0.487
1184.000	670.479	80.002	19.996	103.143	19.914	10.123	0.532
1184.500	670.736	80.000	19.996	103.142	19.916	9.939	0.540
1185.000	670.930	80.001	19.996	103.143	19.912	10.254	0.492
1185.500	671.201	80.005	19.995	103.143	19.914	10.101	0.458
1186.000	671.541	80.000	19.996	103.142	19.919	9.770	0.538
1186.500	671.751	79.999	19.998	103.141	19.915	10.048	0.580
1187.000	672.038	80.003	19.996	103.141	19.914	10.135	0.523
1187.500	672.149	80.002	19.996	103.142	19.912	10.225	0.447
1188.000	672.628	80.004	19.996	103.142	19.915	10.032	0.494
1188.500	672.754	79.997	19.996	103.143	19.915	10.046	0.598
1189.000	672.829	80.001	19.996	103.144	19.915	10.022	0.402
1189.500	673.321	80.004	19.995	103.148	19.916	9.931	0.383
1190.000	673.430	79.999	19.996	103.149	19.914	10.127	0.584
1190.500	673.810	80.002	19.995	103.150	19.916	9.991	0.545
1191.001	674.017	80.003	19.997	103.148	19.917	9.872	0.538
1191.501	674.333	80.002	19.996	103.147	19.913	10.181	0.555
1192.000	674.549	80.001	19.995	103.144	19.917	9.890	0.528
1192.500	674.822	80.008	19.995	103.141	19.914	10.114	0.510
1193.001	675.050	80.003	19.996	103.140	19.914	10.125	0.495
1193.501	675.329	80.003	19.995	103.141	19.916	9.967	0.504
1194.000	675.571	80.003	19.995	103.141	19.915	10.048	0.514
1194.500	675.839	80.003	19.995	103.141	19.916	9.945	0.515
1195.000	676.090	80.005	19.995	103.141	19.916	9.949	0.514
1195.500	676.312	80.003	19.996	103.141	19.915	10.062	0.496
1196.000	676.599	80.004	19.995	103.140	19.917	9.890	0.491
1196.500	676.819	80.006	19.995	103.141	19.914	10.112	0.508
1197.000	677.075	80.002	19.996	103.142	19.912	10.282	0.492
1197.500	677.327	80.003	19.994	103.143	19.914	10.134	0.492
1198.001	677.579	80.003	19.995	103.143	19.915	10.007	0.506
1198.501	677.854	80.003	19.995	103.145	19.914	10.132	0.516
1199.000	678.080	80.003	19.995	103.144	19.914	10.108	0.514
1199.501	678.353	80.004	19.995	103.143	19.919	9.762	0.500
1200.001	678.612	80.005	19.994	103.142	19.915	10.021	0.516
1200.500	678.832	80.004	19.993	103.142	19.914	10.098	0.505
1201.000	679.125	80.008	19.994	103.143	19.914	10.128	0.496
1201.500	679.356	80.004	19.994	103.146	19.914	10.078	0.519
1202.001	679.598	80.003	19.994	103.148	19.916	9.987	0.498
1202.501	679.822	80.004	19.994	103.149	19.917	9.886	0.470
1203.001	680.114	80.003	19.995	103.149	19.911	10.306	0.491
1203.500	680.368	80.004	19.994	103.148	19.912	10.251	0.531
1204.000	680.579	80.005	19.995	103.145	19.916	9.972	0.506
1204.500	680.841	80.005	19.994	103.144	19.915	10.018	0.469
1205.000	681.114	80.003	19.995	103.145	19.917	9.868	0.504
1205.500	681.332	80.002	19.995	103.146	19.913	10.166	0.513
1206.000	681.576	80.002	19.995	103.149	19.913	10.184	0.477
1206.500	681.876	79.993	19.995	103.149	19.916	9.928	0.503
1207.000	682.099	80.003	19.995	103.149	19.916	9.983	0.534
1207.500	682.322	79.995	19.997	103.148	19.918	9.844	0.484
1208.000	682.590	80.003	19.995	103.145	19.915	10.033	0.468
1208.500	682.829	79.998	19.995	103.147	19.917	9.917	0.499
1209.000	683.099	79.995	19.995	103.150	19.916	9.965	0.508
1209.500	683.334	80.003	19.994	103.150	19.914	10.079	0.507
1210.000	683.569	79.997	19.996	103.152	19.911	10.355	0.488
1210.500	683.838	79.998	19.996	103.154	19.913	10.195	0.487
1211.000	684.079	80.006	19.996	103.150	19.913	10.144	0.507
1211.501	684.316	79.994	19.996	103.149	19.913	10.172	0.494
1212.001	684.577	79.997	19.995	103.147	19.912	10.236	0.488
1212.501	684.817	80.000	19.995	103.146	19.913	10.184	0.500
1213.000	685.090	79.998	19.995	103.150	19.914	10.083	0.507
1213.500	685.261	79.994	19.997	103.148	19.910	10.424	0.479
1214.000	685.566	80.008	19.995	103.148	19.913	10.214	0.460
1214.500	685.818	80.003	19.995	103.155	19.914	10.135	0.516
1215.000	686.079	80.015	19.993	103.157	19.910	10.365	0.535
1215.500	686.351	79.998	19.995	103.163	19.914	10.107	0.523
1216.000	686.571	79.999	19.996	103.168	19.909	10.452	0.513
1216.500	686.831	80.000	19.997	103.173	19.914	10.079	0.485
1217.000	687.089	79.995	19.996	103.173	19.911	10.297	0.499
1217.500	687.305	79.996	19.996	103.173	19.912	10.260	0.496
1218.000	687.610	80.002	19.995	103.170	19.911	10.305	0.498
1218.500	687.846	80.000	19.995	103.171	19.910	10.431	0.531
1219.000	688.150	80.001	19.995	103.169	19.909	10.504	0.540
1219.500	688.363	79.998	19.995	103.164	19.913	10.211	0.528
1220.001	688.615	80.001	19.995	103.162	19.911	10.298	0.491
1220.501	688.910	80.001	19.995	103.159	19.912	10.244	0.507
1221.001	689.133	79.999	19.994	103.162	19.910	10.382	0.532
1221.500	689.415	80.006	19.995	103.166	19.911	10.315	0.511
1222.000	689.659	80.000	19.995	103.173	19.914	10.122	0.516
1222.501	689.893	79.998	19.995	103.178	19.913	10.162	0.503
1223.001	690.206	80.004	19.995	103.179	19.911	10.316	0.513
1223.501	690.461	80.000	19.996	103.179	19.912	10.249	0.557
1224.000	690.727	80.001	19.993	103.177	19.911	10.352	0.544
1224.500	690.957	80.002	19.995	103.177	19.912	10.217	0.508
1225.000	691.205	80.005	19.994	103.179	19.911	10.322	0.487
1225.500	691.478	79.995	19.996	103.182	19.911	10.309	0.499
1226.000	691.734	80.004	19.994	103.180	19.909	10.484	0.525
1226.500	692.012	79.987	19.996	103.181	19.911	10.321	0.532
1227.000	692.261	80.005	19.994	103.178	19.912	10.264	0.531
1227.500	692.561	80.003	19.994	103.176	19.909	10.438	0.537
1228.001	692.836	80.003	19.993	103.176	19.910	10.366	0.562
1228.501	693.120	79.991	19.996	103.179	19.912	10.236	0.567
1229.000	693.341	80.010	19.992	103.180	19.913	10.149	0.532
1229.500	693.652	80.002	19.994	103.184	19.912	10.280	0.518
1230.000	693.880	79.993	19.994	103.186	19.912	10.244	0.535
1230.500	694.178	80.001	19.995	103.185	19.911	10.351	0.532
1231.000	694.421	80.001	19.994	103.184	19.911	10.323	0.534
1231.500	694.687	80.002	19.994	103.182	19.911	10.307	0.525
1232.000	694.948	80.001	19.995	103.177	19.912	10.240	0.518
1232.500	695.191	80.001	19.995	103.174	19.911	10.311	0.516
1233.000	695.484	80.000	19.994	103.173	19.914	10.071	0.520
1233.500	695.794	80.002	19.994	103.172	19.912	10.285	0.569
1234.000	696.037	80.002	19.995	103.170	19.914	10.087	0.578
1234.500	696.320	80.001	19.994	103.170	19.911	10.313	0.540
1235.000	696.608	80.001	19.994	103.171	19.910	10.363	0.548
1235.500	696.831	80.003	19.994	103.170	19.911	10.305	0.541
1236.000	697.144	79.998	19.996	103.172	19.912	10.267	0.524
1236.501	697.372	80.001	19.994	103.174	19.909	10.439	0.538
1237.001	697.669	80.006	19.994	103.178	19.908	10.554	0.533
1237.500	697.954	80.003	19.997	103.180	19.911	10.350	0.553
1238.001	698.191	80.000	19.996	103.180	19.910	10.429	0.552
1238.501	698.485	80.000	19.996	103.173	19.907	10.601	0.527
1239.000	698.732	80.002	19.994	103.170	19.909	10.462	0.536
1239.500	698.998	80.000	19.994	103.164	19.907	10.587	0.527
1240.000	699.279	80.002	19.994	103.162	19.909	10.492	0.530
1240.500	699.521	80.003	19.995	103.159	19.907	10.587	0.535
1241.000	699.836	79.998	19.995	103.159	19.908	10.538	0.540
1241.500	700.075	80.000	19.995	103.158	19.910	10.393	0.556
1242.000	700.354	80.001	19.995	103.162	19.907	10.628	0.536
1242.500	700.643	80.001	19.994	103.161	19.912	10.262	0.543
1243.000	700.912	80.004	19.996	103.160	19.908	10.559	0.563
1243.500	701.232	80.002	19.994	103.160	19.910	10.363	0.574
1244.000	701.469	80.003	19.995	103.160	19.911	10.357	0.573
1244.500	701.714	79.999	19.996	103.158	19.909	10.440	0.520
1245.000	701.996	80.000	19.996	103.157	19.911	10.335	0.505
1245.500	702.304	80.001	19.996	103.156	19.909	10.434	0.558
1246.000	702.534	80.002	19.996	103.157	19.907	10.628	0.564
1246.500	702.867	80.005	19.995	103.155	19.909	10.434	0.550
1247.000	703.138	80.009	19.995	103.153	19.909	10.493	0.584
1247.500	703.377	80.000	19.995	103.152	19.909	10.451	0.557
1248.000	703.623	80.009	19.995	103.150	19.909	10.499	0.498
1248.500	703.866	79.992	19.996	103.148	19.912	10.251	0.487
1249.000	704.188	80.004	19.996	103.146	19.913	10.172	0.527
1249.501	704.456	80.001	19.995	103.145	19.912	10.243	0.577
1250.001	704.730	80.001	19.996	103.144	19.911	10.319	0.566
1250.501	704.994	80.004	19.996	103.143	19.910	10.428	0.540
1251.000	705.248	80.001	19.996	103.144	19.911	10.301	0.528
1251.500	705.542	79.999	19.995	103.145	19.912	10.219	0.533
1252.000	705.773	79.992	19.997	103.144	19.914	10.079	0.537
1252.500	706.063	80.002	19.996	103.141	19.910	10.424	0.524
1253.000	706.332	80.002	19.995	103.140	19.914	10.100	0.540
1253.500	706.633	80.002	19.995	103.139	19.913	10.185	0.564
1254.000	706.894	80.002	19.995	103.139	19.910	10.369	0.566
1254.500	707.164	80.003	19.995	103.139	19.911	10.320	0.547
1255.000	707.422	79.999	19.995	103.140	19.909	10.455	0.530
1255.500	707.725	80.003	19.995	103.141	19.911	10.330	0.545
1256.000	707.962	80.003	19.995	103.141	19.913	10.209	0.550
1256.500	708.254	80.002	19.995	103.140	19.912	10.219	0.534
1257.000	708.526	80.002	19.995	103.139	19.915	10.045	0.547
1257.500	708.770	80.002	19.995	103.136	19.915	10.044	0.540
1258.000	709.089	80.002	19.996	103.134	19.914	10.133	0.539
1258.500	709.329	80.003	19.996	103.130	19.916	9.985	0.561
1259.000	709.602	79.999	19.996	103.130	19.913	10.166	0.536
1259.500	709.886	80.003	19.995	103.131	19.913	10.210	0.535
1260.000	710.133	80.003	19.995	103.134	19.915	10.032	0.545
1260.500	710.394	80.005	19.995	103.135	19.917	9.903	0.520
1261.000	710.689	80.001	19.995	103.137	19.917	9.877	0.532
1261.500	710.952	80.001	19.995	103.135	19.915	10.011	0.557
1262.000	711.226	80.004	19.994	103.133	19.915	10.044	0.548
1262.501	711.517	80.005	19.996	103.126	19.916	9.959	0.551
1263.001	711.795	80.000	19.995	103.121	19.914	10.127	0.567
1263.501	712.028	80.001	19.995	103.115	19.916	9.963	0.540
1264.000	712.295	80.001	19.995	103.110	19.916	9.921	0.505
1264.500	712.569	79.991	19.997	103.106	19.917	9.847	0.520
1265.000	712.839	80.002	19.995	103.104	19.918	9.797	0.542
1265.501	713.107	80.002	19.996	103.106	19.919	9.738	0.541
1266.001	713.394	80.004	19.996	103.109	19.917	9.890	0.547
1266.500	713.661	80.002	19.995	103.112	19.916	9.974	0.555
1267.000	713.906	80.000	19.996	103.112	19.919	9.696	0.533
1267.500	714.198	80.003	19.996	103.113	19.918	9.817	0.525
1268.000	714.495	79.997	19.995	103.109	19.915	10.007	0.563
1268.500	714.752	80.001	19.995	103.106	19.919	9.759	0.571
1269.000	714.983	80.002	19.994	103.105	19.918	9.834	0.521
1269.500	715.290	80.000	19.995	103.108	19.916	9.955	0.513
1270.000	715.526	80.001	19.996	103.114	19.914	10.068	0.541
1270.500	715.817	79.998	19.996	103.117	19.914	10.114	0.535
1271.000	716.077	80.003	19.995	103.120	19.915	10.011	0.539
1271.500	716.359	80.005	19.996	103.118	19.916	9.937	0.546
1272.000	716.617	80.004	19.996	103.116	19.919	9.698	0.540
1272.500	716.886	79.996	19.996	103.110	19.916	9.951	0.533
1273.000	717.157	79.999	19.995	103.106	19.917	9.868	0.534
1273.500	717.443	80.001	19.995	103.104	19.919	9.708	0.548
1274.000	717.700	80.002	19.995	103.104	19.920	9.674	0.550
1274.500	717.963	80.000	19.995	103.104	19.920	9.688	0.532
1275.000	718.230	80.000	19.996	103.104	19.920	9.688	0.525
1275.500	718.502	80.003	19.996	103.110	19.919	9.717	0.535
1276.000	718.728	80.002	19.996	103.109	19.919	9.757	0.519
1276.501	718.984	80.005	19.997	103.110	19.918	9.785	0.490
1277.001	719.260	80.003	19.997	103.111	19.922	9.503	0.507
1277.500	719.508	80.001	19.996	103.112	19.918	9.840	0.528
1278.000	719.779	80.004	19.996	103.107	19.918	9.790	0.522
1278.500	720.067	80.009	19.995	103.107	19.920	9.650	0.539
1279.000	720.323	80.010	19.997	103.108	19.917	9.862	0.551
1279.500	720.608	80.008	19.996	103.106	19.918	9.783	0.543
1280.000	720.826	80.003	19.996	103.105	19.921	9.557	0.522
1280.500	721.089	80.004	19.996	103.106	19.920	9.662	0.492
1281.000	721.375	80.007	19.994	103.107	19.916	9.985	0.515
1281.501	721.620	80.004	19.995	103.106	19.922	9.478	0.540
1282.001	721.887	80.003	19.995	103.106	19.919	9.729	0.521
1282.501	722.133	80.001	19.995	103.105	19.918	9.832	0.512
1283.001	722.383	80.002	19.995	103.106	19.920	9.679	0.505
1283.501	722.629	80.003	19.995	103.105	19.921	9.550	0.496
1284.001	722.887	80.003	19.995	103.106	19.920	9.685	0.500
1284.500	723.144	80.004	19.994	103.108	19.920	9.650	0.510
1285.000	723.409	80.002	19.995	103.108	19.921	9.574	0.519
1285.500	723.667	80.003	19.995	103.107	19.920	9.650	0.522
1286.000	723.949	80.004	19.994	103.107	19.921	9.600	0.531
1286.500	724.167	79.998	19.996	103.107	19.920	9.664	0.520
1287.001	724.429	80.005	19.994	103.105	19.920	9.672	0.490
1287.501	724.730	80.001	19.995	103.105	19.922	9.497	0.522
1288.000	724.982	79.997	19.995	103.104	19.917	9.848	0.558
1288.500	725.233	80.003	19.995	103.103	19.919	9.733	0.528
1289.000	725.494	80.001	19.994	103.104	19.921	9.549	0.507
1289.500	725.765	79.999	19.995	103.104	19.920	9.628	0.522
1290.000	726.006	80.000	19.995	103.104	19.921	9.576	0.522
1290.500	726.229	80.002	19.994	103.105	19.918	9.830	0.488
1291.000	726.531	80.001	19.994	103.106	19.917	9.877	0.494
1291.500	726.788	80.003	19.993	103.105	19.920	9.667	0.542
1292.000	726.999	79.993	19.995	103.107	19.921	9.614	0.514
1292.500	727.288	80.001	19.994	103.105	19.918	9.802	0.485
1293.001	727.524	80.000	19.995	103.105	19.921	9.576	0.513
1293.501	727.793	80.000	19.994	103.105	19.919	9.763	0.515
1294.000	728.044	79.999	19.994	103.103	19.929	9.028	0.512
1294.500	728.266	80.000	19.995	103.101	19.929	8.982	0.496
1295.001	728.526	80.000	19.994	103.102	19.923	9.414	0.477
1295.501	728.798	80.000	19.995	103.102	19.929	9.011	0.507
1296.000	729.057	80.001	19.994	103.103	19.917	9.855	0.531
1296.500	729.295	80.001	19.995	103.104	19.916	9.927	0.514
1297.000	729.576	80.003	19.995	103.104	19.918	9.790	0.508
1297.500	729.836	80.004	19.995	103.104	19.923	9.443	0.530
1298.000	730.083	80.004	19.995	103.105	19.931	8.859	0.524
1298.500	730.358	80.002	19.994	103.105	19.934	8.659	0.514
1299.001	730.614	80.002	19.995	103.103	19.927	9.152	0.527
1299.501	730.881	80.000	19.994	103.103	19.925	9.309	0.527
1300.000	731.126	79.999	19.995	103.103	19.925	9.261	0.517
1300.500	731.360	80.001	19.995	103.102	19.915	9.993	0.495
1301.000	731.597	80.003	19.994	103.101	19.918	9.816	0.475
1301.500	731.845	79.994	19.996	103.103	19.922	9.509	0.478
1302.000	732.112	79.998	19.995	103.101	19.933	8.738	0.500
1302.500	732.361	79.999	19.995	103.101	19.925	9.283	0.515
1303.000	732.596	80.001	19.995	103.100	19.919	9.739	0.500
1303.500	732.872	80.003	19.994	103.100	19.913	10.161	0.498
1304.000	733.083	80.002	19.994	103.100	19.914	10.089	0.499
1304.500	733.358	80.000	19.995	103.102	19.916	9.983	0.487
1305.000	733.575	79.992	19.995	103.103	19.910	10.365	0.489
1305.500	733.872	80.006	19.993	103.101	19.918	9.826	0.503
1306.000	734.066	80.010	19.994	103.101	19.912	10.210	0.503
1306.500	734.375	80.001	19.995	103.100	19.917	9.895	0.497
1307.000	734.623	80.001	19.995	103.099	19.914	10.085	0.530
1307.500	734.854	80.000	19.995	103.098	19.916	9.929	0.518
1308.000	735.056	80.002	19.995	103.100	19.916	9.947	0.455
1308.500	735.291	80.001	19.996	103.100	19.913	10.147	0.435
1309.000	735.618	80.001	19.995	103.100	19.915	10.012	0.500
1309.500	735.816	80.001	19.995	103.101	19.915	10.024	0.544
1310.000	736.069	80.005	19.995	103.102	19.917	9.864	0.488
1310.500	736.318	80.004	19.995	103.103	19.914	10.090	0.476
1311.001	736.591	80.005	19.996	103.104	19.917	9.848	0.511
1311.501	736.820	79.995	19.996	103.104	19.917	9.876	0.512
1312.000	737.043	80.004	19.996	103.103	19.914	10.078	0.477
1312.500	737.324	80.005	19.994	103.103	19.916	9.929	0.478
1313.000	737.524	80.005	19.995	103.103	19.917	9.911	0.492
1313.500	737.807	80.003	19.996	103.101	19.916	9.925	0.482
1314.000	738.046	80.003	19.996	103.101	19.913	10.157	0.503
1314.500	738.311	80.003	19.996	103.102	19.917	9.868	0.513
1315.000	738.569	80.001	19.995	103.102	19.915	10.036	0.513
1315.500	738.826	80.003	19.994	103.102	19.915	9.991	0.519
1316.001	739.092	80.005	19.995	103.103	19.916	9.961	0.519
1316.501	739.284	80.003	19.995	103.102	19.916	9.935	0.491
1317.001	739.570	80.000	19.996	103.102	19.920	9.689	0.468
1317.501	739.837	80.003	19.995	103.100	19.919	9.743	0.516
1318.000	740.121	80.003	19.995	103.099	19.919	9.751	0.552
1318.500	740.303	80.004	19.995	103.099	19.916	9.940	0.509
1319.000	740.562	80.000	19.994	103.101	19.917	9.894	0.453
1319.500	740.902	79.998	19.996	103.101	19.917	9.892	0.520
1320.000	741.068	80.002	19.995	103.103	19.916	9.957	0.552
1320.500	741.372	80.002	19.995	103.103	19.919	9.727	0.488
1321.000	741.664	79.998	19.994	103.104	19.918	9.830	0.533
1321.500	741.852	79.997	19.996	103.103	19.916	9.921	0.538
1322.000	742.078	80.005	19.994	103.103	19.917	9.875	0.447
1322.500	742.354	80.000	19.996	103.104	19.916	9.947	0.458
1323.000	742.580	80.004	19.994	103.104	19.920	9.667	0.502
1323.500	742.839	80.002	19.995	103.104	19.917	9.883	0.493
1324.000	743.076	80.001	19.995	103.105	19.917	9.850	0.490
1324.500	743.324	80.000	19.995	103.106	19.917	9.848	0.490
1325.000	743.562	80.002	19.994	103.104	19.916	9.937	0.485
