Sample ID:	C:\MCC\MCC Cal\Test\Polyester_Carpet_MedPile_MCC_30K_min_211029_R3.txt
Sample Weight (mg):	4.46
Heating Rate (C/s):	0.5
Combustor Temp (C):	900
N2 Flow Rate (cc/min):	80
O2 Flow Rate (cc/min):	20
Calibration File:	C:\MCC\MCC Cal\Coeff1 JN10440_30_210304.txt.txt
T Correction Coefficients:	0	1.024463	0
Time Shift (s):	14
*
Time (s)	Temperature (C)	N2 flow rate (cc/min)	O2 flow rate (cc/min)	Flow Rate (cc/min)	Oxygen (%)	HRR (W/g)	Heating rate (C/s)
0.000	107.834	79.995	19.996	102.895	20.070	0.081	0.006
0.500	107.828	79.994	19.995	102.895	20.069	0.153	-0.008
1.000	107.828	79.994	19.998	102.896	20.066	0.365	-0.013
1.500	107.820	79.996	19.998	102.896	20.069	0.196	-0.007
2.000	107.832	79.995	19.999	102.900	20.069	0.159	-0.002
2.500	107.857	79.993	19.997	102.899	20.067	0.284	0.020
3.000	107.824	79.993	19.997	102.900	20.065	0.454	0.014
3.500	107.827	79.993	19.996	102.901	20.068	0.228	-0.019
4.000	107.834	79.995	19.997	102.901	20.069	0.155	-0.010
4.500	107.860	79.994	19.997	102.899	20.067	0.327	0.021
5.000	107.855	79.991	19.997	102.904	20.067	0.276	0.027
5.500	107.805	79.995	19.997	102.908	20.065	0.476	-0.017
6.000	107.837	79.994	19.996	102.913	20.066	0.395	-0.036
6.500	107.797	79.993	19.998	102.915	20.067	0.345	-0.012
7.000	107.840	79.994	19.997	102.915	20.067	0.329	-0.002
7.500	107.820	79.993	19.997	102.915	20.067	0.321	0.013
8.000	107.819	79.993	19.997	102.916	20.065	0.454	0.001
8.500	107.821	79.994	19.996	102.917	20.066	0.402	-0.010
9.000	107.830	79.994	19.996	102.921	20.066	0.418	0.006
9.500	107.839	79.992	19.996	102.927	20.066	0.351	0.015
10.000	107.847	79.993	19.997	102.928	20.067	0.335	0.018
10.501	107.823	79.994	19.997	102.928	20.065	0.430	0.000
11.001	107.846	79.996	19.997	102.928	20.063	0.567	-0.009
11.500	107.833	79.994	19.996	102.929	20.069	0.182	0.004
12.000	107.804	79.993	19.996	102.930	20.065	0.452	-0.016
12.500	107.798	79.993	19.996	102.932	20.066	0.416	-0.038
13.000	107.834	79.990	19.996	102.932	20.064	0.519	-0.003
13.500	107.818	79.994	19.996	102.933	20.064	0.562	0.025
14.000	107.849	79.994	19.996	102.933	20.066	0.358	0.018
14.500	107.837	79.993	19.996	102.933	20.064	0.519	0.017
15.000	107.836	79.997	19.995	102.937	20.061	0.729	0.003
15.500	107.856	79.996	19.995	102.941	20.062	0.689	0.003
16.000	107.801	79.995	19.997	102.946	20.061	0.747	-0.008
16.500	107.833	79.993	19.994	102.952	20.062	0.663	-0.028
17.000	107.854	79.995	19.995	102.960	20.061	0.762	0.015
17.500	107.871	79.994	19.996	102.964	20.057	1.024	0.045
18.000	107.862	79.996	19.995	102.975	20.055	1.168	0.023
18.500	107.886	79.995	19.995	102.984	20.055	1.144	0.011
19.000	107.885	79.996	19.995	102.994	20.054	1.222	0.019
19.500	107.889	79.995	19.995	103.002	20.054	1.218	0.013
20.000	107.906	79.996	19.996	103.009	20.057	1.045	0.012
20.500	107.910	79.995	19.997	103.011	20.052	1.370	0.021
21.000	107.928	79.994	19.995	103.016	20.047	1.717	0.021
21.500	107.947	79.998	19.994	103.023	20.048	1.667	0.029
22.000	107.972	79.994	19.994	103.034	20.048	1.675	0.041
22.500	108.032	79.993	19.996	103.048	20.045	1.891	0.065
23.000	108.040	79.995	19.995	103.063	20.049	1.629	0.077
23.500	108.047	80.000	19.995	103.074	20.046	1.805	0.041
24.000	108.109	79.997	19.995	103.084	20.044	1.946	0.042
24.500	108.153	79.993	19.995	103.088	20.042	2.110	0.088
25.000	108.156	79.991	19.995	103.089	20.042	2.106	0.076
25.500	108.211	79.992	19.994	103.089	20.042	2.144	0.052
26.000	108.248	80.006	19.995	103.090	20.039	2.296	0.075
26.500	108.256	79.994	19.994	103.088	20.038	2.415	0.069
27.000	108.286	79.995	19.996	103.087	20.038	2.391	0.041
27.500	108.342	79.995	19.994	103.087	20.038	2.435	0.061
28.000	108.420	79.998	19.994	103.090	20.036	2.524	0.110
28.500	108.414	79.995	19.995	103.093	20.035	2.641	0.103
29.000	108.519	79.991	19.995	103.100	20.036	2.524	0.086
29.500	108.544	79.994	19.994	103.108	20.035	2.603	0.114
30.000	108.602	79.996	19.995	103.113	20.036	2.544	0.106
30.500	108.644	79.997	19.996	103.114	20.034	2.681	0.091
31.000	108.734	79.997	19.994	103.111	20.034	2.695	0.116
31.500	108.753	79.994	19.993	103.109	20.032	2.819	0.121
32.000	108.835	79.986	19.996	103.108	20.035	2.609	0.105
32.500	108.896	79.994	19.996	103.111	20.029	3.053	0.122
33.000	108.988	79.991	19.996	103.116	20.034	2.657	0.148
33.501	109.012	79.990	19.996	103.122	20.031	2.877	0.135
34.001	109.098	80.010	19.992	103.126	20.031	2.938	0.113
34.500	109.188	79.994	19.995	103.130	20.033	2.730	0.143
35.000	109.256	79.992	19.995	103.130	20.033	2.761	0.167
35.500	109.300	79.993	19.995	103.128	20.030	2.967	0.135
36.000	109.396	79.991	19.995	103.123	20.032	2.835	0.126
36.500	109.449	79.995	19.994	103.122	20.029	3.064	0.144
37.000	109.539	79.993	19.996	103.119	20.029	3.066	0.146
37.500	109.618	79.994	19.995	103.119	20.032	2.850	0.155
38.000	109.712	79.993	19.995	103.119	20.031	2.918	0.171
38.500	109.788	79.995	19.995	103.122	20.031	2.888	0.172
39.000	109.906	79.997	19.996	103.122	20.033	2.793	0.182
39.500	109.971	79.990	19.994	103.121	20.034	2.714	0.188
40.000	110.062	79.990	19.996	103.120	20.031	2.937	0.170
40.501	110.164	79.994	19.995	103.116	20.027	3.185	0.175
41.001	110.230	79.992	19.995	103.112	20.031	2.934	0.180
41.500	110.357	79.990	19.997	103.112	20.030	2.953	0.180
42.000	110.433	79.994	19.997	103.109	20.031	2.876	0.198
42.500	110.481	79.994	19.995	103.107	20.030	2.995	0.163
43.000	110.607	79.994	19.995	103.109	20.029	3.026	0.149
43.501	110.712	79.992	19.995	103.111	20.032	2.816	0.203
44.001	110.803	79.995	19.995	103.112	20.028	3.107	0.214
44.501	110.912	79.987	19.995	103.115	20.031	2.894	0.198
45.000	110.987	79.999	19.994	103.118	20.030	2.977	0.192
45.500	111.078	79.995	19.996	103.125	20.030	2.980	0.175
46.000	111.200	79.996	19.994	103.125	20.031	2.941	0.189
46.500	111.304	79.986	19.994	103.127	20.028	3.140	0.219
47.000	111.384	79.997	19.995	103.130	20.031	2.938	0.205
47.500	111.557	79.988	19.995	103.131	20.030	2.988	0.218
48.000	111.649	79.990	19.992	103.128	20.028	3.093	0.259
48.500	111.779	79.999	19.995	103.133	20.028	3.148	0.244
49.000	111.889	80.004	19.995	103.132	20.024	3.415	0.231
49.500	111.988	79.989	19.995	103.135	20.027	3.210	0.224
50.000	112.111	80.004	19.994	103.135	20.029	3.059	0.216
50.500	112.221	79.990	19.995	103.137	20.027	3.208	0.228
51.000	112.319	79.983	19.997	103.133	20.026	3.305	0.221
51.500	112.448	79.987	19.996	103.130	20.026	3.245	0.217
52.000	112.588	79.978	19.996	103.124	20.028	3.123	0.248
52.500	112.699	79.975	19.998	103.127	20.023	3.461	0.260
53.000	112.823	79.990	19.995	103.125	20.025	3.312	0.243
53.500	112.936	79.998	19.997	103.131	20.026	3.249	0.236
54.000	113.056	79.983	19.996	103.136	20.022	3.526	0.235
54.500	113.192	79.980	19.995	103.140	20.025	3.326	0.245
55.000	113.313	79.986	19.997	103.143	20.023	3.512	0.256
55.500	113.485	79.986	19.996	103.146	20.022	3.587	0.275
56.000	113.638	79.998	19.993	103.148	20.022	3.564	0.309
56.500	113.741	79.981	19.997	103.157	20.020	3.698	0.290
57.000	113.897	79.987	19.995	103.161	20.019	3.746	0.257
57.500	114.067	79.998	19.996	103.161	20.023	3.469	0.293
58.000	114.151	79.994	19.996	103.167	20.023	3.500	0.290
58.500	114.285	79.993	19.996	103.167	20.021	3.643	0.236
59.000	114.485	79.992	19.995	103.163	20.020	3.714	0.276
59.500	114.640	79.989	19.997	103.165	20.020	3.722	0.344
60.001	114.762	79.981	19.997	103.163	20.019	3.772	0.316
60.501	114.950	79.996	19.995	103.162	20.021	3.608	0.294
61.000	115.069	79.995	19.996	103.164	20.021	3.625	0.309
61.500	115.210	79.995	19.996	103.164	20.019	3.754	0.283
62.001	115.337	79.980	19.998	103.164	20.021	3.649	0.264
62.501	115.507	79.993	19.996	103.161	20.020	3.677	0.282
63.000	115.677	79.992	19.994	103.162	20.019	3.787	0.318
63.500	115.844	79.993	19.995	103.163	20.022	3.548	0.338
64.000	115.962	80.005	19.995	103.167	20.023	3.500	0.311
64.500	116.130	79.990	19.996	103.170	20.021	3.635	0.286
65.001	116.245	79.990	19.997	103.174	20.022	3.580	0.284
65.501	116.462	79.999	19.995	103.177	20.019	3.769	0.307
66.000	116.579	80.004	19.996	103.174	20.017	3.926	0.333
66.500	116.757	79.986	19.996	103.172	20.020	3.686	0.315
67.000	116.901	79.982	19.997	103.168	20.022	3.554	0.309
67.501	117.096	80.006	19.994	103.168	20.019	3.740	0.331
68.001	117.269	79.991	19.996	103.167	20.018	3.859	0.353
68.500	117.407	79.996	19.996	103.167	20.020	3.690	0.340
69.000	117.591	79.981	19.998	103.165	20.020	3.682	0.317
69.500	117.749	79.990	19.996	103.164	20.022	3.579	0.332
70.000	117.958	79.997	19.996	103.165	20.019	3.748	0.355
70.500	118.077	79.974	19.999	103.164	20.019	3.756	0.347
71.000	118.261	79.987	19.996	103.159	20.018	3.811	0.315
71.500	118.451	79.996	19.996	103.159	20.017	3.906	0.338
72.000	118.621	79.991	19.996	103.161	20.020	3.705	0.367
72.500	118.804	79.993	19.996	103.161	20.019	3.802	0.357
73.000	118.978	79.993	19.994	103.160	20.016	3.970	0.355
73.500	119.162	79.992	19.996	103.165	20.016	3.969	0.358
74.000	119.349	79.976	19.997	103.166	20.021	3.611	0.365
74.500	119.562	80.000	19.995	103.165	20.019	3.763	0.386
75.000	119.737	79.994	19.995	103.168	20.021	3.652	0.394
75.500	119.906	79.981	19.996	103.170	20.019	3.771	0.366
76.000	120.113	79.990	19.994	103.167	20.021	3.656	0.360
76.500	120.274	79.984	19.996	103.169	20.020	3.722	0.372
77.001	120.466	79.989	19.994	103.169	20.023	3.463	0.361
77.501	120.613	79.983	19.995	103.167	20.022	3.569	0.346
78.000	120.864	80.002	19.994	103.165	20.021	3.641	0.368
78.500	121.051	79.988	19.995	103.169	20.018	3.856	0.418
79.000	121.210	79.993	19.995	103.168	20.020	3.696	0.392
79.500	121.434	79.993	19.995	103.171	20.019	3.744	0.365
80.000	121.623	79.986	19.995	103.171	20.021	3.595	0.398
80.500	121.794	79.991	19.995	103.172	20.024	3.425	0.386
81.001	122.003	79.992	19.996	103.171	20.021	3.641	0.370
81.501	122.203	79.984	19.998	103.169	20.023	3.522	0.395
82.000	122.349	79.965	19.999	103.163	20.019	3.755	0.378
82.500	122.584	79.998	19.996	103.156	20.019	3.777	0.363
83.000	122.757	79.980	19.996	103.156	20.021	3.658	0.394
83.500	123.004	80.010	19.994	103.155	20.016	3.989	0.414
84.000	123.183	79.995	19.995	103.162	20.022	3.550	0.424
84.500	123.385	79.991	19.995	103.168	20.021	3.659	0.404
85.000	123.571	79.996	19.996	103.180	20.022	3.575	0.384
85.500	123.765	79.990	19.997	103.180	20.021	3.651	0.384
86.000	123.973	79.993	19.996	103.181	20.018	3.872	0.391
86.500	124.170	79.994	19.997	103.177	20.022	3.589	0.403
87.000	124.352	79.987	19.996	103.180	20.021	3.653	0.392
87.500	124.541	79.986	19.995	103.173	20.018	3.872	0.375
88.000	124.770	79.992	19.996	103.174	20.020	3.671	0.395
88.500	125.004	79.992	19.997	103.174	20.021	3.625	0.440
89.000	125.209	79.993	19.997	103.173	20.019	3.783	0.451
89.500	125.431	79.993	19.997	103.171	20.022	3.534	0.433
90.000	125.623	79.994	19.996	103.175	20.018	3.870	0.421
90.500	125.827	79.991	19.996	103.175	20.020	3.726	0.406
91.000	126.057	79.995	19.997	103.174	20.018	3.839	0.415
91.501	126.252	79.994	19.995	103.176	20.024	3.380	0.429
92.001	126.448	79.995	19.995	103.176	20.020	3.698	0.408
92.500	126.678	79.998	19.993	103.173	20.021	3.635	0.409
93.000	126.880	79.992	19.996	103.176	20.020	3.671	0.429
93.500	127.114	80.001	19.995	103.176	20.022	3.562	0.434
94.000	127.312	79.994	19.997	103.176	20.021	3.641	0.434
94.500	127.527	79.983	19.998	103.175	20.020	3.675	0.422
95.000	127.730	79.982	19.997	103.172	20.020	3.710	0.416
95.500	127.975	79.997	19.996	103.168	20.022	3.554	0.433
96.000	128.161	79.988	19.996	103.174	20.024	3.417	0.440
96.500	128.363	79.988	19.998	103.174	20.021	3.623	0.410
97.000	128.601	79.992	19.997	103.171	20.021	3.629	0.414
97.501	128.810	79.976	19.997	103.172	20.023	3.514	0.443
98.001	129.061	80.005	19.995	103.171	20.026	3.281	0.454
98.501	129.269	80.002	19.996	103.165	20.023	3.471	0.460
99.001	129.470	79.991	19.996	103.163	20.021	3.643	0.434
99.500	129.712	80.003	19.996	103.166	20.024	3.449	0.426
100.000	129.926	79.994	19.996	103.167	20.022	3.572	0.450
100.500	130.165	79.998	19.994	103.164	20.019	3.779	0.455
101.000	130.395	80.008	19.994	103.166	20.023	3.498	0.461
101.500	130.587	79.987	19.997	103.168	20.022	3.587	0.445
102.001	130.818	80.001	19.996	103.166	20.022	3.566	0.422
102.501	131.048	79.997	19.995	103.165	20.024	3.403	0.442
103.000	131.275	79.976	19.998	103.170	20.019	3.766	0.459
103.501	131.507	80.006	19.994	103.164	20.022	3.588	0.458
104.001	131.695	79.981	19.996	103.165	20.021	3.643	0.440
104.501	131.937	79.999	19.994	103.168	20.023	3.503	0.425
105.001	132.171	79.991	19.997	103.169	20.020	3.685	0.453
105.501	132.428	80.004	19.993	103.166	20.021	3.619	0.483
106.000	132.627	79.991	19.995	103.172	20.023	3.488	0.473
106.500	132.821	79.984	19.994	103.170	20.027	3.221	0.424
107.000	133.097	79.985	19.995	103.170	20.025	3.316	0.432
107.500	133.308	79.988	19.994	103.168	20.026	3.241	0.479
108.000	133.542	79.996	19.995	103.171	20.024	3.386	0.466
108.500	133.793	79.990	19.995	103.168	20.024	3.443	0.465
109.000	133.991	79.991	19.995	103.167	20.025	3.326	0.467
109.500	134.233	79.992	19.997	103.167	20.022	3.593	0.445
110.000	134.484	79.994	19.998	103.167	20.022	3.566	0.466
110.500	134.704	79.993	19.997	103.166	20.025	3.309	0.481
111.000	134.942	79.990	19.998	103.167	20.024	3.431	0.464
111.500	135.200	79.996	19.996	103.168	20.024	3.445	0.477
112.000	135.427	80.014	19.995	103.168	20.021	3.602	0.491
112.500	135.657	79.990	19.997	103.170	20.023	3.461	0.471
113.001	135.879	79.984	19.997	103.171	20.024	3.425	0.455
113.501	136.106	80.001	19.996	103.168	20.023	3.522	0.451
114.000	136.319	79.984	19.996	103.166	20.027	3.221	0.444
114.500	136.542	79.985	19.996	103.164	20.023	3.522	0.438
115.000	136.785	79.995	19.995	103.162	20.024	3.411	0.451
115.500	137.052	79.996	19.996	103.162	20.023	3.491	0.488
116.001	137.304	79.986	19.993	103.164	20.022	3.544	0.515
116.501	137.556	80.005	19.994	103.166	20.026	3.261	0.512
117.001	137.744	79.982	19.997	103.171	20.024	3.414	0.472
117.501	137.995	79.994	19.995	103.170	20.021	3.627	0.440
118.000	138.202	79.987	19.996	103.170	20.024	3.429	0.448
118.500	138.453	79.990	19.996	103.169	20.026	3.249	0.458
119.000	138.695	79.989	19.994	103.169	20.027	3.211	0.475
119.500	138.975	79.986	19.997	103.167	20.025	3.366	0.508
120.000	139.232	79.991	19.996	103.168	20.025	3.330	0.530
120.500	139.446	79.989	19.998	103.167	20.024	3.403	0.504
121.001	139.686	79.986	19.997	103.163	20.022	3.538	0.462
121.501	139.934	80.004	19.994	103.161	20.024	3.408	0.471
122.001	140.156	79.990	19.995	103.160	20.025	3.313	0.479
122.501	140.380	79.979	19.997	103.161	20.027	3.218	0.458
123.000	140.658	79.995	19.996	103.161	20.026	3.297	0.474
123.500	140.904	79.992	19.996	103.165	20.026	3.281	0.513
124.000	141.113	79.994	19.996	103.167	20.027	3.182	0.490
124.500	141.366	80.005	19.994	103.165	20.027	3.182	0.459
125.000	141.601	79.989	19.997	103.167	20.027	3.216	0.475
125.500	141.833	79.992	19.996	103.167	20.024	3.396	0.478
126.000	142.057	79.994	19.996	103.166	20.025	3.332	0.462
126.501	142.323	79.995	19.997	103.167	20.025	3.368	0.473
127.001	142.553	79.978	19.997	103.167	20.028	3.149	0.493
127.500	142.811	79.997	19.994	103.160	20.026	3.267	0.492
128.000	143.060	79.999	19.995	103.161	20.023	3.465	0.497
128.500	143.307	80.004	19.995	103.160	20.028	3.097	0.501
129.000	143.602	79.999	19.994	103.163	20.027	3.210	0.519
129.500	143.784	79.994	19.996	103.166	20.027	3.188	0.509
130.000	144.080	80.002	19.994	103.170	20.026	3.273	0.478
130.500	144.324	79.991	19.996	103.172	20.024	3.380	0.510
131.000	144.575	80.001	19.996	103.171	20.026	3.244	0.518
131.500	144.776	79.982	19.995	103.168	20.029	3.022	0.474
132.000	145.042	79.990	19.997	103.165	20.027	3.218	0.460
132.500	145.326	79.994	19.996	103.160	20.026	3.271	0.508
133.000	145.549	80.002	19.994	103.155	20.028	3.113	0.528
133.500	145.804	79.989	19.996	103.158	20.025	3.339	0.493
134.000	146.046	80.000	19.994	103.155	20.025	3.359	0.488
134.500	146.258	79.991	19.994	103.151	20.027	3.222	0.476
135.000	146.541	79.974	19.995	103.156	20.023	3.493	0.474
135.500	146.788	79.988	19.996	103.160	20.022	3.523	0.512
136.000	147.026	80.004	19.992	103.156	20.026	3.279	0.508
136.500	147.258	79.992	19.995	103.158	20.022	3.556	0.477
137.000	147.524	79.997	19.995	103.160	20.025	3.352	0.484
137.500	147.726	79.990	19.996	103.159	20.022	3.550	0.483
138.000	148.012	79.993	19.997	103.155	20.027	3.190	0.478
138.500	148.232	79.984	19.997	103.153	20.025	3.335	0.497
139.000	148.516	79.994	19.993	103.151	20.026	3.303	0.505
139.500	148.765	79.973	19.998	103.155	20.025	3.343	0.518
140.000	149.018	79.995	19.995	103.147	20.026	3.300	0.518
140.500	149.271	79.991	19.996	103.149	20.027	3.230	0.504
141.000	149.528	80.001	19.996	103.152	20.025	3.347	0.508
141.500	149.718	79.992	19.995	103.155	20.025	3.311	0.478
142.000	149.988	79.991	19.994	103.153	20.026	3.273	0.454
142.500	150.232	79.995	19.995	103.158	20.027	3.214	0.487
143.000	150.502	79.987	19.994	103.157	20.027	3.164	0.514
143.500	150.730	80.001	19.997	103.155	20.028	3.128	0.506
144.000	150.984	79.990	19.995	103.152	20.028	3.111	0.489
144.501	151.222	79.980	19.996	103.148	20.027	3.214	0.487
145.001	151.484	79.982	19.996	103.148	20.024	3.439	0.497
145.500	151.723	79.989	19.997	103.145	20.025	3.342	0.500
146.000	151.943	79.995	19.996	103.148	20.027	3.228	0.480
146.500	152.186	79.985	19.997	103.148	20.028	3.145	0.461
147.000	152.484	79.983	19.997	103.148	20.024	3.440	0.502
147.500	152.685	79.984	19.995	103.153	20.025	3.367	0.520
148.000	152.924	79.990	19.996	103.159	20.027	3.226	0.470
148.500	153.199	80.003	19.996	103.154	20.026	3.234	0.477
149.000	153.410	79.970	19.998	103.155	20.029	3.060	0.500
149.500	153.633	79.994	19.996	103.149	20.029	3.058	0.460
150.000	153.887	79.984	19.998	103.146	20.028	3.127	0.455
150.500	154.137	79.976	19.996	103.138	20.028	3.131	0.490
151.000	154.396	79.996	19.995	103.136	20.025	3.323	0.507
151.500	154.664	79.995	19.994	103.134	20.029	3.034	0.518
152.000	154.897	79.990	19.995	103.148	20.024	3.380	0.514
152.500	155.143	80.004	19.994	103.150	20.025	3.319	0.490
153.000	155.396	79.988	19.996	103.158	20.027	3.208	0.489
153.500	155.631	79.980	19.995	103.164	20.025	3.341	0.493
154.000	155.895	79.993	19.996	103.168	20.027	3.220	0.494
154.500	156.154	79.993	19.996	103.165	20.026	3.250	0.511
155.000	156.403	79.991	19.997	103.163	20.027	3.220	0.516
155.500	156.633	79.991	19.994	103.162	20.027	3.169	0.494
156.000	156.863	79.984	19.994	103.163	20.024	3.406	0.470
156.500	157.157	80.005	19.994	103.160	20.027	3.208	0.492
157.000	157.411	80.000	19.997	103.157	20.027	3.173	0.536
157.500	157.630	79.994	19.997	103.154	20.026	3.268	0.510
158.000	157.906	79.999	19.994	103.147	20.027	3.185	0.484
158.500	158.151	79.992	19.996	103.142	20.027	3.196	0.508
159.000	158.380	79.992	19.996	103.138	20.028	3.090	0.497
159.500	158.636	79.985	19.997	103.133	20.025	3.308	0.480
160.000	158.855	79.988	19.996	103.130	20.028	3.118	0.480
160.500	159.137	79.997	19.994	103.130	20.026	3.260	0.488
161.000	159.375	79.994	19.995	103.136	20.024	3.383	0.510
161.500	159.620	80.005	19.994	103.143	20.025	3.365	0.502
162.000	159.853	80.003	19.995	103.153	20.027	3.201	0.481
162.500	160.139	80.000	19.996	103.154	20.026	3.280	0.498
163.000	160.347	79.995	19.995	103.155	20.029	3.066	0.507
163.500	160.616	80.014	19.994	103.150	20.026	3.278	0.486
164.000	160.870	79.996	19.997	103.147	20.025	3.349	0.500
164.500	161.112	80.001	19.994	103.137	20.027	3.197	0.509
165.000	161.351	79.990	19.995	103.140	20.026	3.264	0.489
165.501	161.608	79.989	19.997	103.141	20.028	3.105	0.489
166.001	161.867	79.986	19.995	103.142	20.028	3.159	0.506
166.500	162.144	79.986	19.997	103.140	20.026	3.242	0.526
167.000	162.357	79.988	19.997	103.141	20.026	3.290	0.513
167.500	162.601	79.986	19.995	103.138	20.029	3.052	0.473
168.000	162.807	79.995	19.995	103.142	20.027	3.229	0.454
168.500	163.108	80.004	19.995	103.141	20.031	2.908	0.478
169.000	163.353	79.991	19.996	103.142	20.028	3.118	0.526
169.500	163.566	79.987	19.997	103.143	20.027	3.215	0.502
170.000	163.800	79.958	19.999	103.142	20.027	3.224	0.453
170.500	164.092	79.993	19.995	103.131	20.030	2.965	0.486
171.000	164.324	79.993	19.995	103.130	20.027	3.224	0.524
171.500	164.613	79.994	19.996	103.127	20.028	3.149	0.522
172.000	164.873	79.990	19.995	103.128	20.027	3.193	0.535
172.500	165.114	79.975	19.998	103.129	20.028	3.096	0.525
173.000	165.391	80.002	19.994	103.131	20.025	3.312	0.510
173.500	165.597	79.984	19.997	103.132	20.029	3.056	0.501
174.000	165.892	80.003	19.993	103.130	20.027	3.227	0.492
174.500	166.123	79.974	19.999	103.132	20.027	3.197	0.513
175.000	166.362	79.978	19.997	103.130	20.027	3.213	0.497
175.500	166.619	79.993	19.995	103.136	20.028	3.108	0.483
176.000	166.858	80.003	19.994	103.134	20.027	3.217	0.496
176.500	167.090	79.995	19.995	103.140	20.026	3.270	0.484
177.000	167.364	80.002	19.996	103.135	20.030	3.007	0.489
177.500	167.579	79.991	19.996	103.136	20.030	2.944	0.498
178.000	167.854	79.992	19.996	103.131	20.029	3.027	0.490
178.500	168.079	79.997	19.996	103.129	20.029	3.037	0.495
179.000	168.354	79.989	19.996	103.125	20.030	3.003	0.500
179.500	168.615	79.994	19.996	103.125	20.026	3.268	0.518
180.000	168.856	80.000	19.996	103.126	20.028	3.145	0.519
180.500	169.139	80.003	19.994	103.130	20.028	3.104	0.513
181.000	169.357	80.008	19.994	103.132	20.029	3.043	0.512
181.500	169.604	79.987	19.997	103.135	20.030	2.993	0.484
182.000	169.857	79.993	19.996	103.134	20.031	2.942	0.483
182.500	170.100	79.994	19.997	103.133	20.030	3.007	0.498
183.000	170.334	79.994	19.996	103.130	20.030	2.983	0.487
183.500	170.574	79.995	19.995	103.127	20.032	2.860	0.476
184.000	170.833	79.994	19.997	103.125	20.031	2.910	0.486
184.500	171.056	79.992	19.996	103.125	20.030	2.997	0.490
185.000	171.315	79.994	19.996	103.127	20.029	3.043	0.482
185.500	171.560	79.995	19.997	103.127	20.030	2.989	0.493
186.000	171.843	79.992	19.996	103.127	20.028	3.151	0.516
186.500	172.070	79.990	19.995	103.126	20.030	2.981	0.519
187.000	172.320	79.993	19.996	103.125	20.033	2.775	0.493
187.500	172.571	79.998	19.996	103.124	20.032	2.842	0.489
188.000	172.809	79.994	19.995	103.124	20.032	2.842	0.495
188.500	173.079	79.995	19.996	103.124	20.033	2.759	0.499
189.000	173.326	79.991	19.997	103.123	20.031	2.924	0.513
189.500	173.544	79.995	19.996	103.124	20.031	2.904	0.491
190.000	173.798	79.995	19.996	103.125	20.032	2.860	0.468
190.500	174.022	79.991	19.996	103.124	20.030	2.944	0.475
191.000	174.293	79.995	19.995	103.126	20.034	2.682	0.487
191.500	174.579	79.988	19.996	103.126	20.034	2.692	0.527
192.000	174.795	80.006	19.995	103.125	20.033	2.746	0.530
192.500	175.064	79.999	19.994	103.126	20.033	2.791	0.493
193.000	175.277	79.981	19.997	103.127	20.033	2.783	0.483
193.500	175.533	79.990	19.994	103.125	20.028	3.126	0.476
194.000	175.773	80.000	19.996	103.127	20.030	2.979	0.482
194.500	175.982	79.982	19.997	103.127	20.034	2.718	0.472
195.000	176.278	79.983	19.997	103.125	20.031	2.876	0.477
195.500	176.507	79.999	19.996	103.123	20.032	2.845	0.516
196.000	176.735	79.992	19.995	103.123	20.033	2.783	0.491
196.500	177.032	79.992	19.994	103.122	20.034	2.658	0.491
197.000	177.261	79.989	19.996	103.123	20.035	2.591	0.525
197.500	177.547	79.999	19.995	103.128	20.035	2.651	0.521
198.000	177.775	80.000	19.995	103.131	20.034	2.696	0.514
198.500	178.015	79.985	19.996	103.135	20.031	2.922	0.491
199.000	178.267	79.993	19.996	103.136	20.032	2.801	0.480
199.500	178.488	79.995	19.995	103.137	20.037	2.504	0.483
200.000	178.725	79.985	19.999	103.134	20.036	2.569	0.465
200.500	179.002	79.995	19.995	103.129	20.035	2.643	0.486
201.000	179.250	79.983	19.997	103.127	20.034	2.722	0.520
201.500	179.529	79.989	19.996	103.125	20.034	2.670	0.526
202.000	179.740	79.993	19.995	103.124	20.036	2.565	0.509
202.500	179.996	79.992	19.996	103.124	20.035	2.619	0.478
203.000	180.258	79.989	19.995	103.126	20.032	2.801	0.492
203.500	180.492	79.991	19.995	103.124	20.037	2.453	0.507
204.000	180.720	79.992	19.996	103.126	20.036	2.573	0.479
204.500	180.948	79.983	19.997	103.126	20.037	2.490	0.459
205.000	181.247	79.990	19.995	103.124	20.033	2.732	0.491
205.500	181.478	79.994	19.996	103.124	20.037	2.472	0.529
206.000	181.736	79.992	19.996	103.127	20.035	2.595	0.510
206.500	181.979	79.994	19.996	103.127	20.033	2.730	0.495
207.000	182.267	79.988	19.996	103.128	20.034	2.714	0.516
207.500	182.421	79.987	19.996	103.129	20.036	2.563	0.486
208.000	182.676	79.993	19.996	103.128	20.036	2.563	0.425
208.500	182.927	79.995	19.995	103.127	20.035	2.591	0.457
209.000	183.191	80.006	19.993	103.130	20.038	2.385	0.511
209.500	183.415	79.991	19.996	103.134	20.038	2.417	0.502
210.000	183.685	79.979	19.997	103.136	20.038	2.391	0.491
210.500	183.906	79.997	19.996	103.133	20.039	2.324	0.493
211.000	184.197	80.003	19.994	103.131	20.035	2.605	0.502
211.500	184.399	79.987	19.996	103.129	20.037	2.496	0.502
212.000	184.664	79.994	19.995	103.122	20.037	2.482	0.480
212.500	184.901	79.991	19.996	103.121	20.036	2.565	0.484
213.000	185.198	79.997	19.996	103.125	20.036	2.570	0.518
213.500	185.416	79.996	19.994	103.129	20.037	2.508	0.525
214.000	185.671	80.000	19.996	103.129	20.037	2.479	0.494
214.500	185.939	79.995	19.994	103.130	20.038	2.396	0.498
215.000	186.195	79.991	19.995	103.131	20.039	2.352	0.523
215.500	186.430	79.984	19.997	103.129	20.037	2.457	0.507
216.000	186.687	79.991	19.997	103.126	20.038	2.406	0.491
216.500	186.902	79.992	19.994	103.125	20.035	2.651	0.482
217.000	187.138	79.989	19.996	103.125	20.038	2.382	0.462
217.500	187.421	79.998	19.995	103.122	20.035	2.600	0.485
218.000	187.665	79.995	19.995	103.125	20.035	2.619	0.523
218.500	187.892	79.992	19.995	103.127	20.033	2.728	0.499
219.000	188.132	79.994	19.996	103.127	20.037	2.441	0.469
219.500	188.356	79.989	19.996	103.126	20.036	2.576	0.465
220.000	188.597	79.992	19.996	103.127	20.038	2.423	0.464
220.500	188.855	79.990	19.995	103.124	20.041	2.152	0.482
221.000	189.098	79.992	19.997	103.125	20.034	2.720	0.500
221.500	189.348	79.985	19.997	103.125	20.037	2.455	0.497
222.000	189.544	79.984	19.999	103.126	20.040	2.269	0.470
222.500	189.787	79.993	19.996	103.122	20.040	2.241	0.443
223.000	190.065	79.992	19.997	103.124	20.038	2.437	0.480
223.500	190.311	79.992	19.997	103.125	20.041	2.192	0.522
224.000	190.573	79.997	19.996	103.120	20.036	2.548	0.516
224.500	190.773	79.987	19.996	103.116	20.038	2.419	0.484
225.000	191.034	79.971	19.998	103.113	20.037	2.507	0.461
225.500	191.291	79.994	19.994	103.105	20.038	2.386	0.490
226.000	191.526	79.995	19.995	103.105	20.041	2.190	0.506
226.500	191.756	79.995	19.994	103.107	20.035	2.584	0.479
227.000	192.018	79.984	19.996	103.107	20.035	2.623	0.478
227.500	192.232	79.993	19.996	103.109	20.038	2.403	0.484
228.000	192.466	79.997	19.996	103.111	20.039	2.338	0.462
228.500	192.719	79.998	19.996	103.107	20.035	2.627	0.468
229.000	192.956	79.992	19.995	103.108	20.038	2.368	0.489
229.500	193.213	79.997	19.995	103.111	20.035	2.621	0.492
230.000	193.396	79.990	19.996	103.112	20.037	2.449	0.467
230.500	193.677	79.976	19.998	103.113	20.038	2.370	0.452
231.000	193.960	80.006	19.992	103.107	20.039	2.348	0.514
231.500	194.123	79.982	19.995	103.112	20.037	2.439	0.505
232.000	194.359	79.990	19.996	103.113	20.037	2.441	0.422
232.500	194.595	79.976	19.998	103.113	20.040	2.278	0.436
233.000	194.903	79.991	19.994	103.112	20.036	2.550	0.508
233.500	195.098	79.991	19.996	103.117	20.037	2.441	0.523
234.000	195.304	79.981	19.997	103.110	20.038	2.421	0.452
234.500	195.598	80.014	19.993	103.104	20.039	2.330	0.450
235.000	195.796	79.977	19.997	103.109	20.039	2.340	0.496
235.500	196.062	79.989	19.996	103.108	20.038	2.389	0.479
236.000	196.312	80.005	19.994	103.105	20.037	2.494	0.490
236.500	196.549	79.994	19.995	103.108	20.035	2.605	0.501
237.000	196.749	79.988	19.998	103.111	20.034	2.674	0.462
237.500	197.017	80.006	19.994	103.105	20.034	2.662	0.453
238.000	197.196	79.991	19.997	103.113	20.034	2.684	0.457
238.500	197.473	79.997	19.994	103.114	20.035	2.595	0.451
239.000	197.707	79.997	19.995	103.117	20.033	2.761	0.484
239.500	197.932	79.990	19.995	103.119	20.034	2.686	0.486
240.000	198.209	80.008	19.995	103.123	20.033	2.797	0.480
240.500	198.421	79.989	19.996	103.123	20.037	2.439	0.495
241.000	198.669	79.987	19.997	103.127	20.035	2.647	0.474
241.500	198.920	80.002	19.995	103.122	20.038	2.437	0.480
242.000	199.138	79.988	19.998	103.125	20.037	2.484	0.484
242.500	199.375	79.994	19.995	103.125	20.035	2.647	0.462
243.000	199.605	79.994	19.996	103.125	20.037	2.465	0.461
243.500	199.849	79.984	19.997	103.128	20.039	2.342	0.470
244.000	200.108	80.008	19.994	103.129	20.037	2.508	0.489
244.500	200.310	79.993	19.994	103.132	20.034	2.686	0.483
245.000	200.556	79.989	19.997	103.135	20.034	2.674	0.455
245.500	200.782	79.986	19.998	103.131	20.033	2.734	0.460
246.000	201.058	79.997	19.996	103.128	20.036	2.524	0.486
246.500	201.266	79.989	19.997	103.133	20.035	2.619	0.493
247.000	201.513	79.986	19.996	103.128	20.036	2.538	0.470
247.500	201.767	79.991	19.997	103.126	20.035	2.641	0.478
248.000	202.019	79.992	19.997	103.128	20.036	2.576	0.503
248.500	202.274	79.992	19.996	103.129	20.036	2.579	0.507
249.000	202.482	79.997	19.996	103.125	20.036	2.514	0.485
249.500	202.744	79.996	19.995	103.125	20.036	2.566	0.466
250.000	202.984	79.998	19.996	103.126	20.036	2.579	0.486
250.500	203.190	79.988	19.997	103.128	20.036	2.530	0.474
251.000	203.440	79.981	19.997	103.127	20.036	2.570	0.451
251.500	203.646	79.983	19.997	103.126	20.037	2.490	0.456
252.000	203.927	80.000	19.997	103.124	20.035	2.633	0.472
252.500	204.166	79.981	19.997	103.123	20.036	2.571	0.504
253.000	204.385	79.971	19.998	103.121	20.037	2.445	0.489
253.500	204.646	79.994	19.996	103.119	20.035	2.629	0.469
254.000	204.906	79.990	19.996	103.123	20.035	2.629	0.500
254.500	205.139	79.991	19.995	103.127	20.035	2.603	0.507
255.000	205.423	79.988	19.995	103.125	20.037	2.496	0.505
255.500	205.642	79.986	19.997	103.126	20.037	2.496	0.510
256.000	205.897	79.995	19.995	103.126	20.038	2.425	0.488
256.500	206.161	79.993	19.996	103.125	20.038	2.415	0.496
257.000	206.407	79.988	19.999	103.120	20.037	2.488	0.514
257.500	206.671	80.002	19.995	103.115	20.039	2.316	0.510
258.000	206.915	79.991	19.996	103.117	20.042	2.134	0.510
258.500	207.152	79.993	19.997	103.117	20.042	2.130	0.495
259.000	207.399	80.002	19.995	103.116	20.039	2.296	0.482
259.500	207.638	79.994	19.997	103.120	20.040	2.282	0.485
260.000	207.872	79.996	19.996	103.125	20.040	2.273	0.480
260.500	208.127	79.995	19.995	103.123	20.040	2.269	0.481
261.000	208.383	80.002	19.994	103.120	20.040	2.249	0.500
261.500	208.632	79.987	19.998	103.120	20.037	2.465	0.508
262.000	208.883	79.993	19.996	103.116	20.042	2.126	0.502
262.500	209.145	80.001	19.996	103.116	20.037	2.494	0.506
263.000	209.398	80.000	19.996	103.115	20.040	2.239	0.514
263.500	209.643	79.997	19.996	103.122	20.039	2.318	0.507
264.000	209.847	79.993	19.996	103.121	20.036	2.538	0.474
264.500	210.161	79.992	19.995	103.124	20.039	2.322	0.484
265.000	210.372	79.993	19.996	103.124	20.044	1.999	0.522
265.500	210.629	79.993	19.995	103.123	20.037	2.457	0.497
266.000	210.868	80.002	19.996	103.122	20.037	2.453	0.482
266.501	211.156	79.997	19.994	103.123	20.040	2.269	0.511
267.001	211.395	79.992	19.995	103.126	20.039	2.306	0.527
267.500	211.644	79.998	19.997	103.129	20.036	2.540	0.508
268.000	211.894	79.984	19.996	103.129	20.036	2.572	0.493
268.500	212.120	79.993	19.996	103.127	20.037	2.443	0.487
269.000	212.355	79.994	19.996	103.127	20.038	2.409	0.468
269.500	212.678	79.996	19.996	103.124	20.036	2.536	0.510
270.000	212.931	79.993	19.997	103.122	20.039	2.362	0.567
270.500	213.146	79.989	19.997	103.123	20.039	2.346	0.522
271.000	213.443	79.986	19.997	103.123	20.038	2.378	0.490
271.500	213.680	79.987	19.997	103.119	20.038	2.423	0.523
272.000	213.923	79.999	19.996	103.115	20.040	2.247	0.507
272.500	214.146	80.000	19.997	103.117	20.039	2.362	0.472
273.000	214.422	80.000	19.997	103.116	20.040	2.235	0.483
273.500	214.707	79.988	19.996	103.114	20.041	2.188	0.530
274.000	214.929	79.998	19.996	103.119	20.038	2.372	0.534
274.500	215.178	79.995	19.997	103.123	20.037	2.496	0.489
275.000	215.420	79.993	19.996	103.118	20.037	2.455	0.481
275.500	215.647	79.988	19.996	103.118	20.037	2.487	0.480
276.000	215.919	79.994	19.996	103.119	20.038	2.372	0.484
276.500	216.161	79.985	19.996	103.120	20.041	2.174	0.507
277.000	216.441	79.992	19.998	103.119	20.037	2.497	0.518
277.500	216.671	79.992	19.995	103.120	20.037	2.499	0.516
278.000	216.929	79.993	19.996	103.122	20.039	2.364	0.499
278.500	217.185	79.985	19.997	103.121	20.039	2.316	0.501
279.000	217.425	80.004	19.996	103.116	20.037	2.506	0.505
279.500	217.689	79.990	19.996	103.111	20.038	2.406	0.500
280.000	217.951	79.989	19.995	103.109	20.034	2.669	0.515
280.500	218.199	80.001	19.995	103.106	20.039	2.360	0.518
281.000	218.443	79.989	19.996	103.105	20.037	2.497	0.501
281.500	218.717	79.983	19.998	103.108	20.035	2.590	0.505
282.000	218.945	79.970	19.997	103.110	20.039	2.364	0.510
282.500	219.181	79.986	19.996	103.110	20.040	2.263	0.483
283.000	219.431	79.992	19.994	103.112	20.038	2.415	0.475
283.500	219.685	79.993	19.996	103.115	20.039	2.302	0.495
284.001	219.931	79.995	19.993	103.113	20.037	2.478	0.502
284.501	220.184	79.992	19.997	103.116	20.037	2.455	0.499
285.000	220.441	79.993	19.998	103.121	20.038	2.401	0.504
285.500	220.683	79.991	19.998	103.119	20.036	2.514	0.505
286.001	220.947	80.001	19.995	103.118	20.038	2.409	0.503
286.501	221.210	79.990	19.998	103.116	20.040	2.261	0.516
287.000	221.476	80.006	19.994	103.111	20.038	2.435	0.528
287.500	221.731	79.995	19.996	103.109	20.037	2.491	0.525
288.000	221.960	79.992	19.996	103.107	20.035	2.586	0.503
288.500	222.201	79.987	19.995	103.109	20.037	2.471	0.477
289.000	222.450	79.992	19.996	103.114	20.036	2.530	0.480
289.500	222.698	79.992	19.995	103.112	20.036	2.550	0.494
290.000	222.953	79.991	19.996	103.109	20.036	2.552	0.500
290.500	223.206	79.993	19.996	103.108	20.035	2.609	0.506
291.000	223.459	79.991	19.996	103.102	20.037	2.439	0.506
291.500	223.716	79.992	19.995	103.096	20.034	2.705	0.508
292.000	223.952	79.993	19.996	103.095	20.037	2.483	0.502
292.500	224.207	79.994	19.995	103.100	20.040	2.251	0.492
293.000	224.428	79.994	19.995	103.104	20.034	2.707	0.483
293.500	224.718	79.994	19.996	103.111	20.037	2.455	0.494
294.000	224.961	79.992	19.996	103.117	20.036	2.532	0.522
294.500	225.254	79.993	19.996	103.121	20.037	2.467	0.534
295.000	225.459	79.993	19.994	103.121	20.039	2.331	0.517
295.500	225.730	79.991	19.996	103.121	20.038	2.398	0.487
296.000	225.963	79.989	19.997	103.115	20.035	2.614	0.490
296.500	226.225	79.993	19.997	103.112	20.039	2.333	0.499
297.000	226.473	79.993	19.995	103.113	20.032	2.808	0.503
297.500	226.706	79.990	19.996	103.112	20.037	2.503	0.496
298.000	226.979	79.994	19.996	103.109	20.040	2.269	0.493
298.500	227.241	79.996	19.996	103.110	20.036	2.546	0.521
299.000	227.468	79.991	19.996	103.108	20.034	2.671	0.512
299.500	227.741	79.992	19.995	103.110	20.036	2.576	0.494
300.000	227.999	79.991	19.995	103.110	20.036	2.524	0.515
300.500	228.236	79.995	19.995	103.110	20.033	2.744	0.513
301.000	228.498	79.993	19.996	103.112	20.036	2.578	0.497
301.500	228.783	79.993	19.996	103.114	20.036	2.556	0.523
302.000	228.999	79.993	19.995	103.108	20.037	2.505	0.524
302.500	229.298	79.991	19.995	103.106	20.037	2.501	0.508
303.000	229.527	79.993	19.995	103.103	20.034	2.723	0.522
303.501	229.777	79.993	19.996	103.103	20.035	2.653	0.503
304.001	230.029	79.992	19.996	103.099	20.036	2.582	0.490
304.500	230.318	79.992	19.996	103.102	20.033	2.772	0.521
305.000	230.544	79.994	19.995	103.099	20.037	2.441	0.528
305.500	230.796	79.980	19.996	103.100	20.037	2.497	0.497
306.000	231.068	79.992	19.995	103.096	20.036	2.572	0.501
306.500	231.308	79.991	19.996	103.094	20.038	2.406	0.518
307.000	231.557	79.994	19.995	103.090	20.038	2.412	0.501
307.500	231.828	79.994	19.996	103.092	20.034	2.679	0.505
308.000	232.058	79.999	19.995	103.092	20.038	2.418	0.510
308.500	232.320	79.990	19.996	103.097	20.038	2.372	0.496
309.000	232.550	79.994	19.995	103.100	20.038	2.396	0.492
309.500	232.815	79.987	19.997	103.102	20.040	2.257	0.494
310.000	233.083	79.988	19.996	103.099	20.040	2.242	0.514
310.500	233.347	80.016	19.991	103.101	20.038	2.436	0.532
311.000	233.540	79.979	19.996	103.103	20.038	2.416	0.494
311.500	233.848	80.001	19.995	103.100	20.041	2.216	0.479
312.001	234.088	79.993	19.995	103.101	20.037	2.477	0.525
312.501	234.322	79.992	19.995	103.101	20.031	2.899	0.511
313.000	234.582	79.995	19.995	103.096	20.040	2.279	0.483
313.500	234.816	79.992	19.996	103.092	20.039	2.364	0.494
314.000	235.066	79.990	19.995	103.092	20.038	2.414	0.489
314.500	235.359	79.998	19.994	103.093	20.037	2.461	0.514
315.000	235.591	79.993	19.996	103.097	20.037	2.507	0.534
315.500	235.864	79.997	19.995	103.099	20.038	2.366	0.515
316.000	236.148	79.991	19.996	103.098	20.039	2.305	0.531
316.500	236.375	79.992	19.996	103.096	20.037	2.499	0.534
317.000	236.597	79.993	19.997	103.094	20.036	2.521	0.480
317.500	236.862	79.993	19.995	103.088	20.037	2.491	0.468
318.000	237.125	80.008	19.994	103.087	20.034	2.675	0.508
318.500	237.361	79.996	19.997	103.089	20.037	2.495	0.514
319.000	237.599	79.990	19.996	103.091	20.037	2.459	0.487
319.500	237.888	80.000	19.994	103.089	20.033	2.788	0.500
320.000	238.140	79.987	19.994	103.092	20.035	2.604	0.534
320.500	238.375	79.997	19.996	103.092	20.035	2.604	0.514
321.000	238.638	79.996	19.995	103.087	20.036	2.576	0.492
321.500	238.872	79.986	19.996	103.086	20.033	2.792	0.497
322.000	239.132	80.001	19.994	103.087	20.034	2.675	0.496
322.500	239.408	80.012	19.992	103.086	20.038	2.365	0.515
323.000	239.651	79.994	19.994	103.090	20.038	2.418	0.527
323.500	239.878	79.996	19.995	103.092	20.038	2.370	0.494
324.000	240.170	80.007	19.994	103.093	20.035	2.620	0.495
324.500	240.385	79.986	19.997	103.096	20.036	2.582	0.513
325.000	240.639	79.972	19.998	103.094	20.037	2.467	0.488
325.500	240.873	80.005	19.996	103.087	20.036	2.543	0.479
326.000	241.144	79.987	19.997	103.087	20.033	2.747	0.497
326.501	241.415	79.975	19.996	103.089	20.037	2.493	0.523
327.001	241.652	79.991	19.995	103.085	20.035	2.653	0.525
327.500	241.920	79.994	19.996	103.086	20.034	2.703	0.506
328.000	242.149	79.991	19.996	103.089	20.036	2.556	0.501
328.500	242.429	79.997	19.995	103.089	20.037	2.454	0.503
329.000	242.657	79.986	19.995	103.086	20.037	2.440	0.509
329.500	242.952	79.995	19.994	103.086	20.037	2.448	0.516
330.000	243.190	80.010	19.993	103.090	20.035	2.586	0.528
330.500	243.490	79.999	19.994	103.093	20.034	2.717	0.535
331.000	243.682	79.983	19.997	103.097	20.037	2.483	0.516
331.500	243.927	79.989	19.998	103.095	20.036	2.517	0.464
332.000	244.182	79.990	19.996	103.092	20.036	2.517	0.468
332.500	244.434	80.001	19.994	103.089	20.037	2.442	0.504
333.000	244.677	79.989	19.996	103.086	20.037	2.449	0.501
333.500	244.947	79.987	19.996	103.082	20.036	2.529	0.504
334.000	245.186	79.989	19.995	103.086	20.036	2.534	0.511
334.500	245.436	79.996	19.994	103.089	20.038	2.392	0.499
335.000	245.688	80.011	19.995	103.092	20.038	2.416	0.496
335.500	245.955	80.001	19.996	103.091	20.040	2.287	0.511
336.000	246.212	79.994	19.995	103.090	20.037	2.497	0.521
336.500	246.442	79.991	19.994	103.088	20.040	2.236	0.505
337.000	246.686	79.997	19.996	103.091	20.040	2.242	0.480
337.500	246.939	79.998	19.995	103.089	20.043	2.034	0.485
338.000	247.196	79.994	19.997	103.091	20.036	2.549	0.503
338.500	247.424	79.981	19.996	103.092	20.040	2.222	0.498
339.000	247.718	79.996	19.996	103.090	20.038	2.396	0.504
339.500	247.985	80.000	19.995	103.087	20.040	2.267	0.542
340.000	248.249	79.995	19.996	103.087	20.037	2.479	0.546
340.500	248.472	79.994	19.996	103.086	20.038	2.376	0.509
341.000	248.694	79.993	19.995	103.086	20.034	2.691	0.466
341.500	248.986	79.996	19.997	103.088	20.041	2.206	0.479
342.000	249.252	79.998	19.995	103.088	20.038	2.398	0.536
342.500	249.501	79.999	19.995	103.088	20.039	2.299	0.537
343.000	249.811	80.002	19.995	103.090	20.040	2.230	0.538
343.500	250.051	79.998	19.995	103.091	20.039	2.307	0.555
344.000	250.287	79.998	19.995	103.092	20.038	2.398	0.513
344.500	250.519	79.988	19.993	103.095	20.039	2.331	0.472
345.000	250.807	79.996	19.995	103.099	20.042	2.087	0.494
345.500	251.044	79.984	19.995	103.098	20.037	2.446	0.523
346.000	251.221	79.990	19.994	103.097	20.037	2.489	0.470
346.500	251.535	79.993	19.994	103.096	20.037	2.505	0.452
347.000	251.767	79.991	19.995	103.095	20.038	2.396	0.519
347.500	252.021	79.993	19.995	103.091	20.039	2.321	0.516
348.000	252.248	79.998	19.996	103.090	20.038	2.394	0.483
348.500	252.495	79.996	19.994	103.088	20.038	2.394	0.478
349.000	252.781	79.986	19.994	103.088	20.039	2.341	0.504
349.500	253.019	80.011	19.992	103.087	20.041	2.214	0.528
350.000	253.272	79.990	19.995	103.091	20.040	2.254	0.507
350.500	253.487	79.989	19.996	103.090	20.040	2.260	0.480
351.000	253.750	79.999	19.995	103.092	20.042	2.087	0.473
351.500	254.018	80.003	19.993	103.091	20.043	2.044	0.505
352.000	254.252	79.980	19.996	103.093	20.043	2.014	0.516
352.500	254.497	79.988	19.996	103.089	20.040	2.230	0.490
353.000	254.735	79.997	19.997	103.087	20.043	2.073	0.481
353.500	254.974	79.999	19.998	103.084	20.040	2.222	0.480
354.000	255.223	79.998	19.997	103.081	20.041	2.185	0.482
354.500	255.482	79.996	19.996	103.079	20.042	2.125	0.498
355.000	255.734	79.988	19.996	103.080	20.040	2.260	0.510
355.500	255.971	80.008	19.995	103.082	20.041	2.167	0.501
356.000	256.234	79.991	19.997	103.086	20.038	2.385	0.495
356.500	256.489	79.993	19.998	103.089	20.041	2.163	0.509
357.000	256.724	79.993	19.997	103.089	20.044	1.980	0.504
357.500	256.961	79.967	20.001	103.087	20.043	2.064	0.481
358.000	257.207	79.990	19.998	103.081	20.045	1.905	0.477
358.500	257.444	79.993	19.997	103.078	20.041	2.208	0.483
359.000	257.686	79.993	19.997	103.078	20.041	2.194	0.481
359.500	257.955	79.992	19.998	103.078	20.042	2.085	0.495
360.000	258.173	79.992	19.996	103.079	20.039	2.301	0.499
360.500	258.456	79.996	19.996	103.084	20.041	2.165	0.494
361.000	258.650	79.994	19.997	103.086	20.041	2.180	0.489
361.500	258.984	79.999	19.996	103.083	20.038	2.410	0.503
362.000	259.164	79.989	19.997	103.083	20.038	2.388	0.521
362.500	259.421	79.993	19.997	103.083	20.043	2.058	0.476
363.000	259.687	79.990	19.997	103.083	20.041	2.212	0.480
363.500	259.925	79.997	19.996	103.081	20.040	2.246	0.514
364.000	260.181	79.991	19.997	103.079	20.042	2.131	0.499
364.500	260.396	79.984	19.997	103.075	20.041	2.192	0.483
365.000	260.658	79.990	19.997	103.070	20.042	2.105	0.474
365.500	260.859	79.995	19.997	103.064	20.042	2.147	0.469
366.000	261.189	80.008	19.992	103.058	20.045	1.921	0.497
366.500	261.378	79.989	19.996	103.065	20.042	2.135	0.525
367.000	261.662	80.002	19.994	103.068	20.044	1.978	0.496
367.500	261.883	79.983	19.996	103.073	20.043	2.008	0.489
368.000	262.116	79.995	19.997	103.075	20.042	2.083	0.479
368.500	262.369	79.988	19.996	103.080	20.043	2.069	0.470
369.000	262.600	79.985	19.996	103.076	20.042	2.089	0.485
369.500	262.898	79.994	19.994	103.073	20.043	2.049	0.506
370.000	263.122	79.995	19.994	103.072	20.037	2.465	0.525
370.500	263.357	79.994	19.997	103.075	20.042	2.137	0.490
371.000	263.606	79.994	19.995	103.076	20.038	2.400	0.472
371.500	263.849	79.996	19.996	103.076	20.039	2.351	0.488
372.000	264.066	79.995	19.996	103.081	20.041	2.204	0.476
372.500	264.338	79.991	19.996	103.082	20.041	2.192	0.474
373.000	264.564	80.001	19.995	103.083	20.040	2.289	0.493
373.500	264.839	79.996	19.995	103.085	20.041	2.153	0.499
374.000	265.056	79.991	19.995	103.084	20.038	2.374	0.497
374.500	265.291	79.994	19.996	103.083	20.036	2.565	0.472
375.000	265.532	79.994	19.995	103.084	20.038	2.388	0.464
375.500	265.764	79.991	19.996	103.085	20.037	2.460	0.474
376.000	266.009	79.991	19.996	103.083	20.038	2.406	0.475
376.500	266.262	79.995	19.995	103.082	20.038	2.424	0.488
377.000	266.469	79.991	19.995	103.081	20.036	2.513	0.479
377.500	266.747	79.993	19.996	103.080	20.038	2.428	0.472
378.000	267.007	79.998	19.996	103.079	20.039	2.307	0.511
378.500	267.242	79.989	19.996	103.082	20.040	2.222	0.516
379.000	267.519	79.995	19.995	103.085	20.040	2.256	0.504
379.500	267.742	79.987	19.996	103.087	20.039	2.323	0.507
380.000	267.988	79.988	19.995	103.088	20.039	2.315	0.484
380.500	268.223	79.992	19.996	103.091	20.038	2.400	0.474
381.000	268.448	79.996	19.995	103.090	20.039	2.329	0.470
381.500	268.755	80.000	19.996	103.088	20.040	2.234	0.496
382.000	268.956	79.988	19.996	103.086	20.039	2.311	0.520
382.500	269.186	79.992	19.995	103.085	20.040	2.291	0.469
383.000	269.428	79.993	19.996	103.082	20.036	2.559	0.451
383.500	269.726	79.993	19.996	103.080	20.042	2.093	0.506
384.000	269.969	80.001	19.995	103.077	20.039	2.333	0.541
384.500	270.183	80.004	19.996	103.079	20.041	2.218	0.499
385.000	270.401	79.980	19.997	103.081	20.037	2.509	0.444
385.500	270.689	79.994	19.996	103.078	20.041	2.198	0.468
386.000	270.925	79.990	19.997	103.079	20.039	2.327	0.515
386.501	271.203	79.994	19.996	103.082	20.040	2.226	0.519
387.000	271.413	79.995	19.996	103.079	20.040	2.224	0.501
387.500	271.688	79.992	19.996	103.074	20.037	2.476	0.486
388.000	271.920	79.991	19.997	103.074	20.037	2.488	0.496
388.500	272.171	79.991	19.996	103.070	20.040	2.286	0.495
389.000	272.405	79.992	19.995	103.072	20.041	2.220	0.484
389.500	272.660	79.988	19.996	103.076	20.042	2.103	0.487
390.000	272.873	79.993	19.996	103.081	20.039	2.337	0.478
390.500	273.129	79.996	19.995	103.084	20.040	2.270	0.469
391.000	273.381	79.992	19.996	103.091	20.038	2.390	0.489
391.500	273.625	79.993	19.996	103.091	20.040	2.258	0.502
392.000	273.885	79.992	19.996	103.090	20.038	2.373	0.500
392.500	274.142	79.992	19.994	103.089	20.037	2.491	0.510
393.000	274.349	79.983	19.996	103.087	20.039	2.345	0.490
393.500	274.612	79.995	19.995	103.083	20.040	2.264	0.467
394.000	274.836	79.995	19.996	103.080	20.043	2.034	0.479
394.500	275.058	79.990	19.996	103.076	20.039	2.345	0.467
395.000	275.326	79.988	19.997	103.075	20.040	2.222	0.468
395.500	275.589	79.996	19.996	103.073	20.039	2.331	0.510
396.000	275.868	79.994	19.994	103.074	20.041	2.153	0.537
396.500	276.096	79.996	19.995	103.075	20.039	2.341	0.525
397.000	276.356	79.992	19.996	103.076	20.042	2.139	0.497
397.500	276.586	79.995	19.995	103.076	20.039	2.325	0.489
398.000	276.832	79.994	19.996	103.073	20.042	2.147	0.483
398.500	277.076	79.993	19.994	103.069	20.038	2.430	0.483
399.000	277.317	79.992	19.996	103.067	20.040	2.234	0.487
399.500	277.568	80.002	19.993	103.069	20.041	2.210	0.488
400.000	277.826	80.007	19.993	103.070	20.042	2.097	0.500
400.501	278.046	79.997	19.996	103.077	20.040	2.281	0.494
401.000	278.288	79.989	19.994	103.079	20.040	2.277	0.470
401.500	278.547	79.996	19.998	103.078	20.040	2.287	0.481
402.000	278.778	79.992	19.995	103.077	20.041	2.161	0.495
402.500	279.026	79.991	19.995	103.078	20.041	2.157	0.485
403.000	279.285	79.990	19.996	103.077	20.044	1.953	0.493
403.500	279.582	79.993	19.994	103.076	20.040	2.240	0.532
404.000	279.779	79.993	19.994	103.077	20.042	2.117	0.525
404.500	279.986	79.994	19.995	103.075	20.041	2.167	0.449
405.000	280.304	79.994	19.995	103.072	20.038	2.367	0.465
405.500	280.507	79.990	19.995	103.072	20.041	2.184	0.524
406.000	280.739	79.993	19.995	103.077	20.041	2.206	0.478
406.500	281.000	79.991	19.994	103.081	20.042	2.087	0.464
407.000	281.243	79.995	19.995	103.085	20.040	2.242	0.498
407.500	281.492	79.993	19.995	103.088	20.041	2.153	0.498
408.000	281.735	79.991	19.995	103.085	20.043	2.070	0.492
408.500	281.983	79.993	19.995	103.083	20.040	2.242	0.492
409.000	282.238	79.991	19.995	103.079	20.038	2.381	0.497
409.500	282.499	79.992	19.995	103.075	20.040	2.272	0.510
410.000	282.742	79.992	19.996	103.072	20.038	2.404	0.510
410.500	282.972	79.990	19.997	103.073	20.042	2.115	0.488
411.000	283.228	79.993	19.997	103.076	20.040	2.232	0.479
411.500	283.493	79.993	19.996	103.079	20.039	2.349	0.504
412.000	283.716	79.994	19.995	103.079	20.038	2.405	0.505
412.500	284.003	79.993	19.995	103.079	20.039	2.341	0.499
413.000	284.248	79.988	19.996	103.079	20.041	2.157	0.521
413.500	284.468	79.987	19.997	103.075	20.040	2.238	0.498
414.000	284.723	80.001	19.995	103.072	20.038	2.387	0.470
414.500	284.954	79.982	19.998	103.077	20.039	2.314	0.480
415.000	285.186	80.002	19.995	103.078	20.042	2.090	0.474
415.500	285.464	79.998	19.996	103.080	20.041	2.220	0.486
416.000	285.698	79.995	19.995	103.078	20.041	2.208	0.511
416.500	285.972	79.990	19.997	103.077	20.040	2.274	0.511
417.000	286.213	80.003	19.996	103.074	20.041	2.195	0.512
417.500	286.459	79.994	19.996	103.073	20.042	2.113	0.501
418.000	286.749	79.998	19.997	103.065	20.039	2.294	0.511
418.500	286.970	79.998	19.995	103.064	20.044	1.977	0.523
419.000	287.221	79.994	19.997	103.067	20.040	2.224	0.491
419.500	287.474	79.995	19.996	103.068	20.037	2.456	0.488
420.000	287.735	79.996	19.996	103.069	20.039	2.309	0.509
420.500	287.970	79.994	19.996	103.070	20.038	2.385	0.505
421.000	288.199	79.997	19.997	103.072	20.041	2.159	0.480
421.500	288.473	79.993	19.996	103.069	20.040	2.230	0.484
422.000	288.691	79.988	19.998	103.062	20.041	2.185	0.497
422.500	288.956	79.994	19.997	103.059	20.040	2.290	0.487
423.000	289.207	79.992	19.996	103.055	20.041	2.181	0.500
423.500	289.438	80.000	19.996	103.051	20.043	2.026	0.499
424.000	289.700	79.994	19.995	103.052	20.044	1.945	0.487
424.500	289.963	80.011	19.995	103.051	20.041	2.207	0.509
425.000	290.234	80.005	19.996	103.055	20.040	2.248	0.530
425.500	290.454	80.007	19.995	103.060	20.041	2.155	0.512
426.000	290.703	79.989	19.996	103.066	20.042	2.088	0.480
426.500	290.921	79.982	19.998	103.068	20.042	2.123	0.468
427.000	291.186	79.996	19.996	103.070	20.045	1.931	0.475
427.501	291.457	79.995	19.995	103.068	20.041	2.167	0.510
428.000	291.719	79.992	19.996	103.068	20.043	2.072	0.534
428.500	291.907	79.994	19.995	103.066	20.044	1.977	0.491
429.000	292.191	80.003	19.995	103.067	20.044	1.999	0.461
429.500	292.427	79.986	19.995	103.070	20.041	2.177	0.496
430.000	292.694	79.993	19.995	103.068	20.044	1.963	0.511
430.500	292.926	79.991	19.996	103.066	20.042	2.113	0.501
431.000	293.169	79.994	19.996	103.064	20.042	2.092	0.488
431.500	293.409	79.997	19.996	103.059	20.044	1.935	0.479
432.000	293.667	79.982	19.997	103.057	20.044	1.949	0.490
432.500	293.978	80.018	19.992	103.055	20.044	1.941	0.533
433.000	294.158	79.986	19.996	103.060	20.043	2.066	0.530
433.500	294.432	79.994	19.995	103.055	20.043	2.012	0.472
434.000	294.660	79.992	19.995	103.055	20.043	2.052	0.477
434.500	294.919	79.988	19.996	103.055	20.043	2.068	0.494
435.000	295.183	79.991	19.995	103.056	20.041	2.204	0.505
435.500	295.435	79.990	19.996	103.054	20.044	1.971	0.520
436.000	295.674	79.994	19.995	103.061	20.041	2.173	0.503
436.500	295.915	79.989	19.995	103.059	20.042	2.105	0.485
437.000	296.163	79.991	19.995	103.058	20.044	1.963	0.484
437.500	296.415	79.996	19.996	103.063	20.045	1.913	0.494
438.000	296.645	79.999	19.996	103.058	20.043	2.058	0.491
438.500	296.874	79.990	19.995	103.055	20.043	2.072	0.471
439.000	297.128	79.987	19.997	103.057	20.043	2.012	0.471
439.500	297.371	79.994	19.996	103.058	20.044	1.961	0.490
440.001	297.641	79.996	19.997	103.055	20.044	2.004	0.505
440.501	297.923	79.992	19.997	103.059	20.040	2.248	0.533
441.000	298.124	79.996	19.995	103.064	20.043	2.066	0.518
441.500	298.408	79.991	19.995	103.066	20.041	2.192	0.484
442.000	298.615	79.995	19.998	103.069	20.042	2.089	0.488
442.500	298.894	79.994	19.997	103.073	20.042	2.095	0.489
443.000	299.144	79.993	19.997	103.076	20.040	2.252	0.508
443.500	299.396	79.993	19.995	103.075	20.043	2.068	0.515
444.000	299.618	80.000	19.994	103.074	20.041	2.216	0.487
444.500	299.856	79.987	19.997	103.077	20.040	2.274	0.467
445.000	300.132	79.991	19.996	103.077	20.042	2.131	0.487
445.500	300.367	79.992	19.996	103.076	20.039	2.297	0.513
446.000	300.630	79.992	19.997	103.074	20.039	2.337	0.504
446.500	300.835	79.993	19.995	103.077	20.040	2.248	0.483
447.000	301.132	79.992	19.997	103.078	20.040	2.232	0.485
447.500	301.340	79.993	19.995	103.079	20.040	2.260	0.503
448.000	301.604	79.989	19.997	103.077	20.038	2.381	0.489
448.500	301.862	79.998	19.994	103.078	20.040	2.224	0.497
449.000	302.121	79.994	19.997	103.079	20.040	2.278	0.519
449.500	302.375	79.992	19.996	103.077	20.037	2.446	0.515
450.000	302.616	79.991	19.998	103.075	20.038	2.387	0.504
450.500	302.852	79.989	19.996	103.078	20.043	2.030	0.486
451.000	303.108	79.995	19.996	103.080	20.038	2.371	0.484
451.500	303.413	79.992	19.997	103.077	20.038	2.400	0.527
452.000	303.619	79.995	19.997	103.079	20.036	2.531	0.536
452.500	303.868	79.991	19.995	103.080	20.041	2.159	0.483
453.000	304.108	79.993	19.995	103.082	20.040	2.226	0.472
453.500	304.411	79.989	19.997	103.081	20.041	2.213	0.516
454.000	304.626	79.989	19.997	103.078	20.038	2.395	0.530
454.500	304.890	79.993	19.996	103.073	20.039	2.302	0.498
455.000	305.118	79.992	19.996	103.072	20.037	2.484	0.485
455.500	305.419	79.997	19.994	103.072	20.040	2.290	0.511
456.000	305.631	79.991	19.996	103.078	20.036	2.541	0.522
456.500	305.853	80.000	19.994	103.081	20.036	2.545	0.474
457.000	306.142	79.988	19.997	103.085	20.037	2.442	0.472
457.500	306.425	79.993	19.996	103.083	20.038	2.387	0.541
458.000	306.634	79.989	19.995	103.081	20.037	2.497	0.532
458.500	306.930	79.993	19.995	103.074	20.035	2.652	0.499
459.000	307.156	79.992	19.995	103.072	20.036	2.515	0.514
459.501	307.418	79.988	19.995	103.072	20.036	2.563	0.505
460.001	307.719	79.992	19.997	103.074	20.036	2.543	0.525
460.500	307.939	79.976	19.996	103.074	20.037	2.446	0.542
461.000	308.201	79.990	19.995	103.072	20.035	2.608	0.501
461.500	308.413	79.988	19.997	103.078	20.038	2.422	0.478
462.000	308.688	79.988	19.997	103.079	20.041	2.218	0.481
462.500	308.910	79.988	19.997	103.076	20.037	2.492	0.492
463.000	309.202	79.986	19.998	103.072	20.037	2.474	0.506
463.500	309.480	79.990	19.996	103.070	20.039	2.349	0.542
464.000	309.718	79.974	19.997	103.062	20.038	2.423	0.543
464.500	309.993	79.994	19.996	103.056	20.036	2.571	0.515
465.000	310.246	79.990	19.995	103.057	20.037	2.500	0.521
465.500	310.462	79.992	19.997	103.057	20.034	2.694	0.499
466.000	310.764	79.992	19.996	103.061	20.039	2.307	0.493
466.500	311.018	79.990	19.995	103.063	20.040	2.278	0.537
467.000	311.301	79.992	19.996	103.064	20.037	2.462	0.546
467.500	311.542	80.000	19.997	103.069	20.037	2.452	0.530
468.000	311.823	79.986	19.997	103.072	20.038	2.383	0.523
468.500	312.064	79.996	19.995	103.073	20.038	2.387	0.523
469.000	312.315	79.989	19.996	103.075	20.035	2.603	0.507
469.500	312.561	79.987	19.995	103.077	20.036	2.577	0.494
470.000	312.836	79.995	19.994	103.073	20.038	2.387	0.509
470.500	313.099	79.991	19.996	103.074	20.036	2.559	0.530
471.000	313.321	79.988	19.995	103.072	20.035	2.650	0.512
471.500	313.606	79.993	19.995	103.072	20.038	2.420	0.496
472.000	313.883	79.995	19.995	103.075	20.033	2.771	0.534
472.500	314.117	79.987	19.996	103.073	20.035	2.597	0.536
473.000	314.370	79.995	19.996	103.069	20.037	2.492	0.499
473.500	314.629	79.993	19.996	103.066	20.036	2.555	0.500
474.000	314.910	80.002	19.995	103.060	20.038	2.415	0.526
474.500	315.168	79.996	19.996	103.061	20.034	2.700	0.539
475.000	315.421	79.999	19.996	103.058	20.037	2.474	0.525
475.500	315.683	79.997	19.998	103.063	20.037	2.466	0.513
476.000	315.982	80.019	19.994	103.067	20.038	2.397	0.538
476.500	316.186	80.006	19.994	103.070	20.036	2.581	0.532
477.001	316.461	79.996	19.995	103.065	20.037	2.506	0.491
477.501	316.704	79.995	19.995	103.066	20.035	2.587	0.498
478.000	316.943	79.988	19.996	103.062	20.038	2.435	0.500
478.500	317.211	79.982	19.996	103.058	20.040	2.264	0.495
479.000	317.507	79.997	19.994	103.053	20.036	2.573	0.535
479.500	317.774	79.999	19.995	103.052	20.036	2.581	0.563
480.000	318.020	79.993	19.994	103.051	20.033	2.795	0.538
480.500	318.280	80.000	19.995	103.052	20.034	2.686	0.509
481.000	318.511	79.993	19.995	103.055	20.034	2.724	0.498
481.500	318.763	79.997	19.996	103.061	20.033	2.728	0.487
482.000	319.011	79.995	19.995	103.061	20.035	2.621	0.492
482.500	319.316	79.994	19.996	103.061	20.036	2.559	0.526
483.000	319.552	79.995	19.995	103.060	20.033	2.744	0.547
483.500	319.753	79.995	19.995	103.057	20.033	2.726	0.489
484.000	320.033	79.995	19.996	103.052	20.035	2.643	0.459
484.500	320.291	79.993	19.994	103.049	20.031	2.892	0.509
485.000	320.559	79.995	19.995	103.050	20.033	2.754	0.532
485.500	320.824	79.995	19.996	103.051	20.031	2.870	0.530
486.000	321.035	79.995	19.995	103.053	20.034	2.698	0.504
486.500	321.330	79.994	19.995	103.053	20.030	2.950	0.491
487.000	321.579	79.993	19.994	103.052	20.032	2.799	0.525
487.500	321.823	79.995	19.996	103.050	20.033	2.779	0.519
488.000	322.094	79.993	19.995	103.049	20.036	2.561	0.504
488.500	322.340	79.994	19.995	103.047	20.035	2.603	0.516
489.000	322.573	79.992	19.995	103.047	20.032	2.807	0.498
489.500	322.873	79.994	19.996	103.048	20.032	2.835	0.506
490.000	323.128	79.994	19.996	103.048	20.034	2.706	0.544
490.500	323.347	79.988	19.995	103.049	20.035	2.599	0.514
491.000	323.608	79.993	19.995	103.049	20.034	2.694	0.477
491.500	323.854	79.994	19.995	103.049	20.035	2.615	0.494
492.000	324.153	79.993	19.996	103.048	20.034	2.716	0.526
492.500	324.406	79.994	19.996	103.049	20.033	2.763	0.549
493.000	324.646	79.994	19.995	103.048	20.036	2.540	0.523
493.500	324.871	79.993	19.995	103.048	20.034	2.698	0.479
494.000	325.102	79.994	19.996	103.048	20.030	3.007	0.461
494.500	325.336	79.993	19.996	103.048	20.032	2.821	0.461
495.000	325.600	79.997	19.995	103.048	20.031	2.940	0.481
495.500	325.840	79.994	19.995	103.051	20.032	2.813	0.501
496.000	326.107	79.995	19.995	103.050	20.031	2.870	0.506
496.500	326.351	79.995	19.996	103.050	20.032	2.851	0.509
497.000	326.574	79.997	19.994	103.050	20.033	2.759	0.489
497.500	326.888	79.996	19.995	103.050	20.033	2.765	0.502
498.000	327.127	79.996	19.995	103.049	20.031	2.902	0.545
498.500	327.355	79.992	19.995	103.049	20.033	2.783	0.510
499.000	327.576	79.997	19.995	103.051	20.033	2.785	0.458
499.500	327.858	79.996	19.995	103.053	20.028	3.136	0.476
500.000	328.081	79.998	19.994	103.054	20.029	3.066	0.504
500.500	328.330	79.994	19.995	103.055	20.028	3.110	0.489
501.000	328.617	79.994	19.996	103.053	20.029	3.056	0.504
501.500	328.818	79.995	19.995	103.052	20.026	3.254	0.512
502.000	329.128	79.995	19.995	103.049	20.025	3.308	0.499
502.500	329.369	79.994	19.995	103.047	20.026	3.286	0.532
503.000	329.607	79.995	19.996	103.047	20.029	3.070	0.515
503.500	329.870	79.994	19.996	103.051	20.029	3.050	0.490
504.000	330.134	79.995	19.997	103.051	20.026	3.237	0.514
504.500	330.379	79.996	19.995	103.051	20.025	3.306	0.518
505.000	330.638	79.995	19.995	103.054	20.029	3.027	0.507
505.500	330.904	79.994	19.996	103.052	20.027	3.219	0.515
506.000	331.125	79.992	19.996	103.049	20.028	3.110	0.506
506.500	331.405	79.997	19.995	103.050	20.027	3.228	0.494
507.000	331.644	79.992	19.997	103.052	20.025	3.349	0.510
507.500	331.915	79.993	19.997	103.050	20.026	3.252	0.514
508.000	332.154	79.996	19.998	103.052	20.028	3.086	0.510
508.500	332.394	79.992	19.996	103.053	20.026	3.276	0.495
509.000	332.659	79.990	19.996	103.052	20.029	3.066	0.492
509.500	332.959	79.995	19.996	103.050	20.024	3.445	0.535
510.000	333.216	79.994	19.996	103.049	20.028	3.153	0.561
510.500	333.487	79.989	19.996	103.051	20.027	3.159	0.542
511.000	333.690	79.992	19.995	103.053	20.024	3.417	0.501
511.500	333.972	79.993	19.996	103.054	20.023	3.484	0.480
512.000	334.225	79.992	19.995	103.058	20.023	3.447	0.510
512.500	334.495	79.992	19.996	103.066	20.023	3.500	0.529
513.000	334.727	79.993	19.995	103.070	20.022	3.528	0.513
513.500	334.975	79.992	19.996	103.070	20.020	3.702	0.491
514.000	335.226	79.992	19.996	103.070	20.023	3.508	0.489
514.500	335.510	79.991	19.996	103.068	20.022	3.550	0.517
515.000	335.735	79.991	19.997	103.060	20.020	3.676	0.522
515.500	335.976	79.992	19.997	103.057	20.021	3.629	0.487
516.000	336.253	79.983	19.996	103.059	20.023	3.470	0.491
516.500	336.526	79.992	19.996	103.061	20.020	3.700	0.534
517.000	336.792	79.999	19.994	103.066	20.022	3.546	0.545
517.500	337.053	79.992	19.996	103.075	20.023	3.474	0.533
518.000	337.300	79.994	19.996	103.073	20.019	3.762	0.518
518.500	337.570	79.992	19.996	103.070	20.018	3.827	0.513
519.000	337.824	79.995	19.996	103.069	20.021	3.658	0.521
519.500	338.066	79.992	19.994	103.063	20.017	3.888	0.510
520.000	338.344	79.990	19.996	103.054	20.020	3.692	0.508
520.500	338.612	79.992	19.994	103.053	20.019	3.795	0.533
521.000	338.857	79.991	19.994	103.057	20.017	3.880	0.529
521.500	339.102	79.987	19.995	103.058	20.016	3.963	0.501
522.000	339.352	79.993	19.995	103.059	20.020	3.708	0.493
522.500	339.632	79.993	19.996	103.060	20.020	3.710	0.512
523.000	339.912	79.990	19.996	103.060	20.015	4.029	0.545
523.500	340.134	79.993	19.995	103.055	20.018	3.826	0.531
524.000	340.416	79.990	19.995	103.053	20.015	4.066	0.503
524.500	340.659	79.992	19.996	103.052	20.015	4.074	0.515
525.000	340.967	79.993	19.995	103.054	20.015	4.037	0.538
525.500	341.174	79.997	19.996	103.054	20.013	4.217	0.533
526.000	341.401	79.993	19.996	103.055	20.014	4.134	0.474
526.500	341.674	79.992	19.995	103.057	20.015	4.068	0.467
527.000	341.930	79.993	19.995	103.057	20.014	4.140	0.514
527.500	342.210	79.989	19.996	103.056	20.016	3.963	0.532
528.000	342.475	79.991	19.996	103.056	20.011	4.365	0.540
528.500	342.689	79.987	19.996	103.059	20.018	3.876	0.512
529.001	342.938	79.993	19.995	103.058	20.012	4.274	0.471
529.501	343.227	79.987	19.996	103.060	20.010	4.409	0.501
530.000	343.423	79.991	19.997	103.065	20.012	4.274	0.512
530.500	343.693	79.992	19.997	103.072	20.011	4.316	0.476
531.000	343.979	79.991	19.997	103.070	20.008	4.554	0.511
531.500	344.251	79.990	19.997	103.071	20.010	4.403	0.557
532.000	344.501	79.992	19.996	103.070	20.010	4.427	0.540
532.500	344.743	79.992	19.996	103.065	20.009	4.516	0.507
533.000	345.009	79.990	19.997	103.064	20.008	4.595	0.500
533.500	345.278	79.991	19.995	103.066	20.006	4.689	0.521
534.000	345.505	79.991	19.995	103.068	20.008	4.578	0.515
534.500	345.777	79.990	19.996	103.070	20.007	4.627	0.498
535.000	346.023	79.993	19.996	103.070	20.005	4.788	0.509
535.500	346.328	79.991	19.997	103.068	20.005	4.754	0.534
536.000	346.543	79.992	19.995	103.064	20.005	4.810	0.535
536.500	346.786	79.991	19.996	103.062	20.004	4.828	0.490
537.000	347.039	79.992	19.997	103.060	20.004	4.822	0.478
537.500	347.292	79.989	19.996	103.062	20.005	4.804	0.501
538.000	347.578	79.992	19.997	103.063	20.003	4.901	0.522
538.500	347.834	79.991	19.997	103.064	20.002	4.984	0.540
539.000	348.096	79.991	19.996	103.063	20.002	4.962	0.530
539.500	348.352	79.987	19.997	103.066	20.004	4.833	0.518
540.000	348.625	79.990	19.995	103.066	20.002	5.027	0.524
540.500	348.861	79.991	19.997	103.065	19.996	5.394	0.519
541.000	349.135	79.982	19.996	103.062	19.998	5.317	0.510
541.500	349.400	79.989	19.997	103.066	19.995	5.497	0.524
542.000	349.675	79.992	19.997	103.065	19.995	5.479	0.539
542.500	349.940	79.990	19.996	103.066	20.000	5.170	0.540
543.000	350.172	79.988	19.996	103.062	19.998	5.293	0.518
543.500	350.426	79.990	19.996	103.063	19.998	5.319	0.491
544.000	350.700	79.992	19.996	103.059	20.000	5.121	0.507
544.500	350.983	79.991	19.996	103.055	19.998	5.309	0.543
545.000	351.220	79.992	19.996	103.051	19.996	5.442	0.538
545.500	351.481	79.992	19.995	103.051	19.997	5.341	0.509
546.000	351.732	79.993	19.996	103.051	19.994	5.560	0.505
546.500	352.005	79.991	19.995	103.050	19.990	5.844	0.518
547.000	352.277	79.991	19.996	103.050	19.992	5.721	0.534
547.500	352.519	79.991	19.996	103.051	19.990	5.848	0.530
548.000	352.789	79.994	19.996	103.051	19.990	5.887	0.513
548.500	353.039	79.992	19.996	103.051	19.990	5.852	0.516
549.000	353.297	79.996	19.995	103.054	19.988	6.024	0.514
549.500	353.570	80.000	19.994	103.054	19.988	6.010	0.519
550.000	353.831	79.992	19.996	103.056	19.988	5.984	0.532
550.500	354.080	79.988	19.997	103.056	19.985	6.214	0.522
551.000	354.332	79.992	19.996	103.054	19.987	6.107	0.505
551.500	354.616	79.996	19.994	103.053	19.987	6.111	0.519
552.000	354.846	79.994	19.995	103.055	19.987	6.107	0.525
552.500	355.113	79.994	19.995	103.056	19.987	6.077	0.506
553.000	355.382	79.993	19.996	103.056	19.983	6.381	0.517
553.500	355.669	79.996	19.995	103.057	19.982	6.430	0.546
554.000	355.874	79.995	19.995	103.056	19.984	6.321	0.524
554.500	356.164	79.994	19.996	103.052	19.983	6.355	0.493
555.000	356.409	79.990	19.995	103.049	19.983	6.386	0.515
555.500	356.652	79.993	19.995	103.052	19.982	6.434	0.512
556.000	356.914	79.993	19.996	103.052	19.978	6.760	0.496
556.500	357.178	79.991	19.996	103.051	19.979	6.669	0.515
557.000	357.460	79.995	19.996	103.051	19.978	6.723	0.536
557.500	357.712	79.997	19.995	103.052	19.980	6.577	0.540
558.000	357.953	79.993	19.996	103.049	19.974	7.014	0.514
558.500	358.232	79.994	19.994	103.049	19.976	6.890	0.507
559.000	358.491	79.994	19.996	103.050	19.973	7.052	0.529
559.500	358.720	79.993	19.995	103.052	19.972	7.164	0.513
560.000	359.000	79.991	19.996	103.052	19.971	7.257	0.498
560.500	359.219	79.994	19.995	103.050	19.971	7.237	0.504
561.000	359.487	79.991	19.996	103.052	19.969	7.398	0.493
561.500	359.759	79.997	19.994	103.052	19.969	7.348	0.514
562.000	359.972	79.993	19.996	103.051	19.972	7.172	0.513
562.500	360.232	79.992	19.995	103.052	19.969	7.349	0.479
563.000	360.502	79.994	19.996	103.053	19.968	7.446	0.501
563.500	360.800	79.991	19.996	103.053	19.968	7.456	0.549
564.000	361.072	79.994	19.996	103.050	19.965	7.652	0.569
564.500	361.273	79.993	19.996	103.049	19.967	7.541	0.521
565.000	361.557	79.991	19.996	103.048	19.966	7.557	0.479
565.500	361.800	79.993	19.995	103.051	19.964	7.755	0.507
566.000	362.082	79.992	19.995	103.057	19.965	7.696	0.526
566.500	362.288	79.993	19.996	103.060	19.958	8.204	0.507
567.000	362.597	79.993	19.996	103.062	19.963	7.812	0.502
567.500	362.817	79.995	19.994	103.062	19.961	7.941	0.522
568.000	363.099	79.992	19.996	103.058	19.961	7.933	0.516
568.500	363.330	79.992	19.996	103.052	19.958	8.187	0.508
569.000	363.594	79.993	19.995	103.053	19.955	8.385	0.504
569.500	363.859	79.991	19.996	103.051	19.955	8.353	0.512
570.001	364.128	79.992	19.996	103.055	19.952	8.624	0.531
570.500	364.370	79.991	19.995	103.062	19.952	8.618	0.522
571.001	364.644	79.994	19.997	103.067	19.950	8.722	0.514
571.501	364.868	79.994	19.996	103.068	19.950	8.712	0.507
572.000	365.141	79.992	19.994	103.068	19.947	8.937	0.497
572.500	365.375	79.990	19.995	103.065	19.947	8.937	0.502
573.000	365.639	79.993	19.995	103.060	19.949	8.846	0.503
573.500	365.915	79.992	19.996	103.056	19.946	9.037	0.519
574.000	366.182	79.993	19.995	103.054	19.945	9.136	0.541
574.501	366.402	79.998	19.994	103.055	19.945	9.114	0.515
575.001	366.682	79.993	19.994	103.054	19.945	9.113	0.494
575.500	366.932	79.993	19.996	103.054	19.943	9.268	0.515
576.000	367.195	79.996	19.995	103.056	19.942	9.337	0.522
576.500	367.448	79.996	19.994	103.056	19.941	9.430	0.515
577.000	367.709	79.994	19.995	103.056	19.941	9.428	0.515
577.500	367.960	79.992	19.995	103.058	19.938	9.621	0.513
578.000	368.210	79.994	19.995	103.060	19.938	9.623	0.506
578.500	368.410	79.994	19.995	103.058	19.936	9.733	0.475
579.000	368.721	79.995	19.994	103.057	19.934	9.896	0.481
579.500	369.003	79.996	19.993	103.056	19.935	9.852	0.553
580.000	369.254	79.994	19.995	103.053	19.932	10.028	0.563
580.500	369.512	79.994	19.995	103.055	19.929	10.264	0.520
581.000	369.741	79.993	19.994	103.058	19.926	10.463	0.498
581.500	369.971	79.993	19.994	103.065	19.925	10.578	0.474
582.000	370.230	79.996	19.994	103.072	19.925	10.525	0.474
582.500	370.473	79.994	19.995	103.078	19.926	10.499	0.495
583.000	370.748	79.997	19.995	103.081	19.924	10.612	0.510
583.500	370.987	79.993	19.995	103.086	19.926	10.511	0.516
584.000	371.205	79.994	19.995	103.085	19.919	11.017	0.485
584.500	371.454	79.995	19.994	103.080	19.920	10.937	0.462
585.000	371.706	79.995	19.994	103.077	19.917	11.147	0.484
585.500	371.984	79.992	19.995	103.072	19.920	10.929	0.516
586.000	372.249	79.995	19.996	103.066	19.917	11.151	0.537
586.500	372.478	79.996	19.995	103.064	19.915	11.286	0.519
587.000	372.756	79.995	19.994	103.064	19.913	11.440	0.500
587.500	373.024	79.991	19.995	103.066	19.910	11.636	0.526
588.000	373.279	79.994	19.996	103.069	19.906	11.947	0.535
588.500	373.526	79.993	19.996	103.074	19.906	11.888	0.512
589.000	373.764	79.993	19.995	103.078	19.905	11.977	0.493
589.500	374.015	79.993	19.995	103.083	19.902	12.225	0.487
590.000	374.284	79.992	19.994	103.083	19.902	12.199	0.505
590.500	374.551	79.992	19.995	103.086	19.903	12.144	0.528
591.000	374.800	79.991	19.995	103.085	19.899	12.432	0.526
591.500	375.032	79.992	19.995	103.082	19.897	12.583	0.498
592.000	375.313	79.992	19.995	103.077	19.894	12.795	0.497
592.500	375.587	79.992	19.995	103.072	19.897	12.601	0.534
593.000	375.799	79.992	19.995	103.068	19.893	12.823	0.520
593.500	376.034	79.992	19.995	103.069	19.888	13.232	0.466
594.000	376.300	79.991	19.995	103.068	19.888	13.208	0.474
594.500	376.581	79.990	19.996	103.074	19.885	13.439	0.525
595.000	376.829	79.992	19.996	103.080	19.883	13.605	0.538
595.500	377.043	79.990	19.997	103.084	19.885	13.466	0.495
596.000	377.318	79.991	19.997	103.084	19.881	13.739	0.475
596.500	377.571	79.992	19.996	103.086	19.880	13.771	0.508
597.000	377.815	79.992	19.996	103.082	19.877	14.016	0.512
597.500	378.090	79.991	19.996	103.082	19.878	13.915	0.508
598.000	378.328	79.991	19.997	103.082	19.878	13.937	0.516
598.500	378.548	79.992	19.997	103.082	19.876	14.050	0.485
599.000	378.826	79.990	19.996	103.083	19.874	14.251	0.478
599.500	379.071	79.991	19.995	103.084	19.872	14.356	0.511
600.000	379.319	79.993	19.997	103.082	19.868	14.685	0.508
600.500	379.565	79.993	19.995	103.080	19.869	14.594	0.494
601.000	379.830	79.991	19.998	103.081	19.868	14.682	0.503
601.500	380.060	79.992	19.997	103.081	19.864	14.965	0.503
602.000	380.301	79.991	19.997	103.086	19.860	15.252	0.483
602.500	380.534	79.992	19.995	103.084	19.858	15.413	0.472
603.000	380.786	79.991	19.996	103.084	19.860	15.254	0.479
603.500	381.039	79.992	19.998	103.080	19.856	15.504	0.495
604.000	381.255	79.993	19.996	103.076	19.855	15.622	0.487
604.500	381.563	79.993	19.997	103.075	19.855	15.573	0.497
605.000	381.777	79.993	19.995	103.077	19.851	15.866	0.524
605.500	382.007	79.995	19.995	103.078	19.850	15.977	0.483
606.000	382.216	79.993	19.995	103.082	19.847	16.166	0.441
606.500	382.521	79.992	19.996	103.087	19.846	16.245	0.477
607.000	382.740	79.992	19.996	103.087	19.843	16.445	0.519
607.500	382.975	79.993	19.995	103.087	19.841	16.605	0.489
608.000	383.252	79.992	19.996	103.087	19.838	16.805	0.483
608.500	383.470	79.993	19.995	103.086	19.838	16.821	0.504
609.000	383.703	79.992	19.996	103.086	19.838	16.811	0.473
609.500	383.974	79.993	19.997	103.083	19.834	17.082	0.477
610.000	384.187	79.994	19.995	103.080	19.834	17.092	0.494
610.500	384.446	79.992	19.995	103.080	19.829	17.471	0.478
611.000	384.710	79.991	19.996	103.079	19.828	17.527	0.497
611.500	384.950	79.994	19.996	103.079	19.827	17.586	0.514
612.000	385.184	79.993	19.995	103.081	19.827	17.586	0.489
612.500	385.454	79.993	19.995	103.084	19.822	17.956	0.489
613.000	385.661	79.992	19.996	103.085	19.820	18.160	0.491
613.500	385.946	79.992	19.996	103.085	19.817	18.337	0.485
614.000	386.186	79.992	19.995	103.085	19.815	18.480	0.508
614.500	386.428	79.993	19.996	103.085	19.815	18.520	0.504
615.000	386.710	79.993	19.996	103.086	19.812	18.666	0.504
615.500	386.907	79.993	19.996	103.086	19.812	18.731	0.501
616.000	387.151	79.992	19.995	103.087	19.808	18.966	0.459
616.500	387.395	79.993	19.995	103.087	19.801	19.530	0.465
617.000	387.661	79.992	19.995	103.089	19.802	19.436	0.499
617.500	387.926	79.991	19.997	103.091	19.800	19.545	0.521
618.000	388.133	79.991	19.996	103.093	19.797	19.807	0.502
618.500	388.430	79.991	19.997	103.093	19.797	19.779	0.488
619.000	388.647	79.991	19.998	103.095	19.796	19.884	0.509
619.500	388.875	79.992	19.998	103.094	19.791	20.227	0.479
620.000	389.158	79.991	19.997	103.095	19.791	20.208	0.478
620.500	389.410	79.993	19.996	103.095	19.788	20.422	0.523
621.000	389.647	79.993	19.997	103.095	19.787	20.482	0.512
621.500	389.883	79.995	19.996	103.094	19.784	20.705	0.481
622.000	390.167	79.993	19.996	103.098	19.779	21.051	0.496
622.500	390.432	79.990	19.997	103.101	19.776	21.288	0.534
623.000	390.641	79.991	19.997	103.100	19.774	21.433	0.511
623.500	390.896	79.992	19.997	103.102	19.776	21.334	0.469
624.000	391.203	79.991	19.998	103.106	19.771	21.664	0.513
624.500	391.419	79.990	19.997	103.102	19.772	21.620	0.543
625.000	391.675	79.990	19.997	103.095	19.766	21.998	0.498
625.500	391.944	79.992	19.998	103.095	19.764	22.185	0.498
626.000	392.209	79.991	19.997	103.096	19.759	22.496	0.529
626.500	392.456	79.990	19.998	103.097	19.759	22.494	0.523
627.000	392.700	79.991	19.999	103.103	19.754	22.872	0.502
627.500	392.970	79.993	19.998	103.106	19.753	22.976	0.503
628.000	393.229	79.993	19.997	103.110	19.750	23.176	0.521
628.500	393.458	79.995	19.999	103.107	19.750	23.163	0.509
629.000	393.733	79.996	19.996	103.104	19.749	23.269	0.496
629.500	394.005	79.993	19.997	103.105	19.743	23.685	0.525
630.000	394.220	79.992	19.997	103.105	19.744	23.635	0.517
630.500	394.479	79.994	19.997	103.103	19.736	24.154	0.480
631.000	394.732	79.992	19.997	103.108	19.736	24.156	0.493
631.500	394.952	79.992	19.998	103.111	19.737	24.135	0.493
632.000	395.216	79.995	19.997	103.108	19.733	24.411	0.478
632.500	395.495	79.994	19.997	103.110	19.729	24.712	0.513
633.000	395.751	79.997	19.998	103.110	19.726	24.920	0.539
633.500	395.968	79.995	19.995	103.106	19.727	24.865	0.504
634.000	396.280	79.994	19.997	103.103	19.725	24.952	0.501
634.500	396.467	79.995	19.996	103.101	19.719	25.386	0.514
635.000	396.747	79.995	19.996	103.105	19.713	25.841	0.483
635.500	397.015	79.994	19.997	103.108	19.713	25.850	0.508
636.000	397.275	79.995	19.996	103.107	19.711	25.971	0.538
636.500	397.517	79.997	19.996	103.112	19.708	26.189	0.515
637.000	397.776	79.995	19.997	103.113	19.708	26.206	0.501
637.500	398.037	79.994	19.995	103.112	19.706	26.353	0.510
638.000	398.308	79.995	19.997	103.113	19.706	26.349	0.526
638.500	398.510	79.994	19.996	103.119	19.699	26.826	0.502
639.000	398.760	79.994	19.996	103.120	19.697	26.970	0.463
639.500	399.011	79.993	19.996	103.124	19.694	27.192	0.477
640.000	399.266	79.994	19.996	103.126	19.693	27.287	0.503
640.500	399.546	79.994	19.996	103.127	19.688	27.671	0.521
641.000	399.764	79.992	19.995	103.126	19.685	27.893	0.517
641.500	400.009	79.991	19.998	103.126	19.682	28.120	0.480
642.000	400.248	79.991	19.997	103.125	19.681	28.148	0.473
642.500	400.516	79.995	19.996	103.124	19.676	28.490	0.495
643.000	400.761	79.994	19.996	103.121	19.674	28.636	0.510
643.500	401.012	79.993	19.997	103.120	19.671	28.846	0.504
644.000	401.299	79.992	19.997	103.116	19.667	29.171	0.518
644.500	401.543	79.994	19.997	103.117	19.667	29.185	0.535
645.000	401.777	79.994	19.996	103.119	19.663	29.493	0.505
645.500	402.022	79.993	19.996	103.122	19.661	29.604	0.478
646.000	402.278	79.992	19.996	103.124	19.652	30.251	0.490
646.500	402.539	79.992	19.996	103.128	19.652	30.287	0.509
647.000	402.808	79.992	19.996	103.128	19.650	30.374	0.524
647.500	403.068	79.993	19.996	103.128	19.645	30.733	0.529
648.000	403.297	79.993	19.995	103.128	19.647	30.650	0.509
648.500	403.542	79.993	19.995	103.129	19.641	31.024	0.482
649.000	403.733	79.993	19.996	103.129	19.638	31.249	0.455
649.500	404.014	79.994	19.995	103.128	19.633	31.635	0.454
650.000	404.289	79.994	19.996	103.128	19.628	31.953	0.514
650.500	404.522	79.992	19.995	103.128	19.628	32.018	0.532
651.000	404.782	79.993	19.996	103.128	19.626	32.127	0.500
651.500	405.042	79.993	19.994	103.127	19.619	32.654	0.506
652.000	405.289	79.992	19.996	103.128	19.616	32.872	0.514
652.500	405.561	79.994	19.997	103.129	19.609	33.369	0.513
653.000	405.800	79.996	19.995	103.130	19.609	33.343	0.515
653.500	406.056	79.993	19.994	103.131	19.605	33.669	0.503
654.000	406.272	79.991	19.997	103.131	19.604	33.701	0.484
654.500	406.556	79.993	19.996	103.131	19.600	34.029	0.486
655.000	406.795	79.994	19.995	103.130	19.594	34.439	0.511
655.500	407.038	79.993	19.995	103.131	19.591	34.656	0.503
656.000	407.259	79.994	19.995	103.132	19.587	34.965	0.473
656.500	407.535	79.995	19.995	103.132	19.584	35.177	0.481
657.000	407.803	79.993	19.995	103.133	19.579	35.518	0.521
657.500	408.034	79.995	19.996	103.138	19.578	35.572	0.521
658.000	408.300	79.993	19.996	103.138	19.574	35.877	0.498
658.500	408.490	79.994	19.996	103.142	19.571	36.116	0.476
659.000	408.807	79.994	19.995	103.148	19.569	36.274	0.482
659.500	409.053	79.994	19.995	103.150	19.562	36.776	0.535
660.000	409.284	79.996	19.994	103.153	19.558	37.043	0.520
660.500	409.515	79.993	19.995	103.152	19.556	37.191	0.469
661.000	409.785	79.995	19.994	103.154	19.551	37.577	0.482
661.500	410.048	79.995	19.996	103.155	19.547	37.856	0.517
662.001	410.269	79.995	19.995	103.155	19.543	38.137	0.508
662.501	410.521	79.994	19.994	103.153	19.537	38.530	0.478
663.000	410.787	79.997	19.994	103.156	19.533	38.822	0.495
663.500	411.011	79.996	19.994	103.157	19.527	39.311	0.504
664.000	411.239	79.994	19.995	103.158	19.523	39.545	0.471
664.500	411.525	79.995	19.995	103.160	19.519	39.860	0.483
665.000	411.788	79.995	19.995	103.163	19.517	39.999	0.532
665.500	412.022	79.996	19.993	103.165	19.508	40.681	0.523
666.000	412.273	79.995	19.997	103.165	19.505	40.882	0.491
666.500	412.505	79.995	19.996	103.165	19.499	41.286	0.484
667.000	412.729	79.994	19.995	103.165	19.495	41.612	0.469
667.500	413.002	79.993	19.995	103.164	19.494	41.708	0.477
668.000	413.284	79.994	19.995	103.163	19.488	42.112	0.526
668.500	413.494	79.994	19.995	103.161	19.479	42.773	0.523
669.000	413.726	79.997	19.994	103.160	19.477	42.916	0.467
669.500	413.977	79.994	19.995	103.162	19.468	43.523	0.463
670.000	414.232	79.992	19.995	103.162	19.468	43.531	0.495
670.500	414.456	79.993	19.996	103.164	19.456	44.441	0.492
671.000	414.718	79.991	19.995	103.166	19.455	44.512	0.482
671.500	414.966	79.992	19.996	103.165	19.450	44.884	0.498
672.000	415.185	79.991	19.996	103.165	19.443	45.355	0.489
672.500	415.467	79.992	19.996	103.166	19.437	45.766	0.484
673.000	415.701	79.992	19.996	103.170	19.433	46.104	0.508
673.500	415.963	79.993	19.995	103.172	19.430	46.281	0.506
674.000	416.184	79.992	19.995	103.175	19.422	46.844	0.489
674.500	416.420	79.993	19.995	103.175	19.419	47.125	0.470
675.000	416.669	79.993	19.994	103.179	19.412	47.619	0.471
675.500	416.944	79.992	19.996	103.184	19.406	48.035	0.505
676.000	417.213	79.994	19.995	103.187	19.403	48.283	0.534
676.500	417.459	79.992	19.996	103.192	19.393	48.955	0.529
677.000	417.703	79.992	19.995	103.194	19.388	49.363	0.502
677.500	417.943	79.995	19.995	103.195	19.382	49.771	0.487
678.000	418.187	79.994	19.995	103.195	19.376	50.235	0.484
678.500	418.496	79.992	19.997	103.196	19.370	50.669	0.518
679.000	418.697	79.991	19.996	103.196	19.368	50.814	0.531
679.500	418.924	79.993	19.995	103.201	19.364	51.096	0.469
680.000	419.160	79.995	19.996	103.205	19.356	51.634	0.445
680.500	419.452	79.993	19.996	103.205	19.351	52.015	0.495
681.000	419.680	79.992	19.995	103.205	19.343	52.604	0.524
681.500	419.975	79.994	19.998	103.205	19.338	52.951	0.522
682.000	420.220	79.993	19.997	103.205	19.333	53.311	0.532
682.500	420.443	79.991	19.996	103.204	19.330	53.567	0.504
683.001	420.679	79.991	19.996	103.203	19.320	54.269	0.463
683.501	420.982	79.993	19.996	103.205	19.315	54.638	0.499
684.000	421.237	79.993	19.997	103.206	19.311	54.916	0.548
684.500	421.492	79.992	19.996	103.208	19.300	55.671	0.534
685.000	421.730	79.995	19.997	103.209	19.296	56.020	0.502
685.500	421.982	79.993	19.995	103.208	19.293	56.179	0.492
686.000	422.260	79.994	19.996	103.210	19.285	56.816	0.510
686.500	422.481	79.992	19.997	103.214	19.278	57.321	0.514
687.000	422.777	79.992	19.996	103.219	19.272	57.704	0.508
687.500	423.005	79.990	19.997	103.224	19.267	58.114	0.520
688.000	423.258	79.992	19.997	103.231	19.262	58.463	0.503
688.500	423.520	79.992	19.997	103.235	19.254	59.062	0.498
689.000	423.793	79.993	19.997	103.237	19.248	59.444	0.525
689.500	424.041	79.992	19.996	103.238	19.244	59.757	0.528
690.001	424.316	79.991	19.999	103.241	19.237	60.240	0.522
690.501	424.526	79.993	19.997	103.238	19.230	60.792	0.503
691.000	424.819	79.994	19.997	103.235	19.224	61.245	0.494
691.500	425.062	79.992	19.997	103.236	19.216	61.778	0.520
692.000	425.327	79.993	19.996	103.233	19.207	62.452	0.522
692.500	425.599	79.993	19.997	103.232	19.203	62.748	0.523
693.000	425.886	79.993	19.997	103.234	19.197	63.137	0.548
693.500	426.126	79.993	19.997	103.237	19.189	63.782	0.543
694.000	426.393	79.993	19.995	103.240	19.186	63.976	0.517
694.500	426.666	79.992	19.996	103.242	19.175	64.748	0.523
695.000	426.949	79.991	19.998	103.244	19.167	65.321	0.548
695.500	427.190	79.994	19.996	103.244	19.163	65.663	0.540
696.000	427.455	79.993	19.997	103.246	19.156	66.140	0.515
696.500	427.726	79.992	19.997	103.248	19.151	66.525	0.522
697.000	427.975	79.994	19.996	103.251	19.147	66.768	0.528
697.500	428.243	79.992	19.997	103.257	19.138	67.457	0.518
698.000	428.497	79.992	19.995	103.258	19.127	68.226	0.520
698.500	428.787	79.989	19.997	103.256	19.122	68.604	0.533
699.000	429.017	79.990	19.997	103.251	19.116	69.030	0.532
699.500	429.285	79.991	19.997	103.247	19.112	69.300	0.508
700.000	429.553	79.990	19.997	103.243	19.106	69.774	0.517
700.500	429.815	79.994	19.996	103.249	19.097	70.379	0.533
701.000	430.080	79.992	19.997	103.256	19.090	70.878	0.529
701.500	430.360	79.993	19.997	103.265	19.089	70.979	0.536
702.000	430.603	79.993	19.997	103.272	19.081	71.594	0.534
702.500	430.845	79.992	19.996	103.279	19.073	72.163	0.504
703.000	431.127	79.991	19.996	103.280	19.065	72.696	0.505
703.500	431.407	79.992	19.997	103.281	19.059	73.163	0.543
704.000	431.649	79.991	19.997	103.281	19.052	73.654	0.542
704.500	431.941	79.990	19.997	103.283	19.045	74.207	0.528
705.000	432.158	79.990	19.998	103.283	19.043	74.334	0.522
705.500	432.462	79.992	19.996	103.284	19.035	74.915	0.515
706.000	432.688	79.991	19.997	103.284	19.024	75.666	0.525
706.500	432.978	79.993	19.996	103.284	19.016	76.279	0.523
707.000	433.245	79.993	19.996	103.286	19.009	76.751	0.536
707.500	433.507	79.994	19.997	103.288	19.002	77.261	0.543
708.000	433.787	79.992	19.996	103.290	18.997	77.672	0.536
708.500	434.021	79.990	19.998	103.292	18.992	77.980	0.529
709.000	434.270	79.992	19.997	103.292	18.985	78.503	0.498
709.500	434.556	79.991	19.999	103.290	18.977	79.068	0.509
710.000	434.841	79.992	19.997	103.289	18.972	79.454	0.553
710.500	435.134	79.994	19.997	103.287	18.965	79.944	0.575
711.000	435.369	79.992	19.996	103.287	18.962	80.179	0.553
711.500	435.623	79.992	19.997	103.290	18.955	80.708	0.509
712.000	435.882	79.995	19.995	103.295	18.947	81.246	0.501
712.500	436.130	79.993	19.997	103.301	18.943	81.556	0.510
713.000	436.421	79.993	19.998	103.306	18.936	82.065	0.523
713.500	436.665	79.994	19.996	103.306	18.931	82.413	0.537
714.000	436.918	79.992	19.996	103.309	18.923	83.036	0.516
714.500	437.181	79.995	19.997	103.311	18.916	83.499	0.506
715.000	437.447	79.992	19.996	103.313	18.912	83.813	0.522
715.500	437.694	79.992	19.998	103.316	18.910	83.993	0.521
716.000	437.962	79.992	19.996	103.321	18.901	84.616	0.514
716.500	438.201	79.990	19.997	103.321	18.893	85.159	0.511
717.000	438.490	79.994	19.996	103.321	18.888	85.555	0.517
717.500	438.753	79.991	19.996	103.322	18.884	85.807	0.540
718.000	438.984	79.994	19.995	103.323	18.878	86.278	0.524
718.500	439.278	79.993	19.996	103.326	18.875	86.530	0.510
719.000	439.531	79.990	19.997	103.326	18.868	86.988	0.536
719.500	439.809	79.994	19.997	103.326	18.861	87.504	0.539
720.000	440.033	79.994	19.997	103.326	18.855	87.920	0.516
720.500	440.289	79.994	19.997	103.326	18.849	88.364	0.491
721.000	440.532	79.993	19.997	103.326	18.843	88.814	0.489
721.500	440.815	79.989	19.996	103.328	18.839	89.099	0.512
722.000	441.072	79.995	19.996	103.329	18.832	89.578	0.533
722.500	441.335	79.993	19.995	103.334	18.832	89.635	0.530
723.000	441.620	79.989	19.996	103.339	18.823	90.261	0.534
723.500	441.881	79.992	19.996	103.341	18.818	90.586	0.547
724.000	442.136	79.992	19.996	103.347	18.812	91.042	0.531
724.500	442.395	79.994	19.996	103.355	18.809	91.278	0.515
725.001	442.628	79.993	19.996	103.354	18.799	92.008	0.503
725.501	442.893	79.993	19.996	103.355	18.799	91.969	0.495
726.000	443.193	79.994	19.996	103.360	18.791	92.546	0.531
726.500	443.353	79.992	19.996	103.359	18.792	92.504	0.513
727.000	443.681	79.991	19.997	103.354	18.787	92.841	0.474
727.500	443.936	79.993	19.995	103.351	18.785	93.027	0.536
728.000	444.171	79.993	19.995	103.353	18.779	93.459	0.536
728.500	444.430	79.991	19.995	103.352	18.771	94.033	0.492
729.000	444.716	79.993	19.997	103.353	18.771	94.050	0.520
729.500	444.995	79.993	19.995	103.358	18.770	94.067	0.555
730.000	445.225	79.995	19.995	103.363	18.765	94.470	0.537
730.500	445.493	79.994	19.996	103.363	18.764	94.511	0.504
731.000	445.749	79.992	19.996	103.363	18.760	94.805	0.511
731.500	446.017	79.994	19.995	103.362	18.761	94.696	0.524
732.000	446.265	79.995	19.996	103.363	18.757	95.036	0.520
732.500	446.510	79.990	19.996	103.363	18.758	94.971	0.505
733.000	446.762	79.994	19.996	103.362	18.751	95.481	0.495
733.500	447.039	79.993	19.996	103.361	18.754	95.253	0.513
734.000	447.280	79.991	19.995	103.361	18.751	95.480	0.524
734.500	447.503	79.993	19.996	103.360	18.748	95.667	0.491
735.000	447.776	79.993	19.996	103.357	18.752	95.369	0.480
735.500	448.040	79.995	19.996	103.357	18.752	95.342	0.516
736.000	448.315	79.998	19.995	103.357	18.750	95.542	0.538
736.500	448.549	79.992	19.996	103.359	18.752	95.343	0.524
737.000	448.815	79.995	19.996	103.357	18.755	95.103	0.504
737.500	449.068	79.995	19.996	103.358	18.756	95.057	0.510
738.000	449.338	79.996	19.996	103.358	18.758	94.893	0.521
738.501	449.536	79.994	19.995	103.357	18.757	95.003	0.495
739.000	449.844	79.994	19.995	103.356	18.757	94.958	0.487
739.500	450.084	79.994	19.995	103.357	18.760	94.753	0.528
740.000	450.317	79.995	19.995	103.356	18.768	94.189	0.510
740.500	450.579	79.996	19.995	103.356	18.768	94.172	0.483
741.000	450.849	79.992	19.996	103.357	18.772	93.878	0.513
741.500	451.107	79.995	19.995	103.353	18.775	93.637	0.530
742.000	451.370	79.996	19.996	103.353	18.780	93.318	0.525
742.500	451.609	79.994	19.996	103.349	18.785	92.954	0.512
743.001	451.880	79.999	19.995	103.344	18.792	92.422	0.506
743.501	452.107	79.997	19.994	103.344	18.795	92.184	0.503
744.000	452.325	79.992	19.996	103.346	18.803	91.600	0.472
744.500	452.605	79.994	19.996	103.341	18.805	91.472	0.472
745.000	452.854	79.993	19.995	103.340	18.816	90.686	0.514
745.500	453.106	79.993	19.995	103.339	18.823	90.164	0.515
746.000	453.387	79.995	19.995	103.332	18.826	89.944	0.517
746.500	453.649	79.993	19.996	103.327	18.837	89.150	0.538
747.000	453.901	79.993	19.996	103.326	18.847	88.406	0.529
747.500	454.179	79.993	19.997	103.323	18.851	88.109	0.522
748.000	454.435	79.995	19.995	103.320	18.863	87.256	0.532
748.500	454.641	79.991	19.995	103.321	18.876	86.355	0.498
749.000	454.903	79.993	19.996	103.319	18.883	85.849	0.465
749.500	455.155	79.991	19.996	103.317	18.893	85.064	0.491
750.000	455.412	79.994	19.997	103.314	18.902	84.410	0.511
750.500	455.688	79.993	19.995	103.309	18.915	83.506	0.521
751.000	455.931	79.991	19.996	103.301	18.928	82.583	0.526
751.500	456.216	79.994	19.995	103.297	18.941	81.586	0.524
752.000	456.454	79.993	19.995	103.291	18.951	80.898	0.525
752.500	456.706	79.992	19.997	103.287	18.965	79.863	0.506
753.000	456.923	79.991	19.996	103.285	18.977	79.040	0.479
753.500	457.200	79.993	19.995	103.283	18.989	78.137	0.481
754.000	457.469	79.993	19.996	103.281	19.003	77.092	0.520
754.500	457.685	79.993	19.995	103.280	19.013	76.406	0.516
755.000	457.996	79.993	19.996	103.272	19.029	75.216	0.506
755.500	458.227	79.991	19.996	103.267	19.045	74.106	0.535
756.000	458.466	79.992	19.997	103.261	19.060	73.015	0.506
756.500	458.731	79.994	19.996	103.255	19.071	72.173	0.487
757.000	458.960	79.992	19.996	103.249	19.085	71.170	0.499
757.500	459.261	79.993	19.996	103.247	19.100	70.092	0.512
758.000	459.521	79.993	19.995	103.244	19.115	69.010	0.545
758.500	459.736	79.992	19.996	103.241	19.129	68.003	0.518
759.000	460.000	79.992	19.996	103.238	19.140	67.246	0.477
759.500	460.264	79.993	19.995	103.237	19.156	66.071	0.503
760.000	460.513	79.994	19.996	103.238	19.165	65.381	0.520
760.500	460.793	79.994	19.995	103.236	19.178	64.429	0.521
761.000	460.986	79.991	19.996	103.230	19.193	63.387	0.501
761.500	461.271	79.992	19.997	103.223	19.204	62.549	0.476
762.000	461.539	79.993	19.996	103.218	19.218	61.533	0.516
762.500	461.762	79.992	19.996	103.211	19.235	60.317	0.522
763.000	462.042	79.995	19.996	103.207	19.246	59.520	0.497
763.500	462.304	79.994	19.996	103.208	19.260	58.563	0.523
764.000	462.573	79.993	19.997	103.209	19.273	57.575	0.536
764.500	462.815	79.993	19.996	103.206	19.286	56.671	0.520
765.000	463.070	79.995	19.995	103.203	19.299	55.705	0.504
765.500	463.333	79.995	19.997	103.197	19.312	54.791	0.508
766.000	463.592	79.990	19.996	103.189	19.322	54.030	0.520
766.500	463.828	79.995	19.995	103.181	19.338	52.926	0.509
767.000	464.071	79.995	19.995	103.174	19.349	52.076	0.487
767.500	464.354	79.992	19.996	103.170	19.361	51.231	0.503
768.000	464.590	79.994	19.995	103.169	19.373	50.364	0.522
768.500	464.822	79.993	19.996	103.168	19.385	49.488	0.493
769.000	465.083	79.993	19.996	103.169	19.396	48.673	0.481
769.500	465.329	79.994	19.996	103.165	19.409	47.790	0.500
770.000	465.610	79.992	19.995	103.164	19.417	47.174	0.517
770.500	465.863	79.991	19.995	103.164	19.429	46.302	0.531
771.000	466.140	79.995	19.995	103.159	19.436	45.783	0.532
771.500	466.366	79.993	19.996	103.153	19.449	44.905	0.516
772.000	466.646	79.992	19.995	103.148	19.454	44.542	0.505
772.500	466.862	79.993	19.996	103.142	19.464	43.803	0.501
773.000	467.177	79.992	19.996	103.136	19.473	43.127	0.513
773.500	467.408	79.993	19.996	103.134	19.480	42.642	0.538
774.000	467.693	79.990	19.995	103.133	19.484	42.315	0.531
774.500	467.900	79.991	19.996	103.132	19.493	41.686	0.504
775.000	468.185	79.991	19.997	103.131	19.499	41.240	0.492
775.500	468.414	79.992	19.997	103.128	19.509	40.554	0.503
776.000	468.739	79.993	19.996	103.127	19.511	40.412	0.534
776.500	468.965	79.992	19.997	103.127	19.513	40.258	0.553
777.000	469.222	79.994	19.996	103.127	19.517	39.990	0.517
777.500	469.456	79.994	19.996	103.128	19.523	39.512	0.487
778.000	469.739	79.990	19.997	103.128	19.529	39.085	0.504
778.500	469.979	79.993	19.996	103.124	19.529	39.122	0.520
779.000	470.230	79.992	19.996	103.119	19.536	38.612	0.508
779.500	470.479	79.992	19.997	103.114	19.535	38.687	0.496
780.000	470.741	79.991	19.996	103.107	19.539	38.339	0.505
780.500	470.986	79.991	19.996	103.099	19.537	38.535	0.509
781.000	471.272	79.992	19.995	103.095	19.537	38.547	0.519
781.500	471.526	79.993	19.997	103.093	19.543	38.095	0.536
782.000	471.730	79.992	19.997	103.088	19.541	38.248	0.499
782.500	471.973	79.991	19.996	103.086	19.540	38.297	0.452
783.000	472.265	79.992	19.996	103.086	19.539	38.380	0.491
783.500	472.515	79.993	19.996	103.087	19.542	38.174	0.538
784.000	472.793	79.992	19.996	103.084	19.538	38.442	0.535
784.500	473.016	79.990	19.996	103.085	19.538	38.425	0.514
785.000	473.260	79.992	19.996	103.080	19.537	38.509	0.484
785.500	473.533	79.992	19.996	103.072	19.535	38.667	0.493
786.000	473.795	79.993	19.995	103.064	19.531	38.937	0.526
786.500	474.038	79.993	19.996	103.059	19.530	38.980	0.520
787.000	474.278	79.993	19.995	103.054	19.532	38.842	0.494
787.500	474.577	79.991	19.995	103.053	19.528	39.181	0.511
788.000	474.799	79.993	19.996	103.053	19.523	39.532	0.530
788.500	475.093	79.993	19.995	103.054	19.520	39.734	0.519
789.000	475.312	79.993	19.996	103.053	19.518	39.899	0.515
789.500	475.549	79.994	19.996	103.054	19.518	39.845	0.485
790.000	475.816	79.995	19.996	103.051	19.510	40.468	0.480
790.500	476.078	79.993	19.995	103.051	19.509	40.521	0.516
791.001	476.318	79.994	19.997	103.051	19.509	40.493	0.516
791.501	476.564	79.992	19.994	103.051	19.502	40.992	0.494
792.000	476.857	79.994	19.995	103.050	19.502	41.033	0.513
792.500	477.063	79.993	19.995	103.047	19.500	41.137	0.519
793.000	477.312	79.994	19.997	103.040	19.497	41.370	0.477
793.500	477.562	79.993	19.996	103.036	19.495	41.526	0.477
794.000	477.835	79.995	19.995	103.031	19.489	41.971	0.511
794.500	478.082	79.995	19.996	103.024	19.489	41.955	0.522
795.000	478.359	79.994	19.995	103.019	19.483	42.376	0.522
795.500	478.603	79.995	19.996	103.016	19.481	42.538	0.522
796.000	478.847	79.993	19.996	103.014	19.479	42.667	0.505
796.500	479.085	79.994	19.995	103.015	19.476	42.897	0.485
797.000	479.355	79.994	19.996	103.014	19.477	42.810	0.495
797.500	479.570	79.994	19.996	103.015	19.475	42.928	0.497
798.000	479.831	79.995	19.996	103.015	19.474	43.031	0.481
798.500	480.075	79.995	19.997	103.013	19.472	43.153	0.491
799.000	480.318	79.994	19.996	103.008	19.473	43.108	0.496
799.500	480.545	79.993	19.996	103.007	19.472	43.197	0.478
800.000	480.822	79.992	19.997	103.007	19.474	43.042	0.487
800.500	481.073	79.993	19.997	103.006	19.473	43.068	0.516
801.000	481.334	79.993	19.997	103.006	19.476	42.916	0.520
801.500	481.555	79.992	19.997	103.002	19.480	42.569	0.497
802.000	481.816	79.991	19.997	102.997	19.483	42.378	0.482
802.500	482.069	79.993	19.996	102.992	19.488	42.044	0.498
803.000	482.301	79.991	19.997	102.990	19.493	41.665	0.499
803.500	482.568	79.994	19.997	102.983	19.496	41.411	0.492
804.000	482.800	79.992	19.996	102.980	19.505	40.824	0.499
804.500	483.046	79.992	19.997	102.977	19.513	40.209	0.488
805.000	483.319	79.992	19.997	102.975	19.521	39.662	0.499
805.500	483.574	79.992	19.998	102.969	19.528	39.155	0.523
806.000	483.832	79.993	19.997	102.967	19.531	38.892	0.520
806.500	484.050	79.994	19.997	102.965	19.544	37.974	0.495
807.000	484.288	79.993	19.997	102.965	19.551	37.487	0.466
807.500	484.571	79.992	19.998	102.964	19.560	36.816	0.489
808.000	484.821	79.991	19.996	102.964	19.569	36.160	0.527
808.500	485.076	79.992	19.997	102.965	19.579	35.477	0.519
809.000	485.306	79.993	19.996	102.966	19.582	35.260	0.495
809.500	485.542	79.993	19.996	102.968	19.597	34.191	0.475
810.000	485.812	79.993	19.997	102.968	19.606	33.542	0.486
810.500	486.067	79.992	19.996	102.968	19.613	33.003	0.516
811.000	486.300	79.994	19.996	102.969	19.626	32.104	0.507
811.500	486.552	79.992	19.996	102.972	19.636	31.369	0.487
812.000	486.785	79.995	19.995	102.975	19.644	30.767	0.485
812.500	487.040	79.994	19.995	102.981	19.652	30.183	0.486
813.000	487.297	79.996	19.995	102.982	19.664	29.340	0.500
813.500	487.540	79.994	19.996	102.985	19.675	28.557	0.506
814.000	487.775	79.994	19.995	102.985	19.685	27.806	0.489
814.500	488.041	79.993	19.995	102.982	19.695	27.142	0.489
815.000	488.275	79.993	19.995	102.978	19.704	26.464	0.500
815.500	488.512	79.996	19.996	102.979	19.717	25.499	0.485
816.000	488.781	79.994	19.995	102.979	19.726	24.854	0.489
816.500	489.022	79.993	19.995	102.981	19.734	24.283	0.508
817.000	489.269	79.996	19.995	102.986	19.743	23.633	0.499
817.500	489.538	79.997	19.995	102.993	19.754	22.894	0.502
818.000	489.775	79.995	19.995	102.996	19.762	22.294	0.511
818.500	490.019	79.995	19.995	102.998	19.772	21.544	0.493
819.000	490.251	79.996	19.995	102.994	19.781	20.917	0.478
819.500	490.497	79.994	19.995	102.991	19.793	20.079	0.477
820.000	490.730	79.995	19.995	102.987	19.802	19.429	0.479
820.500	491.002	79.996	19.997	102.990	19.808	18.951	0.492
821.000	491.245	79.996	19.994	102.993	19.817	18.305	0.510
821.500	491.491	79.993	19.996	102.999	19.826	17.669	0.502
822.000	491.773	79.994	19.995	103.003	19.836	16.934	0.509
822.500	492.001	79.995	19.994	103.006	19.845	16.348	0.519
823.000	492.223	79.994	19.996	103.006	19.854	15.670	0.480
823.500	492.460	79.995	19.996	103.006	19.860	15.221	0.455
824.000	492.755	79.994	19.996	103.006	19.873	14.302	0.496
824.500	492.989	79.994	19.995	103.006	19.879	13.839	0.530
825.000	493.227	79.993	19.997	103.006	19.884	13.471	0.500
825.500	493.512	79.994	19.995	103.007	19.892	12.901	0.497
826.000	493.765	79.995	19.995	103.007	19.897	12.574	0.530
826.500	493.988	79.993	19.995	103.008	19.907	11.815	0.507
827.000	494.267	79.992	19.995	103.011	19.912	11.501	0.489
827.500	494.528	79.994	19.995	103.011	19.918	11.076	0.521
828.000	494.787	79.992	19.996	103.013	19.925	10.576	0.530
828.500	495.033	79.993	19.995	103.015	19.929	10.273	0.512
829.000	495.301	79.993	19.996	103.018	19.934	9.871	0.509
829.500	495.550	79.992	19.996	103.023	19.939	9.515	0.516
830.000	495.809	79.991	19.996	103.030	19.945	9.085	0.513
830.500	496.065	79.991	19.995	103.037	19.952	8.574	0.512
831.000	496.279	79.992	19.995	103.041	19.957	8.240	0.492
831.500	496.523	79.991	19.996	103.044	19.958	8.141	0.464
832.000	496.761	79.991	19.995	103.045	19.961	7.931	0.470
832.500	497.015	79.992	19.997	103.045	19.967	7.538	0.487
833.000	497.259	79.991	19.996	103.044	19.969	7.362	0.495
833.500	497.538	79.992	19.996	103.043	19.974	7.037	0.511
834.000	497.768	79.993	19.998	103.042	19.978	6.747	0.516
834.500	498.029	79.991	19.997	103.042	19.979	6.631	0.500
835.000	498.263	79.991	19.996	103.041	19.983	6.355	0.493
835.500	498.510	79.992	19.997	103.036	19.989	5.938	0.488
836.000	498.764	79.993	19.997	103.032	19.994	5.583	0.491
836.500	499.042	79.992	19.998	103.028	19.994	5.607	0.517
837.001	499.284	79.992	19.997	103.027	19.995	5.492	0.526
837.500	499.522	79.992	19.996	103.029	19.995	5.531	0.500
838.000	499.787	79.994	19.996	103.036	20.002	5.018	0.491
838.500	500.019	79.991	19.997	103.043	20.002	4.996	0.500
839.000	500.272	79.993	19.997	103.048	20.002	4.991	0.492
839.500	500.527	79.993	19.997	103.049	20.003	4.907	0.497
840.000	500.789	79.992	19.997	103.049	20.005	4.798	0.512
840.500	501.038	79.991	19.996	103.048	20.008	4.582	0.514
841.000	501.283	79.993	19.995	103.044	20.008	4.568	0.503
841.500	501.519	79.992	19.997	103.041	20.009	4.519	0.488
842.000	501.797	79.993	19.996	103.038	20.007	4.636	0.498
842.500	502.028	79.993	19.996	103.036	20.011	4.378	0.511
843.000	502.273	79.992	19.995	103.034	20.008	4.580	0.493
843.500	502.533	79.993	19.995	103.038	20.010	4.418	0.491
844.000	502.800	79.992	19.996	103.042	20.012	4.244	0.516
844.500	503.036	79.994	19.995	103.045	20.012	4.264	0.515
845.000	503.269	79.993	19.995	103.046	20.012	4.246	0.485
845.500	503.538	79.992	19.996	103.045	20.013	4.179	0.485
846.000	503.800	79.992	19.995	103.040	20.014	4.163	0.517
846.500	504.020	79.992	19.995	103.039	20.016	4.022	0.506
847.000	504.286	79.993	19.996	103.038	20.017	3.887	0.483
847.500	504.520	79.993	19.995	103.040	20.018	3.861	0.493
848.000	504.768	79.992	19.994	103.041	20.019	3.756	0.492
848.500	505.041	79.992	19.995	103.045	20.016	3.986	0.502
849.000	505.283	79.993	19.996	103.044	20.014	4.113	0.518
849.500	505.556	79.994	19.995	103.040	20.018	3.828	0.515
850.000	505.795	79.994	19.995	103.038	20.016	3.992	0.513
850.500	506.044	79.992	19.995	103.041	20.016	3.960	0.500
851.000	506.320	79.992	19.995	103.039	20.018	3.812	0.507
851.500	506.540	79.993	19.996	103.041	20.019	3.794	0.511
852.000	506.777	79.993	19.995	103.047	20.019	3.768	0.477
852.500	507.029	79.992	19.995	103.048	20.018	3.849	0.473
853.000	507.296	79.992	19.995	103.045	20.018	3.859	0.504
853.500	507.499	79.993	19.996	103.045	20.015	4.027	0.495
854.000	507.793	79.994	19.994	103.040	20.017	3.928	0.484
854.500	508.061	79.994	19.996	103.037	20.019	3.798	0.529
855.000	508.320	79.993	19.995	103.036	20.017	3.940	0.544
855.500	508.565	79.994	19.995	103.037	20.020	3.701	0.516
856.000	508.773	79.994	19.995	103.033	20.018	3.813	0.479
856.500	509.033	79.992	19.995	103.032	20.017	3.922	0.461
857.000	509.263	79.993	19.996	103.031	20.019	3.782	0.479
857.500	509.551	79.993	19.996	103.030	20.015	4.051	0.504
858.000	509.821	79.992	19.996	103.030	20.016	4.008	0.538
858.500	510.027	79.992	19.996	103.036	20.019	3.794	0.517
859.000	510.275	79.992	19.995	103.040	20.018	3.841	0.465
859.500	510.549	79.992	19.997	103.043	20.017	3.895	0.488
860.000	510.782	79.991	19.996	103.043	20.020	3.734	0.514
860.500	511.048	79.991	19.997	103.040	20.019	3.770	0.503
861.000	511.328	79.992	19.995	103.039	20.018	3.819	0.522
861.500	511.549	79.992	19.996	103.040	20.017	3.926	0.523
862.000	511.800	79.990	19.997	103.041	20.017	3.934	0.486
862.500	512.019	79.993	19.996	103.041	20.016	3.954	0.471
863.000	512.283	79.990	19.997	103.045	20.018	3.843	0.477
863.500	512.548	79.992	19.996	103.045	20.020	3.675	0.506
864.000	512.801	79.991	19.997	103.045	20.017	3.920	0.524
864.500	513.043	79.993	19.995	103.044	20.020	3.710	0.506
865.000	513.292	79.990	19.996	103.046	20.017	3.911	0.493
865.500	513.534	79.992	19.997	103.046	20.017	3.891	0.491
866.000	513.779	79.994	19.996	103.046	20.020	3.730	0.489
866.500	514.076	79.992	19.996	103.046	20.019	3.738	0.515
867.000	514.351	79.992	19.996	103.046	20.018	3.819	0.557
867.500	514.611	79.994	19.996	103.046	20.019	3.768	0.553
868.000	514.867	79.993	19.996	103.046	20.018	3.814	0.526
868.500	515.102	79.993	19.996	103.046	20.017	3.940	0.504
869.000	515.370	79.993	19.997	103.046	20.017	3.946	0.497
869.500	515.642	79.994	19.997	103.046	20.015	4.085	0.521
870.001	515.904	79.994	19.996	103.047	20.014	4.117	0.537
870.501	516.179	79.994	19.996	103.048	20.017	3.942	0.535
871.001	516.427	79.994	19.997	103.048	20.018	3.810	0.530
871.501	516.698	79.993	19.997	103.049	20.016	3.996	0.521
872.000	516.952	79.995	19.996	103.049	20.017	3.901	0.522
872.500	517.207	79.995	19.997	103.048	20.019	3.804	0.517
873.000	517.470	79.994	19.996	103.048	20.019	3.764	0.514
873.500	517.756	79.994	19.995	103.048	20.018	3.827	0.533
874.000	518.000	79.993	19.995	103.047	20.022	3.566	0.539
874.500	518.294	79.994	19.995	103.047	20.019	3.746	0.534
875.000	518.543	79.995	19.995	103.047	20.020	3.687	0.541
875.500	518.794	79.996	19.996	103.046	20.017	3.891	0.522
876.000	519.083	79.995	19.995	103.046	20.017	3.934	0.520
876.500	519.348	79.993	19.996	103.046	20.015	4.029	0.547
877.000	519.611	79.994	19.995	103.046	20.015	4.029	0.541
877.500	519.879	79.996	19.996	103.046	20.018	3.861	0.529
878.000	520.141	79.994	19.995	103.046	20.014	4.132	0.530
878.500	520.425	79.994	19.995	103.046	20.015	4.029	0.539
879.000	520.682	79.994	19.996	103.044	20.015	4.041	0.544
879.500	520.926	79.994	19.995	103.044	20.016	3.978	0.521
880.000	521.229	79.993	19.996	103.043	20.018	3.867	0.524
880.500	521.513	79.993	19.997	103.042	20.015	4.049	0.567
881.000	521.760	79.992	19.996	103.043	20.012	4.253	0.559
881.500	522.029	79.993	19.997	103.044	20.015	4.075	0.523
882.000	522.276	79.993	19.997	103.044	20.016	3.992	0.516
882.500	522.557	79.995	19.997	103.045	20.014	4.111	0.522
883.000	522.846	79.994	19.997	103.046	20.016	4.004	0.549
883.500	523.118	79.992	19.996	103.045	20.016	4.017	0.566
884.001	523.389	79.993	19.996	103.045	20.015	4.029	0.552
884.501	523.656	79.993	19.997	103.045	20.016	3.952	0.540
885.000	523.955	79.991	19.996	103.045	20.016	3.958	0.552
885.500	524.217	79.992	19.997	103.043	20.018	3.867	0.564
886.000	524.514	79.994	19.997	103.043	20.017	3.914	0.560
886.500	524.752	79.994	19.997	103.044	20.013	4.182	0.547
887.000	525.077	79.993	19.997	103.044	20.018	3.861	0.549
887.500	525.338	79.993	19.998	103.044	20.017	3.928	0.575
888.000	525.583	79.993	19.996	103.046	20.013	4.190	0.546
888.500	525.849	79.993	19.997	103.047	20.015	4.037	0.508
889.000	526.086	79.994	19.997	103.047	20.016	4.013	0.507
889.500	526.405	79.992	19.997	103.047	20.013	4.231	0.530
890.000	526.626	79.993	19.998	103.047	20.015	4.035	0.548
890.500	526.928	79.992	19.996	103.047	20.013	4.223	0.531
891.000	527.234	79.993	19.996	103.047	20.012	4.267	0.565
891.500	527.476	79.992	19.997	103.047	20.014	4.126	0.578
892.000	527.751	79.992	19.997	103.047	20.016	3.960	0.533
892.500	528.025	79.994	19.997	103.047	20.015	4.051	0.533
893.001	528.339	79.994	19.997	103.047	20.014	4.158	0.568
893.501	528.584	79.994	19.996	103.047	20.013	4.174	0.574
894.000	528.890	79.992	19.996	103.047	20.014	4.132	0.555
894.500	529.150	79.994	19.997	103.047	20.013	4.208	0.559
895.000	529.393	79.995	19.996	103.046	20.013	4.190	0.535
895.500	529.677	79.994	19.997	103.046	20.012	4.259	0.514
896.000	529.983	79.994	19.997	103.047	20.013	4.225	0.558
896.500	530.232	79.995	19.996	103.047	20.013	4.210	0.573
897.000	530.545	79.994	19.997	103.048	20.012	4.307	0.559
897.500	530.826	79.994	19.996	103.048	20.013	4.170	0.578
898.000	531.093	79.996	19.996	103.048	20.016	3.998	0.571
898.500	531.386	79.994	19.996	103.049	20.012	4.279	0.554
899.000	531.643	79.995	19.996	103.048	20.015	4.037	0.555
899.500	531.938	79.995	19.995	103.048	20.015	4.041	0.551
900.000	532.200	79.995	19.995	103.049	20.014	4.120	0.555
900.500	532.473	79.994	19.995	103.049	20.016	3.971	0.546
901.000	532.739	79.995	19.995	103.048	20.016	3.993	0.537
901.500	533.006	79.995	19.994	103.048	20.016	3.983	0.536
902.000	533.265	79.995	19.995	103.049	20.018	3.823	0.529
902.500	533.566	79.995	19.995	103.050	20.015	4.063	0.542
903.000	533.818	79.995	19.996	103.050	20.016	4.013	0.556
903.500	534.081	79.993	19.994	103.050	20.015	4.085	0.534
904.000	534.389	79.995	19.994	103.051	20.013	4.174	0.544
904.500	534.672	79.994	19.995	103.050	20.016	3.958	0.581
905.000	534.910	79.994	19.994	103.050	20.016	3.994	0.556
905.500	535.223	79.995	19.995	103.050	20.013	4.168	0.536
906.000	535.540	79.993	19.995	103.050	20.015	4.093	0.590
906.500	535.806	79.994	19.994	103.049	20.016	4.013	0.606
907.000	536.085	79.993	19.996	103.049	20.015	4.069	0.564
907.500	536.357	79.992	19.995	103.049	20.012	4.285	0.548
908.000	536.607	79.992	19.995	103.049	20.013	4.219	0.536
908.500	536.895	79.993	19.996	103.049	20.015	4.077	0.530
909.000	537.152	79.992	19.995	103.049	20.017	3.946	0.541
909.500	537.422	79.990	19.994	103.049	20.016	4.009	0.536
910.000	537.692	79.992	19.995	103.050	20.014	4.118	0.533
910.500	538.009	79.991	19.995	103.052	20.016	4.005	0.563
911.000	538.266	79.992	19.996	103.058	20.015	4.051	0.580
911.500	538.550	79.994	19.994	103.059	20.015	4.035	0.558
912.000	538.834	79.990	19.995	103.058	20.016	3.984	0.555
912.500	539.139	79.993	19.996	103.058	20.017	3.948	0.579
913.000	539.378	79.991	19.996	103.056	20.015	4.031	0.566
913.500	539.663	79.992	19.994	103.051	20.017	3.916	0.534
914.001	539.911	79.992	19.996	103.051	20.017	3.926	0.529
914.501	540.233	79.991	19.995	103.051	20.016	3.992	0.551
915.001	540.500	79.991	19.995	103.051	20.016	4.015	0.580
915.501	540.760	79.994	19.995	103.051	20.014	4.140	0.558
916.001	541.034	79.993	19.996	103.052	20.014	4.160	0.530
916.501	541.302	79.992	19.995	103.052	20.014	4.101	0.538
917.000	541.583	79.993	19.995	103.052	20.015	4.055	0.545
917.500	541.880	79.992	19.995	103.052	20.015	4.041	0.563
918.000	542.140	79.994	19.995	103.052	20.013	4.225	0.567
918.500	542.449	79.992	19.996	103.050	20.014	4.164	0.563
919.000	542.707	79.993	19.997	103.050	20.018	3.863	0.568
919.500	542.972	79.991	19.997	103.050	20.017	3.891	0.546
920.000	543.236	79.993	19.995	103.050	20.016	3.986	0.526
920.500	543.533	79.992	19.995	103.049	20.015	4.069	0.545
921.000	543.820	79.993	19.995	103.050	20.013	4.214	0.573
921.500	544.084	79.994	19.996	103.051	20.016	3.992	0.567
922.000	544.333	79.993	19.997	103.050	20.012	4.295	0.532
922.500	544.625	79.992	19.995	103.050	20.013	4.170	0.527
923.000	544.859	79.993	19.996	103.049	20.016	4.004	0.534
923.500	545.154	79.992	19.994	103.049	20.013	4.198	0.528
924.000	545.445	79.993	19.996	103.048	20.014	4.140	0.558
924.500	545.708	79.991	19.996	103.049	20.012	4.269	0.570
925.000	545.978	79.994	19.996	103.049	20.014	4.095	0.543
925.500	546.254	79.992	19.994	103.049	20.014	4.105	0.540
926.000	546.524	79.992	19.997	103.049	20.014	4.156	0.547
926.500	546.813	79.993	19.996	103.047	20.013	4.172	0.552
927.000	547.096	79.992	19.996	103.047	20.014	4.104	0.565
927.500	547.372	79.993	19.996	103.047	20.013	4.192	0.566
928.000	547.615	79.993	19.996	103.047	20.012	4.241	0.539
928.500	547.873	79.994	19.995	103.046	20.012	4.261	0.510
929.001	548.143	79.993	19.996	103.047	20.014	4.154	0.514
929.500	548.426	79.992	19.995	103.047	20.012	4.279	0.540
930.000	548.686	79.994	19.996	103.047	20.012	4.263	0.548
930.500	548.970	79.992	19.996	103.047	20.015	4.089	0.544
931.000	549.255	79.993	19.996	103.048	20.012	4.265	0.557
931.500	549.524	79.993	19.996	103.049	20.012	4.281	0.561
932.000	549.786	79.995	19.996	103.049	20.014	4.138	0.542
932.500	550.032	79.994	19.996	103.049	20.015	4.069	0.520
933.000	550.336	79.994	19.996	103.049	20.016	3.966	0.529
933.501	550.612	79.994	19.995	103.049	20.013	4.188	0.565
934.001	550.874	79.992	19.995	103.047	20.015	4.083	0.559
934.500	551.127	79.994	19.996	103.047	20.012	4.309	0.527
935.000	551.397	79.992	19.994	103.047	20.014	4.118	0.519
935.500	551.699	79.992	19.995	103.047	20.018	3.867	0.548
936.000	551.935	79.993	19.996	103.047	20.013	4.210	0.555
936.500	552.206	79.994	19.994	103.048	20.013	4.231	0.523
937.000	552.486	79.992	19.996	103.048	20.015	4.027	0.528
937.500	552.741	79.993	19.995	103.050	20.018	3.871	0.543
938.000	552.994	79.993	19.995	103.052	20.012	4.279	0.522
938.500	553.290	79.994	19.996	103.051	20.012	4.309	0.529
939.000	553.554	79.993	19.996	103.051	20.015	4.025	0.555
939.500	553.830	79.992	19.995	103.050	20.012	4.289	0.550
940.000	554.126	79.993	19.994	103.048	20.016	3.954	0.556
940.500	554.382	79.992	19.996	103.046	20.014	4.164	0.562
941.000	554.634	79.991	19.994	103.046	20.014	4.126	0.530
941.500	554.907	79.993	19.997	103.048	20.015	4.033	0.517
942.000	555.196	79.994	19.996	103.050	20.014	4.109	0.543
942.500	555.467	79.995	19.996	103.051	20.018	3.875	0.561
943.000	555.700	79.993	19.996	103.051	20.015	4.077	0.532
943.500	555.971	79.993	19.995	103.050	20.016	4.000	0.504
944.000	556.291	79.993	19.995	103.049	20.015	4.065	0.547
944.500	556.500	79.992	19.995	103.049	20.017	3.912	0.560
945.000	556.770	79.993	19.995	103.049	20.015	4.029	0.504
945.500	557.045	79.994	19.996	103.049	20.017	3.914	0.512
946.000	557.278	79.993	19.996	103.049	20.014	4.140	0.527
946.500	557.589	79.994	19.996	103.046	20.013	4.176	0.526
947.000	557.842	79.993	19.995	103.046	20.013	4.172	0.554
947.500	558.125	79.993	19.995	103.046	20.014	4.122	0.550
948.000	558.405	79.994	19.996	103.046	20.014	4.120	0.550
948.500	558.670	79.994	19.997	103.046	20.016	3.986	0.554
949.000	558.896	79.994	19.996	103.048	20.011	4.344	0.518
949.500	559.214	79.993	19.995	103.048	20.014	4.128	0.517
950.000	559.454	79.994	19.996	103.048	20.013	4.168	0.551
950.500	559.678	79.995	19.995	103.049	20.012	4.285	0.511
951.000	559.958	79.995	19.995	103.049	20.014	4.150	0.484
951.500	560.245	79.994	19.997	103.050	20.013	4.186	0.536
952.000	560.485	79.995	19.996	103.049	20.012	4.287	0.547
952.500	560.726	79.994	19.995	103.049	20.010	4.404	0.504
953.000	560.993	79.993	19.996	103.048	20.009	4.473	0.494
953.501	561.278	79.993	19.997	103.048	20.010	4.431	0.530
954.001	561.511	79.993	19.996	103.047	20.011	4.364	0.535
954.501	561.790	79.995	19.995	103.048	20.012	4.263	0.515
955.001	562.087	79.993	19.997	103.048	20.009	4.469	0.544
955.501	562.322	79.994	19.995	103.049	20.009	4.463	0.554
956.000	562.598	79.995	19.996	103.049	20.008	4.598	0.521
956.500	562.859	79.993	19.997	103.049	20.009	4.522	0.524
957.000	563.099	79.994	19.996	103.049	20.008	4.570	0.519
957.500	563.368	79.993	19.995	103.049	20.009	4.508	0.505
958.000	563.653	79.994	19.996	103.048	20.007	4.603	0.532
958.500	563.890	79.993	19.996	103.049	20.009	4.478	0.539
959.000	564.140	79.993	19.995	103.049	20.009	4.457	0.504
959.500	564.392	79.993	19.995	103.050	20.009	4.526	0.494
960.000	564.643	79.994	19.996	103.050	20.009	4.485	0.502
960.500	564.862	79.994	19.996	103.050	20.005	4.752	0.487
961.000	565.170	79.993	19.997	103.050	20.007	4.639	0.499
961.500	565.427	79.993	19.996	103.050	20.007	4.663	0.546
962.000	565.673	79.992	19.997	103.050	20.005	4.810	0.534
962.500	565.953	79.994	19.995	103.050	20.005	4.764	0.515
963.001	566.167	79.992	19.996	103.049	20.006	4.736	0.510
963.500	566.437	79.994	19.995	103.049	20.005	4.800	0.489
964.000	566.692	79.993	19.996	103.049	20.004	4.829	0.505
964.500	566.924	79.994	19.994	103.049	20.004	4.865	0.506
965.000	567.228	79.994	19.995	103.049	20.005	4.810	0.511
965.500	567.447	79.994	19.996	103.049	20.003	4.934	0.529
966.000	567.693	79.993	19.996	103.050	20.005	4.796	0.494
966.500	567.947	79.994	19.994	103.050	20.002	5.016	0.482
967.000	568.201	79.994	19.995	103.052	20.002	4.984	0.504
967.500	568.462	79.992	19.996	103.058	20.002	4.976	0.512
968.000	568.717	79.993	19.996	103.059	20.001	5.055	0.515
968.500	568.999	79.993	19.996	103.059	20.005	4.812	0.527
969.000	569.251	79.994	19.995	103.060	20.002	4.970	0.536
969.500	569.481	79.994	19.996	103.061	20.004	4.820	0.508
970.001	569.768	79.994	19.995	103.056	20.002	4.974	0.499
970.501	570.012	79.993	19.997	103.056	20.003	4.946	0.524
971.000	570.277	79.994	19.996	103.055	20.003	4.909	0.520
971.500	570.537	79.993	19.996	103.054	20.001	5.075	0.517
972.000	570.808	79.993	19.997	103.052	20.001	5.081	0.527
972.500	571.039	79.994	19.996	103.052	20.001	5.095	0.516
973.000	571.278	79.994	19.996	103.051	20.000	5.107	0.486
973.500	571.541	79.994	19.995	103.051	20.000	5.135	0.486
974.000	571.788	79.993	19.996	103.053	20.000	5.113	0.506
974.500	572.040	79.995	19.996	103.053	19.999	5.202	0.505
975.000	572.276	79.994	19.996	103.053	20.000	5.123	0.494
975.500	572.539	79.994	19.996	103.054	19.998	5.255	0.494
976.000	572.794	79.992	19.995	103.055	19.998	5.281	0.509
976.500	573.064	79.993	19.996	103.053	19.998	5.301	0.522
977.000	573.316	79.994	19.995	103.052	19.997	5.384	0.524
977.500	573.582	79.994	19.996	103.053	19.997	5.388	0.520
978.000	573.885	79.995	19.995	103.052	19.996	5.420	0.543
978.500	574.137	79.995	19.995	103.050	19.997	5.345	0.562
979.000	574.393	79.995	19.997	103.050	19.995	5.491	0.532
979.500	574.661	79.995	19.996	103.050	19.994	5.574	0.516
980.000	574.884	79.995	19.997	103.049	19.995	5.507	0.508
980.500	575.154	79.994	19.996	103.048	19.993	5.639	0.492
981.000	575.421	79.995	19.995	103.049	19.993	5.663	0.515
981.500	575.651	79.995	19.996	103.049	19.992	5.697	0.517
982.000	575.938	79.995	19.997	103.050	19.993	5.667	0.506
982.500	576.180	79.995	19.995	103.050	19.990	5.852	0.523
983.000	576.444	79.995	19.997	103.050	19.989	5.919	0.518
983.500	576.713	79.994	19.997	103.050	19.990	5.840	0.520
984.000	576.955	79.993	19.996	103.049	19.991	5.772	0.522
984.500	577.173	79.994	19.996	103.049	19.991	5.816	0.486
985.000	577.448	79.994	19.996	103.048	19.989	5.929	0.477
985.500	577.703	79.993	19.996	103.047	19.986	6.135	0.512
986.000	577.982	79.993	19.997	103.049	19.987	6.085	0.532
986.500	578.235	79.993	19.997	103.054	19.985	6.208	0.532
987.000	578.461	79.993	19.996	103.057	19.988	6.028	0.505
987.500	578.723	79.992	19.996	103.058	19.983	6.350	0.484
988.000	578.969	79.994	19.996	103.058	19.984	6.263	0.498
988.500	579.242	79.992	19.996	103.058	19.984	6.265	0.513
989.000	579.498	79.992	19.997	103.054	19.983	6.370	0.524
989.500	579.741	79.992	19.995	103.051	19.981	6.477	0.514
990.000	580.024	79.993	19.997	103.056	19.979	6.635	0.512
990.500	580.235	79.993	19.996	103.059	19.981	6.506	0.510
991.000	580.522	79.993	19.996	103.058	19.981	6.500	0.496
991.500	580.774	79.995	19.994	103.059	19.978	6.763	0.519
992.000	581.030	79.994	19.996	103.060	19.977	6.799	0.524
992.500	581.250	79.993	19.996	103.055	19.977	6.822	0.492
993.000	581.534	79.992	19.997	103.053	19.974	7.000	0.490
993.500	581.783	79.992	19.994	103.053	19.974	7.042	0.518
994.000	581.982	79.993	19.996	103.052	19.975	6.916	0.490
994.500	582.286	79.993	19.995	103.051	19.973	7.063	0.475
995.000	582.540	79.993	19.996	103.051	19.973	7.079	0.531
995.500	582.777	79.993	19.995	103.051	19.973	7.103	0.525
996.000	583.026	79.992	19.996	103.052	19.972	7.128	0.489
996.501	583.266	79.993	19.995	103.053	19.967	7.499	0.487
997.001	583.525	79.993	19.996	103.051	19.969	7.407	0.494
997.500	583.794	79.993	19.994	103.053	19.968	7.423	0.514
998.000	584.049	79.993	19.995	103.057	19.965	7.631	0.526
998.500	584.339	79.992	19.996	103.058	19.963	7.813	0.535
999.000	584.553	79.994	19.997	103.060	19.963	7.777	0.525
999.500	584.816	79.994	19.995	103.067	19.966	7.577	0.491
1000.000	585.041	79.993	19.996	103.070	19.962	7.872	0.483
1000.500	585.312	79.994	19.994	103.069	19.960	8.001	0.492
1001.000	585.580	79.993	19.995	103.070	19.960	8.019	0.517
1001.500	585.827	79.994	19.997	103.075	19.961	7.927	0.527
1002.000	586.080	79.992	19.997	103.076	19.956	8.302	0.508
1002.500	586.347	79.995	19.997	103.077	19.955	8.411	0.510
1003.000	586.577	79.994	19.997	103.081	19.953	8.511	0.509
1003.500	586.812	79.992	19.997	103.085	19.952	8.569	0.481
1004.000	587.061	79.994	19.996	103.084	19.949	8.822	0.474
1004.500	587.304	79.994	19.996	103.078	19.950	8.715	0.488
1005.000	587.599	79.994	19.995	103.073	19.944	9.161	0.515
1005.500	587.834	79.995	19.996	103.067	19.949	8.792	0.534
1006.000	588.083	79.993	19.997	103.064	19.944	9.149	0.507
1006.500	588.330	79.995	19.996	103.065	19.943	9.234	0.490
1007.000	588.563	79.992	19.996	103.068	19.941	9.422	0.489
1007.500	588.836	79.993	19.996	103.066	19.937	9.685	0.493
1008.000	589.083	79.994	19.996	103.071	19.937	9.660	0.513
1008.500	589.335	79.993	19.995	103.073	19.935	9.796	0.510
1009.000	589.611	79.994	19.995	103.073	19.932	10.053	0.514
1009.500	589.853	79.992	19.995	103.071	19.931	10.095	0.523
1010.000	590.105	79.994	19.995	103.075	19.927	10.422	0.506
1010.500	590.356	79.993	19.996	103.077	19.925	10.542	0.498
1011.000	590.628	79.994	19.996	103.077	19.924	10.594	0.513
1011.500	590.850	79.992	19.996	103.077	19.919	10.988	0.508
1012.000	591.134	79.993	19.997	103.079	19.917	11.135	0.500
1012.500	591.352	79.995	19.997	103.081	19.915	11.251	0.504
1013.000	591.618	79.993	19.995	103.082	19.915	11.242	0.493
1013.500	591.911	79.993	19.995	103.082	19.910	11.659	0.521
1014.000	592.130	79.992	19.997	103.084	19.907	11.867	0.535
1014.500	592.407	79.994	19.995	103.087	19.904	12.048	0.504
1015.000	592.660	79.992	19.995	103.087	19.900	12.333	0.513
1015.500	592.903	79.991	19.997	103.087	19.898	12.511	0.513
1016.000	593.177	79.993	19.996	103.088	19.894	12.794	0.506
1016.500	593.406	79.993	19.995	103.086	19.891	13.018	0.510
1017.000	593.661	79.994	19.995	103.086	19.889	13.156	0.494
1017.500	593.923	79.992	19.997	103.086	19.886	13.360	0.500
1018.000	594.214	79.992	19.995	103.086	19.884	13.538	0.535
1018.500	594.493	79.993	19.996	103.086	19.881	13.720	0.561
1019.000	594.748	79.991	19.996	103.088	19.877	14.010	0.553
1019.500	594.990	79.993	19.995	103.089	19.875	14.123	0.515
1020.000	595.247	79.991	19.996	103.090	19.871	14.412	0.497
1020.500	595.514	79.992	19.995	103.090	19.870	14.487	0.511
1021.000	595.745	79.993	19.995	103.091	19.866	14.783	0.512
1021.500	596.017	79.992	19.995	103.091	19.864	14.983	0.501
1022.000	596.281	79.994	19.994	103.091	19.862	15.096	0.519
1022.500	596.546	79.992	19.997	103.091	19.856	15.528	0.533
1023.000	596.764	79.994	19.996	103.091	19.857	15.439	0.506
1023.500	597.044	79.992	19.995	103.091	19.853	15.730	0.490
1024.000	597.287	79.992	19.996	103.090	19.849	16.043	0.510
1024.500	597.567	79.994	19.995	103.091	19.847	16.184	0.523
1025.000	597.782	79.993	19.995	103.090	19.844	16.375	0.510
1025.500	598.078	79.993	19.995	103.090	19.844	16.423	0.503
1026.001	598.310	79.993	19.995	103.089	19.840	16.657	0.519
1026.501	598.576	79.993	19.995	103.090	19.835	17.006	0.513
1027.001	598.839	79.996	19.994	103.091	19.835	17.037	0.514
1027.500	599.079	79.993	19.996	103.092	19.829	17.457	0.516
1028.000	599.319	79.994	19.994	103.093	19.829	17.465	0.491
1028.500	599.592	79.995	19.996	103.094	19.828	17.573	0.496
1029.000	599.815	79.993	19.995	103.093	19.821	18.087	0.504
1029.500	600.081	79.996	19.996	103.093	19.822	18.016	0.492
1030.000	600.325	79.993	19.995	103.092	19.815	18.500	0.500
1030.500	600.572	79.993	19.995	103.091	19.813	18.663	0.501
1031.000	600.820	79.995	19.994	103.090	19.811	18.780	0.493
1031.500	601.100	79.993	19.995	103.093	19.809	18.883	0.511
1032.000	601.324	79.993	19.995	103.096	19.804	19.267	0.515
1032.501	601.625	79.995	19.994	103.097	19.802	19.432	0.514
1033.002	601.846	79.995	19.994	103.097	19.799	19.675	0.524
1033.501	602.117	79.994	19.995	103.097	19.793	20.096	0.507
1034.000	602.355	79.994	19.994	103.095	19.792	20.126	0.501
1034.500	602.581	79.993	19.994	103.093	19.791	20.232	0.486
1035.000	602.861	79.994	19.994	103.093	19.789	20.383	0.485
1035.500	603.112	79.993	19.995	103.094	19.784	20.691	0.519
1036.000	603.375	79.994	19.996	103.095	19.783	20.772	0.522
1036.500	603.631	79.995	19.994	103.095	19.780	21.028	0.516
1037.000	603.918	79.995	19.996	103.094	19.778	21.155	0.531
1037.500	604.144	79.994	19.995	103.092	19.777	21.246	0.528
1038.000	604.392	79.994	19.996	103.093	19.774	21.430	0.493
1038.500	604.643	79.992	19.995	103.092	19.771	21.624	0.487
1039.000	604.903	79.991	19.996	103.094	19.770	21.745	0.505
1039.500	605.190	79.993	19.996	103.099	19.770	21.733	0.529
1040.001	605.410	79.993	19.995	103.102	19.766	21.997	0.527
1040.501	605.700	79.994	19.996	103.103	19.764	22.196	0.509
1041.001	605.944	79.993	19.997	103.105	19.763	22.259	0.522
1041.500	606.198	79.992	19.997	103.102	19.757	22.684	0.516
1042.000	606.454	79.994	19.996	103.102	19.758	22.592	0.504
1042.500	606.639	79.992	19.996	103.101	19.757	22.636	0.475
1043.000	606.956	79.994	19.995	103.101	19.757	22.640	0.472
1043.500	607.236	79.992	19.996	103.100	19.749	23.228	0.550
1044.000	607.470	79.993	19.995	103.104	19.748	23.326	0.556
1044.500	607.710	79.993	19.997	103.104	19.749	23.284	0.494
1045.000	607.987	79.993	19.995	103.105	19.749	23.245	0.495
1045.500	608.217	79.993	19.995	103.107	19.747	23.379	0.512
1046.000	608.498	79.993	19.997	103.107	19.742	23.749	0.509
1046.500	608.739	79.993	19.994	103.102	19.741	23.833	0.517
1047.001	608.996	79.994	19.995	103.100	19.742	23.741	0.510
1047.501	609.217	79.994	19.997	103.098	19.742	23.719	0.488
1048.001	609.495	79.993	19.996	103.097	19.742	23.768	0.488
1048.501	609.738	79.994	19.996	103.098	19.736	24.215	0.510
1049.000	610.016	79.994	19.996	103.098	19.734	24.311	0.521
1049.500	610.308	79.995	19.997	103.099	19.735	24.259	0.546
1050.000	610.542	79.994	19.996	103.099	19.730	24.619	0.548
1050.500	610.811	79.994	19.995	103.098	19.734	24.360	0.514
1051.000	611.037	79.994	19.996	103.097	19.729	24.709	0.499
1051.500	611.291	79.995	19.996	103.100	19.730	24.635	0.488
1052.000	611.561	79.995	19.996	103.100	19.731	24.561	0.502
1052.500	611.815	79.995	19.995	103.103	19.732	24.434	0.524
1053.000	612.063	79.994	19.995	103.110	19.728	24.739	0.513
1053.501	612.327	79.995	19.995	103.115	19.728	24.735	0.507
1054.001	612.558	79.995	19.995	103.117	19.729	24.697	0.503
1054.500	612.854	79.994	19.995	103.117	19.731	24.527	0.511
1055.000	613.089	79.996	19.996	103.118	19.728	24.790	0.529
1055.500	613.358	79.995	19.995	103.115	19.726	24.875	0.518
1056.001	613.600	79.995	19.996	103.108	19.732	24.498	0.508
1056.501	613.851	79.994	19.996	103.102	19.729	24.694	0.502
1057.000	614.122	79.995	19.996	103.097	19.728	24.791	0.508
1057.500	614.379	79.995	19.996	103.091	19.730	24.617	0.525
1058.000	614.637	79.996	19.997	103.088	19.732	24.500	0.522
1058.500	614.877	79.996	19.996	103.088	19.731	24.523	0.506
1059.000	615.180	79.996	19.995	103.091	19.734	24.300	0.520
1059.501	615.402	79.995	19.996	103.094	19.735	24.270	0.534
1060.001	615.646	79.995	19.995	103.097	19.735	24.248	0.496
1060.500	615.933	79.994	19.996	103.101	19.740	23.886	0.499
1061.001	616.168	79.996	19.995	103.101	19.736	24.190	0.527
1061.501	616.415	79.996	19.997	103.100	19.739	23.945	0.502
1062.000	616.706	79.995	19.995	103.097	19.740	23.919	0.510
1062.500	616.934	79.994	19.996	103.093	19.744	23.632	0.529
1063.000	617.203	79.994	19.997	103.088	19.749	23.269	0.508
1063.500	617.431	79.993	19.996	103.086	19.751	23.087	0.497
1064.001	617.652	79.995	19.997	103.087	19.752	23.045	0.473
1064.501	617.937	79.993	19.996	103.088	19.755	22.817	0.477
1065.000	618.202	79.991	19.995	103.089	19.759	22.525	0.528
1065.500	618.431	79.992	19.997	103.090	19.761	22.394	0.522
1066.000	618.671	79.993	19.997	103.089	19.763	22.242	0.482
1066.500	618.951	79.993	19.996	103.089	19.768	21.832	0.495
1067.001	619.199	79.993	19.997	103.088	19.769	21.794	0.524
1067.501	619.440	79.993	19.998	103.086	19.771	21.636	0.509
1068.000	619.686	79.992	19.997	103.086	19.779	21.078	0.488
1068.500	620.013	79.992	19.997	103.086	19.780	21.020	0.530
1069.000	620.218	79.992	19.996	103.086	19.787	20.491	0.553
1069.500	620.499	79.992	19.997	103.087	19.792	20.170	0.509
1070.000	620.755	79.991	19.997	103.087	19.795	19.920	0.511
1070.500	620.990	79.993	19.997	103.087	19.799	19.632	0.514
1071.000	621.268	79.992	19.997	103.087	19.802	19.405	0.502
1071.500	621.506	79.992	19.996	103.085	19.809	18.898	0.515
1072.000	621.764	79.994	19.995	103.083	19.815	18.482	0.507
1072.500	622.005	79.992	19.997	103.081	19.819	18.223	0.497
1073.000	622.280	79.992	19.996	103.081	19.826	17.706	0.507
1073.500	622.537	79.993	19.996	103.082	19.832	17.228	0.524
1074.000	622.795	79.992	19.996	103.082	19.833	17.155	0.524
1074.500	623.015	79.991	19.996	103.082	19.840	16.654	0.497
1075.000	623.287	79.992	19.995	103.084	19.848	16.111	0.485
1075.500	623.555	79.992	19.996	103.084	19.857	15.418	0.516
1076.000	623.796	79.992	19.996	103.080	19.861	15.186	0.525
1076.500	624.046	79.992	19.996	103.073	19.869	14.592	0.500
1077.000	624.343	79.992	19.997	103.067	19.875	14.120	0.519
1077.500	624.558	79.992	19.996	103.060	19.882	13.631	0.529
1078.000	624.840	79.992	19.997	103.053	19.887	13.292	0.505
1078.500	625.061	79.991	19.997	103.049	19.896	12.646	0.500
1079.000	625.318	79.993	19.996	103.049	19.899	12.391	0.490
1079.500	625.576	79.994	19.995	103.048	19.910	11.656	0.497
1080.000	625.808	79.993	19.996	103.051	19.913	11.390	0.503
1080.501	626.078	79.992	19.996	103.052	19.922	10.771	0.496
1081.001	626.328	79.992	19.996	103.053	19.926	10.460	0.511
1081.500	626.609	79.993	19.995	103.054	19.935	9.852	0.525
1082.001	626.824	79.993	19.996	103.055	19.938	9.630	0.514
1082.501	627.102	79.992	19.996	103.052	19.949	8.830	0.495
1083.000	627.342	79.994	19.995	103.052	19.950	8.768	0.506
1083.500	627.624	79.993	19.995	103.051	19.954	8.462	0.519
1084.000	627.876	79.993	19.995	103.050	19.963	7.780	0.527
1084.500	628.140	79.994	19.996	103.051	19.965	7.695	0.525
1085.000	628.410	79.993	19.995	103.051	19.968	7.479	0.526
1085.500	628.628	79.993	19.995	103.051	19.974	7.013	0.511
1086.001	628.904	79.993	19.996	103.051	19.980	6.579	0.490
1086.501	629.102	79.992	19.996	103.051	19.981	6.518	0.483
1087.001	629.347	79.993	19.996	103.050	19.983	6.391	0.458
1087.501	629.615	79.994	19.995	103.050	19.987	6.056	0.478
1088.000	629.847	79.993	19.996	103.050	19.991	5.799	0.507
1088.500	630.119	79.993	19.996	103.050	19.994	5.587	0.502
1089.000	630.343	79.993	19.995	103.049	19.996	5.429	0.500
1089.500	630.614	79.992	19.996	103.050	20.000	5.127	0.495
1090.000	630.854	79.993	19.996	103.050	19.999	5.197	0.502
1090.500	631.139	79.993	19.994	103.050	20.000	5.149	0.518
1091.001	631.416	79.991	19.996	103.050	20.003	4.951	0.544
1091.501	631.647	79.992	19.995	103.048	20.006	4.721	0.535
1092.002	631.851	79.993	19.995	103.047	20.008	4.540	0.471
1092.502	632.133	79.991	19.995	103.046	20.006	4.721	0.461
1093.001	632.366	79.993	19.996	103.044	20.010	4.408	0.501
1093.500	632.645	79.993	19.995	103.040	20.009	4.523	0.514
1094.000	632.883	79.992	19.996	103.041	20.009	4.459	0.514
1094.500	633.140	79.993	19.995	103.036	20.011	4.366	0.506
1095.000	633.414	79.994	19.995	103.034	20.011	4.358	0.513
1095.500	633.627	79.992	19.995	103.038	20.013	4.184	0.509
1096.001	633.933	79.993	19.995	103.040	20.012	4.245	0.503
1096.501	634.188	79.991	19.994	103.039	20.014	4.097	0.540
1097.001	634.415	79.992	19.996	103.044	20.014	4.166	0.522
1097.501	634.662	79.992	19.996	103.041	20.015	4.087	0.478
1098.000	634.960	79.992	19.996	103.040	20.014	4.103	0.509
1098.500	635.183	79.991	19.994	103.039	20.016	4.018	0.533
1099.000	635.470	79.992	19.995	103.035	20.016	3.990	0.516
1099.501	635.720	79.992	19.996	103.034	20.018	3.839	0.524
1100.001	635.938	79.991	19.995	103.036	20.018	3.865	0.502
1100.500	636.216	79.993	19.996	103.034	20.019	3.776	0.481
1101.001	636.440	79.992	19.995	103.036	20.018	3.825	0.499
1101.501	636.671	79.991	19.995	103.042	20.019	3.782	0.479
1102.000	636.964	79.991	19.995	103.045	20.019	3.796	0.490
1102.500	637.209	79.991	19.997	103.048	20.018	3.806	0.531
1103.000	637.506	79.992	19.995	103.051	20.018	3.845	0.540
1103.500	637.714	79.992	19.995	103.050	20.021	3.655	0.524
1104.000	637.962	79.993	19.995	103.048	20.019	3.738	0.481
1104.500	638.194	79.992	19.996	103.046	20.022	3.560	0.468
1105.000	638.470	79.992	19.995	103.045	20.019	3.788	0.494
1105.500	638.699	79.993	19.997	103.043	20.020	3.665	0.507
1106.001	638.937	79.993	19.995	103.042	20.020	3.705	0.485
1106.501	639.223	79.993	19.996	103.043	20.020	3.726	0.496
1107.001	639.476	79.994	19.995	103.044	20.020	3.703	0.532
1107.501	639.729	79.994	19.995	103.042	20.019	3.800	0.523
1108.001	639.983	79.994	19.996	103.044	20.021	3.596	0.506
1108.501	640.219	79.995	19.995	103.046	20.023	3.461	0.498
1109.000	640.466	79.994	19.996	103.046	20.020	3.709	0.486
1109.500	640.741	79.995	19.995	103.046	20.017	3.879	0.503
1110.000	640.990	79.994	19.995	103.047	20.020	3.713	0.523
1110.500	641.254	79.995	19.996	103.048	20.018	3.853	0.519
1111.001	641.441	79.995	19.995	103.047	20.023	3.487	0.482
1111.501	641.754	79.995	19.995	103.046	20.022	3.560	0.475
1112.000	641.991	79.994	19.995	103.043	20.023	3.494	0.525
1112.500	642.216	79.995	19.995	103.043	20.018	3.823	0.506
1113.000	642.445	79.996	19.996	103.043	20.021	3.643	0.458
1113.500	642.704	79.994	19.995	103.043	20.023	3.487	0.471
1114.000	643.000	79.993	19.996	103.043	20.024	3.409	0.521
1114.500	643.235	79.996	19.996	103.046	20.019	3.784	0.543
1115.000	643.496	79.997	19.996	103.047	20.022	3.564	0.513
1115.500	643.721	79.996	19.995	103.047	20.020	3.708	0.491
1116.000	643.946	79.996	19.996	103.046	20.022	3.532	0.468
1116.500	644.219	79.994	19.995	103.046	20.023	3.447	0.474
1117.000	644.478	79.995	19.996	103.045	20.020	3.663	0.516
1117.500	644.692	79.994	19.995	103.044	20.022	3.558	0.503
1118.000	644.963	79.996	19.994	103.043	20.022	3.538	0.479
1118.500	645.195	79.994	19.996	103.044	20.019	3.802	0.494
1119.000	645.474	79.993	19.996	103.041	20.025	3.370	0.507
1119.500	645.729	79.995	19.995	103.041	20.018	3.825	0.522
1120.000	645.958	79.993	19.997	103.042	20.019	3.796	0.509
1120.500	646.244	79.994	19.995	103.043	20.020	3.667	0.499
1121.000	646.501	79.993	19.995	103.043	20.020	3.712	0.529
1121.500	646.757	79.993	19.997	103.047	20.022	3.578	0.528
1122.000	647.016	79.993	19.997	103.048	20.019	3.774	0.514
1122.500	647.239	79.992	19.996	103.049	20.020	3.669	0.498
1123.000	647.511	79.995	19.996	103.048	20.019	3.758	0.489
1123.500	647.758	79.993	19.996	103.048	20.019	3.804	0.508
1124.000	648.002	79.995	19.995	103.048	20.019	3.756	0.505
1124.500	648.214	79.994	19.995	103.047	20.024	3.423	0.473
1125.001	648.510	79.994	19.997	103.047	20.022	3.568	0.482
1125.501	648.759	79.993	19.995	103.047	20.018	3.849	0.527
1126.000	648.995	79.993	19.996	103.047	20.023	3.465	0.515
1126.500	649.268	79.995	19.996	103.047	20.021	3.637	0.497
1127.000	649.475	79.993	19.996	103.047	20.022	3.550	0.494
1127.501	649.736	79.993	19.998	103.047	20.021	3.611	0.474
1128.001	650.011	79.994	19.996	103.047	20.017	3.940	0.502
1128.500	650.303	79.995	19.996	103.047	20.024	3.423	0.552
1129.000	650.516	79.994	19.997	103.047	20.022	3.534	0.536
1129.500	650.774	79.995	19.996	103.047	20.022	3.582	0.488
1130.000	651.063	79.994	19.995	103.047	20.022	3.588	0.509
1130.500	651.305	79.996	19.997	103.046	20.021	3.631	0.539
1131.000	651.551	79.995	19.997	103.046	20.019	3.752	0.509
1131.500	651.832	79.993	19.998	103.046	20.020	3.663	0.507
1132.000	652.020	79.996	19.995	103.046	20.024	3.403	0.498
1132.500	652.319	79.994	19.997	103.044	20.022	3.542	0.478
1133.000	652.580	79.995	19.998	103.041	20.021	3.609	0.523
1133.501	652.792	79.996	19.995	103.040	20.026	3.292	0.516
1134.001	653.047	79.996	19.994	103.040	20.022	3.570	0.470
1134.500	653.338	79.995	19.997	103.039	20.021	3.645	0.506
1135.000	653.560	79.995	19.996	103.039	20.022	3.558	0.530
1135.501	653.824	79.996	19.997	103.042	20.020	3.732	0.499
1136.001	654.084	79.995	19.996	103.042	20.021	3.647	0.505
1136.501	654.339	79.995	19.995	103.042	20.020	3.718	0.520
1137.001	654.570	79.995	19.995	103.044	20.024	3.433	0.501
1137.501	654.866	79.996	19.997	103.046	20.017	3.914	0.506
1138.000	655.081	79.997	19.995	103.047	20.019	3.764	0.519
1138.500	655.349	79.997	19.997	103.047	20.024	3.435	0.497
1139.000	655.616	79.996	19.996	103.047	20.023	3.478	0.509
1139.500	655.858	79.995	19.996	103.048	20.022	3.579	0.522
1140.000	656.092	79.994	19.997	103.048	20.022	3.575	0.492
1140.500	656.358	79.994	19.996	103.048	20.025	3.351	0.488
1141.000	656.618	79.995	19.995	103.048	20.024	3.430	0.513
1141.500	656.897	79.994	19.996	103.049	20.023	3.476	0.532
1142.000	657.122	79.994	19.995	103.050	20.020	3.688	0.521
1142.500	657.371	79.994	19.996	103.050	20.021	3.613	0.489
1143.000	657.645	79.993	19.995	103.050	20.021	3.613	0.499
1143.501	657.871	79.994	19.995	103.049	20.019	3.803	0.511
1144.001	658.151	79.994	19.995	103.048	20.025	3.361	0.503
1144.500	658.377	79.992	19.996	103.049	20.021	3.659	0.506
1145.000	658.631	79.993	19.994	103.049	20.023	3.504	0.493
1145.500	658.930	79.994	19.995	103.050	20.020	3.674	0.517
1146.000	659.095	79.995	19.995	103.051	20.021	3.661	0.508
1146.500	659.382	79.993	19.995	103.051	20.020	3.684	0.458
1147.000	659.708	79.993	19.998	103.052	20.018	3.817	0.533
1147.500	659.915	79.993	19.996	103.052	20.017	3.888	0.573
1148.001	660.172	79.992	19.997	103.052	20.020	3.706	0.498
1148.501	660.433	79.993	19.997	103.052	20.021	3.650	0.491
1149.001	660.715	79.993	19.996	103.055	20.022	3.557	0.531
1149.500	660.953	79.993	19.996	103.059	20.020	3.672	0.532
1150.000	661.215	79.994	19.996	103.066	20.019	3.781	0.510
1150.501	661.462	79.993	19.997	103.073	20.020	3.733	0.504
1151.001	661.697	79.994	19.995	103.081	20.020	3.696	0.496
1151.500	661.938	79.993	19.996	103.081	20.021	3.619	0.479
1152.000	662.188	79.992	19.998	103.079	20.018	3.821	0.483
1152.500	662.457	79.994	19.996	103.074	20.019	3.736	0.505
1153.000	662.743	79.993	19.997	103.070	20.023	3.516	0.537
1153.500	662.995	79.995	19.997	103.063	20.018	3.836	0.547
1154.000	663.250	79.990	19.998	103.060	20.019	3.777	0.522
1154.500	663.527	79.991	19.998	103.059	20.023	3.499	0.519
1155.000	663.737	79.992	19.997	103.057	20.020	3.711	0.510
1155.501	664.007	79.993	19.998	103.054	20.020	3.667	0.484
1156.001	664.245	79.993	19.996	103.055	20.022	3.574	0.494
1156.501	664.527	79.991	19.996	103.056	20.018	3.834	0.514
1157.001	664.764	79.994	19.997	103.055	20.018	3.855	0.520
1157.500	664.976	79.993	19.996	103.060	20.020	3.707	0.484
1158.000	665.238	79.993	19.997	103.066	20.017	3.919	0.461
1158.500	665.531	79.991	19.998	103.070	20.017	3.899	0.514
1159.001	665.764	79.993	19.997	103.071	20.021	3.632	0.540
1159.501	666.050	79.992	19.996	103.074	20.020	3.699	0.523
1160.000	666.244	79.994	19.997	103.077	20.019	3.778	0.500
1160.500	666.529	79.993	19.995	103.077	20.019	3.739	0.480
1161.000	666.784	79.991	19.996	103.076	20.018	3.822	0.509
1161.500	666.990	79.993	19.997	103.077	20.019	3.764	0.500
1162.000	667.296	79.991	19.997	103.075	20.015	4.026	0.486
1162.500	667.583	79.992	19.996	103.070	20.015	4.071	0.553
1163.000	667.793	79.991	19.998	103.066	20.015	4.040	0.546
1163.500	668.048	79.992	19.997	103.065	20.016	3.998	0.481
1164.001	668.261	79.992	19.996	103.070	20.014	4.105	0.466
1164.501	668.541	79.991	19.997	103.075	20.014	4.155	0.480
1165.000	668.796	79.992	19.997	103.081	20.016	3.978	0.514
1165.501	669.067	79.992	19.997	103.085	20.011	4.339	0.531
1166.001	669.308	79.994	19.996	103.088	20.016	4.012	0.519
1166.500	669.609	79.994	19.996	103.089	20.012	4.264	0.527
1167.000	669.839	79.994	19.996	103.089	20.014	4.141	0.537
1167.500	670.062	79.992	19.995	103.089	20.013	4.180	0.491
1168.000	670.341	79.993	19.995	103.090	20.015	4.051	0.477
1168.500	670.599	79.994	19.997	103.089	20.013	4.176	0.520
1169.000	670.834	79.994	19.995	103.088	20.015	4.033	0.515
1169.500	671.083	79.994	19.996	103.088	20.011	4.374	0.488
1170.000	671.352	79.993	19.995	103.087	20.013	4.224	0.501
1170.500	671.620	79.992	19.996	103.085	20.013	4.214	0.528
1171.001	671.858	79.995	19.996	103.085	20.016	3.964	0.522
1171.501	672.097	79.993	19.995	103.087	20.014	4.148	0.492
1172.001	672.405	79.994	19.996	103.086	20.015	4.081	0.511
1172.500	672.607	79.993	19.995	103.086	20.013	4.225	0.529
1173.000	672.861	79.991	19.997	103.086	20.012	4.282	0.484
1173.500	673.151	79.993	19.996	103.086	20.011	4.336	0.500
1174.000	673.367	79.993	19.995	103.085	20.011	4.320	0.525
1174.500	673.643	79.993	19.999	103.085	20.012	4.259	0.499
1175.000	673.939	79.992	19.996	103.085	20.009	4.498	0.532
1175.500	674.169	79.994	19.996	103.086	20.011	4.358	0.549
1176.000	674.427	79.992	19.996	103.086	20.013	4.231	0.507
1176.500	674.660	79.992	19.993	103.086	20.011	4.364	0.489
1177.000	674.926	79.992	19.996	103.087	20.011	4.354	0.495
1177.500	675.143	79.993	19.994	103.086	20.011	4.316	0.491
1178.000	675.448	79.993	19.995	103.085	20.010	4.394	0.502
1178.500	675.679	79.993	19.997	103.088	20.010	4.453	0.529
1179.000	675.973	79.993	19.996	103.092	20.012	4.275	0.531
1179.500	676.185	79.992	19.995	103.094	20.010	4.424	0.515
1180.000	676.467	79.993	19.996	103.095	20.013	4.184	0.500
1180.500	676.719	79.994	19.996	103.097	20.010	4.429	0.514
1181.000	676.938	79.993	19.996	103.095	20.010	4.419	0.503
1181.500	677.224	79.994	19.996	103.093	20.011	4.324	0.488
1182.000	677.476	79.992	19.996	103.098	20.012	4.298	0.521
1182.500	677.717	79.994	19.996	103.102	20.012	4.250	0.515
1183.000	677.964	79.994	19.996	103.103	20.011	4.332	0.490
1183.500	678.206	79.993	19.997	103.108	20.011	4.364	0.489
1184.000	678.478	79.994	19.996	103.112	20.010	4.386	0.502
1184.500	678.718	79.993	19.996	103.111	20.011	4.348	0.513
1185.000	678.960	79.995	19.994	103.109	20.010	4.416	0.497
1185.500	679.239	79.995	19.997	103.107	20.010	4.447	0.501
1186.001	679.437	79.993	19.996	103.102	20.011	4.326	0.499
1186.501	679.722	79.995	19.998	103.100	20.014	4.104	0.480
1187.001	679.979	79.992	19.999	103.100	20.011	4.332	0.512
1187.500	680.213	79.992	19.997	103.100	20.012	4.255	0.516
1188.000	680.455	79.995	19.997	103.102	20.013	4.174	0.484
1188.500	680.725	79.994	19.996	103.104	20.010	4.441	0.495
1189.000	680.981	79.993	19.996	103.103	20.011	4.355	0.519
1189.500	681.247	79.996	19.995	103.098	20.008	4.543	0.523
1190.000	681.485	79.994	19.995	103.096	20.011	4.322	0.513
1190.500	681.714	79.995	19.996	103.094	20.009	4.510	0.486
1191.001	681.966	79.994	19.996	103.095	20.008	4.573	0.474
1191.501	682.251	79.995	19.996	103.101	20.012	4.258	0.509
1192.000	682.463	79.995	19.995	103.107	20.012	4.284	0.517
1192.500	682.726	79.995	19.996	103.111	20.008	4.575	0.486
1193.000	683.003	79.994	19.997	103.115	20.010	4.458	0.507
1193.500	683.200	79.994	19.997	103.115	20.004	4.856	0.507
1194.000	683.492	79.995	19.997	103.107	20.009	4.513	0.481
1194.500	683.737	79.995	19.996	103.100	20.005	4.751	0.513
1195.000	683.982	79.996	19.994	103.096	20.007	4.640	0.514
1195.500	684.211	79.993	19.995	103.092	20.006	4.691	0.482
1196.000	684.485	79.995	19.995	103.092	20.005	4.749	0.488
1196.500	684.724	79.994	19.997	103.100	20.005	4.771	0.508
1197.000	684.984	79.993	19.997	103.104	20.008	4.561	0.506
1197.500	685.227	79.994	19.996	103.105	20.012	4.311	0.501
1198.000	685.486	79.994	19.995	103.110	20.006	4.737	0.502
1198.500	685.717	79.995	19.996	103.110	20.006	4.731	0.496
1199.000	685.985	79.993	19.995	103.107	20.006	4.737	0.495
1199.501	686.360	79.993	19.995	103.108	20.007	4.638	0.572
1200.001	686.575	79.993	19.995	103.114	20.004	4.852	0.616
1200.500	686.979	79.993	19.995	103.115	20.003	4.944	0.604
1201.000	687.060	79.996	19.995	103.119	20.003	4.923	0.552
1201.501	687.259	79.994	19.996	103.121	20.006	4.746	0.383
1202.001	687.523	79.994	19.995	103.124	20.003	4.905	0.371
1202.500	687.796	79.993	19.995	103.125	20.003	4.940	0.500
1203.000	688.031	79.995	19.995	103.125	20.004	4.839	0.522
1203.500	688.295	79.994	19.995	103.126	20.003	4.948	0.503
1204.001	688.501	79.994	19.994	103.127	20.003	4.893	0.484
1204.501	688.791	79.994	19.996	103.127	20.005	4.802	0.483
1205.000	688.987	79.993	19.995	103.127	19.999	5.184	0.491
1205.500	689.277	79.994	19.996	103.127	20.016	3.994	0.486
1206.000	689.466	79.994	19.995	103.126	19.992	5.696	0.482
1206.500	689.777	79.994	19.996	103.126	20.004	4.847	0.490
1207.000	690.037	79.994	19.995	103.126	20.001	5.100	0.536
1207.500	690.267	79.994	19.995	103.126	20.001	5.090	0.531
1208.000	690.514	79.993	19.997	103.127	20.001	5.092	0.484
1208.500	690.764	79.993	19.995	103.128	20.001	5.092	0.487
1209.000	691.046	79.995	19.994	103.129	20.005	4.789	0.514
1209.500	691.285	79.992	19.995	103.129	20.004	4.890	0.526
1210.000	691.559	79.994	19.995	103.129	19.998	5.270	0.517
1210.500	691.773	79.993	19.995	103.130	19.999	5.238	0.501
1211.000	692.033	79.994	19.994	103.131	20.000	5.159	0.481
1211.500	692.331	79.995	19.996	103.134	20.001	5.074	0.516
1212.000	692.529	79.995	19.995	103.136	20.002	5.025	0.526
1212.500	692.810	79.995	19.996	103.138	20.004	4.831	0.488
1213.000	693.034	79.994	19.996	103.140	20.002	4.981	0.492
1213.500	693.292	79.994	19.997	103.143	20.000	5.164	0.493
1214.000	693.530	79.992	19.999	103.146	20.002	5.017	0.489
1214.500	693.820	79.995	19.995	103.145	19.998	5.260	0.512
1215.000	694.076	79.994	19.996	103.143	19.997	5.327	0.537
1215.500	694.326	79.996	19.994	103.143	20.004	4.860	0.526
1216.000	694.595	79.996	19.995	103.140	20.006	4.700	0.513
1216.500	694.807	79.994	19.995	103.137	20.004	4.886	0.500
1217.000	695.056	79.995	19.995	103.142	19.999	5.228	0.471
1217.500	695.375	79.996	19.995	103.145	19.999	5.202	0.514
1218.000	695.535	79.996	19.998	103.150	20.002	4.967	0.523
1218.501	695.869	79.995	19.996	103.153	20.003	4.953	0.486
1219.001	695.880	79.995	19.996	103.152	20.005	4.806	0.420
1219.500	697.089	79.995	19.995	103.154	20.002	5.018	0.783
1220.000	696.600	79.994	19.991	103.155	20.000	5.161	0.970
1220.500	696.983	79.996	19.994	103.155	20.001	5.091	0.306
1221.000	697.064	79.995	19.995	103.159	19.999	5.248	0.179
1221.500	697.293	79.993	19.995	103.162	20.000	5.121	0.388
1222.000	697.494	79.993	19.996	103.163	19.998	5.311	0.370
1222.500	697.915	79.993	19.996	103.161	19.996	5.412	0.526
1223.001	698.112	79.993	19.995	103.154	20.002	5.030	0.620
1223.501	698.362	79.994	19.997	103.149	20.000	5.113	0.532
1224.000	698.572	79.990	19.995	103.149	20.002	5.008	0.454
1224.500	698.847	79.992	19.996	103.147	20.001	5.056	0.473
1225.000	699.081	79.992	19.995	103.149	20.000	5.131	0.497
1225.501	699.332	79.993	19.994	103.156	20.005	4.771	0.497
1226.001	699.624	79.994	19.993	103.161	20.002	5.024	0.514
1226.501	699.878	79.993	19.995	103.163	20.000	5.175	0.544
1227.001	700.115	79.993	19.993	103.166	19.999	5.234	0.519
1227.500	700.385	79.993	19.996	103.166	19.995	5.473	0.499
1228.000	700.594	79.990	19.998	103.167	19.999	5.188	0.493
1228.500	700.870	79.992	19.997	103.168	19.999	5.190	0.482
1229.000	701.106	79.992	19.996	103.166	20.001	5.087	0.499
1229.500	701.404	79.992	19.996	103.166	19.994	5.586	0.523
1230.000	701.587	79.993	19.998	103.167	19.996	5.457	0.508
1230.500	701.899	79.993	19.994	103.167	20.003	4.921	0.488
1231.000	702.106	79.994	19.995	103.167	20.000	5.145	0.507
1231.500	702.357	79.993	19.995	103.168	19.997	5.372	0.488
1232.000	702.638	79.992	19.997	103.168	19.999	5.228	0.495
1232.500	702.861	79.993	19.995	103.168	19.994	5.572	0.518
1233.000	703.142	79.992	19.997	103.168	19.994	5.558	0.504
1233.500	703.346	79.993	19.996	103.167	19.993	5.635	0.494
1234.000	703.616	79.993	19.999	103.167	19.997	5.362	0.479
1234.500	703.803	79.996	19.997	103.167	19.997	5.392	0.466
1235.000	704.034	79.995	19.996	103.166	19.996	5.445	0.438
1235.500	704.347	79.994	19.997	103.165	19.996	5.457	0.481
1236.000	704.563	79.993	19.994	103.166	19.994	5.604	0.537
1236.500	704.844	79.998	19.994	103.165	19.996	5.433	0.513
1237.000	705.107	79.994	19.997	103.165	19.997	5.348	0.520
1237.500	705.303	79.994	19.997	103.165	19.997	5.377	0.501
1238.000	705.587	79.993	19.997	103.166	19.997	5.356	0.470
1238.500	705.785	79.995	19.995	103.166	19.994	5.601	0.481
1239.000	706.088	79.998	19.996	103.168	19.998	5.298	0.491
1239.500	706.289	79.995	19.997	103.171	19.997	5.330	0.503
1240.000	706.526	79.995	19.997	103.172	19.996	5.433	0.471
1240.501	706.784	79.993	19.995	103.172	19.993	5.657	0.466
1241.001	707.041	79.993	19.997	103.171	19.995	5.494	0.505
1241.500	707.282	79.992	19.997	103.171	19.992	5.712	0.506
1242.000	707.528	79.993	19.997	103.167	19.994	5.607	0.492
1242.500	707.774	79.993	19.999	103.167	19.994	5.546	0.490
1243.001	708.004	79.996	19.995	103.167	19.998	5.309	0.485
1243.501	708.252	79.991	19.996	103.168	19.995	5.488	0.477
1244.000	708.505	79.993	19.994	103.170	19.994	5.587	0.489
1244.500	708.781	79.992	19.999	103.173	19.997	5.348	0.515
1245.000	709.018	79.994	19.997	103.171	19.996	5.417	0.521
1245.500	709.253	79.989	20.003	103.171	19.995	5.526	0.493
1246.001	709.494	79.997	19.996	103.169	19.991	5.809	0.474
1246.501	709.735	79.992	19.995	103.167	19.991	5.807	0.479
1247.001	709.967	79.994	19.994	103.168	19.990	5.835	0.477
1247.500	710.239	79.992	19.997	103.173	19.992	5.759	0.488
1248.000	710.491	79.992	19.998	103.178	19.992	5.733	0.514
1248.501	710.744	79.993	19.998	103.186	19.988	6.036	0.515
1249.001	710.981	79.993	19.996	103.185	19.988	6.020	0.498
1249.500	711.242	79.993	19.995	103.184	19.988	5.992	0.494
1250.000	711.484	79.994	19.995	103.179	19.987	6.097	0.500
1250.500	711.727	79.994	19.996	103.176	19.991	5.787	0.494
1251.000	711.983	79.994	19.997	103.173	19.986	6.171	0.492
1251.500	712.231	79.994	19.997	103.178	19.990	5.886	0.501
1252.000	712.451	79.990	20.002	103.180	19.991	5.780	0.486
1252.500	712.712	79.994	19.999	103.183	19.988	6.001	0.474
1253.000	712.964	79.993	19.997	103.182	19.988	6.005	0.497
1253.501	713.177	79.995	19.997	103.180	19.986	6.122	0.489
1254.001	713.455	79.993	19.994	103.176	19.988	6.035	0.478
1254.500	713.716	79.988	20.001	103.178	19.989	5.945	0.515
1255.000	713.939	79.992	19.996	103.180	19.988	6.000	0.512
1255.501	714.214	79.990	19.995	103.181	19.989	5.923	0.491
1256.001	714.462	79.992	19.995	103.184	19.989	5.923	0.511
1256.500	714.703	79.992	19.996	103.186	19.992	5.731	0.506
1257.000	714.938	79.990	20.003	103.180	19.990	5.888	0.482
1257.500	715.254	79.992	19.994	103.176	19.991	5.816	0.513
1258.000	715.533	79.993	19.995	103.180	19.988	5.980	0.573
1258.500	715.740	79.992	19.998	103.180	19.988	5.998	0.541
1259.000	715.998	79.992	19.996	103.184	19.983	6.378	0.475
1259.500	716.250	79.992	19.997	103.190	19.991	5.797	0.487
1260.000	716.484	79.994	19.996	103.197	19.988	6.018	0.498
1260.500	716.713	79.993	19.996	103.198	19.989	5.963	0.474
1261.000	717.016	79.994	19.995	103.196	19.987	6.064	0.497
1261.500	717.227	79.991	19.999	103.190	19.987	6.074	0.523
1262.000	717.467	79.995	19.996	103.183	19.987	6.058	0.483
1262.500	717.729	79.993	19.996	103.178	19.990	5.886	0.477
1263.000	717.946	79.993	19.996	103.172	19.988	6.028	0.491
1263.500	718.226	79.992	19.995	103.172	19.989	5.920	0.488
1264.000	718.459	79.991	19.998	103.173	19.991	5.807	0.505
1264.500	718.699	79.995	19.995	103.175	19.989	5.959	0.494
1265.000	718.942	79.995	19.993	103.178	19.987	6.090	0.478
1265.500	719.235	79.992	20.000	103.186	19.985	6.219	0.509
1266.000	719.465	79.994	19.997	103.186	19.989	5.924	0.529
1266.501	719.737	79.994	19.995	103.188	19.989	5.950	0.513
1267.001	719.976	79.989	20.000	103.190	19.987	6.107	0.506
1267.500	720.220	79.995	19.994	103.188	19.989	5.907	0.496
1268.000	720.463	79.997	19.994	103.188	19.989	5.946	0.485
1268.500	720.719	79.994	19.997	103.191	19.992	5.707	0.494
1269.000	720.974	79.996	19.989	103.194	19.986	6.148	0.505
1269.500	721.225	79.997	19.989	103.196	19.990	5.901	0.508
1270.000	721.444	79.991	19.998	103.197	19.986	6.154	0.488
1270.500	721.753	80.000	19.990	103.189	19.987	6.083	0.500
1271.000	721.995	79.992	19.994	103.185	19.981	6.481	0.540
1271.500	722.267	79.992	19.999	103.182	19.988	6.002	0.532
1272.000	722.478	79.998	19.991	103.181	19.988	5.994	0.498
1272.500	722.702	79.993	19.999	103.179	19.987	6.052	0.459
1273.000	722.991	79.996	19.991	103.178	19.985	6.198	0.474
1273.500	723.256	79.993	19.997	103.178	19.984	6.284	0.534
1274.000	723.477	79.992	19.998	103.181	19.985	6.219	0.520
1274.501	723.707	79.994	19.995	103.181	19.990	5.872	0.469
1275.001	723.963	79.993	19.991	103.180	19.988	6.043	0.469
1275.500	724.268	79.997	19.990	103.181	19.984	6.263	0.523
1276.000	724.455	79.991	20.003	103.179	19.987	6.105	0.526
1276.500	724.723	79.993	19.997	103.171	19.985	6.257	0.474
1277.000	724.982	79.994	19.995	103.166	19.985	6.241	0.491
1277.500	725.243	79.986	20.005	103.166	19.986	6.132	0.524
1278.000	725.490	79.990	20.002	103.163	19.987	6.114	0.514
1278.500	725.741	79.995	19.994	103.161	19.985	6.241	0.503
1279.000	725.969	79.993	19.995	103.164	19.991	5.827	0.489
1279.500	726.255	79.995	19.996	103.164	19.992	5.719	0.497
1280.000	726.513	79.996	19.996	103.164	19.991	5.822	0.529
1280.500	726.754	79.994	19.995	103.167	19.989	5.967	0.521
1281.000	726.979	79.990	20.002	103.168	19.989	5.956	0.483
1281.500	727.239	79.994	19.998	103.166	19.991	5.806	0.475
1282.000	727.499	79.995	19.997	103.165	19.987	6.113	0.502
1282.500	727.754	79.993	20.000	103.163	19.990	5.877	0.517
1283.000	728.025	79.993	19.995	103.159	19.991	5.774	0.520
1283.500	728.268	79.996	19.995	103.158	19.994	5.600	0.520
1284.000	728.516	79.994	19.992	103.156	19.988	5.982	0.503
1284.500	728.766	79.993	19.997	103.150	19.992	5.723	0.494
1285.000	728.984	79.998	19.991	103.144	19.996	5.415	0.483
1285.501	729.259	79.994	19.997	103.141	19.997	5.391	0.481
1286.001	729.543	79.997	19.991	103.135	19.992	5.742	0.526
1286.500	729.757	79.994	19.995	103.132	19.996	5.463	0.528
1287.000	730.018	79.998	19.987	103.131	19.997	5.390	0.487
1287.500	730.283	79.995	19.994	103.134	19.998	5.281	0.500
1288.000	730.535	79.995	19.991	103.132	19.997	5.378	0.522
1288.501	730.766	79.994	19.993	103.134	19.996	5.436	0.500
1289.001	731.014	79.995	19.994	103.133	19.996	5.404	0.481
1289.500	731.247	79.995	20.000	103.134	19.996	5.402	0.479
1290.000	731.541	79.993	19.992	103.131	19.999	5.190	0.504
1290.500	731.782	79.996	19.995	103.125	20.001	5.073	0.531
1291.000	732.028	79.986	20.002	103.116	20.003	4.889	0.511
1291.500	732.241	79.994	19.992	103.106	20.004	4.858	0.473
1292.001	732.534	79.990	19.996	103.098	20.002	5.021	0.483
1292.501	732.783	80.000	19.993	103.090	20.005	4.793	0.524
1293.000	733.037	79.995	19.996	103.089	20.001	5.051	0.522
1293.500	733.320	79.989	19.999	103.090	20.005	4.752	0.520
1294.000	733.540	79.994	19.996	103.090	20.006	4.742	0.520
1294.500	733.845	79.995	19.992	103.087	20.003	4.932	0.514
1295.000	734.050	79.995	19.996	103.085	20.006	4.708	0.518
1295.500	734.309	80.000	19.992	103.079	20.006	4.694	0.487
1296.000	734.579	80.002	19.989	103.073	20.007	4.660	0.497
1296.500	734.813	79.997	19.998	103.070	20.008	4.532	0.516
1297.000	735.063	79.997	19.997	103.065	20.013	4.187	0.494
1297.500	735.343	79.995	19.998	103.061	20.008	4.533	0.507
1298.000	735.580	80.000	19.987	103.057	20.012	4.288	0.523
1298.500	735.854	79.990	19.999	103.055	20.013	4.220	0.514
1299.001	736.141	79.998	19.996	103.050	20.009	4.494	0.536
1299.501	736.344	79.997	19.997	103.051	20.014	4.100	0.526
1300.000	736.609	79.994	19.998	103.049	20.016	4.013	0.479
1300.501	736.904	79.992	20.000	103.048	20.015	4.058	0.514
1301.001	737.145	79.996	19.996	103.046	20.019	3.739	0.548
1301.500	737.426	79.998	19.997	103.047	20.022	3.561	0.529
1302.000	737.665	80.000	19.994	103.044	20.015	4.056	0.522
1302.500	737.932	79.986	19.999	103.039	20.014	4.110	0.513
1303.000	738.167	79.993	20.000	103.030	20.020	3.721	0.503
1303.500	738.461	79.995	19.993	103.027	20.018	3.862	0.515
1304.000	738.751	79.992	20.000	103.025	20.020	3.710	0.557
1304.500	738.994	79.992	19.999	103.022	20.014	4.128	0.559
1305.000	739.271	79.995	19.999	103.021	20.018	3.811	0.526
1305.500	739.530	79.995	19.996	103.023	20.017	3.910	0.528
1306.000	739.791	79.996	19.990	103.021	20.021	3.626	0.528
1306.500	740.063	79.993	19.999	103.020	20.018	3.842	0.526
1307.000	740.313	79.991	19.996	103.021	20.014	4.098	0.527
1307.501	740.557	79.993	19.997	103.023	20.019	3.789	0.508
1308.001	740.848	79.993	19.992	103.029	20.019	3.769	0.515
1308.501	741.124	79.991	19.999	103.035	20.017	3.880	0.551
1309.001	741.380	79.989	19.999	103.031	20.023	3.462	0.550
1309.501	741.683	79.995	19.994	103.031	20.018	3.811	0.545
1310.001	741.937	79.995	19.994	103.028	20.024	3.419	0.558
1310.500	742.198	79.995	19.991	103.023	20.021	3.609	0.536
1311.000	742.461	79.995	19.997	103.016	20.017	3.948	0.519
1311.500	742.727	79.990	19.994	103.015	20.017	3.906	0.526
1312.000	743.001	79.990	19.994	103.018	20.019	3.789	0.535
1312.500	743.223	79.988	20.007	103.021	20.018	3.874	0.518
