Sample ID:	C:\MCC\MCC Cal\Test\PE_batting_82B_MCC_30K_min_220309_R3.txt
Sample Weight (mg):	4.1
Heating Rate (C/s):	0.5
Combustor Temp (C):	900
N2 Flow Rate (cc/min):	80
O2 Flow Rate (cc/min):	20
Calibration File:	C:\MCC\MCC Cal\Coeff1 JN10440_30_210304.txt.txt
T Correction Coefficients:	0	1.024463	0
Time Shift (s):	14
*
Time (s)	Temperature (C)	N2 flow rate (cc/min)	O2 flow rate (cc/min)	Flow Rate (cc/min)	Oxygen (%)	HRR (W/g)	Heating rate (C/s)
0.000	106.988	80.007	19.993	103.710	19.985	0.281	0.007
0.500	107.016	80.006	19.993	103.706	19.983	0.446	0.027
1.000	107.031	80.006	19.994	103.705	19.985	0.261	0.045
1.500	106.997	80.007	19.994	103.701	19.985	0.244	0.012
2.000	106.982	80.007	19.994	103.699	19.983	0.431	-0.033
2.500	106.956	80.008	19.995	103.700	19.986	0.165	-0.045
3.000	107.000	80.006	19.994	103.702	19.982	0.455	-0.012
3.500	107.002	80.007	19.993	103.702	19.986	0.154	0.032
4.000	106.954	80.006	19.993	103.707	19.983	0.396	0.000
4.500	106.989	80.007	19.993	103.710	19.982	0.522	-0.030
5.000	106.982	80.008	19.994	103.710	19.983	0.444	0.008
5.500	106.956	80.008	19.994	103.711	19.984	0.303	-0.002
6.000	106.960	80.008	19.994	103.709	19.984	0.316	-0.028
6.500	106.990	80.007	19.993	103.709	19.984	0.335	0.006
7.000	106.973	80.007	19.994	103.709	19.984	0.296	0.024
7.501	107.008	80.007	19.993	103.709	19.985	0.270	0.015
8.002	106.996	80.008	19.994	103.708	19.985	0.253	0.020
8.501	107.020	80.008	19.994	103.710	19.984	0.324	0.018
9.000	107.001	80.008	19.993	103.709	19.984	0.322	0.009
9.500	107.010	80.007	19.993	103.709	19.985	0.279	-0.003
10.000	106.977	80.007	19.993	103.706	19.981	0.555	-0.017
10.500	106.975	80.009	19.993	103.707	19.987	0.078	-0.030
11.000	106.956	80.008	19.993	103.707	19.985	0.276	-0.028
11.501	106.978	80.009	19.993	103.707	19.984	0.335	-0.009
12.001	106.991	80.008	19.993	103.701	19.983	0.374	0.019
12.501	106.995	80.009	19.993	103.700	19.982	0.455	0.027
13.000	106.949	80.007	19.993	103.698	19.985	0.242	-0.012
13.500	106.960	80.010	19.994	103.698	19.982	0.499	-0.039
14.000	106.981	80.010	19.993	103.703	19.982	0.514	-0.002
14.501	106.990	80.009	19.993	103.713	19.982	0.475	0.031
15.001	106.971	80.009	19.993	103.721	19.983	0.438	0.010
15.501	106.995	80.009	19.994	103.731	19.980	0.666	-0.002
16.000	106.970	80.009	19.993	103.738	19.978	0.806	0.003
16.500	106.989	80.010	19.993	103.741	19.976	0.967	-0.003
17.000	106.999	80.007	19.993	103.743	19.976	0.941	0.011
17.500	106.987	80.009	19.993	103.746	19.979	0.712	0.013
18.000	106.996	80.009	19.993	103.745	19.979	0.747	-0.003
18.500	107.018	80.009	19.993	103.745	19.977	0.913	0.014
19.000	107.007	80.009	19.993	103.747	19.978	0.799	0.021
19.500	106.972	80.007	19.992	103.749	19.975	1.069	-0.017
20.000	107.007	80.008	19.993	103.750	19.974	1.089	-0.023
20.500	107.015	80.009	19.993	103.751	19.974	1.124	0.021
21.001	107.000	80.009	19.994	103.754	19.976	0.998	0.018
21.500	107.078	80.007	19.993	103.758	19.974	1.111	0.028
22.000	107.070	80.007	19.994	103.765	19.973	1.240	0.066
22.500	107.052	80.008	19.992	103.772	19.971	1.327	0.022
23.000	107.052	80.010	19.992	103.773	19.973	1.238	-0.022
23.500	107.082	80.009	19.993	103.774	19.972	1.266	0.006
24.000	107.091	80.008	19.992	103.778	19.971	1.345	0.035
24.500	107.113	80.009	19.993	103.778	19.972	1.319	0.035
25.000	107.119	80.008	19.993	103.780	19.972	1.255	0.029
25.500	107.158	80.009	19.993	103.788	19.970	1.434	0.036
26.000	107.171	80.008	19.994	103.796	19.972	1.306	0.048
26.500	107.190	80.009	19.992	103.800	19.969	1.517	0.042
27.000	107.226	80.007	19.993	103.806	19.968	1.631	0.044
27.500	107.230	80.007	19.993	103.813	19.967	1.698	0.048
28.000	107.276	80.009	19.992	103.818	19.967	1.663	0.046
28.500	107.323	80.009	19.993	103.816	19.962	2.038	0.072
29.000	107.337	80.008	19.992	103.812	19.964	1.938	0.077
29.500	107.379	80.008	19.994	103.812	19.966	1.781	0.058
30.000	107.390	80.009	19.992	103.813	19.964	1.910	0.054
30.500	107.385	80.008	19.994	103.814	19.962	2.064	0.029
31.000	107.456	80.010	19.993	103.819	19.963	2.021	0.036
31.500	107.485	80.009	19.994	103.829	19.960	2.195	0.083
32.000	107.527	80.009	19.992	103.836	19.963	2.012	0.085
32.500	107.539	80.009	19.993	103.843	19.959	2.304	0.063
33.000	107.582	80.008	19.993	103.850	19.960	2.254	0.054
33.500	107.634	80.009	19.992	103.857	19.960	2.248	0.075
34.000	107.661	80.009	19.993	103.863	19.957	2.450	0.087
34.500	107.735	80.009	19.994	103.867	19.958	2.427	0.090
35.000	107.759	80.008	19.993	103.872	19.954	2.684	0.099
35.500	107.806	80.007	19.991	103.879	19.958	2.379	0.084
36.000	107.824	80.010	19.993	103.884	19.952	2.900	0.068
36.500	107.909	80.008	19.994	103.892	19.953	2.811	0.084
37.000	107.970	80.009	19.994	103.899	19.954	2.678	0.125
37.500	108.022	80.008	19.994	103.903	19.952	2.894	0.130
38.000	108.104	80.008	19.993	103.905	19.955	2.602	0.124
38.501	108.157	80.010	19.994	103.909	19.956	2.549	0.134
39.001	108.206	80.009	19.994	103.909	19.952	2.881	0.118
39.500	108.283	80.010	19.993	103.909	19.952	2.863	0.114
40.000	108.343	80.008	19.994	103.906	19.949	3.097	0.131
40.500	108.412	80.008	19.993	103.905	19.951	2.916	0.133
41.000	108.469	80.009	19.993	103.905	19.949	3.112	0.128
41.501	108.533	80.008	19.993	103.904	19.951	2.959	0.124
42.001	108.600	80.008	19.994	103.904	19.949	3.095	0.126
42.500	108.695	80.007	19.993	103.905	19.948	3.171	0.147
43.000	108.745	80.008	19.994	103.905	19.948	3.145	0.154
43.500	108.825	80.009	19.994	103.905	19.946	3.343	0.137
44.000	108.910	80.008	19.993	103.905	19.951	2.955	0.147
44.500	109.007	80.007	19.993	103.906	19.949	3.134	0.174
45.000	109.083	80.008	19.994	103.907	19.946	3.325	0.178
45.500	109.189	80.007	19.993	103.911	19.944	3.506	0.178
46.000	109.272	80.007	19.993	103.918	19.949	3.129	0.185
46.500	109.371	80.007	19.994	103.925	19.942	3.643	0.185
47.000	109.488	80.007	19.993	103.932	19.941	3.748	0.199
47.500	109.567	80.006	19.994	103.938	19.945	3.382	0.206
48.000	109.644	80.007	19.994	103.941	19.941	3.738	0.176
48.500	109.732	80.007	19.994	103.937	19.942	3.659	0.161
49.000	109.827	80.006	19.993	103.934	19.944	3.483	0.174
49.501	109.943	80.008	19.993	103.931	19.943	3.559	0.197
50.001	110.051	80.007	19.992	103.934	19.939	3.912	0.217
50.500	110.136	80.007	19.994	103.933	19.939	3.877	0.209
51.000	110.233	80.006	19.994	103.937	19.939	3.864	0.188
51.500	110.335	80.006	19.993	103.941	19.944	3.537	0.191
52.000	110.461	80.007	19.994	103.944	19.946	3.367	0.213
52.500	110.567	80.006	19.994	103.940	19.940	3.806	0.230
53.000	110.677	80.007	19.994	103.941	19.941	3.766	0.225
53.500	110.804	80.007	19.993	103.940	19.942	3.618	0.227
54.000	110.876	80.005	19.993	103.940	19.943	3.598	0.217
54.500	110.977	80.006	19.994	103.937	19.941	3.716	0.186
55.000	111.089	80.005	19.993	103.937	19.943	3.555	0.193
55.500	111.221	80.006	19.993	103.934	19.939	3.873	0.228
56.000	111.349	80.006	19.994	103.930	19.941	3.760	0.252
56.500	111.477	80.006	19.994	103.926	19.938	3.950	0.258
57.000	111.592	80.005	19.993	103.923	19.941	3.705	0.250
57.501	111.711	80.006	19.994	103.923	19.941	3.745	0.238
58.001	111.791	80.006	19.994	103.925	19.941	3.716	0.217
58.500	111.954	80.006	19.994	103.928	19.942	3.629	0.221
59.000	112.088	80.007	19.993	103.932	19.945	3.420	0.270
59.501	112.235	80.006	19.994	103.939	19.943	3.579	0.289
60.001	112.336	80.007	19.994	103.943	19.942	3.633	0.265
60.500	112.461	80.008	19.993	103.942	19.940	3.825	0.237
61.000	112.574	80.006	19.994	103.937	19.939	3.908	0.232
61.500	112.704	80.008	19.993	103.933	19.940	3.788	0.240
62.000	112.860	80.006	19.993	103.930	19.940	3.784	0.265
62.500	112.985	80.007	19.995	103.932	19.941	3.751	0.284
63.000	113.131	80.006	19.994	103.935	19.941	3.707	0.276
63.500	113.292	80.007	19.994	103.942	19.942	3.664	0.289
64.000	113.383	80.007	19.995	103.945	19.939	3.888	0.279
64.501	113.554	80.007	19.994	103.945	19.938	3.943	0.257
65.001	113.687	80.007	19.994	103.944	19.939	3.917	0.283
65.500	113.863	80.007	19.995	103.943	19.941	3.745	0.306
66.000	114.005	80.007	19.995	103.943	19.942	3.625	0.314
66.500	114.121	80.007	19.993	103.943	19.942	3.681	0.288
67.001	114.267	80.007	19.994	103.945	19.943	3.588	0.260
67.501	114.452	80.007	19.994	103.945	19.942	3.642	0.296
68.000	114.587	80.006	19.994	103.945	19.940	3.819	0.326
68.501	114.739	80.006	19.994	103.946	19.940	3.817	0.304
69.001	114.891	80.007	19.994	103.945	19.940	3.788	0.295
69.501	115.027	80.006	19.994	103.945	19.941	3.771	0.296
70.001	115.173	80.006	19.994	103.945	19.939	3.856	0.285
70.500	115.315	80.007	19.994	103.945	19.940	3.782	0.285
71.000	115.477	80.008	19.994	103.944	19.940	3.843	0.296
71.501	115.657	80.008	19.995	103.944	19.937	4.013	0.323
72.002	115.836	80.007	19.995	103.944	19.936	4.161	0.350
72.502	115.958	80.007	19.994	103.944	19.941	3.758	0.330
73.001	116.121	80.007	19.994	103.943	19.940	3.839	0.293
73.501	116.293	80.007	19.994	103.943	19.936	4.096	0.310
74.001	116.449	80.007	19.995	103.943	19.939	3.856	0.332
74.500	116.563	80.006	19.994	103.942	19.938	3.934	0.299
75.001	116.768	80.007	19.994	103.942	19.937	4.070	0.295
75.501	116.901	80.006	19.995	103.943	19.941	3.725	0.329
76.000	117.043	80.007	19.994	103.944	19.941	3.773	0.307
76.500	117.247	80.007	19.995	103.946	19.938	3.995	0.310
77.001	117.392	80.006	19.994	103.949	19.938	3.976	0.347
77.501	117.583	80.007	19.994	103.948	19.939	3.915	0.342
78.000	117.730	80.005	19.994	103.948	19.937	4.026	0.337
78.501	117.882	80.007	19.994	103.947	19.938	3.980	0.318
79.001	118.069	80.007	19.994	103.946	19.941	3.756	0.319
79.501	118.240	80.007	19.994	103.944	19.940	3.841	0.349
80.001	118.450	80.007	19.994	103.944	19.937	4.061	0.370
80.501	118.633	80.007	19.994	103.945	19.935	4.243	0.387
81.000	118.785	80.007	19.995	103.945	19.941	3.706	0.364
81.501	118.962	80.005	19.995	103.945	19.937	4.075	0.332
82.001	119.114	80.007	19.993	103.945	19.940	3.848	0.329
82.501	119.303	80.006	19.994	103.945	19.939	3.863	0.335
83.001	119.479	80.007	19.994	103.947	19.938	3.943	0.353
83.501	119.650	80.007	19.993	103.949	19.940	3.843	0.356
84.001	119.827	80.006	19.993	103.951	19.937	4.085	0.347
84.500	120.015	80.007	19.993	103.951	19.937	4.068	0.356
85.000	120.193	80.006	19.994	103.951	19.937	4.018	0.366
85.501	120.340	80.007	19.992	103.950	19.935	4.238	0.346
86.001	120.549	80.007	19.993	103.948	19.936	4.112	0.341
86.500	120.752	80.007	19.993	103.947	19.940	3.776	0.384
87.000	120.929	80.008	19.993	103.947	19.934	4.306	0.396
87.500	121.108	80.007	19.993	103.947	19.936	4.101	0.368
88.000	121.266	80.006	19.993	103.947	19.937	4.020	0.346
88.500	121.484	80.008	19.994	103.947	19.936	4.096	0.356
89.000	121.697	80.007	19.993	103.946	19.938	4.009	0.404
89.500	121.850	80.009	19.993	103.946	19.937	4.057	0.399
90.000	122.060	80.008	19.993	103.947	19.937	4.075	0.365
90.500	122.229	80.008	19.994	103.952	19.937	4.073	0.371
91.000	122.420	80.009	19.994	103.958	19.936	4.156	0.369
91.500	122.606	80.008	19.993	103.963	19.940	3.826	0.369
92.000	122.793	80.008	19.993	103.963	19.940	3.850	0.375
92.500	122.992	80.008	19.993	103.963	19.937	4.027	0.379
93.000	123.217	80.009	19.992	103.958	19.937	4.075	0.405
93.500	123.408	80.008	19.993	103.952	19.938	3.961	0.420
94.000	123.601	80.010	19.993	103.950	19.937	4.061	0.400
94.500	123.779	80.008	19.994	103.953	19.937	4.050	0.377
95.000	123.960	80.008	19.993	103.956	19.940	3.811	0.365
95.501	124.220	80.007	19.993	103.960	19.936	4.099	0.400
96.001	124.399	80.009	19.993	103.964	19.938	3.992	0.440
96.500	124.570	80.009	19.994	103.969	19.935	4.206	0.395
97.000	124.764	80.010	19.993	103.973	19.936	4.164	0.357
97.501	124.963	80.008	19.993	103.974	19.934	4.302	0.379
98.001	125.146	80.009	19.994	103.976	19.934	4.280	0.388
98.500	125.366	80.009	19.993	103.976	19.935	4.208	0.393
99.000	125.565	80.008	19.994	103.969	19.937	4.084	0.411
99.500	125.753	80.008	19.992	103.963	19.935	4.173	0.403
100.000	125.953	80.008	19.994	103.965	19.936	4.097	0.388
100.500	126.155	80.008	19.993	103.963	19.935	4.217	0.395
101.000	126.374	80.007	19.993	103.964	19.934	4.291	0.411
101.501	126.569	80.008	19.992	103.971	19.934	4.306	0.417
102.001	126.776	80.008	19.993	103.975	19.936	4.149	0.408
102.501	127.023	80.008	19.994	103.974	19.933	4.375	0.428
103.001	127.203	80.007	19.994	103.972	19.935	4.247	0.441
103.500	127.375	80.007	19.994	103.968	19.933	4.338	0.390
104.000	127.607	80.007	19.992	103.962	19.935	4.173	0.378
104.500	127.812	80.008	19.993	103.956	19.936	4.149	0.421
105.000	128.024	80.007	19.994	103.953	19.935	4.184	0.427
105.501	128.258	80.008	19.993	103.957	19.934	4.298	0.431
106.001	128.466	80.008	19.994	103.964	19.937	4.084	0.443
106.500	128.674	80.008	19.994	103.967	19.933	4.346	0.429
107.000	128.887	80.007	19.993	103.968	19.930	4.610	0.419
107.500	129.108	80.008	19.993	103.969	19.930	4.634	0.428
108.000	129.326	80.008	19.993	103.970	19.931	4.544	0.436
108.500	129.540	80.008	19.994	103.967	19.931	4.512	0.435
109.000	129.752	80.009	19.993	103.969	19.932	4.424	0.429
109.500	129.977	80.009	19.993	103.971	19.934	4.267	0.432
110.000	130.196	80.008	19.993	103.974	19.932	4.479	0.440
110.501	130.399	80.008	19.994	103.973	19.932	4.448	0.433
111.001	130.635	80.007	19.993	103.974	19.931	4.536	0.431
111.501	130.787	80.008	19.993	103.969	19.934	4.304	0.414
112.000	131.007	80.008	19.993	103.966	19.934	4.300	0.380
112.500	131.248	80.007	19.992	103.966	19.934	4.273	0.417
113.000	131.488	80.008	19.993	103.963	19.934	4.276	0.471
113.500	131.681	80.008	19.992	103.958	19.934	4.269	0.457
114.000	131.919	80.008	19.992	103.959	19.935	4.232	0.432
114.500	132.147	80.009	19.992	103.962	19.933	4.341	0.448
115.001	132.334	80.008	19.992	103.962	19.933	4.385	0.440
115.501	132.585	80.010	19.992	103.966	19.932	4.450	0.426
116.000	132.816	80.009	19.992	103.973	19.933	4.407	0.460
116.500	133.043	80.009	19.992	103.979	19.932	4.468	0.470
117.000	133.296	80.009	19.992	103.982	19.931	4.552	0.469
117.500	133.474	80.009	19.993	103.984	19.930	4.594	0.456
118.000	133.699	80.008	19.992	103.984	19.931	4.509	0.417
118.500	133.921	80.009	19.992	103.983	19.929	4.647	0.425
119.000	134.174	80.008	19.992	103.983	19.929	4.688	0.461
119.501	134.413	80.010	19.992	103.983	19.931	4.549	0.484
120.001	134.610	80.009	19.992	103.981	19.931	4.538	0.464
120.501	134.821	80.009	19.992	103.982	19.930	4.621	0.422
121.001	135.022	80.009	19.992	103.981	19.930	4.627	0.409
121.500	135.237	80.010	19.992	103.980	19.931	4.531	0.414
122.000	135.490	80.010	19.992	103.979	19.930	4.588	0.442
122.500	135.728	80.010	19.992	103.977	19.929	4.673	0.480
123.000	135.947	80.010	19.992	103.972	19.930	4.582	0.474
123.500	136.157	80.010	19.992	103.972	19.928	4.800	0.443
124.000	136.410	80.010	19.992	103.970	19.931	4.555	0.446
124.500	136.639	80.008	19.992	103.971	19.930	4.575	0.473
125.000	136.903	80.010	19.992	103.975	19.930	4.592	0.488
125.500	137.156	80.009	19.991	103.978	19.929	4.688	0.505
126.000	137.332	80.010	19.992	103.975	19.930	4.598	0.473
126.500	137.568	80.009	19.992	103.973	19.928	4.779	0.420
127.000	137.804	80.008	19.992	103.972	19.926	4.960	0.442
127.500	138.044	80.009	19.993	103.970	19.931	4.548	0.474
128.000	138.260	80.009	19.993	103.967	19.929	4.690	0.466
128.500	138.523	80.008	19.992	103.971	19.931	4.565	0.467
129.000	138.747	80.008	19.993	103.974	19.928	4.759	0.483
129.500	138.963	80.008	19.993	103.975	19.928	4.735	0.463
130.000	139.214	80.007	19.993	103.977	19.930	4.624	0.454
130.500	139.464	80.007	19.994	103.982	19.930	4.630	0.484
131.000	139.656	80.008	19.994	103.982	19.931	4.519	0.471
131.500	139.915	80.007	19.993	103.981	19.927	4.816	0.447
132.000	140.145	80.007	19.993	103.981	19.929	4.661	0.470
132.500	140.412	80.007	19.995	103.981	19.930	4.642	0.493
133.000	140.637	80.007	19.994	103.981	19.933	4.404	0.495
133.500	140.878	80.008	19.993	103.982	19.931	4.519	0.479
134.000	141.098	80.007	19.994	103.984	19.930	4.628	0.463
134.500	141.352	80.007	19.994	103.982	19.931	4.543	0.467
135.000	141.621	80.008	19.994	103.978	19.927	4.831	0.498
135.500	141.816	80.009	19.994	103.972	19.928	4.798	0.493
136.000	142.066	80.008	19.994	103.967	19.928	4.742	0.455
136.501	142.307	80.008	19.994	103.965	19.925	4.977	0.468
137.000	142.550	80.007	19.994	103.965	19.927	4.881	0.488
137.500	142.782	80.007	19.994	103.969	19.928	4.762	0.480
138.000	143.030	80.008	19.994	103.969	19.930	4.611	0.478
138.501	143.300	80.007	19.994	103.970	19.927	4.825	0.499
139.001	143.545	80.007	19.993	103.966	19.928	4.738	0.516
139.500	143.797	80.006	19.994	103.962	19.929	4.649	0.506
140.000	144.035	80.006	19.994	103.954	19.929	4.679	0.494
140.500	144.275	80.007	19.993	103.953	19.929	4.677	0.484
141.000	144.494	80.007	19.994	103.952	19.931	4.524	0.468
141.500	144.753	80.009	19.993	103.953	19.929	4.648	0.469
142.000	145.011	80.008	19.994	103.955	19.931	4.563	0.497
142.500	145.269	80.009	19.994	103.960	19.926	4.940	0.516
143.000	145.534	80.007	19.994	103.964	19.929	4.680	0.520
143.500	145.761	80.009	19.995	103.963	19.926	4.942	0.508
144.000	145.978	80.008	19.994	103.961	19.929	4.685	0.468
144.500	146.214	80.006	19.994	103.958	19.924	5.088	0.448
145.000	146.466	80.007	19.994	103.957	19.927	4.837	0.471
145.500	146.711	80.008	19.994	103.952	19.929	4.698	0.492
146.000	146.969	80.008	19.993	103.951	19.927	4.816	0.500
146.500	147.222	80.008	19.994	103.953	19.924	5.102	0.507
147.000	147.476	80.007	19.993	103.956	19.927	4.864	0.509
147.500	147.697	80.007	19.994	103.954	19.927	4.820	0.491
148.000	147.958	80.008	19.993	103.958	19.927	4.805	0.479
148.500	148.216	80.007	19.994	103.962	19.928	4.776	0.501
149.000	148.459	80.008	19.994	103.964	19.930	4.626	0.510
149.500	148.691	80.007	19.994	103.968	19.927	4.863	0.488
150.000	148.956	80.007	19.993	103.971	19.928	4.774	0.486
150.500	149.188	80.007	19.993	103.969	19.928	4.798	0.497
151.000	149.425	80.008	19.995	103.966	19.926	4.885	0.483
151.500	149.689	80.007	19.994	103.961	19.929	4.650	0.485
152.000	149.945	80.007	19.993	103.958	19.928	4.754	0.510
152.500	150.181	80.007	19.994	103.955	19.926	4.949	0.506
153.000	150.431	80.007	19.993	103.954	19.928	4.750	0.489
153.500	150.684	80.007	19.994	103.951	19.930	4.632	0.494
154.000	150.919	80.008	19.993	103.951	19.931	4.532	0.496
154.500	151.151	80.008	19.993	103.948	19.929	4.704	0.478
155.000	151.431	80.006	19.993	103.947	19.931	4.512	0.490
155.500	151.695	80.006	19.992	103.946	19.934	4.268	0.528
156.000	151.892	80.006	19.995	103.947	19.931	4.493	0.503
156.500	152.168	80.007	19.995	103.949	19.930	4.643	0.467
157.000	152.401	80.006	19.995	103.954	19.930	4.571	0.491
157.500	152.672	80.008	19.995	103.956	19.932	4.480	0.506
158.000	152.899	80.008	19.994	103.957	19.931	4.539	0.501
158.500	153.154	80.009	19.993	103.956	19.933	4.392	0.490
159.000	153.394	80.007	19.993	103.953	19.931	4.519	0.488
159.500	153.629	80.005	19.995	103.949	19.934	4.316	0.485
160.000	153.878	80.007	19.994	103.948	19.932	4.486	0.480
160.500	154.112	80.008	19.994	103.947	19.932	4.429	0.483
161.000	154.390	80.006	19.994	103.946	19.932	4.449	0.497
161.500	154.626	80.008	19.994	103.946	19.933	4.408	0.513
162.000	154.905	80.007	19.994	103.946	19.930	4.613	0.515
162.500	155.103	80.007	19.995	103.946	19.931	4.538	0.496
163.000	155.376	80.005	19.994	103.946	19.930	4.580	0.474
163.500	155.606	80.006	19.995	103.947	19.930	4.589	0.487
164.000	155.864	80.006	19.994	103.947	19.930	4.617	0.495
164.500	156.135	80.007	19.994	103.947	19.930	4.639	0.509
165.000	156.381	80.006	19.994	103.947	19.931	4.495	0.523
165.500	156.632	80.006	19.995	103.947	19.931	4.547	0.507
166.000	156.855	80.006	19.994	103.946	19.932	4.449	0.485
166.500	157.133	80.006	19.994	103.946	19.933	4.381	0.487
167.000	157.431	80.006	19.993	103.946	19.926	4.890	0.538
167.500	157.656	80.006	19.993	103.947	19.930	4.639	0.550
168.000	157.926	80.006	19.994	103.948	19.931	4.556	0.509
168.500	158.167	80.007	19.994	103.948	19.930	4.591	0.503
169.000	158.429	80.007	19.994	103.948	19.929	4.672	0.507
169.500	158.678	80.006	19.994	103.948	19.928	4.776	0.506
170.000	158.938	80.005	19.993	103.947	19.928	4.746	0.510
170.500	159.178	80.007	19.995	103.945	19.931	4.556	0.505
171.000	159.414	80.007	19.994	103.945	19.929	4.684	0.488
171.500	159.649	80.006	19.994	103.945	19.932	4.423	0.473
172.000	159.941	80.007	19.994	103.945	19.928	4.754	0.499
172.500	160.192	80.008	19.994	103.946	19.928	4.800	0.536
173.000	160.435	80.007	19.994	103.947	19.928	4.780	0.519
173.500	160.668	80.007	19.994	103.946	19.929	4.704	0.485
174.000	160.893	80.008	19.993	103.945	19.933	4.386	0.467
174.500	161.215	80.008	19.994	103.947	19.931	4.545	0.502
175.000	161.476	80.009	19.994	103.947	19.931	4.538	0.565
175.500	161.687	80.008	19.994	103.947	19.934	4.310	0.528
176.000	161.947	80.006	19.994	103.948	19.932	4.447	0.471
176.500	162.164	80.008	19.993	103.948	19.930	4.635	0.474
177.001	162.423	80.009	19.993	103.946	19.934	4.286	0.477
177.500	162.668	80.008	19.994	103.945	19.932	4.436	0.490
178.000	162.895	80.009	19.994	103.945	19.934	4.296	0.488
178.500	163.194	80.012	19.993	103.944	19.935	4.214	0.499
179.000	163.425	80.009	19.993	103.944	19.934	4.290	0.528
179.500	163.667	80.008	19.992	103.945	19.933	4.364	0.502
180.000	163.927	80.010	19.992	103.946	19.935	4.192	0.488
180.500	164.164	80.009	19.992	103.945	19.932	4.449	0.500
181.000	164.417	80.007	19.993	103.945	19.932	4.458	0.493
181.500	164.677	80.008	19.993	103.943	19.932	4.453	0.501
182.000	164.946	80.008	19.992	103.940	19.933	4.348	0.521
182.500	165.180	80.008	19.992	103.940	19.936	4.117	0.516
183.000	165.442	80.008	19.993	103.941	19.935	4.231	0.499
183.500	165.722	80.009	19.992	103.942	19.933	4.346	0.519
184.000	165.969	80.008	19.992	103.943	19.934	4.296	0.535
184.500	166.235	80.007	19.993	103.946	19.934	4.277	0.520
185.000	166.457	80.008	19.992	103.946	19.931	4.532	0.501
185.500	166.717	80.009	19.993	103.946	19.934	4.318	0.485
186.000	166.951	80.009	19.993	103.946	19.933	4.375	0.487
186.500	167.189	80.006	19.993	103.947	19.935	4.213	0.483
187.000	167.449	80.008	19.993	103.947	19.935	4.239	0.485
187.500	167.723	80.008	19.992	103.948	19.936	4.163	0.516
188.000	167.969	80.008	19.992	103.948	19.933	4.379	0.527
188.500	168.209	80.010	19.993	103.948	19.936	4.168	0.503
189.000	168.498	80.009	19.994	103.948	19.933	4.379	0.508
189.500	168.755	80.005	19.993	103.948	19.933	4.346	0.537
190.000	168.986	80.008	19.994	103.948	19.934	4.315	0.517
190.500	169.256	80.008	19.993	103.948	19.934	4.291	0.495
191.000	169.480	80.009	19.993	103.948	19.935	4.178	0.497
191.500	169.719	80.009	19.993	103.945	19.934	4.311	0.478
192.000	170.006	80.007	19.994	103.943	19.931	4.521	0.495
192.500	170.269	80.008	19.993	103.941	19.932	4.471	0.539
193.000	170.525	80.008	19.993	103.938	19.931	4.508	0.535
193.500	170.800	80.010	19.994	103.939	19.932	4.455	0.525
194.000	171.055	80.008	19.993	103.942	19.933	4.357	0.530
194.500	171.277	80.008	19.992	103.943	19.933	4.401	0.503
195.000	171.495	80.009	19.993	103.945	19.933	4.392	0.459
195.500	171.747	80.008	19.993	103.948	19.934	4.287	0.455
196.000	172.040	80.008	19.993	103.945	19.933	4.366	0.507
196.500	172.281	80.009	19.993	103.942	19.932	4.442	0.539
197.000	172.526	80.009	19.993	103.942	19.930	4.577	0.510
197.500	172.795	80.011	19.993	103.941	19.931	4.562	0.500
198.000	173.039	80.009	19.993	103.941	19.932	4.435	0.514
198.500	173.270	80.010	19.993	103.942	19.930	4.625	0.494
199.000	173.514	80.010	19.993	103.944	19.930	4.603	0.475
199.500	173.782	80.009	19.993	103.945	19.933	4.380	0.493
200.000	174.013	80.010	19.994	103.943	19.930	4.607	0.505
200.500	174.285	80.009	19.993	103.937	19.931	4.500	0.501
201.000	174.527	80.009	19.993	103.933	19.932	4.428	0.509
201.500	174.756	80.010	19.993	103.933	19.929	4.714	0.493
202.001	175.040	80.008	19.993	103.931	19.932	4.409	0.492
202.501	175.277	80.008	19.993	103.933	19.933	4.385	0.517
203.000	175.503	80.009	19.992	103.938	19.929	4.682	0.492
203.500	175.776	80.010	19.993	103.940	19.929	4.651	0.481
204.000	176.039	80.010	19.992	103.941	19.928	4.725	0.517
204.501	176.273	80.009	19.992	103.941	19.928	4.732	0.517
205.000	176.503	80.010	19.993	103.941	19.928	4.758	0.481
205.500	176.758	80.011	19.993	103.939	19.928	4.743	0.474
206.000	177.000	80.010	19.994	103.936	19.928	4.769	0.491
206.500	177.275	80.009	19.993	103.933	19.929	4.658	0.507
207.000	177.502	80.010	19.993	103.933	19.928	4.774	0.510
207.500	177.741	80.011	19.993	103.931	19.929	4.669	0.484
208.000	178.044	80.010	19.993	103.931	19.930	4.625	0.504
208.500	178.260	80.009	19.994	103.933	19.929	4.651	0.530
209.000	178.485	80.010	19.993	103.934	19.930	4.566	0.480
209.500	178.795	80.010	19.993	103.927	19.930	4.599	0.488
210.000	179.012	80.010	19.993	103.922	19.931	4.529	0.531
210.500	179.230	80.007	19.993	103.922	19.931	4.542	0.481
211.000	179.499	80.009	19.992	103.917	19.931	4.551	0.461
211.500	179.758	80.009	19.992	103.920	19.929	4.671	0.507
212.000	179.957	80.008	19.993	103.923	19.929	4.688	0.493
212.500	180.227	80.007	19.993	103.926	19.929	4.720	0.464
213.000	180.438	80.007	19.994	103.930	19.932	4.483	0.475
213.500	180.743	80.009	19.993	103.936	19.927	4.829	0.499
214.000	180.975	80.008	19.993	103.933	19.929	4.712	0.527
214.500	181.238	80.008	19.994	103.934	19.931	4.528	0.516
215.000	181.525	80.010	19.993	103.932	19.931	4.494	0.522
215.500	181.748	80.006	19.992	103.926	19.931	4.507	0.530
216.000	182.010	80.008	19.994	103.922	19.935	4.245	0.497
216.500	182.198	80.007	19.993	103.925	19.931	4.561	0.467
217.000	182.463	80.007	19.993	103.928	19.927	4.847	0.452
217.500	182.674	80.008	19.993	103.935	19.931	4.520	0.465
218.000	182.967	80.007	19.993	103.937	19.931	4.543	0.490
218.500	183.171	80.009	19.992	103.938	19.929	4.690	0.500
219.000	183.413	80.007	19.993	103.936	19.930	4.633	0.471
219.500	183.678	80.008	19.992	103.935	19.929	4.699	0.476
220.000	183.973	80.006	19.992	103.933	19.929	4.718	0.533
220.500	184.193	80.009	19.993	103.933	19.928	4.727	0.537
221.000	184.434	80.009	19.993	103.935	19.928	4.731	0.488
221.500	184.723	80.010	19.993	103.933	19.927	4.868	0.496
222.000	184.955	80.008	19.991	103.932	19.929	4.692	0.526
222.500	185.242	80.008	19.993	103.927	19.924	5.087	0.520
223.001	185.480	80.008	19.993	103.923	19.928	4.771	0.522
223.500	185.752	80.008	19.993	103.919	19.926	4.954	0.518
224.000	186.008	80.009	19.993	103.919	19.927	4.845	0.519
224.500	186.221	80.007	19.993	103.914	19.924	5.087	0.499
225.000	186.528	80.008	19.993	103.915	19.925	4.993	0.495
225.500	186.754	80.008	19.993	103.915	19.924	5.084	0.527
226.000	186.990	80.007	19.994	103.918	19.926	4.886	0.498
226.500	187.250	80.007	19.993	103.916	19.925	5.019	0.479
227.000	187.489	80.009	19.993	103.916	19.927	4.842	0.497
227.500	187.737	80.006	19.993	103.917	19.926	4.951	0.493
228.000	187.993	80.008	19.993	103.916	19.925	4.977	0.496
228.500	188.249	80.008	19.993	103.912	19.925	4.979	0.508
229.000	188.494	80.008	19.993	103.909	19.927	4.820	0.507
229.500	188.712	80.008	19.994	103.912	19.924	5.064	0.482
230.000	188.999	80.007	19.994	103.916	19.925	5.025	0.484
230.500	189.254	80.008	19.993	103.920	19.925	5.030	0.523
231.000	189.483	80.007	19.994	103.920	19.927	4.836	0.513
231.500	189.733	80.007	19.992	103.920	19.922	5.213	0.482
232.000	189.981	80.009	19.993	103.918	19.921	5.306	0.488
232.500	190.236	80.007	19.994	103.913	19.925	4.995	0.500
233.000	190.456	80.009	19.993	103.912	19.927	4.836	0.489
233.500	190.745	80.007	19.994	103.914	19.923	5.139	0.492
234.000	190.955	80.008	19.994	103.917	19.926	4.940	0.504
234.500	191.216	80.008	19.993	103.920	19.923	5.143	0.485
235.000	191.432	80.007	19.993	103.920	19.925	5.017	0.474
235.500	191.718	80.006	19.994	103.920	19.921	5.296	0.490
236.000	191.925	80.008	19.992	103.918	19.926	4.925	0.498
236.500	192.218	80.008	19.994	103.915	19.923	5.154	0.497
237.000	192.422	80.007	19.994	103.914	19.921	5.309	0.499
237.500	192.692	80.007	19.994	103.913	19.921	5.318	0.485
238.000	192.903	80.007	19.994	103.911	19.921	5.331	0.477
238.500	193.142	80.007	19.994	103.910	19.920	5.418	0.466
239.000	193.380	80.007	19.993	103.910	19.920	5.422	0.464
239.500	193.625	80.006	19.993	103.909	19.923	5.124	0.480
240.000	193.901	80.008	19.994	103.909	19.923	5.120	0.502
240.500	194.140	80.007	19.993	103.908	19.923	5.120	0.518
241.000	194.367	80.007	19.993	103.908	19.919	5.455	0.490
241.500	194.673	80.008	19.993	103.909	19.923	5.148	0.500
242.000	194.939	80.007	19.994	103.909	19.922	5.252	0.553
242.500	195.141	80.007	19.993	103.909	19.919	5.444	0.520
243.000	195.418	80.008	19.993	103.910	19.920	5.405	0.473
243.500	195.626	80.006	19.994	103.910	19.918	5.584	0.482
244.000	195.868	80.008	19.993	103.910	19.920	5.366	0.468
244.500	196.119	80.008	19.992	103.912	19.921	5.348	0.472
245.001	196.389	80.007	19.993	103.912	19.920	5.405	0.507
245.500	196.560	80.008	19.994	103.913	19.920	5.405	0.481
246.000	196.834	80.005	19.994	103.912	19.917	5.623	0.443
246.500	197.071	80.006	19.993	103.912	19.920	5.389	0.478
247.000	197.348	80.005	19.993	103.912	19.921	5.315	0.512
247.500	197.576	80.008	19.994	103.912	19.918	5.522	0.509
248.001	197.833	80.006	19.993	103.913	19.919	5.466	0.495
248.500	198.095	80.006	19.992	103.914	19.917	5.603	0.502
249.000	198.324	80.007	19.993	103.915	19.920	5.396	0.505
249.500	198.555	80.006	19.992	103.913	19.919	5.485	0.476
250.000	198.801	80.007	19.993	103.913	19.915	5.828	0.468
250.500	199.085	80.006	19.995	103.917	19.917	5.625	0.503
251.000	199.316	80.007	19.993	103.921	19.918	5.535	0.523
251.500	199.589	80.007	19.993	103.920	19.919	5.507	0.510
252.000	199.788	80.007	19.993	103.920	19.915	5.764	0.488
252.500	200.045	80.006	19.993	103.919	19.918	5.575	0.464
253.000	200.316	80.006	19.993	103.916	19.915	5.775	0.491
253.500	200.539	80.007	19.993	103.913	19.916	5.732	0.511
254.000	200.770	80.007	19.994	103.914	19.915	5.790	0.474
254.500	201.015	80.006	19.993	103.914	19.912	6.017	0.465
255.000	201.281	80.008	19.993	103.913	19.912	6.026	0.493
255.500	201.529	80.007	19.993	103.914	19.912	6.019	0.513
256.000	201.778	80.008	19.993	103.912	19.913	5.941	0.506
256.501	202.042	80.007	19.993	103.912	19.911	6.067	0.505
257.000	202.275	80.006	19.993	103.911	19.915	5.775	0.505
257.500	202.495	80.009	19.993	103.911	19.914	5.906	0.475
258.000	202.779	80.009	19.993	103.911	19.910	6.194	0.478
258.500	203.027	80.006	19.994	103.911	19.910	6.202	0.518
259.000	203.304	80.007	19.994	103.912	19.911	6.082	0.529
259.500	203.513	80.008	19.995	103.914	19.910	6.189	0.506
260.000	203.753	80.008	19.994	103.915	19.907	6.390	0.468
260.500	203.985	80.008	19.994	103.914	19.910	6.161	0.460
261.000	204.254	80.009	19.994	103.913	19.909	6.279	0.486
261.500	204.482	80.007	19.994	103.911	19.907	6.397	0.499
262.000	204.733	80.008	19.994	103.908	19.906	6.477	0.488
262.500	204.976	80.007	19.995	103.907	19.907	6.460	0.487
263.000	205.248	80.008	19.994	103.906	19.908	6.336	0.504
263.500	205.493	80.011	19.994	103.908	19.910	6.214	0.516
264.000	205.717	80.008	19.994	103.909	19.907	6.460	0.493
264.500	205.990	80.008	19.994	103.909	19.904	6.695	0.483
265.000	206.267	80.009	19.993	103.908	19.906	6.501	0.524
265.500	206.459	80.006	19.995	103.908	19.903	6.750	0.509
266.000	206.723	80.006	19.994	103.907	19.905	6.587	0.462
266.500	206.965	80.007	19.994	103.906	19.903	6.759	0.481
267.000	207.224	80.008	19.994	103.907	19.901	6.883	0.504
267.500	207.472	80.007	19.994	103.907	19.901	6.914	0.504
268.000	207.704	80.008	19.994	103.906	19.898	7.101	0.493
268.500	207.948	80.007	19.994	103.906	19.900	7.005	0.478
269.000	208.180	80.008	19.993	103.906	19.897	7.175	0.476
269.500	208.458	80.007	19.994	103.905	19.897	7.190	0.493
270.000	208.710	80.008	19.994	103.906	19.896	7.316	0.520
270.500	208.945	80.008	19.993	103.905	19.898	7.116	0.509
271.000	209.199	80.007	19.994	103.905	19.896	7.254	0.488
271.500	209.470	80.007	19.994	103.905	19.895	7.402	0.507
272.000	209.702	80.009	19.994	103.907	19.894	7.446	0.514
272.501	209.940	80.008	19.993	103.910	19.889	7.810	0.486
273.000	210.176	80.008	19.994	103.910	19.891	7.661	0.472
273.500	210.456	80.008	19.993	103.910	19.893	7.563	0.495
274.000	210.684	80.007	19.993	103.912	19.892	7.606	0.512
274.500	210.923	80.010	19.993	103.912	19.892	7.587	0.487
275.000	211.194	80.008	19.994	103.910	19.892	7.611	0.489
275.500	211.436	80.008	19.992	103.912	19.892	7.609	0.512
276.000	211.658	80.008	19.995	103.913	19.891	7.690	0.488
276.500	211.961	80.008	19.996	103.916	19.890	7.781	0.494
277.000	212.200	80.009	19.993	103.918	19.888	7.907	0.533
277.500	212.414	80.008	19.994	103.918	19.887	7.973	0.498
278.000	212.695	80.009	19.994	103.916	19.884	8.212	0.474
278.500	212.929	80.009	19.993	103.915	19.886	8.119	0.505
279.000	213.166	80.009	19.994	103.912	19.885	8.176	0.493
279.500	213.412	80.007	19.993	103.907	19.886	8.073	0.477
280.000	213.659	80.009	19.993	103.908	19.884	8.213	0.488
280.500	213.912	80.009	19.994	103.908	19.882	8.365	0.497
281.000	214.146	80.010	19.993	103.908	19.882	8.374	0.494
281.500	214.370	80.009	19.993	103.912	19.880	8.572	0.473
282.000	214.626	80.010	19.993	103.916	19.878	8.679	0.469
282.500	214.890	80.009	19.992	103.917	19.881	8.516	0.500
283.000	215.155	80.010	19.992	103.916	19.880	8.596	0.524
283.500	215.369	80.009	19.993	103.917	19.878	8.694	0.504
284.000	215.612	80.010	19.993	103.912	19.878	8.688	0.468
284.500	215.856	80.010	19.992	103.908	19.877	8.824	0.472
285.000	216.137	80.010	19.993	103.909	19.876	8.844	0.506
285.500	216.400	80.009	19.993	103.912	19.875	8.962	0.534
286.001	216.609	80.010	19.993	103.914	19.872	9.209	0.508
286.500	216.846	80.010	19.994	103.916	19.871	9.283	0.460
287.000	217.115	80.010	19.993	103.916	19.868	9.478	0.476
287.500	217.344	80.009	19.993	103.914	19.867	9.600	0.502
288.000	217.606	80.010	19.992	103.910	19.869	9.461	0.494
288.500	217.870	80.009	19.993	103.908	19.868	9.537	0.508
289.000	218.092	80.009	19.993	103.907	19.863	9.866	0.506
289.500	218.378	80.009	19.993	103.909	19.863	9.881	0.497
290.000	218.639	80.010	19.992	103.911	19.865	9.718	0.527
290.500	218.846	80.010	19.992	103.913	19.862	9.986	0.508
291.000	219.092	80.009	19.992	103.914	19.860	10.116	0.460
291.500	219.366	80.010	19.992	103.913	19.862	9.996	0.486
292.000	219.607	80.008	19.992	103.913	19.861	10.038	0.517
292.500	219.888	80.008	19.992	103.911	19.860	10.125	0.518
293.000	220.084	80.008	19.993	103.909	19.856	10.432	0.499
293.500	220.353	80.008	19.993	103.908	19.859	10.228	0.471
294.000	220.590	80.005	19.993	103.908	19.855	10.511	0.486
294.500	220.850	80.007	19.993	103.906	19.855	10.528	0.502
295.000	221.078	80.007	19.993	103.909	19.853	10.718	0.492
295.500	221.323	80.007	19.994	103.917	19.850	10.899	0.481
296.000	221.574	80.008	19.993	103.923	19.849	10.982	0.485
296.500	221.845	80.007	19.993	103.924	19.850	10.934	0.509
297.000	222.050	80.008	19.993	103.930	19.847	11.167	0.499
297.500	222.343	80.007	19.993	103.930	19.847	11.136	0.487
298.000	222.591	80.007	19.993	103.923	19.848	11.078	0.519
298.500	222.819	80.007	19.994	103.918	19.845	11.311	0.509
299.000	223.101	80.008	19.993	103.920	19.845	11.358	0.493
299.500	223.345	80.007	19.993	103.918	19.840	11.722	0.518
300.000	223.576	80.007	19.994	103.918	19.840	11.701	0.501
300.500	223.823	80.007	19.993	103.917	19.837	11.986	0.476
301.000	224.089	80.007	19.993	103.918	19.837	11.979	0.495
301.500	224.308	80.007	19.993	103.917	19.833	12.289	0.499
302.000	224.544	80.006	19.992	103.915	19.836	12.045	0.470
302.500	224.797	80.006	19.993	103.913	19.833	12.302	0.472
303.000	225.031	80.006	19.993	103.914	19.832	12.367	0.488
303.500	225.317	80.006	19.992	103.914	19.828	12.686	0.503
304.000	225.555	80.008	19.993	103.914	19.827	12.762	0.522
304.500	225.826	80.009	19.992	103.915	19.824	13.007	0.517
305.000	226.054	80.006	19.993	103.915	19.825	12.937	0.504
305.500	226.288	80.007	19.991	103.914	19.819	13.367	0.481
306.000	226.589	80.006	19.993	103.914	19.817	13.515	0.499
306.500	226.805	80.007	19.993	103.913	19.820	13.330	0.526
307.000	227.086	80.006	19.991	103.912	19.816	13.642	0.507
307.500	227.317	80.008	19.993	103.912	19.815	13.726	0.505
308.000	227.544	80.008	19.993	103.911	19.811	13.999	0.485
308.500	227.818	80.007	19.993	103.912	19.809	14.178	0.479
309.000	228.044	80.006	19.994	103.914	19.808	14.217	0.501
309.500	228.311	80.007	19.992	103.918	19.804	14.549	0.497
310.000	228.565	80.006	19.992	103.922	19.806	14.423	0.507
310.500	228.815	80.009	19.992	103.928	19.803	14.649	0.512
311.000	229.088	80.008	19.991	103.928	19.803	14.657	0.513
311.500	229.325	80.008	19.993	103.927	19.804	14.605	0.517
312.000	229.613	80.007	19.993	103.925	19.799	14.993	0.518
312.500	229.839	80.007	19.993	103.924	19.796	15.233	0.519
313.000	230.084	80.008	19.992	103.924	19.794	15.359	0.492
313.500	230.317	80.006	19.993	103.922	19.791	15.563	0.475
314.000	230.583	80.008	19.993	103.923	19.789	15.741	0.489
314.500	230.845	80.007	19.993	103.923	19.790	15.658	0.514
315.000	231.069	80.007	19.993	103.924	19.788	15.876	0.507
315.500	231.323	80.007	19.993	103.925	19.784	16.125	0.482
316.000	231.572	80.008	19.992	103.927	19.782	16.312	0.490
316.500	231.793	80.007	19.992	103.928	19.781	16.353	0.486
317.000	232.067	80.008	19.992	103.928	19.777	16.743	0.482
317.500	232.303	80.007	19.992	103.930	19.776	16.817	0.503
318.000	232.547	80.008	19.992	103.930	19.773	17.020	0.495
318.500	232.839	80.008	19.992	103.928	19.770	17.295	0.508
319.000	233.076	80.009	19.992	103.926	19.766	17.558	0.533
319.500	233.312	80.009	19.993	103.929	19.768	17.425	0.501
320.000	233.552	80.007	19.993	103.929	19.764	17.756	0.474
320.500	233.814	80.007	19.993	103.930	19.764	17.721	0.489
321.000	234.064	80.008	19.992	103.937	19.758	18.211	0.507
321.500	234.307	80.008	19.992	103.943	19.757	18.314	0.503
322.000	234.545	80.009	19.993	103.942	19.756	18.333	0.487
322.500	234.802	80.007	19.993	103.943	19.752	18.663	0.488
323.000	235.049	80.008	19.992	103.942	19.751	18.784	0.499
323.500	235.290	80.008	19.993	103.942	19.748	19.011	0.496
324.000	235.543	80.006	19.993	103.941	19.747	19.109	0.491
324.500	235.841	80.006	19.993	103.943	19.746	19.174	0.523
325.000	236.092	80.007	19.993	103.943	19.740	19.602	0.550
325.500	236.298	80.006	19.993	103.942	19.741	19.530	0.503
326.000	236.576	80.008	19.993	103.941	19.736	19.940	0.470
326.500	236.816	80.006	19.993	103.942	19.734	20.108	0.501
327.000	237.023	80.007	19.993	103.939	19.732	20.255	0.482
327.500	237.319	80.005	19.993	103.935	19.729	20.510	0.475
328.000	237.549	80.006	19.993	103.936	19.727	20.634	0.515
328.500	237.810	80.008	19.994	103.934	19.723	20.948	0.508
329.000	238.101	80.008	19.994	103.934	19.721	21.122	0.521
329.500	238.312	80.006	19.994	103.937	19.722	21.042	0.527
330.000	238.565	80.008	19.994	103.941	19.717	21.482	0.483
330.500	238.784	80.007	19.992	103.942	19.715	21.646	0.468
331.000	239.018	80.008	19.993	103.943	19.714	21.703	0.463
331.500	239.272	80.006	19.994	103.938	19.711	21.899	0.471
332.000	239.541	80.007	19.995	103.938	19.707	22.240	0.506
332.500	239.800	80.007	19.994	103.938	19.706	22.308	0.525
333.000	240.037	80.006	19.993	103.937	19.706	22.288	0.512
333.500	240.287	80.007	19.994	103.939	19.701	22.709	0.492
334.000	240.535	80.007	19.993	103.944	19.696	23.138	0.493
334.501	240.794	80.007	19.993	103.945	19.695	23.224	0.503
335.001	241.033	80.007	19.993	103.945	19.691	23.536	0.502
335.500	241.248	80.006	19.993	103.945	19.690	23.609	0.476
336.000	241.499	80.006	19.993	103.945	19.688	23.713	0.460
336.500	241.786	80.009	19.994	103.946	19.682	24.199	0.502
337.000	242.027	80.009	19.995	103.946	19.678	24.552	0.533
337.500	242.304	80.011	19.993	103.947	19.677	24.608	0.523
338.000	242.556	80.007	19.994	103.948	19.674	24.876	0.523
338.500	242.794	80.010	19.994	103.948	19.672	25.051	0.510
339.000	243.049	80.008	19.992	103.948	19.670	25.204	0.492
339.500	243.301	80.009	19.993	103.947	19.667	25.425	0.500
340.000	243.545	80.009	19.994	103.947	19.662	25.778	0.501
340.501	243.795	80.010	19.993	103.947	19.660	25.940	0.495
341.000	244.060	80.008	19.992	103.947	19.658	26.162	0.504
341.501	244.269	80.010	19.992	103.949	19.655	26.337	0.495
342.001	244.535	80.010	19.994	103.949	19.650	26.731	0.474
342.501	244.781	80.009	19.993	103.949	19.652	26.605	0.493
343.001	245.071	80.010	19.993	103.951	19.646	27.076	0.524
343.500	245.290	80.010	19.993	103.952	19.642	27.409	0.523
344.000	245.553	80.010	19.993	103.951	19.641	27.488	0.495
344.500	245.758	80.008	19.994	103.951	19.638	27.732	0.475
345.000	246.008	80.009	19.993	103.951	19.635	27.975	0.461
345.500	246.291	80.009	19.993	103.951	19.631	28.283	0.494
346.000	246.586	80.010	19.994	103.955	19.628	28.504	0.555
346.500	246.784	80.011	19.992	103.960	19.625	28.744	0.535
347.000	247.067	80.009	19.993	103.963	19.622	28.946	0.487
347.500	247.312	80.009	19.993	103.964	19.617	29.404	0.505
348.000	247.562	80.009	19.994	103.962	19.616	29.452	0.512
348.500	247.782	80.011	19.992	103.959	19.610	29.891	0.482
349.000	248.026	80.005	19.994	103.959	19.611	29.882	0.466
349.500	248.279	80.009	19.993	103.960	19.605	30.297	0.480
350.000	248.530	80.008	19.994	103.961	19.605	30.291	0.500
350.500	248.783	80.009	19.993	103.965	19.600	30.716	0.504
351.000	249.023	80.007	19.993	103.971	19.596	31.002	0.499
351.500	249.282	80.009	19.993	103.972	19.594	31.172	0.496
352.000	249.562	80.009	19.994	103.972	19.588	31.644	0.519
352.500	249.827	80.007	19.994	103.974	19.587	31.780	0.542
353.000	250.019	80.008	19.992	103.970	19.585	31.882	0.501
353.500	250.298	80.008	19.994	103.965	19.578	32.497	0.464
354.000	250.558	80.010	19.994	103.964	19.576	32.600	0.505
354.500	250.795	80.007	19.993	103.967	19.571	32.990	0.518
355.000	251.057	80.007	19.994	103.970	19.571	33.045	0.498
355.500	251.319	80.006	19.993	103.977	19.564	33.599	0.511
356.000	251.579	80.007	19.995	103.981	19.565	33.490	0.523
356.500	251.809	80.009	19.994	103.983	19.558	34.034	0.506
357.000	252.041	80.008	19.995	103.983	19.556	34.178	0.476
357.500	252.296	80.007	19.995	103.983	19.550	34.661	0.474
358.000	252.563	80.007	19.995	103.982	19.549	34.726	0.505
358.500	252.789	80.009	19.995	103.981	19.543	35.210	0.507
359.000	253.049	80.008	19.995	103.981	19.541	35.432	0.489
359.500	253.280	80.008	19.994	103.982	19.536	35.811	0.488
360.001	253.523	80.009	19.993	103.982	19.533	35.987	0.483
360.500	253.803	80.008	19.994	103.982	19.529	36.378	0.499
361.000	254.006	80.008	19.994	103.984	19.522	36.867	0.503
361.500	254.272	80.009	19.994	103.984	19.520	37.031	0.476
362.000	254.460	80.007	19.994	103.984	19.514	37.544	0.461
362.500	254.727	80.008	19.994	103.983	19.510	37.840	0.455
363.000	255.026	80.008	19.993	103.984	19.506	38.153	0.511
363.500	255.257	80.009	19.993	103.989	19.505	38.237	0.548
364.000	255.531	80.008	19.995	103.992	19.500	38.644	0.517
364.500	255.802	80.009	19.994	103.993	19.497	38.864	0.525
365.000	256.033	80.009	19.994	103.993	19.489	39.541	0.523
365.500	256.281	80.008	19.993	103.992	19.486	39.738	0.491
366.000	256.500	80.008	19.993	103.988	19.482	40.070	0.473
366.500	256.752	80.009	19.993	103.986	19.476	40.540	0.469
367.000	257.001	80.010	19.994	103.987	19.473	40.772	0.486
367.500	257.266	80.009	19.993	103.989	19.470	41.055	0.508
368.000	257.491	80.009	19.993	103.996	19.464	41.479	0.502
368.500	257.760	80.009	19.992	104.004	19.460	41.817	0.492
369.000	258.028	80.009	19.992	104.002	19.455	42.247	0.516
369.500	258.288	80.008	19.992	104.002	19.453	42.363	0.532
370.001	258.494	80.010	19.991	103.999	19.446	42.952	0.497
370.501	258.784	80.009	19.993	103.992	19.439	43.490	0.481
371.000	259.016	80.010	19.992	103.985	19.438	43.596	0.509
371.500	259.272	80.009	19.992	103.990	19.435	43.820	0.504
372.000	259.544	80.009	19.993	103.997	19.429	44.303	0.508
372.500	259.752	80.008	19.992	104.004	19.417	45.183	0.504
373.000	259.986	80.009	19.992	104.006	19.418	45.106	0.461
373.500	260.260	80.009	19.991	104.010	19.410	45.759	0.475
374.000	260.486	80.009	19.992	104.006	19.408	45.929	0.504
374.500	260.729	80.010	19.992	104.002	19.402	46.416	0.484
375.000	260.996	80.009	19.992	104.000	19.397	46.839	0.490
375.500	261.212	80.008	19.992	104.004	19.395	46.945	0.496
376.000	261.429	80.008	19.993	104.006	19.389	47.470	0.458
376.500	261.725	80.008	19.992	104.007	19.382	47.960	0.473
377.000	261.956	80.008	19.994	104.008	19.375	48.552	0.519
377.500	262.238	80.009	19.992	104.011	19.374	48.648	0.520
378.000	262.483	80.007	19.992	104.012	19.365	49.304	0.520
378.500	262.688	80.008	19.993	104.015	19.362	49.581	0.489
379.000	262.938	80.007	19.992	104.019	19.357	49.969	0.453
379.500	263.212	80.008	19.993	104.021	19.351	50.428	0.489
380.000	263.464	80.006	19.994	104.023	19.348	50.701	0.525
380.500	263.690	80.007	19.993	104.024	19.339	51.397	0.502
381.000	263.989	80.007	19.994	104.024	19.337	51.527	0.501
381.500	264.231	80.006	19.993	104.026	19.331	52.030	0.533
382.000	264.452	80.005	19.993	104.027	19.327	52.328	0.502
382.500	264.698	80.006	19.993	104.027	19.318	53.088	0.464
383.000	264.961	80.005	19.993	104.027	19.314	53.391	0.488
383.500	265.212	80.006	19.993	104.028	19.310	53.675	0.512
384.000	265.456	80.007	19.994	104.028	19.304	54.199	0.504
384.500	265.685	80.006	19.994	104.028	19.295	54.859	0.484
385.000	265.956	80.008	19.993	104.028	19.291	55.194	0.486
385.500	266.208	80.007	19.993	104.028	19.289	55.386	0.511
386.000	266.471	80.008	19.993	104.028	19.282	55.889	0.519
386.500	266.718	80.005	19.993	104.030	19.280	56.085	0.513
387.000	266.949	80.008	19.992	104.032	19.270	56.855	0.494
387.500	267.190	80.009	19.993	104.036	19.265	57.287	0.475
388.000	267.473	80.007	19.993	104.036	19.261	57.555	0.498
388.500	267.713	80.008	19.992	104.036	19.251	58.407	0.523
389.000	267.944	80.007	19.994	104.035	19.250	58.483	0.497
389.500	268.187	80.006	19.993	104.033	19.244	58.911	0.473
390.000	268.458	80.007	19.993	104.032	19.234	59.740	0.494
390.500	268.728	80.005	19.994	104.034	19.234	59.743	0.528
391.000	268.956	80.007	19.993	104.033	19.225	60.472	0.519
391.500	269.193	80.009	19.993	104.034	19.219	60.926	0.481
392.000	269.443	80.008	19.993	104.037	19.213	61.387	0.476
392.500	269.704	80.009	19.993	104.039	19.205	62.023	0.499
393.000	269.945	80.009	19.993	104.043	19.198	62.596	0.507
393.500	270.222	80.008	19.993	104.050	19.193	62.991	0.510
394.000	270.491	80.007	19.993	104.056	19.186	63.504	0.532
394.500	270.753	80.009	19.993	104.056	19.181	63.921	0.538
395.000	270.990	80.008	19.993	104.052	19.176	64.292	0.514
395.501	271.255	80.006	19.992	104.046	19.168	64.981	0.500
396.000	271.550	80.008	19.993	104.044	19.160	65.572	0.531
396.500	271.755	80.007	19.993	104.044	19.154	66.035	0.530
397.000	272.000	80.006	19.993	104.046	19.149	66.441	0.475
397.500	272.264	80.008	19.994	104.053	19.142	67.038	0.479
398.000	272.544	80.007	19.992	104.059	19.139	67.293	0.526
398.500	272.782	80.006	19.992	104.062	19.129	68.079	0.531
399.000	273.011	80.008	19.994	104.062	19.125	68.359	0.493
399.500	273.291	80.006	19.993	104.062	19.118	68.918	0.487
400.000	273.557	80.007	19.993	104.063	19.111	69.435	0.527
400.500	273.783	80.008	19.992	104.062	19.107	69.804	0.519
401.000	274.084	80.008	19.992	104.062	19.097	70.566	0.510
401.500	274.291	80.008	19.993	104.062	19.094	70.859	0.518
402.000	274.523	80.006	19.993	104.061	19.086	71.454	0.473
402.500	274.785	80.008	19.994	104.062	19.078	72.073	0.466
403.000	275.032	80.008	19.992	104.062	19.074	72.438	0.502
403.500	275.312	80.007	19.992	104.064	19.068	72.863	0.518
404.000	275.538	80.009	19.992	104.064	19.061	73.462	0.516
404.500	275.801	80.008	19.992	104.065	19.055	73.942	0.498
405.000	276.022	80.006	19.993	104.065	19.053	74.088	0.487
405.500	276.319	80.006	19.993	104.064	19.046	74.642	0.501
406.000	276.577	80.008	19.992	104.063	19.039	75.223	0.536
406.500	276.794	80.007	19.993	104.063	19.032	75.771	0.515
407.000	277.040	80.007	19.994	104.066	19.027	76.127	0.469
407.500	277.282	80.005	19.995	104.068	19.018	76.889	0.475
408.000	277.504	80.008	19.993	104.069	19.012	77.322	0.475
408.500	277.788	80.008	19.993	104.070	19.010	77.530	0.485
409.000	278.042	80.007	19.994	104.073	19.002	78.117	0.522
409.500	278.283	80.006	19.993	104.072	18.995	78.661	0.516
410.000	278.554	80.008	19.994	104.070	18.990	79.039	0.503
410.500	278.812	80.008	19.992	104.070	18.988	79.240	0.521
411.000	279.068	80.008	19.992	104.072	18.980	79.887	0.521
411.500	279.307	80.009	19.992	104.075	18.972	80.525	0.504
412.000	279.555	80.008	19.993	104.079	18.968	80.803	0.491
412.500	279.824	80.008	19.993	104.086	18.965	81.090	0.502
413.000	280.079	80.008	19.993	104.090	18.958	81.611	0.521
413.500	280.326	80.007	19.991	104.088	18.956	81.762	0.513
414.000	280.580	80.008	19.994	104.089	18.950	82.232	0.501
414.500	280.841	80.008	19.993	104.091	18.943	82.803	0.509
415.000	281.070	80.007	19.993	104.092	18.938	83.161	0.503
415.500	281.310	80.008	19.993	104.094	18.935	83.408	0.479
416.000	281.588	80.008	19.993	104.100	18.930	83.799	0.493
416.500	281.831	80.008	19.993	104.101	18.923	84.404	0.519
417.000	282.076	80.008	19.993	104.102	18.917	84.841	0.504
417.500	282.367	80.008	19.993	104.101	18.916	84.885	0.512
418.000	282.633	80.007	19.994	104.102	18.911	85.352	0.547
418.500	282.886	80.007	19.994	104.101	18.908	85.572	0.538
419.000	283.137	80.007	19.993	104.101	18.905	85.809	0.511
419.500	283.382	80.009	19.993	104.102	18.902	86.021	0.500
420.000	283.652	80.007	19.993	104.102	18.895	86.555	0.505
420.500	283.911	80.007	19.993	104.102	18.893	86.767	0.522
421.000	284.113	80.010	19.992	104.102	18.891	86.861	0.495
421.500	284.401	80.009	19.992	104.102	18.888	87.132	0.476
422.000	284.651	80.008	19.994	104.102	18.888	87.154	0.514
422.500	284.918	80.008	19.994	104.101	18.886	87.309	0.527
423.000	285.151	80.008	19.994	104.099	18.883	87.515	0.509
423.500	285.414	80.009	19.994	104.096	18.884	87.438	0.498
424.000	285.684	80.011	19.994	104.096	18.885	87.350	0.515
424.500	285.900	80.010	19.994	104.096	18.884	87.393	0.510
425.000	286.162	80.008	19.995	104.097	18.881	87.631	0.482
425.500	286.436	80.008	19.993	104.095	18.883	87.532	0.507
426.000	286.707	80.008	19.993	104.095	18.885	87.374	0.541
426.500	286.929	80.008	19.993	104.095	18.886	87.256	0.519
427.000	287.219	80.007	19.994	104.094	18.887	87.211	0.502
427.500	287.460	80.008	19.994	104.089	18.890	86.961	0.521
428.000	287.683	80.009	19.993	104.087	18.896	86.435	0.498
428.500	287.941	80.008	19.994	104.082	18.901	86.031	0.473
429.000	288.176	80.008	19.993	104.076	18.902	85.953	0.487
429.500	288.460	80.008	19.993	104.071	18.909	85.443	0.506
430.000	288.723	80.008	19.994	104.069	18.918	84.732	0.533
430.500	288.951	80.008	19.993	104.067	18.925	84.199	0.519
431.001	289.193	80.009	19.992	104.066	18.935	83.365	0.481
431.500	289.460	80.007	19.993	104.065	18.943	82.770	0.489
432.000	289.687	80.007	19.993	104.063	18.952	82.040	0.501
432.500	289.970	80.010	19.994	104.063	18.964	81.114	0.502
433.000	290.226	80.007	19.992	104.061	18.974	80.320	0.525
433.500	290.469	80.008	19.993	104.061	18.988	79.202	0.519
434.000	290.719	80.007	19.993	104.056	18.996	78.529	0.496
434.500	290.972	80.010	19.993	104.051	19.016	76.931	0.498
435.000	291.239	80.009	19.994	104.047	19.031	75.808	0.512
435.500	291.525	80.007	19.995	104.042	19.045	74.684	0.537
436.000	291.801	80.006	19.993	104.036	19.060	73.473	0.557
436.500	292.007	80.007	19.993	104.033	19.074	72.363	0.522
437.001	292.285	80.007	19.994	104.031	19.092	70.953	0.483
437.500	292.516	80.008	19.993	104.029	19.109	69.554	0.497
438.000	292.764	80.008	19.994	104.030	19.126	68.238	0.494
438.500	293.064	80.011	19.993	104.031	19.141	67.029	0.513
439.000	293.264	80.008	19.993	104.031	19.156	65.834	0.524
439.500	293.528	80.009	19.994	104.031	19.172	64.575	0.482
440.000	293.793	80.009	19.993	104.030	19.191	63.052	0.496
440.500	294.039	80.009	19.994	104.030	19.205	62.013	0.520
441.000	294.299	80.008	19.994	104.028	19.226	60.311	0.509
441.500	294.565	80.010	19.993	104.030	19.241	59.153	0.516
442.000	294.810	80.007	19.993	104.031	19.253	58.188	0.518
442.500	295.043	80.009	19.993	104.031	19.267	57.080	0.494
443.000	295.317	80.008	19.994	104.030	19.283	55.785	0.492
443.500	295.557	80.011	19.994	104.031	19.298	54.582	0.511
444.000	295.808	80.009	19.994	104.029	19.309	53.720	0.503
444.500	296.062	80.009	19.994	104.029	19.323	52.637	0.498
445.000	296.288	80.007	19.993	104.028	19.335	51.686	0.492
445.500	296.540	80.008	19.994	104.028	19.350	50.520	0.479
446.000	296.823	80.008	19.994	104.027	19.357	49.937	0.507
446.500	297.064	80.009	19.993	104.027	19.373	48.704	0.530
447.000	297.295	80.010	19.992	104.027	19.383	47.881	0.498
447.500	297.574	80.008	19.993	104.026	19.395	46.899	0.491
448.000	297.822	80.009	19.994	104.021	19.404	46.238	0.518
448.500	298.076	80.010	19.994	104.015	19.413	45.531	0.514
449.000	298.320	80.010	19.991	104.011	19.421	44.830	0.500
449.500	298.623	80.012	19.993	104.004	19.432	44.018	0.523
450.000	298.853	80.009	19.994	103.999	19.434	43.835	0.539
450.500	299.098	80.011	19.993	103.996	19.444	43.078	0.504
451.000	299.364	80.007	19.994	103.996	19.452	42.423	0.493
451.501	299.605	80.007	19.992	103.992	19.460	41.802	0.509
452.001	299.872	80.008	19.993	103.991	19.468	41.187	0.507
452.500	300.124	80.007	19.994	103.989	19.473	40.722	0.514
453.000	300.395	80.009	19.994	103.987	19.478	40.343	0.521
453.500	300.594	80.008	19.993	103.984	19.485	39.802	0.497
454.000	300.851	80.007	19.994	103.981	19.491	39.369	0.463
454.500	301.114	80.009	19.994	103.979	19.495	39.031	0.488
455.000	301.409	80.007	19.993	103.976	19.498	38.793	0.539
455.501	301.605	80.005	19.992	103.974	19.505	38.224	0.525
456.001	301.867	80.005	19.996	103.969	19.504	38.280	0.474
456.500	302.082	80.007	19.996	103.966	19.510	37.791	0.468
457.000	302.384	80.008	19.994	103.962	19.514	37.477	0.497
457.500	302.590	80.006	19.995	103.960	19.519	37.096	0.512
458.000	302.877	80.007	19.995	103.955	19.522	36.886	0.501
458.500	303.117	80.007	19.994	103.953	19.526	36.584	0.510
459.000	303.382	80.008	19.994	103.952	19.526	36.586	0.516
459.500	303.638	80.006	19.995	103.951	19.532	36.084	0.513
460.000	303.900	80.006	19.994	103.949	19.533	36.012	0.520
460.500	304.142	80.008	19.993	103.949	19.537	35.676	0.511
461.000	304.375	80.006	19.994	103.949	19.541	35.351	0.489
461.500	304.683	80.007	19.993	103.948	19.542	35.261	0.508
462.000	304.893	80.007	19.993	103.947	19.546	34.947	0.530
462.500	305.138	80.009	19.993	103.947	19.548	34.827	0.486
463.000	305.414	80.007	19.993	103.948	19.549	34.759	0.488
463.500	305.626	80.008	19.993	103.947	19.551	34.563	0.505
464.000	305.905	80.006	19.994	103.947	19.556	34.215	0.490
464.500	306.147	80.006	19.994	103.947	19.557	34.116	0.506
465.000	306.430	80.005	19.992	103.945	19.560	33.904	0.523
465.500	306.660	80.007	19.994	103.944	19.562	33.723	0.519
466.000	306.956	80.006	19.994	103.944	19.568	33.258	0.519
466.500	307.185	80.005	19.993	103.943	19.568	33.264	0.526
467.000	307.435	80.009	19.992	103.941	19.571	32.993	0.502
467.500	307.710	80.007	19.992	103.941	19.572	32.896	0.502
468.000	307.942	80.007	19.993	103.942	19.574	32.748	0.516
468.500	308.168	80.006	19.992	103.942	19.578	32.462	0.482
469.000	308.435	80.008	19.992	103.942	19.583	32.009	0.475
469.500	308.708	80.006	19.994	103.944	19.584	31.974	0.517
470.000	308.938	80.006	19.993	103.943	19.586	31.851	0.522
470.500	309.217	80.006	19.992	103.944	19.589	31.570	0.506
471.001	309.417	80.006	19.994	103.943	19.592	31.322	0.494
471.500	309.689	80.005	19.994	103.942	19.595	31.106	0.476
472.000	309.970	80.006	19.994	103.942	19.598	30.820	0.513
472.500	310.206	80.008	19.993	103.939	19.602	30.528	0.535
473.000	310.484	80.006	19.992	103.935	19.605	30.314	0.516
473.500	310.718	80.008	19.993	103.933	19.607	30.133	0.513
474.000	310.980	80.007	19.993	103.933	19.610	29.893	0.504
474.500	311.212	80.006	19.993	103.933	19.614	29.629	0.495
475.000	311.485	80.007	19.993	103.936	19.617	29.396	0.499
475.500	311.760	80.007	19.993	103.938	19.619	29.170	0.526
476.000	312.027	80.006	19.993	103.939	19.621	29.056	0.545
476.500	312.316	80.007	19.992	103.937	19.625	28.727	0.549
477.000	312.546	80.007	19.995	103.931	19.631	28.228	0.538
477.501	312.771	80.008	19.993	103.930	19.632	28.204	0.487
478.000	313.039	80.008	19.993	103.926	19.635	27.953	0.474
478.500	313.305	80.009	19.994	103.922	19.638	27.724	0.514
479.000	313.576	80.006	19.993	103.918	19.645	27.107	0.535
479.500	313.835	80.006	19.993	103.921	19.645	27.144	0.533
480.000	314.095	80.006	19.994	103.925	19.647	26.998	0.524
480.500	314.326	80.008	19.993	103.930	19.650	26.776	0.505
481.000	314.619	80.009	19.993	103.934	19.653	26.497	0.507
481.500	314.843	80.008	19.994	103.936	19.657	26.213	0.521
482.000	315.127	80.009	19.994	103.931	19.661	25.858	0.513
482.500	315.401	80.008	19.993	103.923	19.666	25.503	0.533
483.000	315.653	80.008	19.993	103.916	19.668	25.303	0.542
483.500	315.893	80.006	19.994	103.914	19.671	25.119	0.509
484.000	316.168	80.010	19.994	103.921	19.675	24.790	0.503
484.500	316.363	80.008	19.993	103.927	19.675	24.768	0.493
485.000	316.638	80.008	19.994	103.928	19.679	24.417	0.471
485.500	316.916	80.007	19.993	103.928	19.682	24.184	0.512
486.000	317.202	80.008	19.993	103.922	19.685	23.966	0.558
486.500	317.472	80.008	19.993	103.915	19.688	23.711	0.560
487.000	317.697	80.007	19.994	103.908	19.691	23.504	0.525
487.500	317.957	80.006	19.994	103.906	19.691	23.507	0.490
488.000	318.163	80.007	19.993	103.906	19.696	23.119	0.476
488.500	318.438	80.005	19.994	103.906	19.699	22.833	0.474
489.000	318.729	80.007	19.995	103.906	19.701	22.711	0.524
489.500	318.973	80.009	19.992	103.906	19.703	22.570	0.550
490.000	319.221	80.007	19.994	103.907	19.707	22.208	0.513
490.500	319.441	80.009	19.995	103.907	19.711	21.911	0.480
491.000	319.733	80.007	19.994	103.906	19.708	22.191	0.490
491.500	319.940	80.008	19.994	103.906	19.712	21.811	0.506
492.000	320.222	80.007	19.994	103.907	19.713	21.728	0.494
492.500	320.459	80.008	19.992	103.907	19.717	21.440	0.504
493.000	320.714	80.007	19.994	103.908	19.719	21.291	0.505
493.500	320.944	80.005	19.993	103.908	19.721	21.148	0.488
494.000	321.211	80.007	19.993	103.909	19.723	20.983	0.491
494.500	321.476	80.008	19.993	103.908	19.725	20.788	0.514
495.000	321.723	80.006	19.994	103.907	19.728	20.545	0.522
495.500	322.000	80.006	19.994	103.907	19.731	20.336	0.518
496.000	322.286	80.007	19.993	103.908	19.733	20.176	0.544
496.500	322.512	80.005	19.993	103.908	19.733	20.150	0.537
497.000	322.751	80.006	19.993	103.909	19.735	20.018	0.489
497.500	323.024	80.007	19.994	103.910	19.739	19.709	0.489
498.000	323.253	80.008	19.993	103.907	19.741	19.539	0.507
498.500	323.493	80.009	19.993	103.903	19.744	19.282	0.486
499.000	323.777	80.008	19.993	103.903	19.744	19.341	0.497
499.500	323.996	80.006	19.992	103.903	19.750	18.844	0.513
500.000	324.265	80.008	19.992	103.900	19.747	19.067	0.495
500.500	324.520	80.006	19.993	103.903	19.749	18.884	0.506
501.000	324.754	80.008	19.993	103.905	19.751	18.755	0.507
501.500	325.032	80.006	19.992	103.901	19.753	18.616	0.500
502.000	325.290	80.009	19.992	103.897	19.754	18.509	0.524
502.500	325.562	80.007	19.993	103.893	19.759	18.121	0.533
503.000	325.778	80.008	19.992	103.891	19.757	18.304	0.509
503.500	326.002	80.008	19.992	103.893	19.759	18.149	0.464
504.000	326.298	80.009	19.992	103.896	19.758	18.218	0.480
504.500	326.547	80.007	19.992	103.901	19.761	17.938	0.533
505.000	326.754	80.008	19.992	103.903	19.764	17.705	0.501
505.500	327.034	80.008	19.993	103.898	19.763	17.825	0.472
506.000	327.295	80.008	19.992	103.896	19.766	17.605	0.514
506.500	327.520	80.008	19.992	103.894	19.765	17.616	0.514
507.000	327.748	80.009	19.994	103.893	19.769	17.324	0.470
507.500	328.014	80.010	19.992	103.894	19.770	17.231	0.473
508.000	328.242	80.007	19.993	103.898	19.770	17.270	0.494
508.500	328.529	80.008	19.993	103.899	19.774	16.941	0.504
509.000	328.775	80.008	19.992	103.901	19.773	17.024	0.523
509.500	329.083	80.008	19.992	103.902	19.775	16.849	0.544
510.000	329.332	80.008	19.992	103.903	19.778	16.652	0.556
510.500	329.555	80.008	19.993	103.900	19.779	16.558	0.514
511.000	329.751	80.007	19.993	103.897	19.780	16.420	0.445
511.500	330.029	80.009	19.993	103.896	19.780	16.428	0.447
512.000	330.292	80.007	19.993	103.895	19.779	16.500	0.508
512.500	330.554	80.006	19.993	103.895	19.783	16.237	0.532
513.000	330.789	80.008	19.992	103.895	19.784	16.153	0.511
513.500	330.989	80.006	19.993	103.896	19.785	16.101	0.466
514.000	331.309	80.008	19.993	103.894	19.785	16.057	0.478
514.500	331.555	80.008	19.992	103.891	19.787	15.871	0.543
515.000	331.815	80.008	19.993	103.887	19.786	16.008	0.536
515.500	332.032	80.007	19.992	103.882	19.789	15.781	0.492
516.000	332.299	80.007	19.994	103.881	19.786	15.981	0.481
516.500	332.593	80.008	19.994	103.882	19.788	15.817	0.523
517.000	332.804	80.007	19.994	103.888	19.789	15.728	0.533
517.500	333.049	80.008	19.994	103.888	19.791	15.593	0.481
518.000	333.308	80.008	19.994	103.889	19.791	15.628	0.480
518.500	333.559	80.007	19.995	103.893	19.793	15.462	0.507
519.000	333.783	80.006	19.994	103.893	19.797	15.150	0.492
519.500	334.016	80.007	19.994	103.890	19.792	15.523	0.466
520.000	334.323	80.005	19.994	103.890	19.794	15.390	0.498
520.500	334.535	80.008	19.995	103.889	19.793	15.427	0.529
521.000	334.805	80.009	19.994	103.884	19.794	15.327	0.501
521.500	335.061	80.005	19.994	103.880	19.795	15.286	0.504
522.000	335.340	80.007	19.994	103.876	19.796	15.227	0.530
522.500	335.567	80.007	19.993	103.875	19.794	15.334	0.521
523.000	335.822	80.008	19.994	103.875	19.797	15.153	0.494
523.500	336.109	80.008	19.993	103.878	19.796	15.199	0.512
524.000	336.325	80.008	19.995	103.882	19.797	15.151	0.522
524.500	336.577	80.006	19.994	103.883	19.795	15.307	0.486
525.000	336.814	80.007	19.994	103.882	19.797	15.085	0.479
525.500	337.038	80.008	19.994	103.881	19.798	15.004	0.475
526.000	337.294	80.007	19.993	103.877	19.796	15.205	0.471
526.500	337.569	80.009	19.994	103.871	19.798	15.045	0.506
527.000	337.801	80.007	19.994	103.869	19.797	15.080	0.519
527.500	338.109	80.008	19.993	103.869	19.798	15.048	0.523
528.000	338.340	80.008	19.993	103.869	19.797	15.091	0.539
528.500	338.586	80.008	19.994	103.868	19.796	15.193	0.508
529.000	338.821	80.009	19.993	103.868	19.797	15.104	0.479
529.500	339.081	80.008	19.992	103.868	19.797	15.098	0.488
530.000	339.328	80.009	19.994	103.868	19.794	15.340	0.502
530.500	339.600	80.010	19.994	103.867	19.794	15.348	0.513
531.000	339.838	80.009	19.994	103.868	19.797	15.098	0.514
531.500	340.087	80.010	19.994	103.868	19.795	15.257	0.498
532.000	340.351	80.008	19.993	103.868	19.797	15.131	0.500
532.500	340.579	80.011	19.993	103.870	19.794	15.381	0.503
533.000	340.841	80.009	19.993	103.871	19.793	15.425	0.491
533.500	341.103	80.010	19.995	103.872	19.796	15.192	0.507
534.001	341.390	80.009	19.993	103.872	19.797	15.090	0.536
534.500	341.607	80.009	19.993	103.872	19.796	15.192	0.526
535.000	341.861	80.008	19.993	103.870	19.797	15.107	0.488
535.501	342.090	80.011	19.994	103.868	19.795	15.246	0.477
536.000	342.330	80.009	19.993	103.868	19.794	15.325	0.476
536.500	342.582	80.009	19.993	103.868	19.795	15.290	0.480
537.000	342.832	80.008	19.993	103.867	19.796	15.166	0.497
537.500	343.083	80.009	19.992	103.866	19.794	15.349	0.501
538.000	343.289	80.008	19.993	103.867	19.792	15.497	0.479
538.500	343.541	80.009	19.993	103.865	19.793	15.425	0.457
539.000	343.791	80.007	19.994	103.866	19.793	15.451	0.480
539.500	344.043	80.010	19.993	103.865	19.794	15.320	0.502
540.000	344.291	80.007	19.994	103.865	19.790	15.656	0.501
540.500	344.557	80.007	19.993	103.866	19.792	15.536	0.507
541.000	344.807	80.006	19.993	103.866	19.791	15.592	0.515
541.500	345.046	80.008	19.994	103.866	19.783	16.185	0.503
542.000	345.290	80.007	19.993	103.867	19.784	16.120	0.486
542.500	345.577	80.009	19.994	103.868	19.785	16.046	0.507
543.000	345.812	80.008	19.994	103.869	19.786	15.961	0.526
543.500	346.088	80.006	19.993	103.869	19.782	16.262	0.516
544.000	346.323	80.006	19.994	103.869	19.780	16.456	0.511
544.500	346.568	80.006	19.993	103.871	19.785	16.090	0.496
545.000	346.810	80.006	19.994	103.871	19.782	16.294	0.483
545.500	347.042	80.006	19.994	103.869	19.778	16.606	0.481
546.000	347.294	80.007	19.994	103.869	19.780	16.469	0.479
546.500	347.573	80.006	19.995	103.869	19.778	16.615	0.507
547.000	347.795	80.007	19.996	103.867	19.777	16.676	0.516
547.500	348.096	80.006	19.994	103.867	19.776	16.798	0.512
548.000	348.309	80.005	19.995	103.868	19.774	16.950	0.519
548.500	348.541	80.006	19.994	103.868	19.771	17.208	0.479
549.000	348.810	80.007	19.996	103.867	19.770	17.229	0.473
549.500	349.055	80.006	19.995	103.867	19.768	17.443	0.507
550.000	349.298	80.006	19.995	103.867	19.767	17.500	0.501
550.500	349.588	80.007	19.994	103.867	19.765	17.639	0.511
551.000	349.833	80.006	19.994	103.866	19.764	17.751	0.534
551.500	350.080	80.007	19.994	103.867	19.760	18.041	0.513
552.000	350.303	80.005	19.995	103.867	19.753	18.557	0.481
552.500	350.534	80.007	19.996	103.867	19.755	18.411	0.462
553.000	350.827	80.006	19.995	103.867	19.752	18.708	0.489
553.500	351.049	80.005	19.994	103.867	19.749	18.910	0.520
554.000	351.307	80.005	19.994	103.868	19.748	18.967	0.498
554.500	351.562	80.008	19.994	103.868	19.748	18.960	0.496
555.000	351.848	80.007	19.994	103.868	19.745	19.241	0.527
555.500	352.037	80.007	19.994	103.868	19.741	19.509	0.508
556.000	352.278	80.006	19.994	103.868	19.739	19.670	0.453
556.500	352.569	80.007	19.995	103.867	19.740	19.646	0.481
557.000	352.822	80.006	19.994	103.867	19.739	19.689	0.538
557.500	353.033	80.005	19.994	103.867	19.735	20.049	0.504
558.001	353.342	80.006	19.995	103.868	19.731	20.317	0.492
558.500	353.594	80.009	19.994	103.868	19.732	20.250	0.541
559.000	353.844	80.008	19.994	103.869	19.729	20.528	0.531
559.500	354.091	80.007	19.994	103.868	19.725	20.825	0.499
560.000	354.364	80.008	19.993	103.868	19.724	20.869	0.509
560.500	354.576	80.008	19.993	103.868	19.721	21.117	0.502
561.000	354.851	80.008	19.993	103.869	19.717	21.455	0.486
561.500	355.073	80.007	19.993	103.869	19.714	21.664	0.492
562.000	355.350	80.006	19.994	103.870	19.713	21.731	0.498
562.500	355.555	80.006	19.993	103.871	19.707	22.197	0.491
563.000	355.814	80.007	19.993	103.872	19.704	22.474	0.473
563.500	356.040	80.007	19.993	103.872	19.702	22.588	0.474
564.000	356.320	80.007	19.993	103.872	19.699	22.867	0.495
564.500	356.578	80.007	19.993	103.872	19.696	23.082	0.522
565.000	356.838	80.008	19.993	103.871	19.688	23.695	0.528
565.500	357.063	80.008	19.994	103.872	19.688	23.772	0.502
566.000	357.289	80.006	19.993	103.872	19.682	24.245	0.468
566.500	357.536	80.006	19.993	103.871	19.677	24.568	0.462
567.000	357.781	80.005	19.992	103.869	19.672	25.012	0.482
567.500	358.013	80.006	19.994	103.868	19.667	25.394	0.484
568.000	358.265	80.008	19.992	103.866	19.664	25.624	0.481
568.500	358.538	80.009	19.993	103.866	19.663	25.706	0.504
569.000	358.790	80.007	19.993	103.869	19.658	26.143	0.525
569.500	359.074	80.008	19.993	103.870	19.655	26.340	0.530
570.000	359.303	80.006	19.993	103.873	19.648	26.905	0.524
570.500	359.551	80.008	19.993	103.878	19.643	27.315	0.495
571.000	359.798	80.007	19.993	103.879	19.638	27.689	0.486
571.500	360.061	80.008	19.992	103.878	19.632	28.169	0.503
572.000	360.321	80.007	19.992	103.877	19.625	28.730	0.516
572.500	360.584	80.006	19.994	103.876	19.622	28.990	0.523
573.000	360.844	80.007	19.994	103.875	19.616	29.392	0.523
573.500	361.091	80.007	19.993	103.874	19.611	29.797	0.515
574.000	361.342	80.006	19.992	103.874	19.603	30.463	0.502
574.500	361.589	80.005	19.993	103.876	19.596	31.013	0.498
575.000	361.799	80.006	19.992	103.879	19.590	31.481	0.477
575.500	362.073	80.006	19.991	103.876	19.582	32.114	0.470
576.000	362.324	80.008	19.993	103.877	19.579	32.363	0.505
576.500	362.560	80.007	19.996	103.882	19.572	32.922	0.506
577.000	362.844	80.005	19.994	103.888	19.563	33.585	0.503
577.500	363.029	80.004	19.994	103.890	19.560	33.853	0.495
578.000	363.317	80.007	19.995	103.896	19.551	34.605	0.472
578.500	363.526	80.005	19.992	103.900	19.542	35.279	0.485
579.000	363.804	80.007	19.994	103.902	19.537	35.686	0.492
579.500	364.060	80.007	19.993	103.898	19.531	36.118	0.510
580.000	364.285	80.006	19.993	103.895	19.522	36.870	0.507
580.500	364.549	80.006	19.995	103.892	19.514	37.478	0.485
581.000	364.780	80.008	19.992	103.892	19.505	38.218	0.493
581.500	365.019	80.006	19.993	103.894	19.498	38.785	0.483
582.000	365.297	80.005	19.993	103.897	19.488	39.565	0.493
582.500	365.551	80.008	19.993	103.901	19.479	40.256	0.524
583.000	365.776	80.006	19.993	103.902	19.468	41.113	0.505
583.500	366.059	80.006	19.993	103.903	19.463	41.552	0.494
584.000	366.298	80.007	19.994	103.900	19.451	42.488	0.515
584.500	366.493	80.006	19.993	103.899	19.441	43.288	0.477
585.000	366.753	80.007	19.993	103.901	19.433	43.937	0.444
585.500	366.987	80.008	19.993	103.904	19.421	44.869	0.475
586.000	367.245	80.009	19.993	103.902	19.411	45.684	0.493
586.500	367.489	80.008	19.994	103.905	19.401	46.416	0.497
587.000	367.744	80.007	19.996	103.906	19.388	47.486	0.500
587.500	368.001	80.007	19.995	103.907	19.378	48.244	0.505
588.000	368.245	80.008	19.993	103.908	19.368	49.048	0.507
588.500	368.472	80.010	19.993	103.909	19.358	49.884	0.486
589.000	368.691	80.009	19.993	103.909	19.345	50.903	0.459
589.500	368.960	80.007	19.993	103.909	19.335	51.672	0.467
590.000	369.207	80.009	19.993	103.909	19.322	52.727	0.502
590.500	369.501	80.009	19.993	103.908	19.311	53.549	0.528
591.000	369.713	80.009	19.996	103.907	19.298	54.567	0.523
591.500	369.983	80.008	19.994	103.908	19.287	55.494	0.494
592.000	370.182	80.009	19.993	103.909	19.275	56.446	0.475
592.500	370.455	80.009	19.992	103.909	19.262	57.444	0.471
593.000	370.713	80.006	19.993	103.909	19.247	58.628	0.501
593.500	370.953	80.010	19.993	103.909	19.232	59.854	0.514
594.000	371.199	80.006	19.993	103.909	19.217	61.021	0.492
594.500	371.463	80.009	19.993	103.911	19.200	62.358	0.498
595.000	371.688	80.007	19.993	103.912	19.187	63.406	0.499
595.500	371.953	80.010	19.993	103.912	19.172	64.595	0.489
596.000	372.180	80.009	19.992	103.916	19.156	65.821	0.491
596.500	372.423	80.010	19.993	103.922	19.141	66.997	0.481
597.000	372.684	80.008	19.993	103.927	19.123	68.432	0.487
597.500	372.955	80.010	19.994	103.932	19.109	69.565	0.518
598.000	373.195	80.008	19.992	103.939	19.093	70.837	0.522
598.500	373.413	80.008	19.992	103.941	19.072	72.509	0.485
599.000	373.699	80.009	19.993	103.941	19.056	73.777	0.481
599.500	373.919	80.009	19.992	103.941	19.038	75.148	0.505
600.000	374.187	80.009	19.994	103.943	19.022	76.433	0.497
600.500	374.455	80.008	19.993	103.941	19.003	77.911	0.512
601.000	374.675	80.008	19.994	103.940	18.986	79.253	0.512
601.500	374.920	80.008	19.992	103.940	18.963	81.087	0.476
602.000	375.175	80.009	19.994	103.939	18.949	82.236	0.482
602.500	375.389	80.009	19.993	103.939	18.928	83.876	0.485
603.000	375.678	80.008	19.993	103.941	18.908	85.443	0.486
603.500	375.923	80.009	19.994	103.943	18.885	87.301	0.518
604.000	376.168	80.008	19.994	103.943	18.866	88.733	0.512
604.500	376.413	80.008	19.992	103.944	18.845	90.408	0.490
605.000	376.637	80.008	19.992	103.944	18.823	92.138	0.479
605.500	376.909	80.008	19.993	103.945	18.801	93.929	0.482
606.000	377.144	80.008	19.993	103.946	18.779	95.645	0.502
606.500	377.420	80.008	19.993	103.947	18.759	97.233	0.509
607.000	377.673	80.008	19.992	103.948	18.728	99.672	0.520
607.500	377.904	80.008	19.992	103.948	18.709	101.187	0.507
608.000	378.156	80.008	19.994	103.948	18.686	103.028	0.484
608.500	378.360	80.009	19.992	103.947	18.657	105.292	0.469
609.000	378.653	80.008	19.991	103.947	18.634	107.153	0.476
609.500	378.872	80.008	19.992	103.950	18.610	109.060	0.504
610.000	379.139	80.009	19.993	103.954	18.586	110.947	0.499
610.500	379.397	80.008	19.994	103.956	18.561	112.921	0.506
611.000	379.618	80.009	19.992	103.959	18.536	114.847	0.502
611.500	379.896	80.010	19.993	103.961	18.514	116.649	0.489
612.000	380.141	80.011	19.993	103.961	18.488	118.657	0.511
612.500	380.376	80.008	19.993	103.958	18.462	120.719	0.501
613.000	380.627	80.010	19.992	103.958	18.438	122.650	0.483
613.500	380.837	80.011	19.994	103.954	18.409	124.871	0.473
614.000	381.106	80.009	19.992	103.953	18.385	126.800	0.470
614.500	381.338	80.008	19.992	103.950	18.355	129.150	0.490
615.000	381.598	80.009	19.994	103.950	18.330	131.164	0.497
615.500	381.861	80.009	19.993	103.949	18.305	133.154	0.508
616.000	382.077	80.009	19.993	103.950	18.274	135.557	0.501
616.500	382.374	80.012	19.994	103.952	18.246	137.826	0.496
617.000	382.607	80.010	19.993	103.954	18.220	139.904	0.521
617.500	382.813	80.010	19.993	103.955	18.192	142.047	0.484
618.000	383.045	80.009	19.993	103.955	18.168	143.996	0.439
618.500	383.288	80.009	19.993	103.956	18.135	146.585	0.457
619.000	383.573	80.008	19.994	103.955	18.109	148.622	0.501
619.500	383.816	80.009	19.994	103.952	18.082	150.800	0.528
620.000	384.092	80.010	19.993	103.951	18.056	152.866	0.523
620.501	384.306	80.009	19.993	103.953	18.026	155.189	0.504
621.001	384.549	80.010	19.994	103.954	18.000	157.291	0.474
621.500	384.798	80.009	19.993	103.954	17.974	159.321	0.475
622.000	385.058	80.008	19.994	103.954	17.949	161.305	0.501
622.500	385.320	80.008	19.993	103.954	17.920	163.546	0.516
623.000	385.562	80.009	19.994	103.950	17.894	165.562	0.512
623.500	385.779	80.007	19.993	103.947	17.870	167.462	0.481
624.001	386.054	80.007	19.993	103.944	17.847	169.276	0.476
624.500	386.283	80.007	19.993	103.940	17.823	171.232	0.498
625.000	386.514	80.007	19.994	103.938	17.797	173.266	0.482
625.500	386.761	80.006	19.993	103.940	17.774	175.088	0.469
626.001	387.031	80.006	19.994	103.939	17.749	177.067	0.497
626.501	387.272	80.007	19.992	103.940	17.721	179.208	0.514
627.001	387.502	80.006	19.994	103.945	17.694	181.337	0.491
627.500	387.785	80.008	19.994	103.945	17.674	182.961	0.492
628.000	388.027	80.007	19.993	103.945	17.650	184.799	0.520
628.500	388.276	80.007	19.992	103.946	17.628	186.578	0.508
629.000	388.502	80.007	19.992	103.944	17.600	188.737	0.483
629.500	388.775	80.006	19.993	103.943	17.579	190.423	0.486
630.000	388.979	80.007	19.993	103.942	17.560	191.925	0.488
630.500	389.263	80.007	19.993	103.942	17.537	193.714	0.483
631.000	389.485	80.006	19.993	103.942	17.519	195.201	0.497
631.500	389.718	80.005	19.993	103.941	17.495	197.051	0.480
632.000	389.977	80.007	19.993	103.936	17.478	198.442	0.474
632.500	390.201	80.007	19.993	103.929	17.459	199.905	0.488
633.000	390.458	80.008	19.993	103.922	17.439	201.491	0.482
633.500	390.673	80.006	19.994	103.915	17.423	202.749	0.476
634.000	390.946	80.007	19.993	103.912	17.405	204.124	0.480
634.500	391.171	80.006	19.993	103.912	17.387	205.547	0.494
635.000	391.471	80.008	19.993	103.910	17.376	206.441	0.512
635.500	391.693	80.005	19.992	103.908	17.361	207.610	0.523
636.000	391.972	80.008	19.993	103.903	17.346	208.749	0.512
636.500	392.185	80.008	19.994	103.897	17.334	209.728	0.497
637.000	392.449	80.006	19.993	103.893	17.322	210.690	0.484
637.500	392.713	80.007	19.993	103.887	17.312	211.427	0.502
638.000	392.934	80.005	19.994	103.881	17.301	212.305	0.507
638.500	393.218	80.007	19.993	103.878	17.291	213.093	0.495
639.000	393.438	80.005	19.994	103.875	17.282	213.804	0.504
639.500	393.719	80.006	19.993	103.870	17.273	214.520	0.503
640.000	393.981	80.006	19.994	103.870	17.265	215.135	0.522
640.500	394.205	80.007	19.993	103.869	17.261	215.477	0.514
641.000	394.479	80.005	19.993	103.870	17.251	216.297	0.492
641.500	394.779	80.006	19.991	103.869	17.246	216.645	0.536
642.000	395.009	80.006	19.993	103.869	17.240	217.158	0.552
642.500	395.264	80.006	19.994	103.869	17.236	217.449	0.508
643.000	395.500	80.007	19.993	103.869	17.235	217.488	0.488
643.500	395.738	80.006	19.993	103.868	17.235	217.528	0.482
644.000	395.980	80.008	19.994	103.866	17.235	217.479	0.476
644.500	396.270	80.007	19.993	103.863	17.234	217.576	0.506
645.001	396.523	80.006	19.993	103.855	17.238	217.241	0.538
645.501	396.756	80.007	19.994	103.847	17.245	216.713	0.515
646.000	397.010	80.008	19.993	103.840	17.250	216.305	0.486
646.500	397.278	80.007	19.993	103.835	17.253	216.041	0.504
647.000	397.532	80.007	19.993	103.831	17.258	215.680	0.522
647.500	397.774	80.006	19.993	103.831	17.263	215.226	0.509
648.000	398.021	80.007	19.993	103.824	17.273	214.502	0.492
648.500	398.282	80.007	19.994	103.817	17.278	214.092	0.499
649.000	398.550	80.007	19.993	103.816	17.287	213.412	0.519
649.500	398.802	80.006	19.993	103.816	17.294	212.861	0.524
650.000	399.027	80.006	19.994	103.814	17.303	212.143	0.499
650.500	399.319	80.005	19.993	103.819	17.315	211.202	0.497
651.000	399.563	80.006	19.993	103.826	17.326	210.349	0.526
651.500	399.798	80.006	19.994	103.826	17.338	209.405	0.507
652.000	400.042	80.007	19.994	103.825	17.348	208.587	0.479
652.500	400.335	80.006	19.993	103.825	17.365	207.279	0.508
653.000	400.569	80.006	19.993	103.824	17.375	206.447	0.532
653.500	400.813	80.008	19.995	103.820	17.392	205.114	0.502
654.000	401.068	80.008	19.994	103.813	17.404	204.169	0.489
654.500	401.328	80.007	19.994	103.810	17.422	202.749	0.507
655.000	401.583	80.006	19.993	103.808	17.437	201.549	0.515
655.500	401.837	80.006	19.993	103.802	17.452	200.386	0.512
656.000	402.081	80.007	19.993	103.799	17.469	198.997	0.503
656.500	402.343	80.007	19.993	103.801	17.484	197.773	0.502
657.000	402.579	80.008	19.994	103.802	17.502	196.387	0.502
657.500	402.859	80.005	19.993	103.797	17.520	194.922	0.508
658.000	403.111	80.007	19.994	103.800	17.534	193.806	0.524
658.500	403.400	80.007	19.993	103.799	17.554	192.276	0.536
659.000	403.644	80.006	19.993	103.801	17.568	191.146	0.537
659.500	403.907	80.006	19.992	103.800	17.587	189.671	0.520
660.000	404.190	80.008	19.993	103.806	17.604	188.297	0.526
660.500	404.427	80.007	19.993	103.809	17.621	186.991	0.533
661.000	404.683	80.007	19.993	103.813	17.638	185.612	0.507
661.500	404.943	80.006	19.993	103.814	17.656	184.164	0.505
662.000	405.202	80.008	19.993	103.816	17.675	182.719	0.517
662.501	405.459	80.007	19.992	103.818	17.693	181.249	0.517
663.000	405.737	80.007	19.993	103.821	17.710	179.953	0.526
663.500	405.986	80.008	19.996	103.822	17.728	178.517	0.531
664.000	406.262	80.008	19.993	103.820	17.747	177.028	0.526
664.500	406.473	80.006	19.993	103.818	17.765	175.569	0.506
665.000	406.706	80.007	19.993	103.818	17.782	174.269	0.466
665.500	406.991	80.008	19.993	103.812	17.804	172.548	0.482
666.000	407.273	80.007	19.992	103.807	17.822	171.096	0.543
666.500	407.568	80.008	19.993	103.807	17.842	169.496	0.572
667.000	407.809	80.008	19.993	103.805	17.861	168.059	0.557
667.500	408.059	80.009	19.993	103.798	17.880	166.549	0.514
668.000	408.318	80.008	19.993	103.795	17.899	165.011	0.499
668.500	408.573	80.008	19.992	103.796	17.920	163.419	0.512
669.000	408.898	80.009	19.993	103.794	17.943	161.547	0.547
669.500	409.081	80.009	19.993	103.792	17.962	160.065	0.544
670.000	409.394	80.009	19.993	103.789	17.981	158.562	0.502
670.500	409.659	80.009	19.993	103.788	18.008	156.460	0.537
671.000	409.905	80.009	19.993	103.787	18.026	155.052	0.544
671.500	410.121	80.008	19.993	103.787	18.049	153.237	0.486
672.000	410.399	80.010	19.993	103.787	18.070	151.545	0.478
672.500	410.665	80.010	19.993	103.789	18.092	149.846	0.519
673.000	410.915	80.010	19.993	103.790	18.113	148.131	0.530
673.500	411.138	80.009	19.993	103.790	18.135	146.395	0.494
674.000	411.470	80.009	19.993	103.790	18.160	144.457	0.514
674.500	411.692	80.009	19.992	103.790	18.186	142.431	0.555
675.000	411.982	80.009	19.994	103.795	18.206	140.780	0.533
675.500	412.201	80.010	19.992	103.796	18.231	138.877	0.511
676.000	412.491	80.009	19.994	103.797	18.249	137.387	0.509
676.500	412.771	80.010	19.993	103.800	18.274	135.437	0.540
677.000	412.977	80.010	19.992	103.803	18.295	133.801	0.528
677.500	413.263	80.009	19.993	103.800	18.318	131.979	0.489
678.000	413.493	80.009	19.994	103.799	18.336	130.510	0.504
678.500	413.768	80.008	19.993	103.802	18.359	128.702	0.511
679.000	414.019	80.008	19.992	103.807	18.382	126.890	0.516
679.500	414.249	80.007	19.993	103.811	18.404	125.209	0.503
680.000	414.510	80.008	19.993	103.815	18.422	123.743	0.486
680.500	414.795	80.008	19.994	103.821	18.446	121.894	0.519
681.000	415.010	80.008	19.992	103.825	18.465	120.352	0.523
681.500	415.235	80.008	19.993	103.826	18.486	118.699	0.470
682.000	415.570	80.009	19.993	103.826	18.505	117.215	0.500
682.500	415.788	80.008	19.994	103.827	18.525	115.593	0.557
683.000	416.041	80.009	19.993	103.828	18.547	113.916	0.512
683.500	416.288	80.009	19.993	103.828	18.561	112.780	0.486
684.000	416.563	80.009	19.993	103.828	18.584	110.946	0.511
684.500	416.796	80.009	19.992	103.828	18.602	109.560	0.515
685.000	417.080	80.009	19.992	103.828	18.620	108.096	0.512
685.500	417.331	80.010	19.991	103.829	18.640	106.550	0.526
686.000	417.547	80.009	19.995	103.828	18.657	105.211	0.501
686.500	417.805	80.010	19.991	103.829	18.677	103.626	0.471
687.000	418.095	80.008	19.992	103.829	18.695	102.245	0.511
687.501	418.306	80.009	19.993	103.829	18.717	100.477	0.524
688.001	418.593	80.009	19.992	103.829	18.733	99.190	0.499
688.500	418.881	80.009	19.992	103.830	18.749	97.937	0.536
689.000	419.112	80.009	19.994	103.830	18.767	96.510	0.547
689.500	419.427	80.010	19.991	103.832	18.784	95.161	0.532
690.000	419.639	80.010	19.994	103.832	18.805	93.467	0.537
690.500	419.914	80.010	19.993	103.834	18.821	92.234	0.507
691.000	420.143	80.009	19.993	103.836	18.840	90.759	0.496
691.500	420.429	80.010	19.993	103.837	18.855	89.528	0.510
692.000	420.687	80.010	19.992	103.836	18.874	88.083	0.530
692.500	420.934	80.010	19.992	103.836	18.889	86.854	0.525
693.000	421.201	80.010	19.992	103.834	18.905	85.559	0.510
693.500	421.453	80.010	19.993	103.835	18.919	84.474	0.517
694.000	421.695	80.009	19.992	103.836	18.938	82.992	0.506
694.500	421.952	80.010	19.992	103.839	18.952	81.913	0.496
695.000	422.180	80.011	19.992	103.843	18.969	80.576	0.492
695.500	422.478	80.008	19.991	103.845	18.981	79.626	0.506
696.000	422.707	80.010	19.993	103.847	18.996	78.400	0.527
696.500	422.996	80.010	19.992	103.852	19.011	77.263	0.523
697.000	423.256	80.010	19.991	103.856	19.025	76.101	0.533
697.500	423.479	80.011	19.993	103.855	19.039	75.032	0.515
698.000	423.754	80.011	19.992	103.857	19.059	73.415	0.490
698.500	424.008	80.011	19.993	103.857	19.068	72.704	0.514
699.000	424.238	80.009	19.992	103.850	19.085	71.354	0.507
699.500	424.523	80.011	19.993	103.846	19.097	70.448	0.499
700.000	424.789	80.010	19.993	103.843	19.112	69.249	0.533
700.501	424.992	80.010	19.991	103.841	19.129	67.947	0.510
701.000	425.288	80.010	19.993	103.841	19.138	67.177	0.484
701.500	425.545	80.010	19.993	103.846	19.152	66.056	0.526
702.000	425.836	80.010	19.993	103.849	19.166	64.951	0.550
702.500	426.029	80.009	19.992	103.849	19.180	63.836	0.516
703.000	426.319	80.009	19.993	103.849	19.197	62.508	0.484
703.500	426.503	80.009	19.993	103.846	19.206	61.844	0.479
704.000	426.850	80.009	19.992	103.843	19.223	60.481	0.502
704.500	427.041	80.009	19.994	103.843	19.235	59.560	0.535
705.000	427.322	80.009	19.993	103.847	19.242	58.972	0.505
705.500	427.543	80.008	19.992	103.852	19.260	57.541	0.487
706.000	427.838	80.008	19.993	103.856	19.270	56.726	0.509
706.500	428.084	80.009	19.993	103.862	19.284	55.688	0.529
707.000	428.333	80.007	19.994	103.865	19.293	54.946	0.518
707.500	428.600	80.008	19.993	103.867	19.311	53.533	0.505
708.000	428.872	80.007	19.994	103.866	19.321	52.727	0.527
708.500	429.125	80.007	19.994	103.865	19.337	51.465	0.532
709.000	429.344	80.008	19.993	103.861	19.341	51.150	0.499
709.500	429.634	80.008	19.993	103.860	19.359	49.753	0.491
710.000	429.834	80.007	19.994	103.858	19.365	49.231	0.499
710.500	430.143	80.006	19.993	103.859	19.381	47.959	0.500
711.000	430.364	80.007	19.995	103.859	19.387	47.528	0.519
711.500	430.604	80.007	19.993	103.860	19.403	46.270	0.495
712.000	430.867	80.006	19.995	103.859	19.416	45.256	0.483
712.500	431.099	80.007	19.992	103.857	19.421	44.810	0.499
713.000	431.416	80.007	19.992	103.850	19.437	43.527	0.521
713.500	431.637	80.008	19.994	103.851	19.434	43.823	0.543
714.000	431.931	80.008	19.993	103.853	19.447	42.766	0.527
714.500	432.111	80.007	19.992	103.855	19.466	41.291	0.494
715.000	432.384	80.006	19.994	103.856	19.470	40.917	0.464
715.500	432.672	80.006	19.994	103.862	19.487	39.630	0.507
716.000	432.894	80.008	19.993	103.862	19.495	38.993	0.535
716.500	433.190	80.007	19.994	103.859	19.507	38.052	0.514
717.000	433.419	80.006	19.994	103.858	19.516	37.316	0.522
717.500	433.659	80.007	19.994	103.861	19.525	36.572	0.497
718.000	433.943	80.008	19.993	103.861	19.537	35.645	0.497
718.500	434.135	80.006	19.993	103.862	19.542	35.274	0.500
719.000	434.440	80.009	19.994	103.867	19.558	33.965	0.486
719.500	434.772	80.007	19.994	103.866	19.566	33.338	0.567
720.000	435.042	80.008	19.994	103.864	19.575	32.653	0.619
720.500	435.245	80.008	19.993	103.860	19.585	31.864	0.537
721.000	435.393	80.008	19.994	103.853	19.592	31.278	0.412
721.500	435.844	80.008	19.993	103.848	19.602	30.530	0.475
722.000	435.967	80.008	19.994	103.844	19.612	29.743	0.587
722.500	436.358	80.008	19.993	103.843	19.618	29.229	0.545
723.000	436.380	80.008	19.993	103.847	19.628	28.453	0.464
723.500	436.855	80.008	19.993	103.852	19.631	28.235	0.454
724.000	437.026	80.009	19.993	103.853	19.643	27.322	0.571
724.500	437.091	80.009	19.995	103.853	19.652	26.537	0.441
725.001	437.574	80.008	19.994	103.852	19.658	26.110	0.392
725.500	437.720	80.008	19.993	103.851	19.662	25.769	0.589
726.000	438.130	80.009	19.993	103.854	19.671	25.076	0.592
726.500	438.556	80.010	19.994	103.856	19.682	24.236	0.696
727.000	438.398	80.007	19.993	103.860	19.687	23.816	0.552
727.500	438.352	80.008	19.993	103.862	19.697	22.990	0.032
728.000	439.094	80.010	19.994	103.863	19.700	22.740	0.246
728.500	439.727	80.009	19.993	103.859	19.710	22.014	1.035
729.000	439.669	80.009	19.993	103.857	19.720	21.220	0.975
729.500	439.644	80.008	19.994	103.857	19.721	21.146	0.246
730.000	440.347	80.009	19.993	103.859	19.731	20.358	0.297
730.500	440.376	80.007	19.994	103.861	19.737	19.881	0.705
731.000	440.447	80.006	19.992	103.863	19.745	19.216	0.416
731.500	440.839	80.008	19.994	103.862	19.751	18.724	0.281
732.000	441.218	80.008	19.993	103.856	19.757	18.237	0.617
732.500	441.268	80.008	19.994	103.849	19.762	17.870	0.600
733.000	441.613	80.008	19.993	103.847	19.768	17.391	0.412
733.500	441.929	80.008	19.993	103.846	19.774	16.925	0.528
734.000	442.006	80.008	19.994	103.847	19.781	16.384	0.527
734.500	442.347	80.008	19.993	103.852	19.786	15.981	0.405
735.000	442.638	80.006	19.994	103.853	19.791	15.614	0.525
735.500	442.887	80.007	19.993	103.850	19.797	15.088	0.586
736.000	443.157	80.007	19.996	103.844	19.800	14.833	0.530
736.500	443.305	80.009	19.994	103.839	19.809	14.143	0.468
737.000	443.663	80.009	19.995	103.838	19.813	13.879	0.462
737.500	443.831	80.006	19.994	103.842	19.816	13.575	0.516
738.000	444.140	80.007	19.995	103.844	19.820	13.316	0.501
738.500	444.320	80.007	19.995	103.844	19.825	12.858	0.483
739.000	444.626	80.006	19.994	103.844	19.831	12.457	0.487
739.500	444.881	80.008	19.995	103.841	19.832	12.316	0.523
740.000	445.110	80.007	19.994	103.837	19.840	11.693	0.523
740.500	445.348	80.006	19.994	103.839	19.839	11.773	0.475
741.000	445.634	80.007	19.994	103.841	19.849	11.002	0.495
741.500	445.881	80.007	19.993	103.841	19.850	10.923	0.529
742.000	446.144	80.006	19.992	103.838	19.854	10.598	0.522
742.500	446.400	80.007	19.995	103.840	19.858	10.304	0.514
743.000	446.671	80.007	19.995	103.838	19.860	10.152	0.523
743.500	446.911	80.007	19.992	103.840	19.867	9.594	0.519
744.000	447.121	80.008	19.995	103.846	19.871	9.250	0.481
744.500	447.430	80.006	19.994	103.849	19.872	9.156	0.485
745.000	447.610	80.007	19.996	103.844	19.875	8.971	0.504
745.500	447.926	80.008	19.994	103.841	19.882	8.424	0.493
746.000	448.196	80.007	19.995	103.838	19.881	8.505	0.541
746.500	448.397	80.008	19.994	103.832	19.881	8.474	0.528
747.000	448.697	80.008	19.996	103.831	19.886	8.082	0.486
747.500	448.939	80.007	19.994	103.832	19.887	8.035	0.521
748.000	449.184	80.010	19.994	103.832	19.893	7.558	0.514
748.500	449.417	80.008	19.995	103.834	19.893	7.507	0.483
749.000	449.693	80.008	19.994	103.838	19.897	7.191	0.494
749.500	449.941	80.008	19.993	103.839	19.898	7.126	0.517
750.000	450.200	80.008	19.993	103.838	19.902	6.847	0.515
750.500	450.427	80.009	19.994	103.839	19.904	6.660	0.496
751.000	450.727	80.008	19.994	103.838	19.903	6.749	0.507
751.500	450.945	80.010	19.993	103.835	19.906	6.479	0.523
752.000	451.236	80.009	19.993	103.832	19.908	6.313	0.513
752.500	451.474	80.009	19.995	103.833	19.910	6.165	0.519
753.000	451.706	80.009	19.993	103.832	19.909	6.259	0.499
753.500	451.992	80.008	19.994	103.830	19.913	5.982	0.494
754.000	452.248	80.010	19.993	103.830	19.913	5.974	0.530
754.500	452.458	80.009	19.993	103.831	19.913	5.922	0.504
755.000	452.723	80.009	19.994	103.832	19.915	5.748	0.471
755.500	452.993	80.007	19.990	103.832	19.916	5.719	0.505
756.000	453.258	80.009	19.992	103.832	19.918	5.516	0.535
756.500	453.499	80.008	19.994	103.832	19.917	5.604	0.520
757.000	453.746	80.009	19.993	103.832	19.919	5.490	0.497
757.500	454.048	80.009	19.994	103.832	19.923	5.172	0.519
758.000	454.291	80.009	19.993	103.833	19.924	5.109	0.547
758.500	454.506	80.009	19.992	103.834	19.923	5.170	0.501
759.000	454.786	80.008	19.993	103.835	19.927	4.812	0.476
759.500	455.069	80.009	19.993	103.834	19.924	5.045	0.529
760.000	455.333	80.009	19.992	103.833	19.925	5.030	0.555
760.500	455.558	80.009	19.991	103.833	19.927	4.801	0.519
761.000	455.836	80.008	19.990	103.833	19.929	4.673	0.496
761.500	456.059	80.009	19.992	103.832	19.929	4.706	0.502
762.000	456.328	80.008	19.992	103.832	19.931	4.554	0.497
762.500	456.574	80.008	19.993	103.832	19.932	4.421	0.504
763.000	456.823	80.008	19.992	103.832	19.931	4.514	0.505
763.500	457.102	80.009	19.992	103.832	19.933	4.368	0.512
764.000	457.380	80.009	19.991	103.832	19.933	4.359	0.543
764.500	457.613	80.009	19.995	103.836	19.932	4.442	0.534
765.000	457.916	80.006	19.991	103.837	19.932	4.455	0.523
765.500	458.108	80.009	19.994	103.842	19.935	4.174	0.516
766.000	458.375	80.008	19.992	103.843	19.934	4.314	0.478
766.500	458.624	80.007	19.991	103.843	19.933	4.397	0.487
767.000	458.897	80.010	19.993	103.839	19.932	4.468	0.519
767.500	459.188	80.009	19.992	103.840	19.934	4.288	0.543
768.000	459.414	80.007	19.994	103.835	19.936	4.100	0.540
768.500	459.681	80.009	19.993	103.834	19.932	4.446	0.505
769.000	459.934	80.008	19.993	103.834	19.937	4.052	0.506
769.500	460.193	80.009	19.994	103.834	19.937	4.054	0.516
770.000	460.467	80.009	19.993	103.832	19.936	4.148	0.523
770.500	460.687	80.010	19.993	103.831	19.936	4.141	0.513
771.000	460.968	80.008	19.992	103.832	19.936	4.098	0.497
771.500	461.249	80.008	19.994	103.832	19.934	4.307	0.531
772.000	461.488	80.008	19.992	103.837	19.935	4.185	0.541
772.500	461.729	80.008	19.993	103.843	19.935	4.213	0.501
773.000	461.988	80.008	19.993	103.843	19.937	4.026	0.490
773.500	462.235	80.010	19.993	103.843	19.936	4.146	0.503
774.000	462.547	80.009	19.994	103.844	19.937	4.078	0.533
774.500	462.767	80.010	19.994	103.839	19.935	4.198	0.546
775.000	463.043	80.010	19.992	103.833	19.936	4.122	0.514
775.500	463.321	80.010	19.995	103.833	19.938	3.937	0.525
776.000	463.543	80.009	19.993	103.833	19.937	4.042	0.527
776.500	463.851	80.011	19.993	103.833	19.939	3.872	0.515
777.000	464.068	80.009	19.993	103.838	19.936	4.111	0.527
777.500	464.341	80.009	19.994	103.840	19.936	4.124	0.508
778.000	464.585	80.010	19.992	103.840	19.937	4.041	0.504
778.500	464.832	80.010	19.993	103.840	19.937	4.069	0.504
779.000	465.083	80.010	19.993	103.840	19.938	3.995	0.494
779.500	465.353	80.010	19.992	103.834	19.939	3.856	0.509
780.000	465.609	80.009	19.991	103.832	19.938	3.947	0.524
780.500	465.835	80.010	19.992	103.833	19.938	3.952	0.504
781.000	466.131	80.011	19.991	103.833	19.939	3.889	0.502
781.500	466.388	80.010	19.992	103.833	19.940	3.810	0.537
782.000	466.630	80.010	19.992	103.833	19.940	3.782	0.526
782.500	466.853	80.011	19.992	103.834	19.940	3.834	0.482
783.000	467.167	80.011	19.992	103.833	19.940	3.791	0.500
783.500	467.412	80.011	19.993	103.833	19.939	3.893	0.548
784.000	467.699	80.010	19.991	103.832	19.940	3.804	0.546
784.500	467.963	80.010	19.990	103.832	19.939	3.902	0.542
785.000	468.202	80.011	19.993	103.832	19.937	4.011	0.527
785.500	468.482	80.010	19.991	103.837	19.938	3.948	0.511
786.000	468.686	80.010	19.995	103.843	19.937	4.082	0.501
786.500	468.972	80.010	19.991	103.844	19.937	4.052	0.486
787.000	469.195	80.009	19.992	103.844	19.940	3.797	0.499
787.500	469.460	80.009	19.993	103.843	19.939	3.908	0.499
788.000	469.699	80.008	19.994	103.838	19.939	3.873	0.496
788.500	470.015	80.008	19.995	103.831	19.941	3.725	0.530
789.000	470.268	80.008	19.993	103.829	19.940	3.817	0.562
789.500	470.518	80.008	19.993	103.828	19.940	3.847	0.536
790.000	470.811	80.007	19.992	103.828	19.940	3.828	0.524
790.500	471.032	80.007	19.993	103.827	19.941	3.758	0.529
791.000	471.292	80.008	19.993	103.827	19.940	3.812	0.497
791.500	471.558	80.008	19.992	103.827	19.940	3.793	0.503
792.000	471.798	80.007	19.992	103.828	19.942	3.618	0.516
792.500	472.060	80.007	19.993	103.830	19.940	3.806	0.504
793.000	472.334	80.009	19.991	103.830	19.939	3.906	0.519
793.500	472.618	80.008	19.993	103.831	19.939	3.880	0.547
794.000	472.890	80.009	19.992	103.835	19.945	3.407	0.557
794.500	473.154	80.008	19.993	103.840	19.939	3.902	0.546
795.000	473.409	80.008	19.993	103.838	19.940	3.786	0.528
795.500	473.686	80.007	19.993	103.839	19.944	3.492	0.526
796.000	473.930	80.009	19.994	103.838	19.943	3.551	0.526
796.500	474.204	80.007	19.995	103.836	19.944	3.518	0.519
797.000	474.459	80.009	19.992	103.831	19.944	3.522	0.524
797.500	474.752	80.009	19.992	103.831	19.948	3.191	0.538
798.000	475.049	80.007	19.993	103.831	19.946	3.357	0.569
798.500	475.257	80.009	19.993	103.831	19.946	3.370	0.548
799.001	475.513	80.007	19.993	103.830	19.946	3.311	0.484
799.501	475.783	80.008	19.992	103.830	19.944	3.486	0.495
800.000	475.999	80.008	19.992	103.830	19.943	3.560	0.506
800.500	476.293	80.007	19.993	103.829	19.943	3.581	0.498
801.000	476.542	80.006	19.994	103.830	19.941	3.710	0.527
801.500	476.796	80.009	19.992	103.830	19.946	3.322	0.523
802.000	477.098	80.007	19.994	103.829	19.944	3.525	0.529
802.500	477.324	80.008	19.992	103.828	19.941	3.703	0.542
803.000	477.569	80.008	19.994	103.828	19.944	3.466	0.500
803.500	477.847	80.008	19.994	103.828	19.944	3.496	0.497
804.000	478.111	80.008	19.994	103.828	19.945	3.435	0.532
804.500	478.347	80.007	19.993	103.830	19.947	3.257	0.521
805.000	478.611	80.010	19.995	103.830	19.945	3.418	0.500
805.500	478.909	80.008	19.994	103.830	19.946	3.368	0.531
806.000	479.155	80.009	19.995	103.829	19.945	3.425	0.553
806.500	479.408	80.009	19.993	103.829	19.947	3.224	0.521
807.000	479.671	80.008	19.993	103.829	19.946	3.364	0.508
807.500	479.940	80.009	19.995	103.828	19.946	3.333	0.524
808.000	480.158	80.008	19.995	103.827	19.945	3.403	0.510
808.500	480.430	80.007	19.992	103.827	19.948	3.202	0.488
809.000	480.721	80.007	19.995	103.828	19.946	3.327	0.526
809.500	480.993	80.008	19.993	103.827	19.947	3.270	0.563
810.000	481.250	80.008	19.994	103.828	19.947	3.287	0.547
810.500	481.489	80.008	19.994	103.829	19.946	3.364	0.513
811.000	481.798	80.007	19.993	103.828	19.943	3.571	0.522
811.500	482.040	80.009	19.995	103.828	19.946	3.350	0.549
812.000	482.270	80.008	19.992	103.828	19.946	3.355	0.512
812.500	482.576	80.007	19.994	103.828	19.947	3.250	0.504
813.000	482.819	80.009	19.994	103.828	19.944	3.497	0.542
813.500	483.091	80.007	19.992	103.828	19.945	3.385	0.532
814.000	483.355	80.008	19.993	103.828	19.946	3.344	0.526
814.500	483.599	80.008	19.995	103.828	19.945	3.398	0.522
815.000	483.837	80.007	19.994	103.828	19.945	3.407	0.495
815.500	484.105	80.006	19.992	103.828	19.946	3.374	0.493
816.000	484.336	80.008	19.995	103.828	19.945	3.436	0.502
816.500	484.606	80.008	19.995	103.829	19.945	3.379	0.500
817.000	484.881	80.007	19.993	103.829	19.944	3.516	0.524
817.500	485.162	80.007	19.993	103.829	19.946	3.372	0.551
818.000	485.399	80.007	19.995	103.830	19.946	3.372	0.536
818.500	485.686	80.007	19.995	103.830	19.950	3.041	0.521
819.000	485.898	80.007	19.993	103.830	19.945	3.433	0.512
819.500	486.163	80.008	19.995	103.830	19.948	3.161	0.488
820.000	486.425	80.008	19.994	103.830	19.945	3.416	0.502
820.500	486.693	80.006	19.994	103.829	19.944	3.488	0.529
821.000	486.930	80.008	19.994	103.829	19.945	3.385	0.517
821.500	487.244	80.008	19.994	103.829	19.944	3.503	0.528
822.000	487.452	80.006	19.994	103.829	19.945	3.394	0.537
822.500	487.723	80.007	19.994	103.830	19.945	3.420	0.501
823.000	487.990	80.008	19.994	103.831	19.947	3.228	0.509
823.500	488.225	80.005	19.995	103.831	19.945	3.418	0.520
824.000	488.489	80.006	19.995	103.832	19.945	3.394	0.501
824.500	488.740	80.005	19.993	103.831	19.947	3.255	0.507
825.000	489.019	80.008	19.994	103.831	19.946	3.300	0.522
825.500	489.311	80.007	19.992	103.831	19.949	3.087	0.550
826.000	489.556	80.007	19.994	103.831	19.951	2.946	0.555
826.500	489.801	80.007	19.993	103.831	19.951	2.963	0.513
827.000	490.020	80.007	19.993	103.831	19.952	2.865	0.477
827.500	490.301	80.008	19.994	103.831	19.953	2.791	0.482
828.000	490.554	80.007	19.994	103.832	19.951	2.941	0.517
828.500	490.844	80.007	19.994	103.832	19.951	2.947	0.539
829.000	491.087	80.008	19.993	103.832	19.950	3.008	0.538
829.500	491.354	80.008	19.994	103.831	19.951	2.943	0.521
830.000	491.625	80.007	19.995	103.831	19.950	3.013	0.524
830.501	491.860	80.008	19.995	103.831	19.951	2.952	0.522
831.001	492.110	80.007	19.993	103.831	19.949	3.076	0.495
831.500	492.376	80.008	19.994	103.831	19.948	3.159	0.500
832.000	492.685	80.007	19.993	103.829	19.948	3.163	0.546
832.500	492.863	80.008	19.993	103.827	19.950	2.991	0.531
833.000	493.187	80.009	19.993	103.826	19.947	3.224	0.495
833.500	493.418	80.007	19.996	103.826	19.948	3.150	0.529
834.000	493.617	80.008	19.993	103.825	19.950	3.050	0.492
834.500	493.943	80.009	19.991	103.827	19.947	3.268	0.478
835.000	494.232	80.009	19.993	103.828	19.951	2.934	0.570
835.500	494.498	80.008	19.993	103.829	19.948	3.215	0.585
836.000	494.708	80.008	19.993	103.833	19.943	3.566	0.516
836.500	495.014	80.008	19.994	103.839	19.944	3.459	0.496
837.000	495.255	80.009	19.994	103.841	19.948	3.181	0.531
837.500	495.560	80.008	19.994	103.841	19.949	3.111	0.546
838.000	495.800	80.008	19.994	103.841	19.946	3.344	0.546
838.500	496.029	80.007	19.993	103.834	19.949	3.124	0.507
839.000	496.320	80.007	19.995	103.827	19.948	3.176	0.494
839.500	496.593	80.008	19.995	103.822	19.949	3.124	0.542
840.000	496.825	80.008	19.993	103.822	19.947	3.222	0.534
840.500	497.110	80.009	19.995	103.823	19.948	3.196	0.510
841.000	497.360	80.009	19.993	103.825	19.946	3.337	0.526
841.500	497.656	80.008	19.994	103.827	19.947	3.263	0.541
842.000	497.900	80.009	19.994	103.830	19.949	3.104	0.543
842.500	498.131	80.008	19.994	103.830	19.948	3.218	0.507
843.000	498.381	80.008	19.993	103.828	19.947	3.285	0.478
843.500	498.620	80.007	19.993	103.829	19.950	3.011	0.485
844.000	498.884	80.008	19.993	103.829	19.949	3.120	0.496
844.500	499.151	80.007	19.994	103.829	19.946	3.305	0.517
845.000	499.413	80.008	19.995	103.830	19.948	3.196	0.529
845.500	499.644	80.008	19.993	103.833	19.946	3.346	0.511
846.000	499.909	80.008	19.992	103.831	19.950	3.002	0.495
846.500	500.188	80.008	19.994	103.831	19.946	3.298	0.521
847.000	500.425	80.010	19.994	103.831	19.950	3.000	0.531
847.500	500.697	80.007	19.993	103.829	19.944	3.455	0.513
848.000	500.947	80.008	19.995	103.828	19.951	2.910	0.515
848.500	501.190	80.008	19.992	103.829	19.949	3.078	0.507
849.000	501.458	80.008	19.992	103.829	19.946	3.346	0.502
849.500	501.700	80.008	19.992	103.830	19.950	2.989	0.511
850.000	501.905	80.008	19.992	103.832	19.949	3.122	0.478
850.500	502.164	80.010	19.992	103.833	19.947	3.296	0.456
851.000	502.425	80.009	19.993	103.833	19.950	3.021	0.492
851.500	502.682	80.008	19.991	103.832	19.947	3.294	0.519
852.000	502.942	80.010	19.991	103.832	19.949	3.115	0.518
852.500	503.195	80.009	19.994	103.831	19.948	3.185	0.515
853.000	503.468	80.010	19.993	103.830	19.947	3.220	0.520
853.500	503.698	80.010	19.993	103.831	19.948	3.200	0.514
854.000	503.964	80.011	19.993	103.832	19.951	2.928	0.499
854.500	504.220	80.010	19.993	103.832	19.948	3.154	0.509
855.000	504.470	80.010	19.992	103.832	19.950	3.048	0.514
855.500	504.709	80.010	19.991	103.832	19.948	3.152	0.498
856.000	504.962	80.010	19.992	103.832	19.950	3.048	0.491
856.500	505.246	80.010	19.993	103.830	19.948	3.172	0.515
857.000	505.492	80.009	19.992	103.830	19.950	3.017	0.533
857.500	505.775	80.011	19.994	103.830	19.950	3.043	0.529
858.000	506.004	80.010	19.993	103.830	19.948	3.202	0.520
858.500	506.262	80.011	19.993	103.829	19.952	2.880	0.500
859.000	506.483	80.010	19.992	103.830	19.950	3.026	0.483
859.500	506.757	80.010	19.993	103.829	19.946	3.370	0.487
860.000	507.009	80.011	19.992	103.827	19.949	3.098	0.511
860.500	507.245	80.010	19.995	103.827	19.950	3.048	0.508
861.000	507.495	80.010	19.993	103.827	19.948	3.150	0.487
861.500	507.755	80.011	19.993	103.825	19.951	2.919	0.498
862.000	508.044	80.011	19.994	103.825	19.949	3.063	0.529
862.500	508.306	80.010	19.992	103.827	19.948	3.183	0.550
863.000	508.529	80.010	19.991	103.827	19.949	3.078	0.518
863.500	508.790	80.011	19.994	103.827	19.947	3.283	0.484
864.000	509.067	80.011	19.994	103.827	19.950	3.019	0.512
864.500	509.328	80.010	19.993	103.827	19.947	3.268	0.538
865.000	509.556	80.011	19.994	103.827	19.947	3.250	0.513
865.500	509.833	80.010	19.993	103.827	19.947	3.296	0.497
866.000	510.109	80.011	19.993	103.827	19.949	3.137	0.530
866.500	510.331	80.010	19.992	103.827	19.949	3.091	0.526
867.000	510.577	80.010	19.992	103.827	19.948	3.150	0.483
867.500	510.869	80.010	19.993	103.827	19.948	3.200	0.503
868.000	511.124	80.009	19.993	103.828	19.950	2.987	0.543
868.500	511.343	80.010	19.993	103.828	19.952	2.897	0.511
869.000	511.611	80.009	19.993	103.828	19.950	2.985	0.480
869.500	511.822	80.008	19.992	103.828	19.950	3.000	0.483
870.000	512.093	80.007	19.991	103.831	19.947	3.266	0.480
870.500	512.345	80.008	19.994	103.832	19.947	3.231	0.503
871.000	512.616	80.008	19.992	103.832	19.950	2.998	0.523
871.500	512.848	80.008	19.993	103.832	19.949	3.089	0.513
872.000	513.131	80.008	19.994	103.832	19.948	3.146	0.509
872.500	513.381	80.009	19.994	103.830	19.952	2.852	0.524
873.000	513.623	80.009	19.993	103.828	19.951	2.919	0.512
873.500	513.872	80.008	19.993	103.828	19.947	3.226	0.491
874.000	514.184	80.009	19.993	103.828	19.947	3.220	0.526
874.500	514.414	80.007	19.993	103.828	19.950	2.984	0.552
875.000	514.671	80.009	19.993	103.828	19.953	2.806	0.514
875.500	514.942	80.008	19.992	103.828	19.950	3.028	0.507
876.000	515.197	80.008	19.994	103.827	19.951	2.954	0.527
876.500	515.454	80.009	19.993	103.828	19.952	2.832	0.519
877.000	515.686	80.008	19.994	103.829	19.952	2.886	0.501
877.500	515.974	80.009	19.994	103.830	19.952	2.873	0.505
878.000	516.218	80.008	19.994	103.830	19.949	3.076	0.526
878.500	516.473	80.008	19.993	103.830	19.951	2.952	0.516
879.000	516.719	80.007	19.995	103.829	19.950	3.024	0.500
879.500	516.942	80.009	19.994	103.828	19.950	3.039	0.485
880.000	517.236	80.009	19.993	103.830	19.949	3.074	0.494
880.500	517.515	80.009	19.993	103.832	19.950	3.026	0.545
881.000	517.741	80.008	19.993	103.833	19.950	3.050	0.539
881.500	517.993	80.008	19.993	103.833	19.951	2.978	0.491
882.000	518.280	80.009	19.993	103.833	19.952	2.876	0.508
882.500	518.495	80.008	19.994	103.830	19.952	2.847	0.520
883.000	518.770	80.009	19.992	103.828	19.951	2.965	0.496
883.500	519.030	80.009	19.992	103.828	19.950	3.052	0.513
884.000	519.274	80.009	19.992	103.828	19.948	3.141	0.520
884.500	519.530	80.008	19.993	103.828	19.951	2.926	0.502
885.000	519.792	80.009	19.992	103.829	19.952	2.871	0.509
885.500	520.032	80.009	19.991	103.829	19.951	2.913	0.510
886.000	520.297	80.009	19.993	103.829	19.949	3.083	0.503
886.500	520.584	80.007	19.992	103.830	19.950	3.032	0.529
887.000	520.813	80.008	19.993	103.830	19.951	2.969	0.534
887.500	521.034	80.009	19.992	103.830	19.948	3.189	0.483
888.000	521.323	80.009	19.992	103.831	19.947	3.237	0.480
888.500	521.543	80.009	19.993	103.829	19.951	2.945	0.509
889.000	521.791	80.009	19.993	103.827	19.948	3.172	0.488
889.500	522.073	80.009	19.992	103.826	19.948	3.209	0.499
890.001	522.323	80.009	19.993	103.825	19.946	3.355	0.531
890.500	522.579	80.009	19.992	103.825	19.944	3.459	0.519
891.000	522.811	80.008	19.992	103.827	19.947	3.259	0.497
891.500	523.089	80.009	19.992	103.830	19.947	3.224	0.499
892.000	523.347	80.008	19.992	103.831	19.946	3.357	0.523
892.500	523.558	80.009	19.992	103.832	19.949	3.111	0.502
893.000	523.853	80.008	19.992	103.832	19.951	2.934	0.487
893.501	524.091	80.008	19.993	103.829	19.947	3.283	0.520
894.001	524.346	80.008	19.994	103.828	19.949	3.104	0.514
894.500	524.576	80.009	19.992	103.827	19.950	3.054	0.489
895.000	524.859	80.010	19.993	103.827	19.950	3.004	0.499
895.500	525.118	80.008	19.993	103.827	19.948	3.185	0.528
896.000	525.359	80.009	19.993	103.830	19.949	3.100	0.521
896.500	525.591	80.009	19.995	103.830	19.949	3.122	0.487
897.000	525.853	80.007	19.994	103.830	19.948	3.178	0.483
897.500	526.119	80.008	19.994	103.831	19.949	3.107	0.510
898.000	526.362	80.008	19.993	103.830	19.951	2.952	0.518
898.500	526.613	80.007	19.994	103.830	19.949	3.063	0.502
899.000	526.841	80.007	19.994	103.830	19.948	3.172	0.487
899.501	527.127	80.008	19.993	103.830	19.951	2.978	0.496
900.000	527.330	80.007	19.994	103.829	19.949	3.120	0.501
900.500	527.589	80.008	19.993	103.829	19.951	2.969	0.476
901.000	527.819	80.007	19.994	103.830	19.950	3.009	0.476
901.500	528.097	80.007	19.994	103.830	19.950	3.011	0.499
902.000	528.366	80.007	19.993	103.830	19.953	2.795	0.528
902.500	528.581	80.007	19.994	103.830	19.953	2.815	0.515
903.000	528.870	80.008	19.994	103.830	19.951	2.913	0.494
903.500	529.074	80.006	19.992	103.831	19.951	2.935	0.498
904.000	529.319	80.007	19.994	103.832	19.951	2.972	0.471
904.500	529.566	80.006	19.996	103.832	19.950	3.037	0.471
905.000	529.848	80.006	19.993	103.831	19.949	3.126	0.510
905.500	530.088	80.007	19.995	103.829	19.950	3.059	0.525
906.000	530.334	80.007	19.993	103.828	19.953	2.795	0.504
906.500	530.610	80.006	19.994	103.828	19.954	2.684	0.504
907.000	530.836	80.008	19.994	103.828	19.954	2.723	0.512
907.500	531.086	80.006	19.994	103.830	19.949	3.135	0.489
908.000	531.348	80.007	19.994	103.832	19.957	2.492	0.494
908.500	531.583	80.007	19.993	103.832	19.969	1.547	0.505
909.000	531.845	80.007	19.993	103.832	19.961	2.141	0.497
909.500	532.112	80.007	19.991	103.832	19.964	1.924	0.513
910.000	532.357	80.007	19.993	103.832	19.947	3.283	0.521
910.501	532.600	80.008	19.993	103.833	19.948	3.202	0.499
911.000	532.836	80.007	19.991	103.834	19.946	3.368	0.483
911.500	533.125	80.008	19.992	103.836	19.946	3.305	0.502
912.000	533.374	80.008	19.994	103.836	19.944	3.468	0.532
912.500	533.658	80.009	19.994	103.838	19.944	3.492	0.536
913.000	533.883	80.008	19.993	103.837	19.948	3.154	0.521
913.500	534.139	80.008	19.994	103.835	19.953	2.806	0.495
914.000	534.407	80.007	19.994	103.834	19.947	3.279	0.503
914.500	534.664	80.009	19.994	103.836	19.949	3.061	0.524
915.000	534.936	80.009	19.994	103.838	19.949	3.093	0.527
915.500	535.169	80.009	19.994	103.839	19.947	3.292	0.517
916.000	535.457	80.010	19.993	103.838	19.950	3.011	0.513
916.500	535.670	80.011	19.993	103.838	19.949	3.137	0.511
917.000	535.962	80.009	19.993	103.835	19.947	3.224	0.503
917.500	536.248	80.009	19.994	103.830	19.950	3.028	0.541
918.000	536.512	80.010	19.994	103.829	19.946	3.331	0.564
918.500	536.738	80.009	19.993	103.828	19.945	3.403	0.520
919.000	537.019	80.011	19.994	103.828	19.948	3.183	0.499
919.500	537.246	80.010	19.993	103.827	19.948	3.211	0.507
920.000	537.497	80.011	19.993	103.827	19.949	3.076	0.492
920.500	537.801	80.010	19.993	103.826	19.948	3.215	0.517
921.000	537.995	80.011	19.993	103.827	19.947	3.274	0.527
921.500	538.258	80.010	19.992	103.829	19.949	3.072	0.477
922.000	538.517	80.009	19.994	103.831	19.947	3.222	0.490
922.500	538.767	80.008	19.992	103.831	19.952	2.836	0.515
923.000	539.032	80.009	19.993	103.833	19.950	3.050	0.512
923.500	539.282	80.009	19.993	103.832	19.952	2.823	0.515
924.000	539.596	80.009	19.993	103.830	19.951	2.913	0.539
924.500	539.862	80.009	19.992	103.828	19.949	3.111	0.572
925.000	540.080	80.009	19.994	103.829	19.947	3.261	0.532
925.500	540.331	80.009	19.994	103.828	19.948	3.189	0.477
926.001	540.605	80.009	19.994	103.829	19.943	3.569	0.497
926.501	540.884	80.009	19.993	103.828	19.947	3.250	0.539
927.000	541.160	80.009	19.994	103.828	19.950	2.989	0.554
927.500	541.453	80.009	19.994	103.828	19.950	2.987	0.562
928.000	541.714	80.008	19.993	103.828	19.946	3.353	0.561
928.500	541.993	80.007	19.993	103.827	19.949	3.122	0.547
929.000	542.220	80.009	19.994	103.828	19.949	3.130	0.523
929.500	542.502	80.008	19.994	103.827	19.947	3.285	0.508
930.000	542.722	80.007	19.995	103.827	19.949	3.128	0.506
930.500	543.049	80.008	19.995	103.827	19.947	3.265	0.525
931.000	543.257	80.009	19.994	103.828	19.949	3.137	0.541
931.500	543.560	80.007	19.994	103.829	19.945	3.383	0.522
932.000	543.805	80.009	19.994	103.828	19.949	3.065	0.529
932.500	544.086	80.009	19.994	103.829	19.947	3.248	0.537
933.000	544.334	80.009	19.994	103.828	19.951	2.960	0.528
933.500	544.591	80.009	19.994	103.827	19.947	3.255	0.517
934.000	544.822	80.010	19.994	103.826	19.944	3.514	0.497
934.500	545.100	80.009	19.994	103.826	19.948	3.174	0.498
935.000	545.381	80.010	19.994	103.826	19.950	3.043	0.534
935.500	545.588	80.008	19.993	103.830	19.948	3.211	0.524
936.000	545.875	80.009	19.995	103.830	19.948	3.183	0.491
936.500	546.171	80.010	19.995	103.833	19.948	3.196	0.539
937.000	546.438	80.009	19.994	103.835	19.950	3.006	0.573
937.500	546.702	80.010	19.995	103.835	19.948	3.198	0.547
938.000	546.965	80.010	19.993	103.831	19.947	3.231	0.529
938.500	547.223	80.010	19.994	103.831	19.950	3.037	0.524
939.000	547.473	80.010	19.993	103.828	19.948	3.165	0.514
939.500	547.738	80.010	19.994	103.826	19.946	3.305	0.512
940.000	547.983	80.010	19.994	103.825	19.949	3.085	0.513
940.500	548.241	80.010	19.992	103.826	19.946	3.313	0.507
941.001	548.549	80.011	19.993	103.826	19.952	2.852	0.534
941.500	548.793	80.011	19.994	103.826	19.947	3.222	0.559
942.000	549.029	80.010	19.993	103.826	19.949	3.078	0.516
942.500	549.265	80.011	19.993	103.826	19.951	2.917	0.476
943.000	549.559	80.011	19.993	103.825	19.947	3.235	0.501
943.500	549.820	80.011	19.992	103.825	19.949	3.098	0.542
944.000	550.102	80.011	19.994	103.826	19.947	3.228	0.549
944.500	550.368	80.011	19.993	103.826	19.948	3.200	0.546
945.000	550.599	80.011	19.993	103.826	19.948	3.165	0.523
945.500	550.827	80.010	19.994	103.826	19.947	3.248	0.478
946.000	551.109	80.010	19.992	103.826	19.949	3.115	0.484
946.500	551.439	80.010	19.992	103.825	19.948	3.163	0.561
947.000	551.654	80.010	19.993	103.825	19.948	3.191	0.579
947.500	551.920	80.010	19.994	103.826	19.947	3.248	0.513
948.000	552.125	80.010	19.993	103.828	19.946	3.340	0.476
948.500	552.454	80.011	19.993	103.828	19.948	3.157	0.502
949.001	552.679	80.010	19.993	103.828	19.950	3.054	0.544
949.500	552.961	80.011	19.993	103.828	19.950	3.008	0.531
950.000	553.229	80.009	19.992	103.828	19.950	3.048	0.528
950.500	553.442	80.010	19.991	103.827	19.948	3.207	0.515
951.000	553.757	80.009	19.992	103.827	19.947	3.270	0.505
951.500	554.004	80.010	19.993	103.828	19.948	3.191	0.545
952.000	554.265	80.008	19.992	103.829	19.948	3.215	0.535
952.500	554.539	80.009	19.992	103.829	19.950	3.035	0.522
953.000	554.818	80.009	19.993	103.829	19.947	3.250	0.544
953.500	555.070	80.008	19.992	103.828	19.944	3.455	0.541
954.000	555.352	80.008	19.992	103.829	19.947	3.224	0.532
954.501	555.610	80.008	19.993	103.828	19.947	3.237	0.537
955.001	555.884	80.008	19.993	103.828	19.947	3.274	0.536
955.500	556.122	80.008	19.994	103.829	19.944	3.486	0.522
956.000	556.403	80.007	19.993	103.830	19.947	3.248	0.516
956.500	556.662	80.007	19.992	103.830	19.950	3.043	0.530
957.000	556.923	80.006	19.993	103.830	19.950	3.024	0.531
957.501	557.169	80.006	19.992	103.830	19.947	3.292	0.514
958.001	557.407	80.006	19.993	103.831	19.950	3.043	0.495
958.500	557.712	80.008	19.993	103.831	19.947	3.242	0.514
959.000	557.945	80.007	19.993	103.831	19.949	3.133	0.540
959.500	558.240	80.007	19.993	103.829	19.950	3.052	0.533
960.000	558.480	80.006	19.993	103.828	19.951	2.954	0.531
960.500	558.760	80.007	19.993	103.827	19.948	3.215	0.527
961.000	558.993	80.008	19.992	103.826	19.948	3.141	0.517
961.500	559.284	80.007	19.992	103.826	19.951	2.915	0.519
962.000	559.521	80.007	19.993	103.828	19.951	2.963	0.526
962.500	559.819	80.007	19.993	103.829	19.948	3.185	0.531
963.000	560.043	80.007	19.992	103.830	19.949	3.076	0.528
963.500	560.343	80.007	19.993	103.829	19.948	3.183	0.523
964.000	560.591	80.007	19.993	103.830	19.951	2.961	0.537
964.500	560.802	80.007	19.992	103.830	19.949	3.137	0.504
965.000	561.117	80.007	19.993	103.830	19.950	2.997	0.492
965.500	561.378	80.008	19.993	103.830	19.949	3.098	0.551
966.000	561.630	80.007	19.993	103.830	19.951	2.923	0.544
966.500	561.908	80.008	19.994	103.830	19.950	3.045	0.522
967.000	562.178	80.008	19.994	103.830	19.950	3.006	0.539
967.500	562.392	80.006	19.993	103.830	19.952	2.862	0.516
968.000	562.675	80.005	19.992	103.830	19.953	2.777	0.490
968.500	562.959	80.007	19.993	103.830	19.953	2.762	0.532
969.000	563.203	80.007	19.992	103.829	19.949	3.134	0.548
969.500	563.453	80.006	19.993	103.830	19.949	3.137	0.511
970.000	563.710	80.008	19.994	103.828	19.951	2.965	0.500
970.500	563.983	80.007	19.993	103.828	19.951	2.919	0.518
971.001	564.247	80.007	19.993	103.826	19.952	2.843	0.534
971.500	564.510	80.007	19.993	103.824	19.952	2.884	0.532
972.000	564.713	80.007	19.992	103.824	19.952	2.899	0.496
972.500	565.037	80.008	19.992	103.825	19.952	2.888	0.497
973.000	565.279	80.008	19.992	103.827	19.950	3.049	0.546
973.500	565.564	80.008	19.992	103.828	19.953	2.812	0.546
974.000	565.832	80.007	19.992	103.830	19.948	3.162	0.540
974.500	566.087	80.007	19.992	103.830	19.948	3.197	0.539
975.000	566.326	80.007	19.992	103.829	19.950	2.982	0.509
975.500	566.569	80.008	19.993	103.828	19.948	3.187	0.488
976.000	566.833	80.007	19.993	103.825	19.951	2.906	0.494
976.500	567.095	80.009	19.992	103.825	19.947	3.219	0.516
977.000	567.328	80.007	19.992	103.825	19.950	2.986	0.510
977.500	567.587	80.009	19.992	103.826	19.951	2.945	0.493
978.000	567.865	80.009	19.993	103.821	19.950	3.058	0.514
978.500	568.075	80.008	19.992	103.821	19.949	3.078	0.513
979.000	568.335	80.008	19.993	103.821	19.950	2.991	0.479
979.500	568.623	80.008	19.993	103.821	19.952	2.886	0.509
980.000	568.857	80.008	19.993	103.818	19.948	3.139	0.535
980.500	569.162	80.008	19.993	103.822	19.950	2.982	0.530
981.000	569.421	80.009	19.993	103.821	19.947	3.241	0.551
981.500	569.671	80.008	19.993	103.819	19.947	3.278	0.536
982.000	569.913	80.008	19.992	103.815	19.951	2.947	0.500
982.500	570.180	80.007	19.992	103.813	19.949	3.106	0.501
983.000	570.426	80.008	19.992	103.810	19.947	3.230	0.511
983.501	570.691	80.008	19.992	103.809	19.948	3.159	0.512
984.001	570.943	80.008	19.993	103.805	19.951	2.950	0.514
984.500	571.191	80.008	19.992	103.802	19.948	3.178	0.509
985.000	571.448	80.008	19.993	103.800	19.946	3.300	0.503
985.500	571.696	80.007	19.993	103.805	19.949	3.076	0.506
986.000	571.973	80.010	19.993	103.809	19.948	3.174	0.515
986.500	572.183	80.007	19.993	103.812	19.946	3.372	0.506
987.000	572.466	80.008	19.993	103.816	19.948	3.148	0.490
987.501	572.705	80.008	19.994	103.821	19.950	3.043	0.508
988.000	572.957	80.006	19.993	103.822	19.950	2.997	0.507
988.500	573.237	80.007	19.993	103.822	19.949	3.124	0.511
989.000	573.487	80.008	19.993	103.825	19.951	2.956	0.531
989.500	573.748	80.007	19.993	103.827	19.950	3.056	0.521
990.000	573.963	80.008	19.992	103.829	19.949	3.074	0.493
990.500	574.246	80.007	19.993	103.828	19.945	3.396	0.486
991.000	574.536	80.007	19.993	103.828	19.945	3.394	0.536
991.501	574.775	80.007	19.993	103.826	19.948	3.213	0.552
992.000	575.036	80.007	19.994	103.823	19.946	3.313	0.514
992.500	575.301	80.007	19.993	103.822	19.946	3.335	0.513
993.000	575.545	80.007	19.993	103.822	19.949	3.106	0.517
993.500	575.802	80.009	19.994	103.822	19.950	3.050	0.505
994.000	576.044	80.008	19.992	103.823	19.947	3.255	0.501
994.500	576.311	80.008	19.993	103.825	19.947	3.244	0.504
995.000	576.549	80.008	19.994	103.825	19.949	3.128	0.507
995.500	576.806	80.007	19.992	103.824	19.949	3.130	0.500
996.000	577.064	80.006	19.994	103.824	19.950	3.019	0.505
996.500	577.329	80.008	19.995	103.825	19.949	3.072	0.519
997.001	577.557	80.008	19.993	103.829	19.949	3.076	0.509
997.500	577.808	80.008	19.995	103.829	19.948	3.183	0.486
998.000	578.068	80.008	19.994	103.830	19.952	2.889	0.494
998.500	578.331	80.009	19.994	103.830	19.947	3.220	0.517
999.000	578.566	80.009	19.993	103.827	19.949	3.096	0.511
999.500	578.836	80.009	19.994	103.824	19.946	3.363	0.502
1000.000	579.080	80.010	19.995	103.824	19.946	3.355	0.509
1000.500	579.297	80.009	19.994	103.824	19.946	3.339	0.488
1001.000	579.592	80.010	19.994	103.824	19.949	3.108	0.487
1001.500	579.858	80.009	19.993	103.826	19.949	3.097	0.537
1002.001	580.087	80.010	19.994	103.829	19.946	3.343	0.528
1002.501	580.347	80.010	19.993	103.829	19.947	3.272	0.492
1003.000	580.604	80.009	19.993	103.829	19.949	3.111	0.503
1003.500	580.851	80.009	19.994	103.829	19.947	3.274	0.510
1004.000	581.113	80.008	19.993	103.828	19.947	3.250	0.507
1004.500	581.358	80.010	19.994	103.827	19.948	3.163	0.508
1005.000	581.575	80.009	19.994	103.827	19.946	3.337	0.484
1005.500	581.861	80.009	19.995	103.827	19.949	3.128	0.482
1006.000	582.120	80.009	19.994	103.827	19.946	3.322	0.524
1006.500	582.331	80.009	19.993	103.827	19.948	3.167	0.508
1007.000	582.596	80.009	19.993	103.827	19.947	3.239	0.473
1007.500	582.852	80.009	19.993	103.827	19.947	3.256	0.498
1008.000	583.085	80.010	19.994	103.827	19.948	3.182	0.505
1008.500	583.390	80.009	19.993	103.827	19.946	3.330	0.514
1009.000	583.621	80.009	19.993	103.826	19.949	3.137	0.537
1009.500	583.843	80.009	19.994	103.826	19.947	3.287	0.495
1010.000	584.092	80.008	19.993	103.826	19.946	3.355	0.462
1010.501	584.382	80.010	19.993	103.826	19.946	3.300	0.505
1011.001	584.575	80.010	19.993	103.825	19.944	3.520	0.511
1011.501	584.842	80.009	19.993	103.820	19.945	3.418	0.471
1012.000	585.082	80.010	19.993	103.815	19.947	3.237	0.483
1012.500	585.342	80.010	19.993	103.815	19.944	3.455	0.503
1013.000	585.599	80.009	19.993	103.816	19.943	3.588	0.509
1013.500	585.853	80.009	19.994	103.818	19.946	3.333	0.514
1014.000	586.084	80.008	19.994	103.823	19.945	3.424	0.498
1014.500	586.334	80.008	19.993	103.828	19.945	3.381	0.483
1015.000	586.602	80.008	19.993	103.828	19.945	3.416	0.499
1015.500	586.873	80.008	19.993	103.829	19.947	3.250	0.528
1016.000	587.082	80.008	19.993	103.829	19.945	3.398	0.510
1016.500	587.342	80.009	19.993	103.830	19.943	3.540	0.475
1017.000	587.613	80.010	19.994	103.829	19.945	3.429	0.500
1017.500	587.845	80.010	19.993	103.825	19.949	3.113	0.517
1018.000	588.116	80.008	19.994	103.819	19.945	3.407	0.503
1018.500	588.358	80.010	19.993	103.815	19.947	3.269	0.507
1019.000	588.594	80.008	19.993	103.810	19.946	3.302	0.495
1019.500	588.842	80.009	19.994	103.810	19.948	3.180	0.481
1020.000	589.107	80.009	19.993	103.814	19.950	3.052	0.499
1020.500	589.349	80.010	19.994	103.820	19.945	3.376	0.510
1021.000	589.620	80.010	19.993	103.823	19.945	3.409	0.510
1021.500	589.875	80.010	19.993	103.828	19.948	3.152	0.519
1022.000	590.137	80.009	19.994	103.828	19.949	3.137	0.522
1022.500	590.377	80.010	19.994	103.829	19.946	3.341	0.510
1023.000	590.616	80.009	19.993	103.829	19.946	3.370	0.490
1023.500	590.879	80.009	19.994	103.829	19.947	3.250	0.490
1024.000	591.107	80.009	19.993	103.828	19.949	3.075	0.496
1024.500	591.388	80.009	19.994	103.826	19.948	3.139	0.500
1025.000	591.602	80.010	19.994	103.826	19.947	3.246	0.502
1025.501	591.880	80.010	19.994	103.825	19.947	3.222	0.494
1026.001	592.116	80.011	19.994	103.825	19.947	3.222	0.503
1026.500	592.366	80.009	19.993	103.826	19.949	3.078	0.500
1027.000	592.626	80.010	19.994	103.827	19.947	3.289	0.498
1027.500	592.889	80.010	19.994	103.828	19.945	3.385	0.517
1028.001	593.116	80.010	19.993	103.825	19.947	3.272	0.507
1028.501	593.382	80.009	19.994	103.818	19.948	3.159	0.491
1029.000	593.593	80.009	19.994	103.815	19.948	3.174	0.485
1029.500	593.913	80.010	19.994	103.814	19.947	3.224	0.504
1030.000	594.106	80.010	19.993	103.813	19.948	3.150	0.522
1030.500	594.426	80.009	19.994	103.817	19.947	3.281	0.514
1031.000	594.667	80.008	19.994	103.822	19.947	3.250	0.537
1031.500	594.920	80.008	19.993	103.825	19.949	3.113	0.527
1032.000	595.133	80.008	19.994	103.826	19.946	3.363	0.480
1032.500	595.422	80.009	19.994	103.826	19.950	3.006	0.485
1033.000	595.663	80.008	19.993	103.823	19.947	3.280	0.516
1033.500	595.924	80.009	19.993	103.819	19.949	3.065	0.515
1034.000	596.172	80.009	19.994	103.817	19.949	3.078	0.505
1034.500	596.416	80.008	19.995	103.815	19.949	3.119	0.501
1035.000	596.664	80.007	19.993	103.812	19.947	3.246	0.492
1035.500	596.933	80.007	19.994	103.815	19.949	3.089	0.505
1036.000	597.182	80.006	19.994	103.820	19.950	3.017	0.517
1036.500	597.461	80.007	19.994	103.823	19.949	3.093	0.523
1037.001	597.725	80.006	19.993	103.826	19.955	2.608	0.536
1037.501	597.947	80.008	19.993	103.829	19.951	2.978	0.514
1038.000	598.215	80.006	19.993	103.830	19.950	3.037	0.488
1038.500	598.469	80.008	19.993	103.829	19.950	3.002	0.506
1039.000	598.719	80.007	19.993	103.830	19.949	3.084	0.513
1039.500	598.980	80.006	19.993	103.830	19.950	3.002	0.507
1040.000	599.211	80.006	19.994	103.829	19.951	2.921	0.501
1040.500	599.472	80.007	19.993	103.829	19.951	2.971	0.492
1041.000	599.725	80.007	19.992	103.830	19.953	2.821	0.503
1041.501	599.968	80.008	19.992	103.830	19.948	3.187	0.505
1042.001	600.210	80.007	19.992	103.830	19.953	2.806	0.491
1042.500	600.481	80.007	19.992	103.831	19.950	3.056	0.499
1043.000	600.734	80.007	19.992	103.823	19.947	3.274	0.518
1043.500	600.972	80.006	19.993	103.816	19.950	3.052	0.507
1044.000	601.256	80.008	19.993	103.813	19.950	3.048	0.506
1044.500	601.497	80.007	19.993	103.812	19.946	3.315	0.524
1045.000	601.751	80.008	19.994	103.812	19.951	2.978	0.510
1045.500	601.961	80.006	19.994	103.819	19.951	2.954	0.479
1046.000	602.234	80.007	19.993	103.824	19.950	3.011	0.473
1046.500	602.451	80.007	19.994	103.827	19.949	3.072	0.486
1047.000	602.700	80.008	19.992	103.827	19.947	3.252	0.478
1047.501	602.999	80.007	19.992	103.827	19.949	3.093	0.507
1048.001	603.255	80.008	19.993	103.826	19.950	3.011	0.551
1048.501	603.469	80.007	19.993	103.827	19.948	3.209	0.513
1049.001	603.783	80.006	19.993	103.827	19.948	3.154	0.499
1049.500	604.023	80.007	19.993	103.826	19.950	3.012	0.541
1050.000	604.244	80.007	19.993	103.822	19.948	3.191	0.508
1050.500	604.514	80.008	19.992	103.820	19.947	3.241	0.476
1051.000	604.809	80.006	19.994	103.818	19.949	3.060	0.528
1051.500	605.046	80.008	19.993	103.814	19.950	3.017	0.548
1052.000	605.286	80.006	19.993	103.812	19.949	3.095	0.504
1052.500	605.536	80.008	19.992	103.815	19.952	2.890	0.483
1053.000	605.791	80.008	19.992	103.818	19.952	2.860	0.498
1053.500	606.013	80.008	19.994	103.820	19.948	3.175	0.491
1054.001	606.287	80.007	19.993	103.825	19.951	2.960	0.487
1054.501	606.539	80.008	19.994	103.827	19.948	3.175	0.512
1055.001	606.809	80.007	19.993	103.825	19.950	3.040	0.525
1055.501	607.051	80.008	19.992	103.825	19.952	2.827	0.517
1056.000	607.303	80.008	19.993	103.825	19.951	2.947	0.502
1056.500	607.575	80.009	19.993	103.826	19.949	3.063	0.509
1057.000	607.804	80.008	19.993	103.826	19.949	3.119	0.513
1057.501	608.015	80.008	19.994	103.828	19.948	3.173	0.470
1058.001	608.314	80.008	19.994	103.828	19.949	3.127	0.475
1058.501	608.562	80.009	19.993	103.828	19.951	2.951	0.529
1059.001	608.825	80.009	19.993	103.826	19.949	3.097	0.530
1059.501	609.099	80.009	19.994	103.821	19.947	3.236	0.524
1060.000	609.352	80.009	19.993	103.816	19.952	2.892	0.532
1060.500	609.586	80.007	19.993	103.813	19.951	2.916	0.507
1061.000	609.820	80.008	19.993	103.813	19.951	2.964	0.477
1061.500	610.080	80.007	19.994	103.812	19.945	3.448	0.481
1062.000	610.337	80.008	19.994	103.815	19.947	3.237	0.506
1062.500	610.566	80.008	19.993	103.819	19.947	3.287	0.502
1063.000	610.825	80.009	19.993	103.816	19.948	3.176	0.487
1063.500	611.106	80.008	19.993	103.809	19.948	3.161	0.514
1064.000	611.384	80.009	19.994	103.804	19.947	3.233	0.549
1064.501	611.615	80.007	19.993	103.798	19.948	3.141	0.534
1065.001	611.894	80.008	19.993	103.796	19.949	3.078	0.510
1065.501	612.139	80.007	19.993	103.799	19.946	3.307	0.517
1066.001	612.394	80.007	19.993	103.805	19.945	3.396	0.512
1066.501	612.673	80.008	19.993	103.811	19.949	3.132	0.516
1067.000	612.928	80.008	19.994	103.814	19.948	3.163	0.534
1067.500	613.175	80.008	19.993	103.815	19.948	3.213	0.518
1068.000	613.428	80.008	19.994	103.811	19.947	3.237	0.501
1068.500	613.679	80.009	19.993	103.805	19.948	3.178	0.502
1069.000	613.937	80.008	19.993	103.803	19.950	3.052	0.507
1069.501	614.207	80.008	19.994	103.802	19.946	3.335	0.518
1070.001	614.479	80.009	19.993	103.800	19.945	3.409	0.535
1070.500	614.681	80.008	19.993	103.803	19.947	3.224	0.508
1071.000	614.973	80.008	19.993	103.808	19.947	3.296	0.484
1071.501	615.221	80.007	19.993	103.809	19.947	3.285	0.517
1072.001	615.493	80.007	19.992	103.810	19.946	3.320	0.530
1072.500	615.737	80.008	19.993	103.814	19.944	3.529	0.518
1073.000	615.987	80.007	19.992	103.818	19.949	3.110	0.505
1073.500	616.262	80.008	19.992	103.820	19.945	3.392	0.509
1074.000	616.508	80.008	19.993	103.822	19.948	3.156	0.523
1074.500	616.787	80.008	19.993	103.825	19.947	3.237	0.523
1075.000	617.027	80.008	19.993	103.822	19.946	3.305	0.522
1075.500	617.289	80.008	19.992	103.822	19.947	3.272	0.511
1076.000	617.529	80.008	19.993	103.818	19.946	3.337	0.502
1076.500	617.769	80.009	19.993	103.818	19.946	3.359	0.491
1077.000	618.063	80.009	19.992	103.814	19.948	3.189	0.507
1077.500	618.280	80.007	19.992	103.818	19.945	3.413	0.523
1078.000	618.552	80.009	19.992	103.817	19.945	3.398	0.500
1078.500	618.785	80.008	19.993	103.820	19.946	3.342	0.497
1079.000	619.060	80.009	19.993	103.821	19.948	3.185	0.507
1079.500	619.293	80.009	19.993	103.825	19.949	3.135	0.508
1080.000	619.553	80.009	19.993	103.823	19.945	3.438	0.500
1080.500	619.812	80.009	19.994	103.823	19.949	3.128	0.506
1081.001	620.060	80.011	19.993	103.824	19.946	3.357	0.514
1081.501	620.306	80.008	19.993	103.824	19.948	3.215	0.500
1082.001	620.581	80.010	19.991	103.820	19.948	3.139	0.507
1082.501	620.839	80.010	19.992	103.821	19.946	3.302	0.527
1083.000	621.089	80.010	19.992	103.817	19.946	3.357	0.520
1083.500	621.337	80.009	19.992	103.816	19.948	3.185	0.502
1084.000	621.606	80.010	19.992	103.815	19.947	3.233	0.508
1084.500	621.828	80.010	19.993	103.820	19.947	3.250	0.504
1085.001	622.156	80.011	19.993	103.822	19.950	3.010	0.520
1085.501	622.361	80.009	19.992	103.823	19.948	3.211	0.541
1086.000	622.637	80.010	19.992	103.824	19.950	3.028	0.507
1086.500	622.880	80.009	19.993	103.825	19.952	2.847	0.500
1087.000	623.135	80.009	19.994	103.824	19.949	3.100	0.509
1087.501	623.436	80.009	19.993	103.824	19.948	3.150	0.527
1088.001	623.666	80.008	19.993	103.826	19.950	2.991	0.543
1088.500	623.928	80.008	19.992	103.825	19.950	3.028	0.512
1089.000	624.180	80.008	19.993	103.825	19.950	3.010	0.503
1089.501	624.436	80.008	19.993	103.824	19.947	3.228	0.511
1090.001	624.646	80.008	19.993	103.823	19.950	3.030	0.487
1090.500	624.927	80.009	19.994	103.824	19.948	3.202	0.479
1091.000	625.160	80.008	19.993	103.826	19.947	3.267	0.503
1091.500	625.413	80.008	19.993	103.825	19.948	3.191	0.500
1092.000	625.672	80.008	19.994	103.825	19.946	3.370	0.498
1092.500	625.910	80.008	19.994	103.823	19.949	3.124	0.505
1093.000	626.170	80.006	19.993	103.819	19.946	3.346	0.498
1093.500	626.438	80.008	19.994	103.819	19.947	3.283	0.513
1094.000	626.682	80.008	19.993	103.819	19.949	3.108	0.520
1094.500	626.956	80.009	19.993	103.819	19.950	3.015	0.515
1095.000	627.205	80.009	19.993	103.820	19.945	3.407	0.520
1095.500	627.461	80.008	19.993	103.816	19.948	3.163	0.514
1096.000	627.731	80.008	19.993	103.813	19.946	3.374	0.516
1096.500	627.980	80.007	19.993	103.812	19.948	3.154	0.523
1097.000	628.241	80.007	19.993	103.814	19.948	3.150	0.514
1097.501	628.456	80.008	19.994	103.816	19.947	3.257	0.493
1098.001	628.737	80.007	19.994	103.817	19.949	3.078	0.486
1098.501	628.982	80.009	19.994	103.817	19.948	3.185	0.511
1099.000	629.256	80.008	19.994	103.818	19.949	3.091	0.523
1099.500	629.484	80.008	19.994	103.818	19.946	3.340	0.510
1100.000	629.758	80.008	19.994	103.819	19.949	3.137	0.502
1100.500	630.040	80.008	19.994	103.820	19.948	3.178	0.529
1101.000	630.275	80.009	19.993	103.817	19.950	2.991	0.537
1101.500	630.514	80.009	19.993	103.815	19.948	3.174	0.496
1102.000	630.789	80.009	19.994	103.814	19.948	3.152	0.494
1102.500	631.072	80.009	19.993	103.814	19.949	3.117	0.536
1103.000	631.276	80.009	19.992	103.818	19.947	3.268	0.523
1103.500	631.553	80.009	19.992	103.825	19.950	2.995	0.484
1104.001	631.824	80.008	19.992	103.824	19.947	3.248	0.514
1104.501	632.063	80.009	19.992	103.824	19.945	3.376	0.529
1105.001	632.306	80.009	19.993	103.823	19.948	3.148	0.496
1105.500	632.587	80.010	19.993	103.822	19.947	3.291	0.503
1106.000	632.786	80.009	19.992	103.820	19.949	3.067	0.502
1106.500	633.098	80.010	19.993	103.821	19.946	3.318	0.496
1107.000	633.355	80.011	19.993	103.822	19.946	3.352	0.540
1107.500	633.593	80.009	19.993	103.820	19.945	3.422	0.532
1108.000	633.837	80.009	19.992	103.822	19.946	3.307	0.488
1108.500	634.122	80.009	19.992	103.823	19.952	2.884	0.505
1109.000	634.335	80.008	19.993	103.824	19.947	3.246	0.513
1109.500	634.648	80.007	19.994	103.824	19.950	3.054	0.512
1110.001	634.864	80.008	19.992	103.828	19.948	3.200	0.528
1110.501	635.153	80.010	19.992	103.827	19.947	3.219	0.517
1111.001	635.374	80.009	19.993	103.827	19.948	3.145	0.508
1111.500	635.646	80.013	19.993	103.827	19.949	3.080	0.502
1112.000	635.932	80.011	19.994	103.828	19.950	3.026	0.525
1112.500	636.136	80.011	19.993	103.827	19.947	3.265	0.524
1113.000	636.430	80.010	19.993	103.828	19.947	3.263	0.494
1113.500	636.681	80.009	19.993	103.828	19.947	3.235	0.521
1114.000	636.912	80.008	19.995	103.828	19.945	3.431	0.513
1114.500	637.160	80.010	19.993	103.825	19.948	3.146	0.481
1115.000	637.421	80.009	19.994	103.824	19.948	3.165	0.495
1115.500	637.702	80.009	19.991	103.821	19.948	3.150	0.526
1116.000	637.915	80.008	19.993	103.819	19.949	3.091	0.518
1116.500	638.167	80.008	19.995	103.819	19.950	3.043	0.479
1117.000	638.448	80.007	19.994	103.821	19.951	2.917	0.499
1117.500	638.706	80.009	19.993	103.823	19.948	3.206	0.536
1118.000	638.912	80.007	19.994	103.824	19.951	2.943	0.501
1118.500	639.198	80.004	19.993	103.826	19.950	3.032	0.478
1119.000	639.461	80.008	19.994	103.827	19.948	3.198	0.521
1119.500	639.663	80.006	19.994	103.826	19.952	2.847	0.508
1120.000	639.913	80.007	19.994	103.822	19.950	2.993	0.458
1120.500	640.203	80.007	19.995	103.818	19.950	3.019	0.496
1121.000	640.451	80.007	19.994	103.817	19.949	3.091	0.539
1121.500	640.736	80.008	19.995	103.817	19.950	2.997	0.535
1122.000	640.989	80.008	19.994	103.816	19.950	3.004	0.535
1122.500	641.249	80.007	19.994	103.820	19.948	3.213	0.525
1123.000	641.515	80.007	19.994	103.819	19.946	3.331	0.519
1123.500	641.733	80.008	19.995	103.818	19.950	2.984	0.506
1124.000	641.977	80.006	19.995	103.818	19.948	3.141	0.473
1124.500	642.258	80.007	19.994	103.819	19.947	3.237	0.493
1125.000	642.502	80.007	19.995	103.819	19.949	3.074	0.525
1125.500	642.762	80.007	19.995	103.824	19.948	3.198	0.515
1126.000	643.021	80.007	19.994	103.826	19.950	3.021	0.512
1126.500	643.278	80.005	19.994	103.825	19.949	3.109	0.517
1127.000	643.519	80.007	19.994	103.824	19.948	3.200	0.506
1127.500	643.785	80.004	19.993	103.822	19.948	3.213	0.503
1128.000	644.008	80.009	19.994	103.821	19.947	3.257	0.498
1128.500	644.268	80.005	19.995	103.821	19.943	3.599	0.486
1129.001	644.526	80.008	19.995	103.822	19.948	3.174	0.501
1129.501	644.795	80.007	19.994	103.823	19.946	3.326	0.522
1130.001	645.034	80.006	19.994	103.824	19.950	3.039	0.517
1130.501	645.353	80.005	19.994	103.824	19.947	3.263	0.533
1131.000	645.585	80.007	19.994	103.823	19.948	3.174	0.555
1131.500	645.805	80.007	19.994	103.823	19.951	2.930	0.502
1132.000	646.096	80.006	19.993	103.823	19.948	3.146	0.481
1132.500	646.319	80.007	19.994	103.825	19.949	3.074	0.513
1133.000	646.634	80.006	19.994	103.825	19.949	3.074	0.527
1133.500	646.878	80.008	19.993	103.825	19.944	3.455	0.549
1134.000	647.109	80.008	19.994	103.825	19.946	3.357	0.517
1134.500	647.377	80.008	19.993	103.824	19.948	3.180	0.487
1135.000	647.654	80.008	19.993	103.821	19.948	3.187	0.522
1135.500	647.899	80.008	19.993	103.821	19.946	3.357	0.534
1136.000	648.193	80.007	19.994	103.822	19.943	3.540	0.530
1136.500	648.464	80.007	19.994	103.822	19.944	3.522	0.552
1137.000	648.706	80.008	19.993	103.823	19.943	3.559	0.539
1137.500	648.974	80.009	19.993	103.827	19.943	3.577	0.512
1138.000	649.243	80.009	19.992	103.827	19.941	3.697	0.524
1138.500	649.487	80.009	19.994	103.826	19.943	3.586	0.525
1139.000	649.751	80.008	19.992	103.826	19.944	3.475	0.510
1139.500	650.026	80.008	19.994	103.825	19.944	3.492	0.524
1140.000	650.270	80.010	19.994	103.825	19.943	3.566	0.529
1140.500	650.572	80.009	19.994	103.825	19.941	3.740	0.532
1141.001	650.819	80.008	19.994	103.828	19.944	3.529	0.547
1141.501	651.050	80.009	19.993	103.829	19.942	3.627	0.513
1142.000	651.369	80.009	19.993	103.829	19.944	3.490	0.514
1142.501	651.601	80.010	19.993	103.829	19.942	3.625	0.551
1143.001	651.872	80.009	19.993	103.829	19.949	3.076	0.527
1143.500	652.168	80.008	19.993	103.827	19.943	3.538	0.535
1144.000	652.425	80.008	19.993	103.826	19.944	3.486	0.560
1144.500	652.642	80.006	19.993	103.827	19.946	3.316	0.513
1145.001	652.936	80.009	19.992	103.827	19.946	3.305	0.493
1145.501	653.205	80.005	19.993	103.827	19.943	3.570	0.537
1146.000	653.485	80.005	19.993	103.827	19.944	3.507	0.556
1146.500	653.725	80.006	19.994	103.827	19.944	3.474	0.534
1147.001	654.019	80.007	19.994	103.827	19.944	3.533	0.527
1147.501	654.274	80.007	19.993	103.826	19.943	3.601	0.542
1148.000	654.534	80.008	19.993	103.826	19.944	3.520	0.532
1148.500	654.842	80.010	19.992	103.826	19.945	3.431	0.542
1149.000	655.056	80.009	19.993	103.826	19.946	3.329	0.545
1149.500	655.378	80.008	19.993	103.827	19.947	3.268	0.529
1150.000	655.647	80.007	19.993	103.828	19.945	3.401	0.563
1150.500	655.877	80.007	19.993	103.828	19.948	3.209	0.544
1151.001	656.115	80.006	19.993	103.828	19.947	3.287	0.483
1151.501	656.386	80.008	19.994	103.826	19.945	3.411	0.489
1152.000	656.646	80.007	19.993	103.823	19.945	3.438	0.520
1152.501	656.945	80.006	19.993	103.823	19.948	3.218	0.545
1153.001	657.221	80.008	19.993	103.823	19.945	3.416	0.567
1153.500	657.457	80.007	19.993	103.826	19.941	3.753	0.544
1154.000	657.741	80.007	19.994	103.831	19.940	3.810	0.516
1154.500	657.994	80.008	19.994	103.835	19.943	3.605	0.529
1155.000	658.285	80.006	19.993	103.835	19.941	3.730	0.541
1155.500	658.522	80.009	19.992	103.835	19.945	3.446	0.536
1156.000	658.793	80.008	19.992	103.833	19.946	3.355	0.518
1156.500	659.085	80.006	19.993	103.829	19.944	3.459	0.535
1157.000	659.382	80.007	19.993	103.828	19.944	3.466	0.576
1157.500	659.564	80.006	19.992	103.821	19.944	3.479	0.534
1158.000	659.997	80.008	19.993	103.820	19.946	3.320	0.547
1158.500	660.247	80.008	19.994	103.820	19.944	3.479	0.649
1159.000	660.466	80.007	19.994	103.820	19.944	3.464	0.576
1159.500	660.695	80.007	19.992	103.821	19.944	3.525	0.459
1160.000	660.976	80.007	19.994	103.828	19.944	3.529	0.479
1160.500	661.229	80.008	19.992	103.831	19.945	3.444	0.522
1161.000	661.486	80.008	19.994	103.831	19.945	3.412	0.522
1161.500	661.753	80.008	19.993	103.831	19.942	3.629	0.517
1162.000	662.010	80.007	19.993	103.831	19.946	3.359	0.524
1162.500	662.341	80.009	19.992	103.829	19.945	3.394	0.556
1163.000	662.575	80.009	19.993	103.827	19.943	3.573	0.577
1163.500	662.829	80.010	19.994	103.827	19.944	3.503	0.527
1164.000	663.121	80.010	19.993	103.827	19.944	3.501	0.517
1164.500	663.386	80.009	19.993	103.826	19.946	3.307	0.551
1165.000	663.620	80.008	19.994	103.829	19.945	3.429	0.528
1165.500	663.899	80.010	19.992	103.830	19.949	3.128	0.506
1166.000	664.193	80.009	19.992	103.830	19.947	3.229	0.543
1166.500	664.439	80.010	19.992	103.830	19.944	3.499	0.556
1167.000	664.666	80.008	19.992	103.831	19.943	3.597	0.506
1167.501	664.971	80.009	19.993	103.825	19.945	3.407	0.503
1168.001	665.195	80.010	19.993	103.822	19.945	3.427	0.531
1168.501	665.459	80.006	19.993	103.823	19.944	3.492	0.508
1169.000	665.747	80.010	19.993	103.823	19.942	3.660	0.520
1169.500	666.020	80.009	19.993	103.823	19.946	3.328	0.557
1170.000	666.283	80.008	19.991	103.828	19.946	3.313	0.548
1170.500	666.530	80.009	19.993	103.831	19.945	3.405	0.523
1171.000	666.832	80.008	19.992	103.831	19.944	3.499	0.530
1171.500	667.097	80.007	19.992	103.831	19.944	3.503	0.559
1172.000	667.351	80.007	19.992	103.831	19.946	3.313	0.543
1172.500	667.629	80.009	19.993	103.831	19.943	3.581	0.525
1173.000	667.874	80.009	19.992	103.831	19.948	3.172	0.527
1173.500	668.119	80.009	19.992	103.832	19.947	3.237	0.506
1174.000	668.402	80.008	19.992	103.832	19.944	3.483	0.509
1174.500	668.677	80.006	19.993	103.832	19.946	3.339	0.543
1175.000	668.937	80.007	19.993	103.832	19.947	3.287	0.546
1175.500	669.187	80.008	19.990	103.833	19.946	3.329	0.523
1176.000	669.429	80.010	19.993	103.832	19.948	3.163	0.501
1176.500	669.717	80.009	19.993	103.833	19.946	3.353	0.511
1177.000	669.989	80.008	19.993	103.833	19.946	3.361	0.545
1177.500	670.230	80.008	19.993	103.833	19.945	3.431	0.536
1178.000	670.469	80.010	19.992	103.831	19.943	3.566	0.497
1178.500	670.754	80.008	19.993	103.826	19.944	3.531	0.502
1179.000	671.073	80.007	19.991	103.823	19.946	3.331	0.564
1179.500	671.255	80.006	19.993	103.822	19.945	3.437	0.553
1180.000	671.572	80.010	19.993	103.822	19.945	3.405	0.500
1180.500	671.796	80.009	19.993	103.823	19.946	3.331	0.520
1181.000	672.063	80.011	19.992	103.828	19.946	3.374	0.516
1181.500	672.320	80.010	19.993	103.829	19.942	3.688	0.507
1182.000	672.569	80.008	19.994	103.828	19.945	3.398	0.515
1182.500	672.814	80.010	19.994	103.827	19.943	3.546	0.500
1183.000	673.101	80.010	19.993	103.827	19.944	3.485	0.513
1183.500	673.370	80.012	19.993	103.826	19.944	3.474	0.544
1184.000	673.611	80.010	19.993	103.826	19.943	3.577	0.533
1184.500	673.891	80.009	19.994	103.827	19.947	3.296	0.516
1185.000	674.150	80.007	19.993	103.827	19.944	3.461	0.530
1185.500	674.416	80.009	19.994	103.826	19.946	3.357	0.532
1186.000	674.668	80.006	19.994	103.826	19.948	3.176	0.522
1186.500	674.908	80.006	19.993	103.826	19.943	3.566	0.505
1187.000	675.253	80.009	19.993	103.826	19.942	3.649	0.539
1187.501	675.475	80.010	19.994	103.828	19.945	3.396	0.576
1188.001	675.720	80.010	19.993	103.826	19.944	3.474	0.517
1188.501	675.997	80.011	19.993	103.825	19.944	3.457	0.495
1189.000	676.264	80.007	19.993	103.824	19.943	3.587	0.533
1189.500	676.543	80.007	19.993	103.824	19.942	3.644	0.545
1190.001	676.780	80.007	19.994	103.823	19.941	3.755	0.531
1190.501	677.041	80.010	19.993	103.825	19.943	3.546	0.507
1191.000	677.294	80.010	19.993	103.825	19.947	3.278	0.506
1191.500	677.528	80.009	19.994	103.826	19.944	3.483	0.500
1192.000	677.844	80.009	19.993	103.824	19.945	3.389	0.518
1192.500	678.107	80.011	19.993	103.824	19.945	3.450	0.565
1193.001	678.320	80.010	19.993	103.823	19.946	3.304	0.528
1193.501	678.580	80.009	19.993	103.822	19.945	3.433	0.474
1194.000	678.817	80.010	19.993	103.817	19.944	3.478	0.485
1194.501	679.116	80.010	19.993	103.816	19.945	3.417	0.517
1195.001	679.341	80.010	19.993	103.816	19.945	3.404	0.530
1195.500	679.616	80.010	19.993	103.816	19.942	3.635	0.512
1196.000	679.837	80.010	19.994	103.817	19.944	3.457	0.498
1196.500	680.124	80.010	19.994	103.822	19.945	3.380	0.502
1197.000	680.392	80.009	19.994	103.824	19.944	3.520	0.531
1197.500	680.634	80.009	19.993	103.825	19.947	3.258	0.532
1198.000	680.872	80.008	19.993	103.824	19.941	3.720	0.495
1198.501	681.130	80.011	19.994	103.819	19.946	3.363	0.488
1199.001	681.410	80.009	19.994	103.818	19.945	3.450	0.517
1199.501	681.635	80.010	19.993	103.819	19.944	3.465	0.522
1200.000	681.901	80.009	19.994	103.816	19.943	3.541	0.498
1200.500	682.117	80.008	19.993	103.811	19.946	3.325	0.487
1201.000	682.381	80.009	19.993	103.811	19.943	3.600	0.481
1201.500	682.648	80.008	19.993	103.810	19.945	3.391	0.505
1202.000	682.932	80.010	19.993	103.810	19.941	3.746	0.541
1202.500	683.166	80.008	19.994	103.813	19.941	3.691	0.534
1203.000	683.421	80.009	19.994	103.817	19.946	3.332	0.504
1203.500	683.643	80.008	19.994	103.817	19.942	3.672	0.484
1204.000	683.951	80.009	19.994	103.812	19.940	3.831	0.504
1204.500	684.226	80.008	19.994	103.809	19.945	3.447	0.556
1205.000	684.435	80.008	19.993	103.809	19.944	3.532	0.533
1205.500	684.735	80.009	19.994	103.810	19.949	3.116	0.497
1206.000	684.950	80.006	19.994	103.812	19.947	3.295	0.512
1206.500	685.244	80.008	19.993	103.816	19.943	3.554	0.512
1207.000	685.474	80.008	19.993	103.817	19.946	3.339	0.516
1207.500	685.725	80.008	19.993	103.813	19.945	3.387	0.503
1208.001	685.991	80.007	19.993	103.810	19.944	3.454	0.500
1208.501	686.217	80.009	19.994	103.806	19.944	3.472	0.505
1209.001	686.449	80.010	19.994	103.802	19.939	3.896	0.475
1209.501	686.704	80.009	19.994	103.799	19.942	3.630	0.472
1210.000	686.960	80.009	19.993	103.796	19.944	3.524	0.499
1210.500	687.180	80.005	19.993	103.792	19.946	3.360	0.493
1211.000	687.449	80.006	19.994	103.794	19.942	3.613	0.482
1211.501	687.728	80.008	19.994	103.793	19.939	3.911	0.518
1212.001	687.976	80.009	19.994	103.792	19.942	3.626	0.538
1212.500	688.203	80.005	19.993	103.792	19.940	3.817	0.501
1213.001	688.492	80.007	19.994	103.796	19.941	3.698	0.495
1213.501	688.738	80.008	19.993	103.794	19.946	3.341	0.525
1214.000	688.972	80.006	19.994	103.793	19.943	3.545	0.508
1214.500	689.215	80.006	19.993	103.795	19.945	3.450	0.478
1215.000	689.479	80.008	19.993	103.797	19.944	3.495	0.492
1215.500	689.721	80.009	19.994	103.794	19.946	3.315	0.507
1216.001	689.943	80.008	19.994	103.796	19.947	3.295	0.485
1216.501	690.226	80.009	19.993	103.798	19.947	3.288	0.484
1217.000	690.471	80.008	19.995	103.798	19.946	3.301	0.516
1217.500	690.689	80.008	19.994	103.801	19.947	3.269	0.496
1218.000	690.945	80.009	19.994	103.805	19.944	3.506	0.469
1218.500	691.192	80.008	19.994	103.805	19.948	3.195	0.488
1219.000	691.446	80.008	19.994	103.803	19.945	3.415	0.502
1219.500	691.685	80.005	19.994	103.801	19.947	3.227	0.497
1220.000	691.956	80.009	19.994	103.796	19.942	3.689	0.502
1220.500	692.198	80.009	19.994	103.793	19.946	3.358	0.511
1221.000	692.407	80.006	19.994	103.794	19.943	3.602	0.482
1221.500	692.572	80.009	19.995	103.795	19.946	3.358	0.412
1222.000	692.954	80.008	19.994	103.796	19.944	3.456	0.460
1222.501	693.157	80.009	19.994	103.796	19.942	3.659	0.566
1223.001	693.429	80.009	19.994	103.795	19.946	3.304	0.531
1223.501	693.630	80.008	19.994	103.792	19.948	3.166	0.474
1224.001	693.892	80.009	19.994	103.792	19.948	3.204	0.468
1224.501	694.139	80.007	19.994	103.791	19.943	3.567	0.486
1225.000	694.355	80.007	19.993	103.792	19.946	3.319	0.486
1225.501	694.627	80.009	19.994	103.798	19.946	3.321	0.476
1226.001	694.866	80.009	19.993	103.801	19.946	3.363	0.499
1226.501	695.120	80.009	19.994	103.799	19.945	3.439	0.502
1227.001	695.348	80.008	19.994	103.798	19.946	3.367	0.488
1227.500	695.600	80.008	19.994	103.798	19.948	3.180	0.481
1228.000	695.827	80.008	19.993	103.793	19.948	3.154	0.479
1228.500	696.094	80.008	19.993	103.790	19.948	3.152	0.486
1229.000	696.327	80.009	19.995	103.790	19.949	3.125	0.497
1229.500	696.560	80.010	19.993	103.791	19.945	3.404	0.483
1230.001	696.818	80.009	19.993	103.791	19.947	3.286	0.478
1230.501	697.115	80.007	19.993	103.791	19.947	3.267	0.523
1231.000	697.315	80.008	19.994	103.792	19.950	3.047	0.527
1231.500	697.566	80.008	19.993	103.793	19.943	3.583	0.474
1232.001	697.793	80.009	19.993	103.792	19.947	3.269	0.464
1232.501	698.041	80.009	19.993	103.793	19.944	3.511	0.477
1233.000	698.256	80.006	19.993	103.795	19.946	3.363	0.469
1233.500	698.516	80.006	19.993	103.797	19.943	3.563	0.469
1234.000	698.775	80.008	19.993	103.797	19.946	3.330	0.497
1234.500	699.036	80.007	19.993	103.797	19.946	3.347	0.519
1235.000	699.239	80.008	19.993	103.797	19.949	3.084	0.492
1235.500	699.514	80.004	19.991	103.795	19.948	3.145	0.471
1236.000	699.753	80.007	19.994	103.794	19.949	3.094	0.496
1236.500	699.996	80.009	19.995	103.798	19.946	3.360	0.498
1237.000	700.245	80.007	19.995	103.803	19.948	3.210	0.487
1237.500	700.512	80.008	19.996	103.807	19.946	3.330	0.504
1238.000	700.739	80.008	19.995	103.807	19.946	3.302	0.505
1238.500	700.988	80.006	19.993	103.811	19.946	3.304	0.485
1239.000	701.229	80.008	19.994	103.810	19.948	3.162	0.483
1239.500	701.438	80.010	19.993	103.808	19.946	3.304	0.470
1240.000	701.708	80.007	19.993	103.804	19.949	3.134	0.465
1240.500	701.959	80.008	19.993	103.804	19.945	3.410	0.500
1241.000	702.230	80.007	19.992	103.801	19.947	3.277	0.521
1241.500	702.460	80.009	19.993	103.802	19.946	3.332	0.511
1242.001	702.752	80.008	19.994	103.802	19.944	3.458	0.511
1242.501	702.949	80.007	19.993	103.803	19.950	2.988	0.506
1243.000	703.223	80.008	19.993	103.807	19.951	2.914	0.480
1243.500	703.443	80.009	19.993	103.808	19.947	3.282	0.482
1244.000	703.717	80.009	19.993	103.805	19.947	3.247	0.494
1244.500	703.956	80.010	19.992	103.802	19.949	3.134	0.504
1245.000	704.205	80.007	19.994	103.800	19.944	3.471	0.501
1245.500	704.464	80.009	19.994	103.795	19.949	3.073	0.497
1246.000	704.701	80.009	19.993	103.792	19.945	3.419	0.502
1246.500	704.970	80.011	19.993	103.791	19.947	3.264	0.501
1247.000	705.218	80.010	19.993	103.791	19.949	3.062	0.512
1247.500	705.463	80.011	19.994	103.797	19.949	3.086	0.505
1248.000	705.709	80.010	19.994	103.802	19.947	3.278	0.492
1248.500	705.979	80.009	19.993	103.803	19.947	3.219	0.504
1249.000	706.218	80.010	19.994	103.805	19.947	3.282	0.513
1249.500	706.483	80.010	19.995	103.807	19.944	3.482	0.506
1250.000	706.750	80.011	19.994	103.801	19.946	3.317	0.518
1250.500	707.023	80.010	19.993	103.796	19.947	3.232	0.536
1251.000	707.242	80.011	19.994	103.795	19.946	3.345	0.516
1251.500	707.540	80.009	19.993	103.793	19.944	3.467	0.504
1252.000	707.769	80.011	19.993	103.789	19.947	3.275	0.522
1252.500	708.019	80.010	19.993	103.789	19.947	3.262	0.503
1253.000	708.299	80.013	19.994	103.790	19.950	3.029	0.505
1253.500	708.549	80.011	19.994	103.792	19.949	3.127	0.530
1254.000	708.805	80.010	19.993	103.792	19.948	3.186	0.518
1254.500	709.024	80.008	19.993	103.792	19.945	3.438	0.491
1255.000	709.276	80.009	19.993	103.793	19.945	3.428	0.473
1255.500	709.579	80.009	19.993	103.794	19.944	3.475	0.513
1256.001	709.817	80.010	19.993	103.792	19.943	3.536	0.548
1256.501	710.066	80.009	19.993	103.794	19.943	3.547	0.514
1257.000	710.336	80.008	19.993	103.796	19.941	3.704	0.503
1257.500	710.630	80.009	19.993	103.797	19.943	3.576	0.541
1258.000	710.832	80.008	19.994	103.801	19.942	3.613	0.530
1258.500	711.087	80.010	19.993	103.803	19.942	3.680	0.477
1259.000	711.398	80.009	19.992	103.803	19.943	3.563	0.512
1259.500	711.631	80.009	19.993	103.802	19.945	3.410	0.555
1260.000	711.905	80.009	19.994	103.802	19.945	3.419	0.526
1260.500	712.139	80.008	19.994	103.796	19.941	3.693	0.507
1261.000	712.408	80.011	19.993	103.792	19.941	3.767	0.506
1261.500	712.684	80.010	19.993	103.791	19.943	3.608	0.525
1262.000	712.949	80.009	19.993	103.790	19.942	3.639	0.543
1262.500	713.189	80.009	19.993	103.795	19.938	3.976	0.523
1263.001	713.460	80.010	19.993	103.799	19.940	3.828	0.508
1263.501	713.658	80.010	19.993	103.798	19.940	3.776	0.489
1264.001	713.966	80.010	19.994	103.797	19.939	3.920	0.487
1264.500	714.228	80.008	19.993	103.797	19.943	3.610	0.538
1265.000	714.461	80.009	19.993	103.791	19.938	3.998	0.533
1265.500	714.721	80.008	19.994	103.787	19.938	3.941	0.495
1266.000	715.025	80.010	19.994	103.788	19.938	3.952	0.529
1266.500	715.261	80.009	19.993	103.789	19.940	3.842	0.552
1267.000	715.513	80.011	19.992	103.788	19.940	3.791	0.514
1267.500	715.796	80.010	19.993	103.788	19.941	3.759	0.511
1268.000	716.008	80.009	19.992	103.788	19.938	3.955	0.515
1268.500	716.299	80.010	19.993	103.789	19.940	3.820	0.499
1269.000	716.549	80.011	19.994	103.789	19.941	3.726	0.522
1269.500	716.801	80.010	19.993	103.789	19.940	3.833	0.522
1270.000	717.061	80.009	19.993	103.789	19.941	3.715	0.507
1270.500	717.321	80.010	19.993	103.788	19.940	3.789	0.515
1271.000	717.561	80.010	19.992	103.788	19.943	3.565	0.510
1271.500	717.820	80.010	19.992	103.788	19.942	3.624	0.500
1272.000	718.032	80.007	19.993	103.788	19.941	3.735	0.485
1272.500	718.297	80.011	19.992	103.789	19.945	3.380	0.474
1273.000	718.588	80.011	19.993	103.792	19.942	3.669	0.516
1273.500	718.867	80.010	19.993	103.792	19.943	3.567	0.563
1274.000	719.098	80.011	19.991	103.792	19.943	3.606	0.540
1274.500	719.360	80.011	19.992	103.792	19.941	3.696	0.501
1275.000	719.626	80.011	19.993	103.790	19.944	3.526	0.510
1275.500	719.892	80.012	19.991	103.788	19.944	3.473	0.530
1276.000	720.126	80.009	19.993	103.788	19.943	3.602	0.516
1276.500	720.377	80.007	19.992	103.789	19.941	3.765	0.493
1277.001	720.667	80.011	19.992	103.791	19.940	3.800	0.513
1277.501	720.940	80.011	19.993	103.795	19.943	3.550	0.551
1278.000	721.155	80.011	19.993	103.796	19.941	3.705	0.525
1278.500	721.449	80.009	19.993	103.796	19.941	3.742	0.498
1279.000	721.685	80.009	19.992	103.797	19.941	3.726	0.520
1279.500	721.939	80.009	19.992	103.799	19.944	3.458	0.511
1280.000	722.221	80.010	19.992	103.797	19.944	3.511	0.513
1280.500	722.480	80.006	19.992	103.796	19.945	3.375	0.538
1281.000	722.723	80.010	19.993	103.796	19.943	3.587	0.522
1281.500	722.994	80.011	19.992	103.795	19.944	3.480	0.508
1282.000	723.256	80.010	19.993	103.790	19.943	3.595	0.523
1282.500	723.551	80.009	19.993	103.789	19.943	3.565	0.545
1283.000	723.795	80.010	19.993	103.789	19.942	3.635	0.548
1283.500	724.032	80.010	19.992	103.789	19.945	3.439	0.510
1284.000	724.318	80.007	19.993	103.791	19.942	3.628	0.502
1284.500	724.583	80.009	19.993	103.792	19.942	3.630	0.537
1285.000	724.843	80.007	19.993	103.792	19.944	3.504	0.538
1285.500	725.091	80.008	19.994	103.792	19.939	3.881	0.516
1286.000	725.374	80.007	19.994	103.792	19.944	3.508	0.520
1286.500	725.651	80.008	19.993	103.791	19.942	3.678	0.545
1287.000	725.904	80.009	19.993	103.792	19.940	3.842	0.545
1287.500	726.154	80.009	19.995	103.796	19.944	3.530	0.517
1288.000	726.459	80.009	19.994	103.797	19.942	3.646	0.529
1288.501	726.714	80.007	19.993	103.798	19.943	3.602	0.557
1289.001	726.968	80.006	19.994	103.804	19.940	3.842	0.534
1289.500	727.227	80.007	19.993	103.804	19.940	3.835	0.511
1290.000	727.495	80.006	19.993	103.799	19.941	3.720	0.520
1290.500	727.766	80.007	19.993	103.798	19.943	3.539	0.533
1291.000	728.036	80.009	19.993	103.797	19.942	3.617	0.540
1291.500	728.284	80.005	19.992	103.791	19.942	3.689	0.529
1292.000	728.556	80.007	19.993	103.791	19.941	3.709	0.519
1292.500	728.824	80.005	19.994	103.792	19.942	3.645	0.530
1293.000	729.086	80.008	19.993	103.791	19.939	3.896	0.535
1293.500	729.354	80.008	19.993	103.791	19.940	3.787	0.530
1294.000	729.620	80.008	19.994	103.791	19.941	3.702	0.532
1294.501	729.868	80.005	19.994	103.791	19.936	4.105	0.524
1295.001	730.130	80.008	19.994	103.793	19.941	3.722	0.512
1295.501	730.388	80.006	19.992	103.795	19.939	3.881	0.515
1296.001	730.655	80.007	19.993	103.795	19.940	3.824	0.523
1296.501	730.948	80.009	19.993	103.798	19.938	3.959	0.542
1297.001	731.163	80.006	19.995	103.799	19.939	3.892	0.533
1297.500	731.462	80.008	19.993	103.798	19.941	3.757	0.511
1298.000	731.720	80.009	19.992	103.797	19.939	3.863	0.536
1298.500	731.967	80.009	19.993	103.797	19.944	3.519	0.531
1299.000	732.218	80.009	19.993	103.794	19.942	3.624	0.501
1299.500	732.502	80.006	19.993	103.793	19.944	3.491	0.517
1300.000	732.758	80.008	19.993	103.797	19.941	3.763	0.538
1300.500	733.032	80.007	19.993	103.797	19.941	3.696	0.535
1301.000	733.254	80.007	19.994	103.797	19.943	3.534	0.512
1301.500	733.516	80.004	19.993	103.797	19.942	3.621	0.490
1302.000	733.785	80.008	19.993	103.798	19.941	3.765	0.508
1302.501	734.067	80.009	19.994	103.794	19.938	3.992	0.541
1303.001	734.325	80.007	19.991	103.793	19.940	3.802	0.545
1303.501	734.615	80.009	19.994	103.794	19.944	3.482	0.544
1304.001	734.808	80.008	19.994	103.793	19.940	3.772	0.516
1304.500	735.081	80.009	19.992	103.792	19.938	3.928	0.475
1305.000	735.361	80.008	19.993	103.792	19.938	3.935	0.509
1305.500	735.559	80.009	19.994	103.793	19.941	3.761	0.515
1306.000	735.817	80.007	19.993	103.793	19.937	4.022	0.467
1306.500	736.123	80.006	19.993	103.793	19.941	3.761	0.510
1307.001	736.350	80.007	19.993	103.796	19.938	3.968	0.549
1307.501	736.663	80.008	19.992	103.799	19.938	3.946	0.536
1308.001	736.845	80.008	19.993	103.799	19.942	3.648	0.518
1308.500	737.081	80.009	19.992	103.799	19.941	3.767	0.457
1309.001	737.337	80.007	19.994	103.798	19.941	3.756	0.455
1309.501	737.612	80.009	19.994	103.795	19.938	3.976	0.511
1310.001	737.892	80.011	19.995	103.791	19.944	3.499	0.543
1310.501	738.129	80.009	19.994	103.791	19.940	3.783	0.536
1311.001	738.422	80.008	19.994	103.791	19.940	3.817	0.524
1311.500	738.637	80.008	19.994	103.792	19.938	3.961	0.519
1312.000	738.910	80.006	19.993	103.791	19.940	3.822	0.498
1312.501	739.218	80.009	19.994	103.791	19.942	3.615	0.535
1313.001	739.452	80.007	19.994	103.792	19.938	3.944	0.562
1313.501	739.702	80.007	19.994	103.792	19.940	3.841	0.513
1314.000	739.949	80.009	19.995	103.792	19.942	3.624	0.491
1314.500	740.145	80.008	19.994	103.792	19.941	3.726	0.470
1315.001	740.448	80.007	19.994	103.791	19.937	4.018	0.471
1315.501	740.732	80.006	19.993	103.790	19.940	3.824	0.543
1316.001	740.968	80.007	19.994	103.789	19.940	3.826	0.554
1316.500	741.205	80.006	19.994	103.789	19.940	3.804	0.496
1317.001	741.454	80.006	19.994	103.790	19.940	3.835	0.479
1317.501	741.753	80.010	19.994	103.790	19.941	3.713	0.517
1318.000	741.978	80.006	19.995	103.790	19.937	4.007	0.536
1318.501	742.216	80.007	19.995	103.790	19.939	3.894	0.494
1319.001	742.521	80.006	19.995	103.790	19.941	3.730	0.503
1319.501	742.727	80.008	19.995	103.789	19.941	3.763	0.527
1320.000	743.001	80.008	19.994	103.790	19.946	3.323	0.495
1320.501	743.267	80.006	19.995	103.790	19.943	3.552	0.510
1321.001	743.475	80.008	19.994	103.790	19.942	3.630	0.507
