Sample ID:	C:\MCC\MCC Cal\Test\PE_batting_82B_MCC_30K_min_220309_R1.txt
Sample Weight (mg):	4.13
Heating Rate (C/s):	0.5
Combustor Temp (C):	900
N2 Flow Rate (cc/min):	80
O2 Flow Rate (cc/min):	20
Calibration File:	C:\MCC\MCC Cal\Coeff1 JN10440_30_210304.txt.txt
T Correction Coefficients:	0	1.024463	0
Time Shift (s):	14
*
Time (s)	Temperature (C)	N2 flow rate (cc/min)	O2 flow rate (cc/min)	Flow Rate (cc/min)	Oxygen (%)	HRR (W/g)	Heating rate (C/s)
0.000	108.117	80.004	19.993	103.688	20.079	-0.266	0.010
0.500	108.136	80.005	19.994	103.690	20.076	0.006	0.025
0.999	108.123	80.005	19.995	103.690	20.076	0.019	0.016
1.500	108.133	80.005	19.993	103.689	20.078	-0.188	0.002
2.000	108.140	80.003	19.994	103.688	20.076	-0.004	0.007
2.499	108.127	80.005	19.994	103.685	20.079	-0.259	0.005
2.999	108.106	80.004	19.995	103.680	20.079	-0.264	-0.020
3.500	108.102	80.005	19.994	103.677	20.079	-0.240	-0.029
4.000	108.156	80.004	19.993	103.678	20.080	-0.298	0.013
4.500	108.140	80.004	19.993	103.677	20.081	-0.428	0.044
5.000	108.114	80.004	19.993	103.680	20.080	-0.302	-0.002
5.500	108.147	80.003	19.994	103.682	20.081	-0.404	-0.018
6.000	108.146	80.004	19.994	103.687	20.079	-0.285	0.019
6.500	108.142	80.005	19.994	103.689	20.080	-0.365	0.014
7.000	108.123	80.004	19.993	103.689	20.081	-0.400	-0.014
7.500	108.079	80.004	19.994	103.688	20.081	-0.369	-0.043
8.000	108.149	80.003	19.993	103.691	20.082	-0.519	-0.019
8.499	108.084	80.004	19.994	103.691	20.080	-0.303	0.015
8.999	108.067	80.004	19.994	103.691	20.079	-0.266	-0.038
9.499	108.139	80.005	19.993	103.694	20.078	-0.132	-0.013
9.999	108.057	80.005	19.994	103.699	20.080	-0.318	0.022
10.500	108.123	80.003	19.994	103.702	20.077	-0.097	-0.013
11.001	108.115	80.005	19.993	103.705	20.078	-0.186	0.021
11.500	108.129	80.005	19.994	103.710	20.076	-0.050	0.032
11.999	108.112	80.005	19.995	103.714	20.073	0.227	0.001
12.499	108.120	80.004	19.993	103.716	20.077	-0.112	-0.006
12.999	108.097	80.006	19.993	103.717	20.073	0.203	-0.012
13.499	108.106	80.004	19.994	103.719	20.074	0.169	-0.014
13.999	108.121	80.005	19.994	103.721	20.074	0.173	0.005
14.500	108.115	80.004	19.993	103.721	20.073	0.225	0.017
15.000	108.125	80.005	19.994	103.721	20.075	0.058	0.007
15.499	108.118	80.006	19.994	103.720	20.075	0.032	0.004
15.999	108.098	80.005	19.993	103.718	20.074	0.128	-0.012
16.499	108.109	80.005	19.993	103.715	20.075	0.093	-0.018
16.999	108.154	80.006	19.993	103.715	20.071	0.346	0.023
17.499	108.151	80.007	19.993	103.717	20.073	0.214	0.049
17.999	108.166	80.005	19.993	103.723	20.069	0.543	0.027
18.499	108.192	80.007	19.993	103.736	20.071	0.381	0.026
19.000	108.172	80.007	19.993	103.746	20.070	0.450	0.023
19.500	108.190	80.006	19.993	103.755	20.067	0.708	0.002
20.000	108.212	80.008	19.993	103.763	20.067	0.669	0.019
20.500	108.204	80.005	19.993	103.773	20.067	0.658	0.027
20.999	108.239	80.008	19.993	103.782	20.065	0.853	0.021
21.499	108.237	80.007	19.992	103.796	20.062	1.112	0.030
21.999	108.254	80.007	19.994	103.810	20.061	1.168	0.024
22.500	108.316	80.007	19.992	103.821	20.058	1.411	0.047
23.000	108.306	80.008	19.993	103.828	20.058	1.370	0.065
23.500	108.305	80.009	19.992	103.833	20.051	1.926	0.020
24.000	108.394	80.007	19.993	103.841	20.052	1.884	0.038
24.500	108.385	80.008	19.993	103.848	20.054	1.726	0.084
25.000	108.384	80.007	19.993	103.861	20.053	1.804	0.035
25.499	108.430	80.007	19.993	103.873	20.050	2.027	0.018
25.999	108.452	80.007	19.993	103.879	20.046	2.326	0.057
26.499	108.516	80.007	19.992	103.886	20.051	1.949	0.077
26.999	108.550	80.007	19.993	103.894	20.049	2.090	0.092
27.499	108.582	80.006	19.994	103.897	20.046	2.363	0.082
27.999	108.612	80.005	19.993	103.896	20.045	2.430	0.064
28.499	108.667	80.006	19.994	103.899	20.047	2.276	0.073
28.999	108.726	80.004	19.993	103.894	20.046	2.371	0.099
29.499	108.853	80.006	19.993	103.887	20.043	2.553	0.150
29.999	108.871	80.006	19.993	103.884	20.042	2.635	0.166
30.499	108.870	80.005	19.994	103.887	20.044	2.518	0.081
31.000	108.919	80.006	19.993	103.884	20.044	2.536	0.033
31.500	109.005	80.005	19.994	103.882	20.044	2.508	0.092
31.999	109.045	80.004	19.992	103.882	20.043	2.542	0.131
32.499	109.100	80.004	19.994	103.882	20.045	2.438	0.110
32.999	109.194	80.004	19.995	103.878	20.046	2.302	0.122
33.499	109.271	80.006	19.995	103.876	20.044	2.465	0.160
34.000	109.368	80.004	19.994	103.877	20.045	2.439	0.173
34.500	109.405	80.005	19.994	103.877	20.043	2.594	0.154
35.000	109.451	80.004	19.994	103.875	20.044	2.469	0.109
35.501	109.553	80.004	19.994	103.872	20.043	2.566	0.116
36.000	109.584	80.006	19.993	103.872	20.043	2.601	0.141
36.499	109.697	80.006	19.994	103.872	20.045	2.430	0.138
36.999	109.755	80.004	19.994	103.871	20.045	2.387	0.157
37.499	109.820	80.004	19.994	103.871	20.044	2.512	0.147
37.999	109.906	80.006	19.994	103.872	20.046	2.363	0.137
38.499	109.993	80.005	19.995	103.871	20.045	2.433	0.162
38.999	110.050	80.006	19.993	103.871	20.047	2.268	0.159
39.500	110.119	80.005	19.993	103.871	20.046	2.316	0.135
40.000	110.217	80.005	19.994	103.871	20.045	2.392	0.146
40.499	110.315	80.005	19.993	103.870	20.045	2.439	0.181
40.999	110.410	80.005	19.994	103.870	20.044	2.461	0.195
41.499	110.465	80.007	19.993	103.870	20.043	2.606	0.172
41.999	110.567	80.005	19.994	103.871	20.040	2.807	0.154
42.499	110.625	80.008	19.993	103.875	20.044	2.487	0.158
42.999	110.736	80.006	19.993	103.876	20.044	2.484	0.164
43.499	110.811	80.007	19.994	103.877	20.043	2.556	0.178
43.999	110.903	80.007	19.993	103.880	20.042	2.649	0.176
44.499	111.023	80.005	19.994	103.884	20.045	2.450	0.189
45.000	111.088	80.007	19.993	103.883	20.044	2.523	0.198
45.500	111.184	80.006	19.994	103.884	20.040	2.841	0.173
45.999	111.290	80.007	19.993	103.889	20.041	2.711	0.182
46.500	111.437	80.006	19.993	103.892	20.043	2.601	0.228
47.001	111.520	80.007	19.993	103.891	20.044	2.505	0.242
47.501	111.590	80.006	19.992	103.895	20.038	2.934	0.192
48.000	111.681	80.007	19.993	103.901	20.044	2.469	0.157
48.499	111.784	80.006	19.993	103.899	20.039	2.886	0.177
48.999	111.877	80.007	19.994	103.899	20.042	2.687	0.194
49.499	111.982	80.008	19.992	103.902	20.043	2.590	0.197
49.999	112.081	80.007	19.994	103.903	20.040	2.832	0.201
50.499	112.183	80.007	19.993	103.904	20.039	2.895	0.203
50.999	112.333	80.007	19.994	103.907	20.040	2.794	0.227
51.499	112.427	80.007	19.993	103.905	20.040	2.811	0.248
51.999	112.575	80.006	19.994	103.901	20.040	2.818	0.243
52.499	112.683	80.006	19.994	103.901	20.041	2.759	0.249
52.999	112.806	80.005	19.994	103.899	20.043	2.614	0.244
53.499	112.877	80.007	19.993	103.900	20.045	2.456	0.212
53.999	113.050	80.005	19.993	103.900	20.045	2.454	0.219
54.499	113.139	80.005	19.993	103.901	20.044	2.506	0.253
54.999	113.252	80.005	19.992	103.895	20.042	2.666	0.232
55.499	113.376	80.005	19.994	103.890	20.042	2.684	0.219
55.999	113.504	80.004	19.993	103.883	20.043	2.541	0.245
56.499	113.607	80.004	19.993	103.881	20.046	2.346	0.242
56.999	113.751	80.004	19.994	103.875	20.042	2.649	0.239
57.499	113.868	80.004	19.993	103.875	20.041	2.714	0.254
57.999	114.006	80.004	19.994	103.874	20.043	2.591	0.258
58.499	114.100	80.005	19.993	103.874	20.046	2.368	0.243
58.999	114.238	80.004	19.994	103.875	20.041	2.719	0.232
59.499	114.345	80.004	19.994	103.878	20.043	2.539	0.239
59.999	114.440	80.004	19.994	103.880	20.046	2.360	0.224
60.499	114.586	80.005	19.994	103.883	20.046	2.340	0.222
60.999	114.739	80.005	19.995	103.884	20.042	2.641	0.270
61.499	114.862	80.006	19.995	103.889	20.043	2.567	0.287
61.999	114.971	80.004	19.994	103.893	20.042	2.667	0.254
62.499	115.124	80.004	19.995	103.895	20.043	2.604	0.247
62.999	115.257	80.003	19.995	103.896	20.042	2.687	0.274
63.499	115.378	80.004	19.995	103.897	20.040	2.819	0.270
63.999	115.495	80.005	19.994	103.897	20.040	2.784	0.246
64.499	115.611	80.005	19.995	103.897	20.039	2.929	0.235
64.999	115.754	80.006	19.994	103.900	20.040	2.840	0.246
65.499	115.948	80.005	19.995	103.904	20.039	2.901	0.298
65.999	116.045	80.004	19.995	103.909	20.040	2.814	0.314
66.499	116.192	80.005	19.995	103.909	20.041	2.764	0.268
66.999	116.335	80.004	19.995	103.909	20.043	2.580	0.267
67.499	116.460	80.006	19.996	103.909	20.040	2.816	0.279
67.999	116.584	80.004	19.996	103.908	20.039	2.860	0.259
68.500	116.745	80.005	19.994	103.909	20.039	2.897	0.267
69.000	116.902	80.004	19.994	103.911	20.040	2.791	0.302
69.499	117.036	80.004	19.994	103.916	20.039	2.927	0.304
69.999	117.162	80.004	19.995	103.922	20.038	2.999	0.275
70.500	117.331	80.005	19.994	103.927	20.038	2.986	0.278
71.000	117.470	80.004	19.994	103.930	20.037	3.016	0.302
71.499	117.630	80.004	19.995	103.928	20.038	2.981	0.303
72.000	117.764	80.004	19.993	103.926	20.036	3.165	0.296
72.500	117.912	80.004	19.994	103.927	20.035	3.213	0.288
72.999	118.085	80.007	19.996	103.930	20.037	3.033	0.302
73.499	118.227	80.004	19.995	103.933	20.037	3.020	0.318
74.000	118.393	80.006	19.994	103.937	20.035	3.226	0.311
74.500	118.532	80.005	19.994	103.937	20.036	3.146	0.307
74.999	118.691	80.006	19.994	103.937	20.039	2.890	0.302
75.499	118.894	80.007	19.993	103.936	20.037	3.046	0.330
75.999	119.009	80.006	19.994	103.937	20.038	3.005	0.340
76.499	119.169	80.006	19.993	103.934	20.037	3.037	0.297
76.999	119.314	80.006	19.994	103.933	20.036	3.141	0.290
77.499	119.479	80.005	19.993	103.931	20.037	3.012	0.307
77.999	119.646	80.006	19.992	103.930	20.036	3.107	0.321
78.499	119.816	80.006	19.993	103.928	20.033	3.393	0.334
79.000	119.926	80.005	19.994	103.934	20.034	3.306	0.309
79.500	120.122	80.007	19.993	103.941	20.032	3.475	0.293
79.999	120.306	80.006	19.993	103.943	20.033	3.360	0.343
80.499	120.497	80.005	19.993	103.947	20.032	3.462	0.378
81.000	120.657	80.006	19.993	103.949	20.032	3.425	0.363
81.500	120.835	80.006	19.994	103.949	20.035	3.187	0.344
81.999	120.988	80.006	19.994	103.952	20.033	3.399	0.334
82.499	121.156	80.005	19.993	103.952	20.034	3.261	0.326
83.000	121.357	80.004	19.993	103.950	20.032	3.477	0.346
83.500	121.525	80.006	19.993	103.950	20.031	3.553	0.369
83.999	121.705	80.005	19.994	103.949	20.033	3.324	0.358
84.499	121.850	80.004	19.993	103.945	20.031	3.551	0.336
84.999	122.031	80.005	19.994	103.945	20.033	3.360	0.326
85.499	122.230	80.004	19.993	103.947	20.030	3.579	0.353
85.999	122.412	80.005	19.993	103.942	20.033	3.334	0.380
86.499	122.600	80.004	19.994	103.942	20.031	3.523	0.375
87.000	122.750	80.005	19.993	103.942	20.036	3.109	0.354
87.500	122.966	80.005	19.994	103.943	20.034	3.293	0.352
87.999	123.132	80.005	19.994	103.943	20.034	3.274	0.374
88.499	123.322	80.005	19.994	103.948	20.033	3.389	0.369
88.999	123.501	80.005	19.994	103.949	20.033	3.356	0.362
89.499	123.726	80.003	19.994	103.949	20.031	3.488	0.387
89.999	123.898	80.005	19.994	103.949	20.030	3.579	0.401
90.499	124.047	80.004	19.993	103.948	20.029	3.653	0.359
90.999	124.253	80.005	19.994	103.949	20.032	3.471	0.338
91.499	124.438	80.005	19.994	103.949	20.031	3.505	0.373
91.999	124.670	80.003	19.993	103.949	20.032	3.460	0.404
92.499	124.855	80.004	19.994	103.949	20.032	3.430	0.417
92.999	125.022	80.004	19.994	103.955	20.032	3.425	0.385
93.499	125.242	80.006	19.995	103.956	20.031	3.490	0.369
93.999	125.374	80.003	19.994	103.956	20.034	3.313	0.369
94.499	125.588	80.006	19.994	103.956	20.031	3.484	0.349
94.999	125.804	80.004	19.995	103.956	20.034	3.300	0.388
95.499	125.995	80.006	19.994	103.951	20.035	3.196	0.418
95.999	126.183	80.005	19.995	103.952	20.031	3.516	0.393
96.499	126.376	80.004	19.994	103.952	20.033	3.389	0.380
96.999	126.568	80.005	19.994	103.954	20.030	3.614	0.382
97.499	126.780	80.005	19.994	103.956	20.033	3.358	0.394
97.999	126.972	80.005	19.994	103.956	20.033	3.330	0.404
98.499	127.208	80.005	19.995	103.954	20.033	3.358	0.416
98.999	127.359	80.005	19.994	103.954	20.029	3.709	0.407
99.499	127.581	80.005	19.993	103.952	20.031	3.544	0.380
100.000	127.765	80.005	19.994	103.950	20.032	3.414	0.389
100.500	127.938	80.006	19.994	103.950	20.029	3.663	0.382
100.999	128.171	80.005	19.994	103.950	20.030	3.609	0.381
101.499	128.417	80.006	19.994	103.950	20.030	3.629	0.443
101.999	128.618	80.006	19.994	103.951	20.029	3.683	0.463
102.500	128.794	80.006	19.993	103.951	20.030	3.635	0.411
103.000	129.028	80.007	19.993	103.951	20.029	3.661	0.393
103.499	129.234	80.006	19.994	103.950	20.027	3.819	0.425
103.999	129.453	80.006	19.994	103.951	20.031	3.542	0.433
104.499	129.624	80.006	19.995	103.952	20.031	3.486	0.408
104.999	129.850	80.006	19.994	103.952	20.030	3.625	0.393
105.499	130.082	80.007	19.994	103.953	20.027	3.830	0.427
106.000	130.302	80.008	19.993	103.953	20.031	3.497	0.455
106.500	130.492	80.007	19.994	103.953	20.029	3.666	0.432
106.999	130.712	80.007	19.993	103.952	20.031	3.556	0.410
107.499	130.907	80.006	19.994	103.952	20.030	3.614	0.412
107.999	131.159	80.006	19.993	103.952	20.027	3.798	0.431
108.499	131.370	80.007	19.992	103.952	20.031	3.506	0.455
108.999	131.597	80.006	19.993	103.952	20.030	3.573	0.450
109.499	131.797	80.007	19.994	103.952	20.027	3.822	0.432
109.999	132.030	80.006	19.994	103.952	20.033	3.341	0.430
110.499	132.229	80.007	19.993	103.951	20.031	3.502	0.432
110.999	132.432	80.006	19.993	103.950	20.033	3.367	0.417
111.500	132.659	80.005	19.994	103.950	20.033	3.397	0.416
112.000	132.914	80.006	19.993	103.951	20.033	3.402	0.456
112.499	133.097	80.006	19.993	103.951	20.031	3.525	0.460
112.999	133.346	80.006	19.993	103.951	20.032	3.415	0.435
113.499	133.532	80.006	19.993	103.954	20.030	3.566	0.434
113.999	133.777	80.004	19.993	103.954	20.031	3.514	0.432
114.499	134.007	80.006	19.994	103.955	20.033	3.382	0.453
114.999	134.213	80.006	19.993	103.954	20.031	3.519	0.456
115.499	134.452	80.006	19.992	103.955	20.030	3.636	0.441
115.999	134.665	80.005	19.993	103.954	20.030	3.566	0.449
116.499	134.899	80.006	19.992	103.954	20.032	3.451	0.449
116.999	135.137	80.005	19.993	103.958	20.029	3.698	0.459
117.499	135.329	80.007	19.993	103.963	20.032	3.469	0.451
117.999	135.570	80.005	19.992	103.967	20.031	3.488	0.432
118.499	135.811	80.006	19.993	103.967	20.033	3.393	0.458
118.999	136.044	80.006	19.993	103.970	20.034	3.309	0.478
119.499	136.237	80.005	19.992	103.972	20.031	3.506	0.450
119.999	136.478	80.005	19.993	103.969	20.031	3.514	0.430
120.499	136.727	80.005	19.993	103.968	20.032	3.438	0.462
120.999	136.949	80.006	19.992	103.969	20.033	3.382	0.481
121.500	137.184	80.005	19.993	103.966	20.033	3.336	0.464
122.000	137.431	80.006	19.994	103.962	20.034	3.265	0.470
122.499	137.692	80.006	19.994	103.959	20.034	3.274	0.495
122.999	137.924	80.006	19.993	103.956	20.031	3.525	0.500
123.499	138.130	80.006	19.993	103.956	20.027	3.795	0.466
123.999	138.372	80.007	19.993	103.955	20.030	3.596	0.443
124.499	138.619	80.007	19.993	103.958	20.029	3.691	0.468
124.999	138.835	80.007	19.993	103.960	20.029	3.687	0.476
125.499	139.104	80.008	19.994	103.964	20.028	3.726	0.474
125.999	139.372	80.007	19.994	103.962	20.029	3.681	0.511
126.500	139.585	80.008	19.992	103.961	20.031	3.520	0.509
127.000	139.802	80.006	19.993	103.958	20.029	3.692	0.455
127.499	140.036	80.007	19.994	103.956	20.027	3.847	0.441
127.999	140.304	80.008	19.994	103.954	20.031	3.553	0.477
128.500	140.550	80.007	19.994	103.956	20.032	3.434	0.508
129.000	140.782	80.008	19.994	103.958	20.033	3.367	0.496
129.500	140.976	80.007	19.994	103.957	20.031	3.540	0.452
130.000	141.244	80.007	19.994	103.957	20.029	3.709	0.444
130.500	141.496	80.008	19.994	103.956	20.031	3.484	0.491
131.000	141.728	80.007	19.994	103.953	20.029	3.676	0.502
131.500	141.960	80.008	19.993	103.950	20.029	3.642	0.474
132.000	142.218	80.007	19.994	103.950	20.032	3.460	0.478
132.500	142.461	80.007	19.994	103.948	20.032	3.434	0.496
133.000	142.729	80.007	19.994	103.948	20.031	3.484	0.506
133.500	142.964	80.007	19.993	103.948	20.033	3.369	0.507
134.000	143.211	80.007	19.994	103.948	20.030	3.627	0.492
134.500	143.474	80.007	19.994	103.948	20.033	3.399	0.496
135.000	143.698	80.008	19.994	103.948	20.030	3.570	0.498
135.500	143.954	80.007	19.994	103.947	20.031	3.510	0.483
136.000	144.200	80.006	19.993	103.947	20.031	3.507	0.491
136.500	144.458	80.006	19.994	103.948	20.030	3.616	0.503
137.000	144.708	80.006	19.993	103.948	20.029	3.689	0.506
137.500	144.920	80.006	19.994	103.949	20.031	3.510	0.485
138.000	145.187	80.005	19.993	103.949	20.029	3.653	0.471
138.500	145.413	80.005	19.994	103.949	20.032	3.442	0.486
139.000	145.693	80.004	19.993	103.949	20.031	3.501	0.500
139.500	145.945	80.005	19.993	103.949	20.033	3.380	0.519
140.000	146.162	80.005	19.993	103.949	20.030	3.581	0.500
140.500	146.444	80.005	19.993	103.948	20.030	3.566	0.484
141.000	146.650	80.004	19.994	103.948	20.030	3.577	0.494
141.500	146.931	80.004	19.994	103.947	20.031	3.538	0.488
142.000	147.174	80.006	19.994	103.947	20.030	3.620	0.505
142.500	147.414	80.005	19.994	103.947	20.032	3.425	0.503
143.000	147.686	80.004	19.994	103.947	20.034	3.311	0.498
143.500	147.920	80.006	19.995	103.948	20.032	3.456	0.509
144.000	148.162	80.004	19.994	103.948	20.032	3.458	0.491
144.500	148.437	80.005	19.995	103.948	20.033	3.382	0.496
145.000	148.665	80.005	19.994	103.948	20.031	3.481	0.510
145.500	148.902	80.004	19.994	103.949	20.032	3.477	0.484
146.000	149.191	80.005	19.993	103.949	20.034	3.295	0.496
146.500	149.453	80.005	19.994	103.948	20.032	3.423	0.538
147.000	149.738	80.004	19.994	103.949	20.034	3.263	0.549
147.500	149.973	80.006	19.995	103.948	20.031	3.533	0.533
148.000	150.244	80.005	19.993	103.947	20.034	3.245	0.513
148.500	150.480	80.005	19.995	103.947	20.032	3.417	0.506
149.000	150.714	80.005	19.994	103.948	20.032	3.427	0.488
149.500	150.979	80.005	19.995	103.946	20.036	3.090	0.484
150.000	151.227	80.005	19.993	103.945	20.029	3.642	0.506
150.500	151.463	80.005	19.994	103.945	20.034	3.274	0.498
151.000	151.724	80.005	19.995	103.945	20.033	3.364	0.490
151.500	151.982	80.005	19.994	103.945	20.035	3.228	0.508
152.000	152.270	80.005	19.993	103.947	20.032	3.408	0.533
152.500	152.518	80.005	19.994	103.949	20.033	3.392	0.541
153.000	152.766	80.004	19.995	103.949	20.036	3.117	0.516
153.500	153.026	80.005	19.995	103.950	20.032	3.427	0.502
154.000	153.268	80.004	19.994	103.950	20.037	3.048	0.505
154.500	153.487	80.005	19.994	103.950	20.035	3.243	0.481
155.000	153.784	80.005	19.994	103.947	20.034	3.299	0.489
155.500	154.004	80.004	19.994	103.942	20.032	3.421	0.517
156.000	154.286	80.004	19.994	103.941	20.034	3.271	0.510
156.500	154.512	80.004	19.994	103.940	20.032	3.477	0.505
157.000	154.772	80.005	19.995	103.941	20.033	3.373	0.497
157.500	155.048	80.003	19.995	103.942	20.034	3.279	0.511
158.000	155.297	80.004	19.995	103.947	20.036	3.158	0.530
158.500	155.521	80.004	19.994	103.947	20.034	3.321	0.499
159.000	155.785	80.004	19.995	103.948	20.036	3.113	0.481
159.500	156.027	80.005	19.994	103.948	20.031	3.489	0.497
160.000	156.303	80.004	19.995	103.948	20.034	3.269	0.512
160.500	156.567	80.005	19.994	103.948	20.035	3.167	0.529
161.000	156.803	80.005	19.994	103.949	20.035	3.178	0.520
161.500	157.041	80.004	19.994	103.947	20.034	3.305	0.487
162.000	157.324	80.004	19.993	103.940	20.036	3.095	0.498
162.500	157.596	80.005	19.996	103.939	20.035	3.167	0.538
163.000	157.826	80.004	19.995	103.938	20.036	3.134	0.528
163.500	158.093	80.004	19.994	103.935	20.037	3.076	0.499
164.000	158.365	80.004	19.994	103.937	20.033	3.374	0.518
164.500	158.619	80.003	19.995	103.942	20.034	3.303	0.533
165.000	158.839	80.005	19.996	103.942	20.034	3.310	0.500
165.500	159.103	80.004	19.994	103.943	20.033	3.373	0.479
166.000	159.360	80.005	19.996	103.944	20.034	3.275	0.502
166.500	159.641	80.005	19.994	103.939	20.034	3.303	0.530
167.000	159.851	80.004	19.996	103.935	20.034	3.262	0.514
167.500	160.178	80.004	19.995	103.932	20.033	3.384	0.514
168.000	160.421	80.005	19.994	103.926	20.035	3.225	0.554
168.500	160.640	80.004	19.994	103.924	20.035	3.217	0.516
169.000	160.935	80.004	19.993	103.929	20.032	3.422	0.487
169.500	161.171	80.004	19.994	103.929	20.033	3.385	0.522
170.000	161.415	80.003	19.995	103.928	20.037	3.060	0.506
170.500	161.639	80.004	19.994	103.927	20.036	3.119	0.474
171.000	161.917	80.004	19.993	103.925	20.034	3.247	0.485
171.500	162.165	80.005	19.994	103.922	20.033	3.344	0.514
172.000	162.458	80.003	19.993	103.923	20.036	3.119	0.533
172.500	162.665	80.005	19.994	103.925	20.035	3.195	0.521
173.000	162.916	80.004	19.993	103.928	20.037	3.084	0.479
173.500	163.188	80.006	19.994	103.927	20.034	3.314	0.490
174.000	163.408	80.004	19.994	103.924	20.034	3.312	0.507
174.500	163.697	80.003	19.994	103.920	20.034	3.279	0.500
175.000	163.961	80.004	19.994	103.919	20.036	3.095	0.531
175.500	164.210	80.005	19.993	103.922	20.033	3.368	0.533
176.000	164.500	80.005	19.995	103.924	20.037	3.034	0.526
176.500	164.778	80.005	19.994	103.926	20.036	3.147	0.553
177.000	164.991	80.005	19.993	103.930	20.034	3.283	0.529
177.500	165.270	80.005	19.994	103.933	20.036	3.147	0.492
178.000	165.520	80.006	19.994	103.932	20.033	3.331	0.511
178.500	165.762	80.006	19.993	103.931	20.033	3.364	0.511
179.000	166.051	80.006	19.993	103.930	20.035	3.212	0.511
179.500	166.274	80.004	19.993	103.928	20.035	3.214	0.521
180.000	166.554	80.007	19.994	103.921	20.035	3.210	0.507
180.500	166.784	80.006	19.994	103.917	20.037	3.030	0.506
181.000	167.022	80.005	19.993	103.914	20.033	3.359	0.488
181.500	167.314	80.006	19.993	103.916	20.036	3.112	0.499
182.000	167.554	80.006	19.993	103.919	20.037	3.030	0.531
182.500	167.813	80.006	19.994	103.922	20.035	3.236	0.515
183.000	168.052	80.006	19.995	103.922	20.038	2.989	0.499
183.500	168.289	80.006	19.993	103.922	20.033	3.361	0.487
184.000	168.567	80.005	19.993	103.920	20.033	3.329	0.495
184.500	168.832	80.007	19.994	103.918	20.038	2.939	0.529
185.000	169.067	80.005	19.994	103.914	20.034	3.298	0.522
185.500	169.334	80.007	19.993	103.913	20.036	3.127	0.501
186.000	169.599	80.006	19.995	103.913	20.037	3.056	0.517
186.500	169.818	80.006	19.994	103.913	20.034	3.268	0.508
187.000	170.065	80.006	19.995	103.912	20.035	3.236	0.475
187.500	170.327	80.007	19.994	103.912	20.034	3.288	0.488
188.000	170.596	80.004	19.993	103.912	20.032	3.433	0.520
188.500	170.857	80.007	19.993	103.917	20.034	3.320	0.531
189.000	171.103	80.006	19.992	103.919	20.035	3.210	0.518
189.500	171.333	80.007	19.993	103.924	20.033	3.335	0.492
190.000	171.605	80.006	19.995	103.924	20.034	3.305	0.489
190.500	171.836	80.006	19.994	103.923	20.035	3.216	0.502
191.000	172.083	80.006	19.994	103.918	20.036	3.151	0.490
191.500	172.359	80.006	19.993	103.914	20.037	3.049	0.500
192.000	172.624	80.006	19.992	103.909	20.035	3.186	0.532
192.500	172.885	80.006	19.994	103.908	20.037	3.084	0.534
193.000	173.136	80.006	19.994	103.908	20.035	3.233	0.519
193.500	173.392	80.005	19.993	103.908	20.034	3.268	0.509
194.000	173.599	80.005	19.994	103.909	20.035	3.168	0.485
194.500	173.862	80.006	19.994	103.908	20.037	3.084	0.467
195.000	174.149	80.006	19.993	103.907	20.035	3.179	0.510
195.500	174.393	80.005	19.993	103.907	20.035	3.240	0.540
196.000	174.637	80.006	19.993	103.907	20.037	3.019	0.509
196.500	174.875	80.006	19.994	103.909	20.037	3.080	0.485
197.000	175.161	80.006	19.993	103.910	20.037	3.026	0.503
197.500	175.371	80.007	19.994	103.912	20.035	3.197	0.510
198.000	175.616	80.006	19.994	103.914	20.034	3.305	0.475
198.500	175.887	80.006	19.994	103.914	20.035	3.205	0.486
199.000	176.146	80.006	19.993	103.912	20.035	3.207	0.523
199.500	176.368	80.007	19.993	103.911	20.036	3.106	0.505
200.000	176.661	80.006	19.994	103.911	20.035	3.179	0.498
200.500	176.863	80.006	19.993	103.909	20.034	3.268	0.505
201.000	177.142	80.004	19.993	103.910	20.038	2.941	0.488
201.500	177.421	80.007	19.994	103.910	20.035	3.223	0.519
202.000	177.619	80.006	19.993	103.910	20.034	3.257	0.518
202.500	177.891	80.006	19.994	103.909	20.034	3.264	0.473
203.000	178.085	80.006	19.994	103.908	20.035	3.220	0.468
203.500	178.353	80.007	19.994	103.908	20.033	3.350	0.464
204.000	178.646	80.007	19.993	103.906	20.037	3.086	0.511
204.500	178.851	80.006	19.993	103.905	20.036	3.158	0.529
205.000	179.158	80.007	19.994	103.904	20.034	3.261	0.505
205.500	179.402	80.007	19.993	103.904	20.036	3.153	0.532
206.000	179.663	80.007	19.993	103.904	20.036	3.140	0.529
206.500	179.923	80.008	19.993	103.906	20.035	3.166	0.513
207.000	180.166	80.006	19.992	103.907	20.034	3.255	0.511
207.500	180.432	80.008	19.993	103.908	20.035	3.207	0.505
208.000	180.657	80.007	19.993	103.908	20.035	3.236	0.500
208.500	180.877	80.008	19.993	103.909	20.035	3.229	0.468
209.000	181.138	80.007	19.993	103.908	20.035	3.240	0.463
209.500	181.404	80.006	19.994	103.909	20.038	3.006	0.504
210.000	181.643	80.008	19.994	103.909	20.038	3.002	0.516
210.500	181.918	80.007	19.993	103.909	20.036	3.088	0.510
211.000	182.134	80.008	19.993	103.908	20.037	3.071	0.503
211.500	182.400	80.009	19.993	103.908	20.037	3.071	0.486
212.000	182.650	80.007	19.991	103.906	20.035	3.227	0.499
212.500	182.868	80.007	19.994	103.906	20.036	3.162	0.492
213.000	183.099	80.008	19.995	103.906	20.041	2.744	0.458
213.500	183.385	80.007	19.995	103.906	20.036	3.147	0.483
214.000	183.637	80.007	19.995	103.906	20.035	3.168	0.527
214.500	183.874	80.007	19.992	103.908	20.037	3.019	0.514
215.000	184.118	80.008	19.995	103.908	20.034	3.296	0.485
215.500	184.364	80.008	19.994	103.907	20.037	3.045	0.485
216.000	184.636	80.007	19.994	103.905	20.034	3.259	0.504
216.500	184.858	80.006	19.995	103.903	20.037	3.025	0.506
217.000	185.122	80.007	19.994	103.902	20.035	3.240	0.491
217.500	185.403	80.007	19.993	103.902	20.039	2.906	0.516
218.000	185.620	80.007	19.993	103.903	20.037	3.025	0.521
218.500	185.899	80.006	19.994	103.905	20.037	3.028	0.497
219.000	186.151	80.006	19.993	103.908	20.038	3.002	0.513
219.500	186.454	80.005	19.995	103.910	20.032	3.422	0.543
220.000	186.649	80.005	19.993	103.909	20.033	3.387	0.527
220.500	186.910	80.006	19.993	103.906	20.037	3.067	0.477
221.000	187.168	80.005	19.993	103.902	20.035	3.225	0.487
221.500	187.444	80.005	19.995	103.901	20.034	3.296	0.526
222.000	187.668	80.005	19.994	103.900	20.034	3.313	0.517
222.500	187.913	80.006	19.995	103.901	20.037	3.029	0.484
223.000	188.159	80.004	19.993	103.905	20.034	3.317	0.480
223.500	188.405	80.005	19.994	103.908	20.033	3.395	0.491
224.000	188.687	80.004	19.994	103.908	20.036	3.123	0.510
224.500	188.926	80.004	19.995	103.909	20.032	3.471	0.525
225.000	189.158	80.005	19.994	103.907	20.036	3.151	0.496
225.500	189.421	80.004	19.994	103.905	20.035	3.199	0.483
226.000	189.689	80.005	19.993	103.905	20.034	3.277	0.513
226.500	189.920	80.004	19.994	103.901	20.031	3.493	0.515
227.000	190.142	80.003	19.995	103.898	20.031	3.480	0.476
227.500	190.401	80.004	19.993	103.898	20.033	3.333	0.467
228.000	190.699	80.003	19.994	103.898	20.032	3.456	0.519
228.500	190.879	80.004	19.994	103.893	20.031	3.523	0.518
229.000	191.167	80.004	19.993	103.896	20.031	3.512	0.473
229.500	191.400	80.004	19.994	103.899	20.033	3.389	0.494
230.000	191.670	80.005	19.994	103.900	20.031	3.551	0.512
230.500	191.969	80.004	19.995	103.902	20.029	3.636	0.536
231.000	192.181	80.005	19.994	103.905	20.032	3.465	0.540
231.500	192.384	80.003	19.993	103.906	20.029	3.703	0.463
232.000	192.673	80.004	19.993	103.901	20.030	3.560	0.453
232.500	192.921	80.005	19.994	103.894	20.035	3.227	0.514
233.000	193.174	80.005	19.994	103.888	20.031	3.503	0.519
233.500	193.392	80.005	19.994	103.886	20.029	3.670	0.486
234.000	193.622	80.005	19.994	103.884	20.030	3.558	0.460
234.500	193.895	80.005	19.993	103.887	20.026	3.911	0.476
235.000	194.136	80.004	19.993	103.893	20.030	3.625	0.509
235.500	194.393	80.005	19.994	103.896	20.027	3.824	0.506
236.000	194.616	80.004	19.994	103.901	20.030	3.573	0.488
236.500	194.892	80.005	19.994	103.903	20.028	3.731	0.490
237.000	195.110	80.005	19.994	103.904	20.030	3.614	0.497
237.500	195.399	80.005	19.994	103.904	20.030	3.625	0.501
238.000	195.613	80.006	19.994	103.904	20.026	3.873	0.505
238.500	195.895	80.004	19.993	103.903	20.028	3.750	0.500
239.000	196.142	80.004	19.994	103.905	20.029	3.653	0.512
239.500	196.349	80.004	19.995	103.903	20.030	3.564	0.491
240.000	196.604	80.004	19.994	103.902	20.029	3.701	0.458
240.500	196.869	80.005	19.993	103.904	20.028	3.785	0.491
241.000	197.097	80.004	19.992	103.905	20.026	3.930	0.506
241.500	197.339	80.004	19.994	103.906	20.029	3.655	0.481
242.000	197.626	80.004	19.993	103.907	20.027	3.828	0.499
242.500	197.835	80.005	19.995	103.907	20.025	4.010	0.513
243.000	198.065	80.002	19.994	103.903	20.025	3.967	0.468
243.500	198.336	80.005	19.993	103.898	20.026	3.941	0.470
244.000	198.568	80.006	19.993	103.894	20.026	3.886	0.502
244.500	198.855	80.003	19.993	103.893	20.025	3.966	0.511
245.000	199.090	80.006	19.994	103.895	20.024	4.037	0.521
245.500	199.328	80.004	19.993	103.899	20.026	3.910	0.498
246.000	199.593	80.004	19.995	103.901	20.026	3.918	0.488
246.500	199.879	80.003	19.995	103.903	20.022	4.217	0.527
247.000	200.086	80.004	19.994	103.900	20.026	3.929	0.522
247.500	200.286	80.003	19.995	103.898	20.023	4.172	0.450
248.000	200.516	80.002	19.994	103.893	20.024	4.088	0.418
248.500	200.766	80.003	19.993	103.890	20.025	3.988	0.455
249.000	201.048	80.003	19.995	103.891	20.023	4.129	0.506
249.500	201.265	80.004	19.993	103.896	20.023	4.149	0.515
250.000	201.538	80.003	19.995	103.900	20.023	4.107	0.494
250.500	201.810	80.005	19.994	103.905	20.022	4.252	0.518
251.000	202.063	80.003	19.996	103.908	20.022	4.189	0.535
251.500	202.283	80.003	19.995	103.904	20.022	4.217	0.499
252.000	202.468	80.004	19.995	103.900	20.020	4.382	0.439
252.500	202.812	80.004	19.995	103.899	20.020	4.390	0.467
253.000	203.079	80.003	19.995	103.898	20.021	4.297	0.570
253.500	203.327	80.004	19.995	103.896	20.020	4.401	0.563
254.000	203.534	80.004	19.996	103.896	20.017	4.607	0.485
254.500	203.751	80.002	19.994	103.891	20.018	4.572	0.439
255.000	204.040	80.004	19.996	103.887	20.020	4.386	0.465
255.500	204.230	80.005	19.994	103.881	20.017	4.607	0.492
256.000	204.494	80.003	19.995	103.877	20.017	4.594	0.467
256.500	204.759	80.003	19.996	103.876	20.019	4.477	0.492
257.000	205.000	80.003	19.995	103.877	20.018	4.542	0.517
257.500	205.207	80.003	19.996	103.877	20.020	4.404	0.477
258.000	205.513	80.003	19.994	103.878	20.015	4.755	0.481
258.500	205.749	80.002	19.995	103.881	20.015	4.798	0.527
259.000	205.987	80.004	19.995	103.887	20.014	4.828	0.508
259.500	206.250	80.004	19.994	103.891	20.015	4.767	0.487
260.000	206.509	80.004	19.994	103.894	20.013	4.897	0.511
260.500	206.728	80.003	19.995	103.899	20.013	4.914	0.500
261.000	207.000	80.003	19.995	103.899	20.011	5.066	0.485
261.500	207.204	80.004	19.994	103.893	20.012	4.977	0.484
262.000	207.455	80.004	19.994	103.890	20.010	5.160	0.466
262.500	207.732	80.004	19.994	103.887	20.008	5.324	0.492
263.000	207.991	80.005	19.993	103.886	20.011	5.066	0.532
263.500	208.283	80.006	19.994	103.885	20.011	5.055	0.544
264.000	208.489	80.004	19.994	103.885	20.010	5.157	0.524
264.500	208.711	80.006	19.993	103.889	20.008	5.345	0.463
265.000	208.972	80.005	19.994	103.893	20.010	5.144	0.455
265.500	209.220	80.005	19.994	103.891	20.008	5.308	0.496
266.000	209.462	80.005	19.992	103.893	20.009	5.257	0.500
266.500	209.707	80.006	19.994	103.898	20.008	5.287	0.489
267.000	209.956	80.006	19.993	103.896	20.008	5.346	0.491
267.500	210.218	80.007	19.993	103.897	20.007	5.393	0.503
268.000	210.435	80.006	19.994	103.900	20.007	5.430	0.495
268.500	210.703	80.006	19.993	103.901	20.007	5.387	0.482
269.000	210.983	80.006	19.993	103.902	20.006	5.494	0.516
269.500	211.203	80.007	19.994	103.903	20.003	5.754	0.524
270.000	211.460	80.006	19.994	103.900	20.005	5.531	0.489
270.500	211.676	80.007	19.992	103.893	20.005	5.572	0.475
271.000	211.944	80.007	19.993	103.895	20.006	5.518	0.478
271.500	212.180	80.007	19.994	103.894	20.005	5.568	0.494
272.000	212.436	80.005	19.992	103.894	20.002	5.789	0.498
272.500	212.687	80.005	19.994	103.898	20.005	5.584	0.500
273.000	212.907	80.006	19.994	103.905	20.001	5.897	0.489
273.500	213.170	80.006	19.993	103.902	20.002	5.832	0.477
274.000	213.434	80.007	19.994	103.896	19.999	5.992	0.505
274.500	213.636	80.007	19.993	103.894	19.996	6.261	0.496
275.000	213.937	80.007	19.993	103.893	19.997	6.196	0.484
275.500	214.151	80.007	19.994	103.889	19.996	6.269	0.509
276.000	214.411	80.005	19.993	103.892	19.997	6.211	0.495
276.500	214.653	80.006	19.993	103.898	19.994	6.384	0.489
277.000	214.893	80.005	19.995	103.899	19.993	6.466	0.492
277.500	215.145	80.006	19.993	103.900	19.993	6.523	0.487
278.000	215.415	80.006	19.993	103.904	19.993	6.527	0.507
278.500	215.645	80.006	19.993	103.904	19.990	6.735	0.511
279.000	215.884	80.006	19.993	103.905	19.991	6.629	0.485
279.500	216.143	80.007	19.993	103.903	19.990	6.712	0.483
280.000	216.367	80.006	19.994	103.896	19.991	6.653	0.490
280.500	216.630	80.005	19.995	103.891	19.992	6.555	0.485
281.000	216.869	80.007	19.994	103.888	19.988	6.908	0.494
281.500	217.167	80.006	19.993	103.886	19.990	6.735	0.519
282.000	217.364	80.007	19.994	103.891	19.987	6.945	0.516
282.500	217.633	80.007	19.994	103.896	19.986	7.029	0.481
283.000	217.860	80.006	19.994	103.899	19.989	6.815	0.481
283.500	218.129	80.005	19.995	103.903	19.984	7.187	0.496
284.000	218.359	80.006	19.993	103.904	19.983	7.266	0.498
284.500	218.648	80.006	19.994	103.897	19.983	7.275	0.509
285.000	218.889	80.007	19.993	103.895	19.980	7.543	0.525
285.500	219.113	80.006	19.994	103.898	19.979	7.575	0.497
286.000	219.384	80.007	19.994	103.895	19.977	7.779	0.480
286.500	219.636	80.005	19.993	103.891	19.976	7.834	0.509
287.000	219.865	80.006	19.994	103.895	19.974	8.011	0.502
287.500	220.142	80.007	19.993	103.899	19.975	7.919	0.494
288.000	220.339	80.007	19.993	103.898	19.974	7.994	0.490
288.500	220.596	80.007	19.994	103.900	19.975	7.897	0.464
289.000	220.849	80.007	19.993	103.906	19.969	8.356	0.481
289.500	221.093	80.008	19.994	103.910	19.972	8.124	0.503
290.000	221.357	80.006	19.993	103.910	19.967	8.507	0.502
290.500	221.587	80.008	19.993	103.910	19.970	8.319	0.501
291.000	221.863	80.008	19.994	103.909	19.968	8.500	0.500
291.500	222.096	80.007	19.993	103.903	19.963	8.827	0.508
292.000	222.325	80.007	19.993	103.900	19.963	8.850	0.486
292.500	222.545	80.005	19.993	103.900	19.963	8.851	0.456
293.000	222.823	80.007	19.993	103.899	19.958	9.243	0.474
293.500	223.091	80.008	19.993	103.898	19.959	9.169	0.522
294.000	223.354	80.006	19.994	103.902	19.960	9.055	0.538
294.500	223.615	80.008	19.993	103.897	19.959	9.185	0.528
295.000	223.840	80.008	19.994	103.890	19.953	9.679	0.505
295.500	224.089	80.007	19.994	103.884	19.953	9.662	0.480
296.000	224.338	80.007	19.994	103.882	19.950	9.876	0.486
296.500	224.542	80.008	19.993	103.881	19.947	10.099	0.476
297.000	224.814	80.007	19.993	103.888	19.948	10.003	0.465
297.500	225.078	80.007	19.994	103.894	19.944	10.319	0.506
298.000	225.318	80.005	19.995	103.899	19.946	10.216	0.519
298.500	225.551	80.005	19.993	103.902	19.942	10.497	0.488
299.000	225.822	80.006	19.993	103.903	19.939	10.718	0.489
299.500	226.057	80.005	19.993	103.905	19.939	10.770	0.505
300.000	226.272	80.005	19.993	103.906	19.936	10.939	0.478
300.500	226.547	80.005	19.993	103.905	19.934	11.101	0.470
301.000	226.827	80.005	19.993	103.901	19.933	11.239	0.523
301.500	227.039	80.005	19.993	103.897	19.934	11.141	0.524
302.000	227.316	80.005	19.994	103.896	19.930	11.446	0.490
302.500	227.525	80.005	19.993	103.894	19.929	11.561	0.487
303.000	227.771	80.005	19.993	103.890	19.929	11.524	0.470
303.500	228.039	80.005	19.993	103.892	19.925	11.813	0.485
304.000	228.288	80.005	19.993	103.897	19.923	11.977	0.516
304.500	228.581	80.006	19.993	103.899	19.921	12.140	0.529
305.000	228.830	80.004	19.994	103.902	19.918	12.421	0.542
305.500	229.078	80.005	19.994	103.907	19.916	12.517	0.520
306.000	229.320	80.005	19.992	103.912	19.914	12.733	0.494
306.500	229.575	80.006	19.992	103.913	19.914	12.720	0.493
307.000	229.839	80.004	19.993	103.911	19.910	13.034	0.507
307.500	230.053	80.005	19.992	103.909	19.911	12.941	0.498
308.000	230.304	80.004	19.991	103.909	19.908	13.140	0.472
308.500	230.556	80.005	19.994	103.909	19.907	13.246	0.485
309.000	230.831	80.005	19.992	103.909	19.904	13.510	0.515
309.500	231.047	80.005	19.993	103.910	19.904	13.475	0.509
310.000	231.279	80.006	19.993	103.913	19.901	13.752	0.470
310.500	231.568	80.004	19.993	103.913	19.899	13.865	0.485
311.000	231.777	80.004	19.993	103.913	19.896	14.116	0.509
311.500	232.023	80.005	19.994	103.907	19.894	14.266	0.476
312.000	232.281	80.005	19.994	103.904	19.890	14.565	0.479
312.500	232.503	80.004	19.993	103.902	19.891	14.531	0.492
313.000	232.791	80.003	19.993	103.899	19.886	14.927	0.496
313.500	233.018	80.004	19.993	103.900	19.886	14.920	0.513
314.000	233.277	80.004	19.995	103.904	19.881	15.288	0.500
314.500	233.498	80.005	19.994	103.908	19.879	15.465	0.483
315.000	233.765	80.005	19.995	103.910	19.878	15.543	0.484
315.500	234.042	80.004	19.995	103.913	19.873	15.935	0.516
316.000	234.299	80.004	19.995	103.914	19.871	16.042	0.539
316.500	234.527	80.004	19.993	103.914	19.870	16.144	0.510
317.000	234.782	80.003	19.995	103.914	19.870	16.127	0.484
317.500	235.062	80.004	19.994	103.914	19.869	16.252	0.509
318.000	235.303	80.004	19.994	103.913	19.864	16.624	0.528
318.500	235.529	80.005	19.994	103.914	19.863	16.735	0.494
319.000	235.758	80.003	19.995	103.915	19.860	16.968	0.461
319.500	235.984	80.004	19.994	103.914	19.859	17.020	0.455
320.000	236.241	80.004	19.993	103.913	19.854	17.380	0.469
320.500	236.502	80.005	19.993	103.913	19.854	17.432	0.501
321.000	236.759	80.004	19.993	103.912	19.851	17.611	0.518
321.500	237.008	80.005	19.995	103.911	19.848	17.890	0.512
322.000	237.270	80.004	19.994	103.912	19.845	18.127	0.508
322.500	237.495	80.004	19.994	103.915	19.841	18.405	0.498
323.000	237.761	80.006	19.994	103.919	19.841	18.404	0.489
323.500	238.040	80.006	19.995	103.922	19.836	18.825	0.519
324.000	238.279	80.004	19.994	103.922	19.832	19.107	0.532
324.500	238.509	80.006	19.995	103.921	19.831	19.187	0.493
325.000	238.791	80.004	19.994	103.919	19.828	19.437	0.490
325.500	238.997	80.004	19.995	103.917	19.828	19.424	0.500
326.000	239.234	80.005	19.994	103.915	19.823	19.831	0.466
326.500	239.486	80.004	19.994	103.918	19.821	19.976	0.467
327.000	239.712	80.003	19.994	103.924	19.816	20.412	0.483
327.500	239.988	80.006	19.995	103.928	19.814	20.573	0.489
328.000	240.216	80.004	19.995	103.927	19.812	20.719	0.503
328.500	240.487	80.005	19.995	103.926	19.808	21.035	0.502
329.000	240.724	80.005	19.993	103.922	19.807	21.116	0.504
329.500	240.986	80.004	19.994	103.916	19.803	21.437	0.504
330.000	241.216	80.004	19.994	103.911	19.800	21.643	0.496
330.500	241.482	80.005	19.994	103.911	19.799	21.759	0.494
331.000	241.743	80.004	19.995	103.911	19.793	22.216	0.511
331.500	241.983	80.005	19.994	103.911	19.792	22.281	0.514
332.000	242.185	80.003	19.992	103.910	19.787	22.705	0.472
332.500	242.458	80.003	19.995	103.910	19.787	22.643	0.458
333.000	242.717	80.002	19.995	103.914	19.785	22.857	0.503
333.500	242.971	80.005	19.994	103.922	19.781	23.165	0.523
334.000	243.214	80.005	19.995	103.928	19.779	23.331	0.506
334.500	243.472	80.003	19.994	103.934	19.774	23.712	0.499
335.000	243.685	80.004	19.995	103.938	19.777	23.500	0.485
335.500	243.968	80.004	19.996	103.937	19.768	24.182	0.483
336.000	244.165	80.003	19.995	103.932	19.766	24.351	0.488
336.500	244.455	80.004	19.994	103.928	19.764	24.474	0.484
337.000	244.721	80.003	19.994	103.930	19.760	24.764	0.522
337.500	244.943	80.004	19.995	103.930	19.757	25.071	0.522
338.000	245.185	80.003	19.994	103.933	19.758	24.976	0.476
338.500	245.435	80.005	19.995	103.937	19.754	25.271	0.478
339.000	245.701	80.003	19.995	103.942	19.749	25.686	0.504
339.500	245.931	80.004	19.995	103.942	19.745	25.985	0.506
340.000	246.188	80.004	19.996	103.946	19.743	26.114	0.492
340.500	246.457	80.004	19.994	103.948	19.740	26.369	0.506
341.000	246.702	80.003	19.994	103.949	19.740	26.401	0.520
341.500	246.931	80.003	19.995	103.948	19.733	26.886	0.494
342.000	247.189	80.004	19.995	103.948	19.734	26.876	0.480
342.500	247.477	80.004	19.995	103.948	19.726	27.447	0.517
343.000	247.690	80.004	19.994	103.948	19.725	27.550	0.524
343.500	247.913	80.004	19.995	103.949	19.725	27.576	0.468
344.000	248.177	80.004	19.995	103.949	19.721	27.825	0.461
344.500	248.416	80.005	19.994	103.949	19.720	27.974	0.495
345.000	248.661	80.003	19.995	103.948	19.716	28.279	0.494
345.500	248.905	80.005	19.994	103.947	19.714	28.433	0.487
346.000	249.180	80.005	19.996	103.947	19.708	28.901	0.504
346.500	249.434	80.005	19.995	103.947	19.705	29.142	0.524
347.000	249.667	80.006	19.994	103.946	19.699	29.588	0.508
347.500	249.925	80.005	19.995	103.946	19.696	29.838	0.489
348.000	250.190	80.004	19.995	103.946	19.697	29.762	0.507
348.500	250.463	80.005	19.995	103.946	19.691	30.250	0.530
349.000	250.720	80.006	19.995	103.946	19.686	30.631	0.534
349.500	250.928	80.007	19.994	103.947	19.685	30.701	0.497
350.000	251.172	80.006	19.995	103.946	19.679	31.136	0.458
350.500	251.462	80.006	19.995	103.944	19.676	31.378	0.493
351.000	251.671	80.006	19.994	103.940	19.673	31.661	0.517
351.500	251.949	80.006	19.995	103.938	19.668	32.009	0.493
352.000	252.204	80.005	19.995	103.938	19.668	32.058	0.510
352.500	252.435	80.005	19.995	103.940	19.662	32.493	0.509
353.000	252.676	80.005	19.996	103.943	19.660	32.653	0.479
353.500	252.945	80.006	19.995	103.949	19.658	32.812	0.491
354.000	253.181	80.005	19.995	103.953	19.653	33.188	0.508
354.500	253.452	80.007	19.994	103.953	19.649	33.495	0.506
355.000	253.685	80.005	19.993	103.952	19.645	33.815	0.505
355.500	253.892	80.005	19.995	103.952	19.642	34.053	0.471
356.000	254.175	80.005	19.995	103.950	19.638	34.409	0.465
356.500	254.434	80.005	19.993	103.950	19.637	34.467	0.516
357.000	254.691	80.004	19.994	103.950	19.634	34.689	0.529
357.500	254.938	80.005	19.994	103.955	19.626	35.331	0.510
358.000	255.214	80.003	19.994	103.956	19.623	35.598	0.514
358.500	255.445	80.006	19.994	103.957	19.620	35.774	0.515
359.000	255.744	80.005	19.995	103.959	19.617	36.004	0.518
359.500	255.946	80.005	19.994	103.961	19.610	36.580	0.515
360.000	256.230	80.004	19.993	103.960	19.608	36.785	0.493
360.500	256.449	80.004	19.995	103.961	19.603	37.146	0.495
361.000	256.698	80.006	19.995	103.959	19.598	37.546	0.486
361.500	256.922	80.005	19.993	103.958	19.596	37.661	0.470
362.000	257.171	80.005	19.994	103.956	19.590	38.126	0.473
362.500	257.457	80.005	19.994	103.956	19.586	38.439	0.504
363.000	257.695	80.005	19.994	103.958	19.584	38.621	0.530
363.500	257.946	80.005	19.994	103.958	19.577	39.170	0.506
364.000	258.174	80.005	19.993	103.958	19.573	39.498	0.484
364.500	258.425	80.005	19.993	103.960	19.570	39.704	0.479
365.000	258.705	80.005	19.994	103.959	19.564	40.214	0.505
365.500	258.960	80.007	19.993	103.963	19.560	40.529	0.534
366.000	259.192	80.005	19.994	103.969	19.556	40.809	0.511
366.500	259.436	80.006	19.993	103.976	19.550	41.288	0.481
367.000	259.705	80.005	19.994	103.978	19.545	41.693	0.494
367.500	259.951	80.005	19.993	103.976	19.539	42.186	0.514
368.000	260.159	80.005	19.994	103.974	19.535	42.454	0.484
368.500	260.425	80.006	19.993	103.976	19.531	42.828	0.465
369.000	260.672	80.007	19.992	103.976	19.524	43.372	0.494
369.500	260.922	80.007	19.993	103.979	19.520	43.669	0.505
370.000	261.171	80.006	19.993	103.986	19.513	44.197	0.498
370.500	261.415	80.006	19.994	103.987	19.510	44.438	0.496
371.000	261.688	80.006	19.994	103.983	19.505	44.845	0.505
371.500	261.908	80.007	19.994	103.977	19.500	45.220	0.505
372.000	262.156	80.006	19.993	103.975	19.497	45.507	0.480
372.500	262.413	80.008	19.993	103.975	19.491	45.913	0.486
373.000	262.639	80.007	19.993	103.979	19.484	46.522	0.494
373.500	262.927	80.007	19.993	103.982	19.476	47.118	0.499
374.000	263.171	80.006	19.994	103.988	19.476	47.137	0.523
374.500	263.421	80.006	19.993	103.990	19.469	47.652	0.513
375.000	263.650	80.007	19.993	103.988	19.466	47.942	0.487
375.500	263.890	80.005	19.994	103.982	19.457	48.603	0.474
376.000	264.162	80.005	19.993	103.979	19.455	48.811	0.490
376.500	264.402	80.007	19.993	103.977	19.446	49.486	0.512
377.000	264.671	80.006	19.993	103.978	19.442	49.829	0.511
377.500	264.919	80.007	19.993	103.979	19.439	50.027	0.513
378.000	265.127	80.006	19.993	103.985	19.433	50.504	0.486
378.500	265.431	80.007	19.993	103.988	19.427	50.972	0.484
379.000	265.659	80.005	19.992	103.991	19.422	51.349	0.522
379.500	265.906	80.006	19.993	103.991	19.420	51.577	0.504
380.000	266.160	80.005	19.993	103.991	19.413	52.086	0.488
380.500	266.389	80.005	19.993	103.991	19.410	52.295	0.492
381.000	266.640	80.006	19.994	103.991	19.399	53.155	0.481
381.500	266.869	80.006	19.994	103.991	19.395	53.497	0.479
382.000	267.173	80.005	19.993	103.990	19.391	53.848	0.506
382.500	267.377	80.007	19.994	103.991	19.385	54.277	0.520
383.000	267.665	80.004	19.994	103.995	19.379	54.758	0.500
383.500	267.895	80.005	19.995	103.996	19.371	55.361	0.505
384.000	268.161	80.004	19.997	103.997	19.366	55.745	0.507
384.500	268.403	80.004	19.995	103.997	19.362	56.128	0.502
385.000	268.660	80.005	19.994	103.998	19.357	56.453	0.503
385.500	268.907	80.005	19.994	103.995	19.351	56.931	0.501
386.000	269.158	80.005	19.993	103.999	19.345	57.420	0.501
386.500	269.414	80.005	19.994	104.005	19.338	58.001	0.502
387.000	269.675	80.005	19.994	104.010	19.334	58.258	0.512
387.500	269.909	80.005	19.994	104.012	19.328	58.738	0.506
388.000	270.167	80.005	19.994	104.014	19.324	59.074	0.494
388.500	270.411	80.004	19.994	104.015	19.316	59.687	0.497
389.000	270.685	80.005	19.994	104.016	19.311	60.075	0.510
389.500	270.947	80.005	19.995	104.017	19.305	60.566	0.527
390.000	271.194	80.005	19.994	104.021	19.298	61.097	0.523
390.500	271.460	80.005	19.994	104.026	19.290	61.757	0.511
391.000	271.719	80.005	19.994	104.027	19.281	62.434	0.519
391.500	271.966	80.005	19.993	104.027	19.280	62.560	0.515
392.000	272.212	80.004	19.992	104.027	19.272	63.189	0.499
392.500	272.447	80.005	19.994	104.027	19.270	63.365	0.487
393.000	272.727	80.005	19.995	104.027	19.260	64.142	0.498
393.500	272.964	80.005	19.994	104.027	19.257	64.390	0.516
394.000	273.233	80.005	19.994	104.027	19.252	64.753	0.511
394.500	273.477	80.006	19.995	104.028	19.242	65.570	0.509
395.000	273.750	80.005	19.994	104.028	19.237	65.960	0.515
395.500	273.992	80.005	19.993	104.028	19.232	66.336	0.516
396.000	274.215	80.006	19.994	104.023	19.226	66.823	0.490
396.500	274.487	80.005	19.993	104.022	19.221	67.200	0.481
397.000	274.753	80.005	19.993	104.021	19.213	67.834	0.517
397.500	274.990	80.006	19.992	104.021	19.211	67.992	0.520
398.000	275.245	80.006	19.995	104.021	19.203	68.636	0.498
398.500	275.530	80.007	19.993	104.027	19.197	69.081	0.516
399.000	275.755	80.004	19.994	104.030	19.191	69.520	0.525
399.500	276.001	80.006	19.995	104.033	19.186	69.920	0.491
400.000	276.244	80.006	19.993	104.033	19.184	70.108	0.480
400.500	276.506	80.006	19.994	104.033	19.179	70.530	0.497
401.000	276.752	80.007	19.993	104.033	19.171	71.132	0.507
401.500	277.055	80.005	19.994	104.031	19.165	71.602	0.528
402.000	277.223	80.007	19.994	104.028	19.160	71.983	0.510
402.500	277.508	80.006	19.994	104.034	19.151	72.704	0.462
403.000	277.754	80.007	19.994	104.042	19.148	72.901	0.491
403.500	277.992	80.006	19.994	104.049	19.143	73.311	0.507
404.000	278.311	80.005	19.994	104.054	19.137	73.809	0.520
404.500	278.508	80.006	19.994	104.059	19.131	74.268	0.537
405.000	278.759	80.006	19.993	104.054	19.128	74.469	0.482
405.500	278.992	80.005	19.994	104.048	19.121	75.040	0.466
406.000	279.246	80.005	19.994	104.043	19.114	75.589	0.485
406.500	279.492	80.004	19.994	104.039	19.113	75.682	0.494
407.000	279.759	80.005	19.994	104.041	19.105	76.339	0.506
407.500	280.006	80.006	19.994	104.048	19.103	76.504	0.513
408.000	280.281	80.005	19.995	104.052	19.099	76.830	0.518
408.500	280.500	80.004	19.993	104.056	19.093	77.238	0.508
409.000	280.744	80.005	19.994	104.059	19.089	77.568	0.478
409.500	281.003	80.005	19.994	104.058	19.084	77.992	0.483
410.000	281.263	80.005	19.994	104.056	19.082	78.143	0.511
410.500	281.525	80.005	19.994	104.055	19.077	78.495	0.521
411.000	281.790	80.005	19.995	104.053	19.072	78.876	0.524
411.500	282.055	80.005	19.994	104.052	19.070	79.019	0.529
412.000	282.308	80.005	19.994	104.051	19.067	79.285	0.524
412.500	282.547	80.005	19.994	104.051	19.064	79.493	0.505
413.000	282.799	80.004	19.995	104.050	19.060	79.803	0.491
413.500	283.081	80.006	19.994	104.052	19.060	79.834	0.512
414.000	283.321	80.005	19.995	104.056	19.052	80.450	0.528
414.500	283.568	80.005	19.995	104.059	19.052	80.456	0.505
415.000	283.828	80.005	19.994	104.058	19.050	80.659	0.497
415.500	284.064	80.005	19.994	104.061	19.051	80.556	0.501
416.000	284.330	80.004	19.994	104.057	19.048	80.768	0.498
416.500	284.550	80.003	19.994	104.056	19.047	80.847	0.494
417.000	284.805	80.004	19.994	104.054	19.045	81.029	0.481
417.500	285.070	80.002	19.996	104.056	19.041	81.319	0.497
418.000	285.338	80.003	19.994	104.056	19.042	81.206	0.527
418.500	285.573	80.004	19.993	104.060	19.043	81.169	0.519
419.000	285.844	80.003	19.994	104.063	19.043	81.123	0.505
419.500	286.078	80.003	19.994	104.064	19.043	81.149	0.506
420.000	286.327	80.004	19.995	104.063	19.045	81.027	0.494
420.500	286.590	80.004	19.995	104.058	19.044	81.061	0.497
421.000	286.828	80.004	19.994	104.052	19.043	81.121	0.506
421.500	287.103	80.005	19.994	104.045	19.049	80.643	0.507
422.000	287.330	80.004	19.993	104.038	19.047	80.842	0.508
422.500	287.565	80.004	19.993	104.035	19.052	80.431	0.482
423.000	287.868	80.004	19.994	104.032	19.056	80.165	0.500
423.500	288.082	80.005	19.994	104.034	19.059	79.927	0.528
424.000	288.357	80.006	19.994	104.041	19.061	79.746	0.503
424.500	288.599	80.006	19.993	104.043	19.066	79.346	0.503
425.000	288.839	80.005	19.995	104.045	19.070	79.059	0.500
425.500	289.085	80.005	19.993	104.046	19.076	78.545	0.484
426.000	289.372	80.004	19.994	104.042	19.079	78.323	0.509
426.500	289.621	80.005	19.994	104.036	19.090	77.471	0.534
427.000	289.851	80.006	19.993	104.033	19.094	77.152	0.507
427.500	290.139	80.006	19.994	104.031	19.100	76.641	0.499
428.000	290.367	80.006	19.993	104.028	19.109	75.963	0.517
428.500	290.605	80.006	19.993	104.028	19.116	75.398	0.491
429.000	290.878	80.007	19.993	104.027	19.124	74.783	0.488
429.500	291.147	80.005	19.994	104.024	19.135	73.901	0.527
430.000	291.441	80.007	19.993	104.021	19.144	73.234	0.553
430.500	291.684	80.006	19.994	104.016	19.154	72.382	0.550
431.000	291.907	80.006	19.994	104.010	19.164	71.594	0.501
431.500	292.200	80.005	19.993	104.003	19.175	70.794	0.491
432.000	292.425	80.005	19.994	104.005	19.189	69.693	0.517
432.500	292.690	80.005	19.993	104.002	19.198	68.952	0.504
433.000	292.911	80.006	19.994	104.000	19.210	68.044	0.487
433.500	293.156	80.006	19.994	104.001	19.224	66.922	0.476
434.000	293.420	80.006	19.993	104.004	19.236	65.933	0.487
434.500	293.644	80.004	19.994	104.001	19.246	65.200	0.499
435.000	293.923	80.005	19.993	104.002	19.261	64.007	0.496
435.500	294.176	80.005	19.994	104.004	19.273	63.062	0.518
436.000	294.429	80.005	19.993	104.004	19.287	61.937	0.519
436.500	294.703	80.004	19.994	104.001	19.304	60.623	0.516
437.000	294.949	80.005	19.994	103.997	19.317	59.573	0.524
437.500	295.176	80.005	19.994	103.993	19.331	58.494	0.497
438.000	295.481	80.005	19.994	103.992	19.343	57.540	0.502
438.500	295.698	80.005	19.995	103.989	19.359	56.285	0.527
439.000	295.956	80.004	19.994	103.990	19.372	55.288	0.499
439.500	296.223	80.004	19.994	103.990	19.384	54.300	0.501
440.000	296.495	80.004	19.994	103.990	19.398	53.215	0.532
440.500	296.760	80.004	19.995	103.990	19.413	52.053	0.537
441.000	296.988	80.005	19.994	103.990	19.423	51.254	0.515
441.500	297.227	80.004	19.994	103.989	19.437	50.132	0.481
442.000	297.483	80.006	19.995	103.989	19.449	49.243	0.481
442.500	297.749	80.004	19.995	103.988	19.460	48.318	0.508
443.000	298.011	80.004	19.995	103.981	19.472	47.402	0.525
443.500	298.241	80.004	19.993	103.978	19.486	46.311	0.510
444.000	298.521	80.004	19.994	103.976	19.496	45.544	0.501
444.500	298.769	80.005	19.994	103.976	19.508	44.614	0.520
445.000	299.018	80.004	19.995	103.976	19.517	43.889	0.513
445.500	299.289	80.005	19.995	103.983	19.528	43.022	0.508
446.000	299.511	80.004	19.994	103.980	19.537	42.285	0.506
446.500	299.813	80.005	19.995	103.975	19.545	41.676	0.509
447.000	300.025	80.005	19.994	103.970	19.555	40.863	0.519
447.500	300.290	80.006	19.994	103.962	19.564	40.158	0.496
448.000	300.546	80.005	19.994	103.960	19.571	39.646	0.499
448.500	300.791	80.006	19.996	103.962	19.581	38.821	0.511
449.000	301.038	80.005	19.995	103.959	19.584	38.572	0.496
449.500	301.287	80.006	19.994	103.957	19.591	38.042	0.494
450.000	301.535	80.007	19.993	103.956	19.600	37.349	0.497
450.500	301.824	80.005	19.993	103.950	19.605	36.960	0.517
451.000	302.109	80.006	19.993	103.945	19.615	36.174	0.555
451.500	302.344	80.006	19.994	103.942	19.619	35.844	0.547
452.000	302.572	80.005	19.992	103.942	19.624	35.498	0.492
452.500	302.856	80.007	19.994	103.942	19.627	35.229	0.487
453.000	303.118	80.008	19.994	103.942	19.637	34.432	0.529
453.500	303.376	80.007	19.994	103.942	19.638	34.364	0.533
454.000	303.637	80.008	19.993	103.945	19.644	33.897	0.520
454.500	303.862	80.008	19.994	103.946	19.645	33.788	0.502
455.000	304.091	80.009	19.992	103.946	19.645	33.808	0.469
455.500	304.378	80.007	19.995	103.943	19.651	33.340	0.485
456.000	304.630	80.007	19.993	103.938	19.655	33.004	0.528
456.500	304.905	80.008	19.993	103.934	19.661	32.531	0.533
457.000	305.124	80.007	19.994	103.927	19.662	32.512	0.511
457.500	305.385	80.007	19.993	103.920	19.668	32.041	0.487
458.000	305.627	80.008	19.993	103.917	19.670	31.819	0.492
458.500	305.913	80.008	19.994	103.914	19.675	31.430	0.515
459.000	306.154	80.007	19.992	103.910	19.676	31.354	0.527
459.500	306.405	80.008	19.993	103.909	19.680	31.028	0.510
460.000	306.638	80.006	19.994	103.909	19.682	30.949	0.488
460.500	306.901	80.007	19.993	103.908	19.685	30.689	0.490
461.000	307.158	80.006	19.993	103.908	19.688	30.464	0.508
461.500	307.434	80.006	19.993	103.909	19.690	30.275	0.527
462.000	307.685	80.006	19.994	103.907	19.693	30.046	0.530
462.500	307.898	80.006	19.993	103.905	19.695	29.873	0.495
463.000	308.184	80.007	19.994	103.906	19.699	29.552	0.481
463.500	308.445	80.005	19.993	103.905	19.702	29.339	0.523
464.000	308.673	80.005	19.993	103.904	19.706	29.025	0.518
464.500	308.932	80.005	19.995	103.906	19.710	28.720	0.488
465.000	309.214	80.005	19.994	103.908	19.713	28.510	0.514
465.500	309.457	80.005	19.994	103.907	19.714	28.406	0.533
466.000	309.710	80.004	19.993	103.907	19.715	28.344	0.511
466.500	309.988	80.004	19.994	103.907	19.717	28.175	0.514
467.000	310.222	80.004	19.994	103.903	19.721	27.853	0.521
467.500	310.502	80.003	19.992	103.902	19.721	27.845	0.513
468.000	310.734	80.004	19.994	103.901	19.723	27.657	0.513
468.500	311.018	80.004	19.992	103.896	19.726	27.424	0.514
469.000	311.231	80.004	19.994	103.893	19.727	27.355	0.506
469.500	311.502	80.005	19.993	103.896	19.729	27.245	0.490
470.000	311.769	80.004	19.994	103.895	19.732	26.940	0.512
470.500	312.032	80.005	19.993	103.895	19.736	26.666	0.534
471.000	312.286	80.005	19.993	103.900	19.740	26.355	0.523
471.500	312.568	80.005	19.992	103.899	19.742	26.188	0.527
472.000	312.806	80.004	19.993	103.893	19.743	26.082	0.528
472.500	313.060	80.004	19.994	103.889	19.748	25.691	0.506
473.000	313.292	80.004	19.994	103.885	19.749	25.678	0.489
473.500	313.614	80.003	19.993	103.884	19.750	25.543	0.520
474.000	313.811	80.004	19.995	103.888	19.753	25.330	0.536
474.500	314.099	80.004	19.994	103.893	19.753	25.325	0.502
475.000	314.349	80.005	19.994	103.893	19.756	25.134	0.512
475.500	314.593	80.004	19.994	103.894	19.760	24.786	0.516
476.000	314.863	80.004	19.994	103.891	19.764	24.465	0.504
476.500	315.121	80.004	19.993	103.885	19.764	24.431	0.521
477.000	315.382	80.004	19.993	103.885	19.769	24.113	0.524
477.500	315.632	80.004	19.993	103.886	19.768	24.132	0.515
478.000	315.892	80.005	19.994	103.887	19.771	23.905	0.510
478.500	316.160	80.004	19.994	103.889	19.773	23.754	0.519
479.000	316.378	80.004	19.994	103.889	19.777	23.431	0.507
479.500	316.637	80.004	19.993	103.884	19.780	23.223	0.481
480.000	316.893	80.004	19.993	103.879	19.780	23.191	0.496
480.500	317.176	80.005	19.994	103.877	19.783	22.957	0.527
481.000	317.434	80.006	19.995	103.872	19.784	22.881	0.540
481.500	317.661	80.005	19.993	103.872	19.789	22.488	0.513
482.000	317.898	80.005	19.993	103.878	19.789	22.509	0.475
482.500	318.156	80.005	19.993	103.881	19.795	21.999	0.479
483.000	318.430	80.004	19.993	103.884	19.796	21.945	0.514
483.500	318.672	80.006	19.994	103.885	19.801	21.575	0.525
484.000	318.952	80.005	19.994	103.885	19.804	21.352	0.519
484.500	319.211	80.005	19.993	103.881	19.806	21.188	0.530
485.000	319.452	80.005	19.993	103.878	19.808	21.012	0.520
485.500	319.664	80.006	19.994	103.876	19.806	21.152	0.476
486.000	319.970	80.007	19.994	103.875	19.808	21.004	0.485
486.500	320.170	80.004	19.993	103.875	19.813	20.619	0.512
487.000	320.461	80.006	19.993	103.873	19.816	20.360	0.499
487.500	320.695	80.005	19.992	103.873	19.818	20.230	0.508
488.000	320.961	80.004	19.994	103.873	19.822	19.881	0.513
488.500	321.186	80.005	19.993	103.874	19.824	19.751	0.496
489.000	321.447	80.006	19.994	103.874	19.826	19.597	0.488
489.500	321.709	80.006	19.993	103.874	19.829	19.355	0.504
490.000	321.932	80.005	19.993	103.873	19.827	19.522	0.504
490.500	322.211	80.007	19.993	103.873	19.831	19.204	0.493
491.000	322.443	80.005	19.994	103.873	19.833	19.061	0.506
491.500	322.686	80.006	19.993	103.872	19.840	18.529	0.493
492.000	322.907	80.004	19.993	103.872	19.837	18.708	0.470
492.500	323.176	80.003	19.993	103.873	19.844	18.174	0.477
493.000	323.444	80.005	19.993	103.873	19.845	18.113	0.513
493.500	323.695	80.004	19.993	103.873	19.848	17.849	0.528
494.000	323.943	80.004	19.993	103.873	19.848	17.867	0.509
494.500	324.177	80.007	19.993	103.873	19.850	17.757	0.491
495.000	324.418	80.004	19.993	103.873	19.855	17.324	0.479
495.500	324.712	80.004	19.993	103.873	19.854	17.410	0.505
496.000	324.926	80.004	19.994	103.870	19.857	17.167	0.522
496.500	325.156	80.006	19.993	103.866	19.858	17.120	0.476
497.000	325.436	80.004	19.993	103.865	19.859	16.987	0.477
497.500	325.711	80.005	19.992	103.865	19.860	16.922	0.533
498.000	325.970	80.005	19.994	103.866	19.866	16.447	0.544
498.500	326.211	80.005	19.993	103.868	19.866	16.482	0.516
499.000	326.486	80.004	19.994	103.873	19.870	16.149	0.508
499.500	326.709	80.003	19.993	103.873	19.870	16.165	0.507
500.000	326.980	80.004	19.993	103.872	19.870	16.167	0.496
500.500	327.231	80.004	19.994	103.872	19.871	16.034	0.508
501.000	327.469	80.004	19.993	103.872	19.876	15.713	0.506
501.500	327.717	80.004	19.993	103.873	19.876	15.681	0.487
502.000	327.949	80.004	19.993	103.873	19.875	15.754	0.483
502.500	328.194	80.004	19.993	103.873	19.877	15.571	0.478
503.000	328.451	80.005	19.992	103.874	19.880	15.379	0.489
503.500	328.759	80.003	19.993	103.873	19.884	15.053	0.534
504.000	329.010	80.005	19.993	103.872	19.885	14.957	0.562
504.500	329.237	80.004	19.993	103.870	19.883	15.151	0.518
505.000	329.468	80.004	19.993	103.866	19.886	14.919	0.468
505.500	329.716	80.004	19.993	103.864	19.885	14.979	0.469
506.000	329.994	80.004	19.993	103.863	19.886	14.861	0.503
506.500	330.221	80.004	19.993	103.859	19.889	14.661	0.515
507.000	330.477	80.006	19.994	103.857	19.891	14.464	0.494
507.500	330.716	80.006	19.994	103.860	19.890	14.560	0.489
508.000	330.976	80.005	19.994	103.855	19.893	14.348	0.497
508.500	331.222	80.006	19.994	103.854	19.895	14.198	0.503
509.000	331.467	80.006	19.994	103.856	19.897	14.051	0.499
509.500	331.722	80.006	19.994	103.860	19.902	13.668	0.495
510.000	331.960	80.006	19.993	103.862	19.900	13.784	0.496
510.500	332.244	80.007	19.994	103.866	19.898	13.952	0.508
511.000	332.479	80.006	19.994	103.865	19.900	13.795	0.521
511.500	332.729	80.006	19.994	103.860	19.901	13.726	0.502
512.000	332.985	80.006	19.993	103.855	19.903	13.560	0.496
512.500	333.204	80.005	19.995	103.854	19.902	13.656	0.490
513.000	333.490	80.006	19.994	103.854	19.902	13.660	0.490
513.500	333.718	80.005	19.994	103.857	19.903	13.566	0.510
514.000	333.975	80.007	19.994	103.861	19.905	13.414	0.500
514.500	334.267	80.006	19.993	103.863	19.903	13.547	0.517
515.000	334.485	80.007	19.994	103.862	19.908	13.196	0.530
515.500	334.754	80.006	19.994	103.858	19.908	13.156	0.499
516.000	334.992	80.006	19.994	103.855	19.906	13.287	0.497
516.500	335.243	80.005	19.994	103.850	19.908	13.128	0.498
517.000	335.465	80.007	19.995	103.852	19.909	13.102	0.481
517.500	335.775	80.006	19.994	103.851	19.910	12.985	0.502
518.000	336.006	80.007	19.995	103.849	19.908	13.138	0.536
518.500	336.245	80.006	19.994	103.851	19.910	13.002	0.505
519.000	336.465	80.006	19.994	103.852	19.913	12.809	0.464
519.500	336.713	80.005	19.993	103.848	19.912	12.885	0.464
520.000	336.981	80.006	19.994	103.845	19.916	12.570	0.492
520.500	337.235	80.006	19.994	103.850	19.913	12.771	0.519
521.000	337.458	80.006	19.995	103.843	19.916	12.547	0.499
521.500	337.711	80.005	19.993	103.835	19.916	12.547	0.477
522.000	337.935	80.005	19.993	103.826	19.917	12.495	0.476
522.500	338.207	80.004	19.993	103.827	19.914	12.669	0.487
523.000	338.446	80.006	19.995	103.830	19.919	12.339	0.504
523.500	338.724	80.007	19.995	103.837	19.920	12.197	0.514
524.000	338.960	80.005	19.995	103.848	19.917	12.487	0.515
524.500	339.203	80.005	19.994	103.863	19.917	12.440	0.497
525.000	339.452	80.005	19.994	103.872	19.918	12.353	0.486
525.500	339.692	80.005	19.994	103.864	19.916	12.522	0.491
526.000	339.957	80.006	19.994	103.857	19.920	12.234	0.497
526.500	340.188	80.006	19.993	103.851	19.917	12.440	0.500
527.000	340.452	80.005	19.993	103.845	19.916	12.502	0.495
527.500	340.705	80.006	19.994	103.834	19.916	12.546	0.506
528.000	340.917	80.005	19.994	103.834	19.914	12.660	0.491
528.500	341.226	80.005	19.994	103.833	19.915	12.643	0.493
529.000	341.434	80.006	19.994	103.833	19.917	12.489	0.519
529.500	341.674	80.006	19.993	103.831	19.915	12.643	0.483
530.000	341.937	80.006	19.994	103.829	19.914	12.673	0.475
530.500	342.204	80.005	19.994	103.831	19.913	12.788	0.516
531.000	342.450	80.005	19.994	103.835	19.911	12.900	0.521
531.500	342.670	80.005	19.994	103.835	19.912	12.842	0.490
532.000	342.929	80.007	19.993	103.841	19.911	12.911	0.473
532.500	343.183	80.006	19.994	103.843	19.912	12.831	0.496
533.000	343.441	80.006	19.994	103.838	19.914	12.716	0.512
533.500	343.706	80.007	19.995	103.835	19.912	12.885	0.518
534.000	343.950	80.008	19.995	103.835	19.912	12.840	0.516
534.500	344.192	80.008	19.995	103.830	19.914	12.710	0.497
535.000	344.441	80.007	19.995	103.828	19.912	12.855	0.488
535.500	344.669	80.006	19.995	103.831	19.912	12.812	0.484
536.000	344.941	80.006	19.994	103.831	19.910	12.987	0.489
536.500	345.193	80.008	19.995	103.831	19.909	13.099	0.512
537.000	345.446	80.008	19.994	103.830	19.909	13.112	0.514
537.500	345.719	80.007	19.994	103.829	19.908	13.160	0.515
538.000	345.965	80.008	19.994	103.831	19.905	13.437	0.522
538.500	346.194	80.008	19.995	103.831	19.901	13.742	0.497
539.000	346.466	80.007	19.995	103.831	19.900	13.755	0.488
539.500	346.687	80.007	19.995	103.831	19.901	13.695	0.497
540.000	346.970	80.007	19.994	103.831	19.900	13.758	0.498
540.500	347.165	80.007	19.994	103.829	19.900	13.821	0.491
541.000	347.462	80.006	19.995	103.828	19.898	13.961	0.485
541.500	347.661	80.005	19.994	103.828	19.899	13.901	0.494
542.000	347.941	80.007	19.995	103.829	19.897	14.046	0.488
542.500	348.165	80.007	19.995	103.829	19.896	14.126	0.492
543.000	348.422	80.007	19.995	103.829	19.896	14.143	0.492
543.500	348.659	80.005	19.995	103.830	19.896	14.130	0.487
544.000	348.919	80.006	19.995	103.830	19.893	14.305	0.496
544.500	349.191	80.004	19.994	103.831	19.892	14.432	0.515
545.000	349.430	80.003	19.995	103.831	19.891	14.510	0.521
545.500	349.666	80.005	19.994	103.832	19.888	14.696	0.493
546.000	349.953	80.005	19.995	103.832	19.889	14.644	0.499
546.500	350.195	80.005	19.993	103.832	19.886	14.899	0.526
547.000	350.447	80.004	19.994	103.833	19.887	14.830	0.511
547.500	350.702	80.004	19.994	103.832	19.882	15.198	0.501
548.000	350.945	80.005	19.993	103.832	19.881	15.256	0.503
548.500	351.239	80.005	19.995	103.832	19.881	15.252	0.517
549.000	351.459	80.005	19.993	103.834	19.878	15.503	0.525
549.500	351.692	80.006	19.994	103.836	19.876	15.698	0.484
550.000	351.975	80.004	19.993	103.837	19.876	15.691	0.485
550.500	352.224	80.005	19.994	103.838	19.872	15.994	0.524
551.000	352.469	80.004	19.993	103.840	19.873	15.912	0.513
551.500	352.691	80.005	19.994	103.839	19.870	16.160	0.481
552.000	352.985	80.005	19.994	103.840	19.868	16.318	0.491
552.500	353.234	80.004	19.994	103.841	19.865	16.510	0.529
553.000	353.480	80.006	19.993	103.841	19.863	16.718	0.519
553.500	353.737	80.004	19.993	103.839	19.862	16.776	0.499
554.000	353.994	80.005	19.993	103.839	19.862	16.768	0.509
554.500	354.248	80.005	19.994	103.838	19.856	17.231	0.513
555.000	354.523	80.004	19.994	103.836	19.856	17.239	0.520
555.500	354.752	80.004	19.994	103.835	19.851	17.629	0.517
556.000	355.006	80.006	19.994	103.836	19.848	17.835	0.493
556.500	355.252	80.005	19.993	103.836	19.846	17.993	0.491
557.000	355.527	80.004	19.994	103.837	19.844	18.177	0.511
557.500	355.768	80.004	19.993	103.836	19.839	18.582	0.519
558.000	356.029	80.005	19.993	103.836	19.837	18.707	0.509
558.500	356.286	80.005	19.994	103.836	19.834	18.993	0.510
559.000	356.535	80.005	19.993	103.835	19.828	19.425	0.512
559.500	356.781	80.004	19.994	103.835	19.825	19.670	0.501
560.000	357.048	80.006	19.993	103.837	19.821	19.976	0.504
560.500	357.280	80.006	19.993	103.838	19.817	20.275	0.506
561.000	357.549	80.005	19.993	103.838	19.814	20.520	0.500
561.500	357.784	80.006	19.993	103.838	19.814	20.536	0.502
562.000	358.037	80.004	19.993	103.838	19.806	21.157	0.496
562.500	358.307	80.006	19.993	103.837	19.806	21.179	0.506
563.000	358.574	80.004	19.994	103.836	19.799	21.758	0.530
563.500	358.814	80.005	19.994	103.835	19.796	21.970	0.522
564.000	359.078	80.005	19.993	103.834	19.794	22.107	0.506
564.500	359.336	80.005	19.993	103.834	19.784	22.908	0.513
565.000	359.584	80.005	19.993	103.834	19.781	23.115	0.514
565.500	359.798	80.004	19.992	103.835	19.778	23.341	0.484
566.000	360.064	80.003	19.993	103.835	19.776	23.558	0.472
566.500	360.326	80.006	19.993	103.840	19.773	23.765	0.504
567.000	360.579	80.005	19.993	103.841	19.763	24.536	0.521
567.500	360.859	80.005	19.993	103.842	19.759	24.834	0.524
568.000	361.096	80.005	19.994	103.842	19.758	24.973	0.525
568.500	361.385	80.004	19.993	103.842	19.748	25.693	0.521
569.000	361.639	80.004	19.993	103.843	19.745	25.981	0.534
569.500	361.909	80.005	19.993	103.843	19.740	26.349	0.533
570.000	362.121	80.004	19.994	103.843	19.732	26.974	0.504
570.500	362.345	80.004	19.994	103.847	19.727	27.365	0.459
571.000	362.631	80.005	19.994	103.853	19.722	27.801	0.472
571.500	362.861	80.004	19.994	103.855	19.715	28.329	0.513
572.000	363.125	80.004	19.992	103.857	19.707	28.919	0.506
572.500	363.399	80.004	19.994	103.860	19.702	29.313	0.516
573.000	363.625	80.003	19.994	103.861	19.698	29.664	0.519
573.500	363.835	80.005	19.994	103.862	19.689	30.359	0.468
574.000	364.125	80.004	19.994	103.858	19.682	30.873	0.468
574.500	364.374	80.004	19.994	103.857	19.675	31.438	0.520
575.000	364.595	80.004	19.994	103.853	19.667	32.058	0.505
575.500	364.850	80.004	19.994	103.853	19.662	32.495	0.473
576.000	365.155	80.005	19.994	103.853	19.651	33.345	0.518
576.500	365.384	80.004	19.994	103.855	19.646	33.755	0.547
577.000	365.606	80.006	19.993	103.861	19.633	34.752	0.492
577.500	365.890	80.004	19.994	103.867	19.627	35.190	0.479
578.000	366.082	80.005	19.994	103.870	19.621	35.718	0.491
578.500	366.384	80.005	19.993	103.869	19.611	36.461	0.485
579.000	366.631	80.004	19.993	103.870	19.601	37.270	0.522
579.500	366.843	80.004	19.993	103.868	19.594	37.773	0.504
580.000	367.153	80.005	19.994	103.869	19.584	38.564	0.490
580.500	367.394	80.005	19.994	103.869	19.576	39.185	0.537
581.000	367.654	80.006	19.994	103.869	19.565	40.122	0.526
581.500	367.931	80.005	19.993	103.868	19.557	40.707	0.519
582.000	368.170	80.006	19.994	103.870	19.548	41.443	0.526
582.500	368.462	80.005	19.994	103.870	19.537	42.307	0.523
583.000	368.683	80.005	19.993	103.870	19.526	43.166	0.522
583.500	368.921	80.005	19.993	103.870	19.516	43.909	0.487
584.000	369.196	80.005	19.995	103.872	19.502	45.073	0.487
584.500	369.465	80.006	19.992	103.872	19.494	45.631	0.528
585.000	369.689	80.006	19.992	103.871	19.482	46.612	0.518
585.500	369.909	80.006	19.993	103.871	19.468	47.703	0.468
586.000	370.197	80.005	19.993	103.869	19.454	48.782	0.476
586.500	370.430	80.006	19.993	103.869	19.446	49.453	0.515
587.000	370.733	80.006	19.993	103.869	19.433	50.480	0.528
587.500	371.013	80.006	19.993	103.870	19.419	51.534	0.559
588.000	371.211	80.007	19.993	103.875	19.404	52.768	0.531
588.500	371.473	80.008	19.994	103.880	19.391	53.763	0.469
589.000	371.721	80.006	19.994	103.881	19.374	55.066	0.485
589.500	371.974	80.005	19.994	103.881	19.363	55.964	0.505
590.000	372.204	80.006	19.994	103.882	19.350	56.943	0.492
590.500	372.460	80.007	19.993	103.878	19.333	58.317	0.485
591.000	372.769	80.006	19.993	103.881	19.316	59.650	0.525
591.500	372.974	80.006	19.993	103.882	19.302	60.727	0.539
592.000	373.255	80.006	19.995	103.888	19.284	62.165	0.500
592.500	373.497	80.006	19.993	103.894	19.269	63.306	0.504
593.000	373.755	80.007	19.994	103.900	19.250	64.839	0.512
593.500	373.977	80.006	19.994	103.902	19.232	66.215	0.490
594.000	374.258	80.007	19.994	103.908	19.217	67.417	0.492
594.500	374.554	80.007	19.993	103.908	19.198	68.929	0.540
595.000	374.807	80.006	19.994	103.908	19.178	70.464	0.563
595.500	375.022	80.007	19.995	103.908	19.161	71.854	0.508
596.000	375.276	80.006	19.994	103.907	19.143	73.236	0.469
596.500	375.527	80.006	19.994	103.908	19.123	74.810	0.487
597.000	375.785	80.008	19.994	103.907	19.106	76.174	0.507
597.500	376.030	80.007	19.994	103.906	19.082	78.039	0.506
598.000	376.271	80.007	19.994	103.905	19.067	79.211	0.494
598.500	376.559	80.007	19.994	103.906	19.046	80.836	0.507
599.000	376.800	80.007	19.995	103.905	19.028	82.295	0.529
599.500	377.072	80.005	19.994	103.903	19.006	84.032	0.521
600.000	377.307	80.006	19.995	103.905	18.986	85.587	0.510
600.500	377.571	80.006	19.996	103.905	18.964	87.318	0.503
601.000	377.810	80.005	19.995	103.906	18.940	89.164	0.501
601.500	378.056	80.005	19.994	103.910	18.919	90.804	0.494
602.000	378.312	80.006	19.995	103.916	18.896	92.583	0.494
602.500	378.526	80.007	19.994	103.918	18.870	94.644	0.486
603.000	378.808	80.006	19.994	103.920	18.847	96.425	0.483
603.500	379.039	80.006	19.995	103.921	18.824	98.252	0.504
604.000	379.335	80.004	19.994	103.921	18.797	100.356	0.520
604.500	379.546	80.005	19.994	103.920	18.770	102.471	0.517
605.000	379.803	80.006	19.995	103.924	18.744	104.527	0.488
605.500	380.022	80.007	19.994	103.930	18.718	106.573	0.472
606.000	380.327	80.007	19.994	103.936	18.690	108.800	0.500
606.500	380.573	80.006	19.994	103.939	18.659	111.253	0.537
607.000	380.835	80.006	19.993	103.944	18.633	113.269	0.529
607.500	381.022	80.005	19.994	103.947	18.608	115.243	0.479
608.000	381.320	80.007	19.993	103.946	18.580	117.435	0.467
608.500	381.550	80.005	19.994	103.943	18.550	119.752	0.506
609.000	381.791	80.004	19.995	103.940	18.521	122.030	0.500
609.500	382.056	80.006	19.996	103.938	18.494	124.176	0.489
610.000	382.317	80.006	19.994	103.938	18.470	126.082	0.516
610.500	382.548	80.006	19.994	103.937	18.439	128.464	0.509
611.000	382.801	80.006	19.993	103.936	18.413	130.559	0.488
611.500	383.048	80.005	19.995	103.931	18.385	132.750	0.492
612.000	383.288	80.006	19.995	103.925	18.359	134.759	0.494
612.500	383.546	80.007	19.994	103.918	18.329	137.092	0.492
613.000	383.787	80.006	19.994	103.913	18.305	139.039	0.498
613.500	384.035	80.006	19.995	103.911	18.274	141.436	0.494
614.000	384.312	80.007	19.994	103.911	18.246	143.650	0.508
614.500	384.545	80.007	19.994	103.911	18.219	145.739	0.518
615.000	384.806	80.007	19.994	103.911	18.193	147.771	0.502
615.500	385.056	80.006	19.994	103.912	18.162	150.211	0.503
616.000	385.291	80.006	19.993	103.912	18.136	152.307	0.498
616.500	385.527	80.008	19.993	103.911	18.105	154.683	0.478
617.000	385.767	80.007	19.993	103.912	18.079	156.695	0.473
617.500	386.062	80.006	19.993	103.912	18.054	158.652	0.506
618.000	386.298	80.007	19.993	103.913	18.027	160.780	0.533
618.500	386.547	80.007	19.994	103.913	17.997	163.117	0.508
619.000	386.807	80.007	19.994	103.913	17.970	165.183	0.497
619.500	387.025	80.008	19.994	103.912	17.944	167.271	0.494
620.000	387.289	80.007	19.993	103.912	17.917	169.383	0.481
620.500	387.547	80.007	19.993	103.910	17.890	171.438	0.502
621.000	387.788	80.006	19.995	103.910	17.864	173.463	0.510
621.500	388.041	80.007	19.993	103.911	17.834	175.824	0.497
622.000	388.290	80.006	19.993	103.913	17.807	177.981	0.498
622.500	388.520	80.006	19.993	103.913	17.784	179.788	0.490
623.000	388.784	80.005	19.995	103.913	17.754	182.087	0.487
623.500	389.065	80.005	19.994	103.913	17.726	184.316	0.519
624.000	389.314	80.005	19.993	103.913	17.701	186.307	0.537
624.500	389.531	80.006	19.994	103.910	17.675	188.319	0.498
625.000	389.777	80.005	19.994	103.910	17.651	190.154	0.465
625.500	390.003	80.004	19.995	103.909	17.625	192.192	0.468
626.000	390.272	80.003	19.995	103.909	17.600	194.185	0.483
626.500	390.549	80.005	19.995	103.909	17.581	195.675	0.520
627.000	390.777	80.004	19.994	103.909	17.556	197.609	0.526
627.500	390.982	80.005	19.994	103.901	17.536	199.144	0.469
628.000	391.254	80.004	19.994	103.893	17.518	200.596	0.455
628.500	391.501	80.004	19.994	103.885	17.496	202.270	0.498
629.000	391.813	80.004	19.995	103.876	17.483	203.337	0.539
629.500	392.051	80.003	19.996	103.863	17.466	204.609	0.555
630.000	392.279	80.004	19.994	103.856	17.446	206.200	0.508
630.500	392.508	80.003	19.995	103.849	17.433	207.211	0.461
631.000	392.779	80.005	19.993	103.842	17.419	208.330	0.479
631.500	393.034	80.003	19.994	103.833	17.406	209.321	0.513
632.000	393.285	80.003	19.994	103.828	17.392	210.416	0.516
632.500	393.543	80.003	19.995	103.825	17.380	211.348	0.507
633.000	393.829	80.004	19.997	103.824	17.369	212.214	0.527
633.500	394.033	80.004	19.994	103.824	17.359	212.955	0.517
634.000	394.345	80.002	19.995	103.825	17.351	213.599	0.503
634.500	394.580	80.004	19.996	103.829	17.344	214.092	0.531
635.000	394.825	80.004	19.995	103.830	17.340	214.455	0.514
635.500	395.082	80.005	19.996	103.828	17.333	215.020	0.492
636.000	395.324	80.005	19.995	103.824	17.326	215.524	0.501
636.500	395.593	80.005	19.995	103.822	17.318	216.192	0.504
637.000	395.809	80.003	19.994	103.816	17.315	216.425	0.498
637.500	396.074	80.005	19.995	103.809	17.311	216.725	0.483
638.000	396.303	80.005	19.995	103.804	17.309	216.897	0.487
638.500	396.529	80.004	19.994	103.800	17.308	216.918	0.474
639.000	396.796	80.005	19.994	103.795	17.310	216.808	0.474
639.500	397.075	80.006	19.994	103.794	17.312	216.628	0.520
640.000	397.321	80.005	19.994	103.794	17.308	216.960	0.535
640.500	397.557	80.006	19.994	103.792	17.315	216.415	0.503
641.000	397.809	80.006	19.995	103.788	17.319	216.116	0.485
641.500	398.050	80.004	19.993	103.783	17.322	215.889	0.490
642.000	398.299	80.006	19.994	103.779	17.326	215.542	0.492
642.500	398.547	80.005	19.993	103.777	17.332	215.071	0.494
643.000	398.796	80.005	19.993	103.771	17.342	214.353	0.497
643.500	399.064	80.005	19.992	103.767	17.348	213.824	0.507
644.000	399.319	80.006	19.994	103.764	17.357	213.143	0.520
644.500	399.608	80.005	19.993	103.761	17.366	212.476	0.534
645.000	399.839	80.006	19.994	103.756	17.378	211.504	0.532
645.500	400.094	80.006	19.993	103.755	17.389	210.631	0.503
646.000	400.321	80.005	19.993	103.755	17.399	209.853	0.484
646.500	400.589	80.007	19.994	103.756	17.413	208.790	0.489
647.000	400.845	80.006	19.993	103.756	17.426	207.776	0.509
647.500	401.095	80.006	19.993	103.756	17.441	206.624	0.515
648.000	401.368	80.005	19.994	103.755	17.456	205.465	0.514
648.500	401.630	80.005	19.994	103.755	17.471	204.293	0.529
649.000	401.885	80.007	19.993	103.755	17.486	203.096	0.526
649.500	402.097	80.007	19.994	103.759	17.500	201.956	0.493
650.000	402.397	80.007	19.994	103.758	17.518	200.592	0.490
650.500	402.625	80.006	19.993	103.760	17.538	199.015	0.520
651.000	402.866	80.007	19.994	103.764	17.552	197.943	0.499
651.500	403.149	80.006	19.993	103.765	17.568	196.634	0.497
652.000	403.386	80.006	19.995	103.762	17.587	195.155	0.521
652.500	403.609	80.006	19.994	103.770	17.605	193.712	0.490
653.000	403.850	80.006	19.994	103.772	17.624	192.205	0.462
653.500	404.115	80.005	19.994	103.774	17.643	190.716	0.485
654.000	404.375	80.006	19.993	103.777	17.658	189.567	0.516
654.500	404.621	80.006	19.993	103.779	17.681	187.751	0.516
655.000	404.900	80.006	19.994	103.778	17.698	186.427	0.516
655.500	405.155	80.006	19.993	103.780	17.718	184.813	0.529
656.000	405.376	80.005	19.994	103.783	17.735	183.534	0.504
656.500	405.634	80.004	19.993	103.786	17.755	181.971	0.477
657.000	405.926	80.006	19.993	103.790	17.773	180.570	0.515
657.500	406.156	80.006	19.995	103.792	17.794	178.866	0.536
658.000	406.414	80.005	19.994	103.796	17.810	177.614	0.505
658.500	406.640	80.006	19.994	103.798	17.828	176.174	0.486
659.000	406.923	80.005	19.993	103.799	17.846	174.794	0.496
659.500	407.140	80.006	19.994	103.800	17.864	173.372	0.504
660.000	407.436	80.004	19.994	103.803	17.884	171.789	0.506
660.500	407.688	80.005	19.992	103.805	17.904	170.234	0.530
661.000	407.919	80.006	19.994	103.808	17.928	168.338	0.516
661.500	408.214	80.005	19.993	103.807	17.946	166.951	0.505
662.000	408.455	80.006	19.995	103.806	17.964	165.530	0.531
662.500	408.707	80.006	19.993	103.801	17.980	164.284	0.515
663.000	408.981	80.006	19.994	103.796	18.003	162.496	0.510
663.500	409.213	80.005	19.993	103.784	18.025	160.805	0.516
664.000	409.434	80.007	19.994	103.777	18.043	159.363	0.479
664.500	409.697	80.007	19.994	103.774	18.062	157.884	0.468
665.000	409.964	80.005	19.995	103.773	18.084	156.152	0.507
665.500	410.191	80.005	19.994	103.768	18.105	154.517	0.512
666.000	410.429	80.006	19.993	103.773	18.129	152.678	0.479
666.500	410.690	80.006	19.994	103.773	18.151	150.923	0.482
667.000	410.988	80.007	19.995	103.774	18.171	149.378	0.529
667.500	411.170	80.006	19.994	103.775	18.194	147.527	0.520
668.000	411.466	80.006	19.993	103.775	18.215	145.891	0.479
668.500	411.760	80.006	19.994	103.770	18.235	144.328	0.534
669.000	411.982	80.007	19.994	103.769	18.255	142.743	0.553
669.500	412.248	80.006	19.994	103.763	18.284	140.536	0.502
670.000	412.477	80.007	19.994	103.762	18.302	139.079	0.492
670.500	412.763	80.007	19.994	103.763	18.325	137.263	0.505
671.000	412.993	80.005	19.993	103.769	18.345	135.757	0.515
671.500	413.295	80.008	19.995	103.771	18.367	133.959	0.523
672.000	413.555	80.007	19.994	103.772	18.389	132.247	0.547
672.500	413.761	80.007	19.993	103.768	18.416	130.150	0.515
673.000	413.990	80.007	19.993	103.768	18.434	128.766	0.451
673.500	414.275	80.007	19.994	103.770	18.455	127.109	0.474
674.000	414.554	80.007	19.992	103.775	18.479	125.191	0.538
674.500	414.795	80.008	19.993	103.782	18.501	123.516	0.542
675.000	415.053	80.007	19.994	103.790	18.520	122.022	0.510
675.500	415.299	80.009	19.993	103.793	18.540	120.410	0.502
676.000	415.541	80.008	19.993	103.794	18.559	118.950	0.496
676.500	415.780	80.007	19.993	103.794	18.581	117.226	0.485
677.000	416.037	80.007	19.992	103.794	18.599	115.783	0.489
677.500	416.268	80.007	19.993	103.793	18.624	113.886	0.492
678.000	416.557	80.006	19.994	103.794	18.642	112.486	0.504
678.500	416.811	80.005	19.993	103.794	18.664	110.694	0.532
679.000	417.062	80.008	19.993	103.794	18.684	109.189	0.524
679.500	417.308	80.006	19.992	103.794	18.703	107.639	0.501
680.000	417.561	80.006	19.993	103.796	18.716	106.624	0.498
680.500	417.811	80.007	19.993	103.798	18.738	104.966	0.501
681.000	418.076	80.006	19.993	103.799	18.760	103.180	0.509
681.500	418.319	80.007	19.993	103.800	18.778	101.814	0.511
682.000	418.596	80.005	19.993	103.801	18.794	100.509	0.514
682.500	418.818	80.006	19.993	103.800	18.814	98.952	0.510
683.000	419.071	80.007	19.994	103.800	18.831	97.670	0.487
683.500	419.351	80.007	19.993	103.800	18.850	96.132	0.504
684.000	419.567	80.007	19.994	103.801	18.870	94.549	0.515
684.500	419.884	80.007	19.993	103.805	18.885	93.435	0.515
685.000	420.077	80.007	19.994	103.806	18.900	92.248	0.522
685.500	420.374	80.007	19.993	103.808	18.920	90.676	0.500
686.000	420.647	80.007	19.994	103.810	18.936	89.396	0.530
686.500	420.927	80.006	19.994	103.807	18.952	88.130	0.561
687.000	421.181	80.007	19.993	103.804	18.968	86.875	0.543
687.500	421.389	80.007	19.993	103.805	18.985	85.537	0.499
688.000	421.675	80.006	19.995	103.805	19.003	84.165	0.478
688.500	421.919	80.007	19.994	103.809	19.016	83.101	0.511
689.000	422.170	80.006	19.994	103.816	19.032	81.907	0.512
689.500	422.447	80.006	19.993	103.823	19.048	80.622	0.511
690.000	422.678	80.007	19.994	103.821	19.061	79.588	0.518
690.500	422.939	80.005	19.993	103.823	19.075	78.472	0.500
691.000	423.179	80.007	19.994	103.824	19.089	77.380	0.497
691.500	423.455	80.006	19.994	103.825	19.107	75.975	0.509
692.000	423.672	80.007	19.993	103.819	19.119	75.029	0.504
692.500	424.002	80.006	19.995	103.822	19.137	73.669	0.520
693.000	424.232	80.007	19.996	103.823	19.148	72.767	0.553
693.500	424.491	80.007	19.995	103.823	19.162	71.642	0.525
694.000	424.727	80.006	19.994	103.823	19.173	70.802	0.492
694.500	424.975	80.007	19.995	103.830	19.190	69.445	0.489
695.000	425.214	80.007	19.995	103.835	19.205	68.303	0.485
695.500	425.471	80.006	19.994	103.835	19.221	67.070	0.492
696.000	425.743	80.005	19.994	103.835	19.231	66.237	0.513
696.500	425.992	80.006	19.994	103.836	19.245	65.169	0.525
697.000	426.246	80.007	19.994	103.835	19.259	64.071	0.512
697.500	426.511	80.006	19.994	103.834	19.275	62.851	0.511
698.000	426.766	80.007	19.993	103.834	19.283	62.198	0.520
698.500	427.005	80.008	19.993	103.834	19.297	61.081	0.507
699.000	427.224	80.007	19.993	103.834	19.315	59.715	0.476
699.500	427.494	80.007	19.994	103.834	19.322	59.158	0.473
700.000	427.746	80.007	19.993	103.834	19.334	58.198	0.505
700.500	428.030	80.007	19.994	103.833	19.344	57.400	0.530
701.000	428.269	80.006	19.993	103.833	19.357	56.408	0.529
701.500	428.524	80.008	19.993	103.833	19.368	55.526	0.508
702.000	428.780	80.007	19.994	103.833	19.380	54.612	0.502
702.500	429.039	80.006	19.993	103.831	19.391	53.686	0.513
703.000	429.255	80.007	19.995	103.830	19.403	52.739	0.495
703.500	429.539	80.007	19.994	103.830	19.411	52.134	0.488
704.000	429.816	80.007	19.994	103.830	19.427	50.911	0.531
704.500	430.063	80.007	19.993	103.829	19.441	49.802	0.543
705.000	430.305	80.007	19.994	103.829	19.449	49.197	0.506
705.500	430.551	80.006	19.994	103.830	19.461	48.205	0.489
706.000	430.803	80.006	19.994	103.830	19.473	47.299	0.493
706.500	431.037	80.007	19.993	103.830	19.482	46.562	0.492
707.000	431.298	80.006	19.994	103.829	19.497	45.369	0.491
707.500	431.576	80.006	19.994	103.830	19.505	44.738	0.517
708.000	431.812	80.006	19.994	103.830	19.517	43.820	0.526
708.500	432.070	80.007	19.994	103.831	19.530	42.777	0.504
709.000	432.311	80.006	19.994	103.831	19.537	42.235	0.497
709.500	432.587	80.005	19.994	103.831	19.549	41.314	0.509
710.000	432.847	80.005	19.994	103.830	19.560	40.413	0.526
710.500	433.084	80.006	19.994	103.828	19.573	39.425	0.516
711.000	433.375	80.004	19.994	103.828	19.581	38.763	0.512
711.500	433.601	80.007	19.993	103.828	19.592	37.902	0.522
712.000	433.848	80.005	19.994	103.829	19.606	36.818	0.495
712.500	434.172	80.006	19.993	103.830	19.615	36.129	0.522
713.000	434.428	80.006	19.993	103.832	19.627	35.223	0.576
713.500	434.692	80.005	19.994	103.831	19.634	34.620	0.551
714.000	434.917	80.005	19.993	103.831	19.645	33.799	0.505
714.500	435.151	80.005	19.994	103.831	19.655	33.025	0.474
715.000	435.420	80.006	19.994	103.830	19.666	32.121	0.481
715.500	435.686	80.005	19.994	103.826	19.675	31.463	0.519
716.000	435.918	80.006	19.994	103.819	19.684	30.748	0.516
716.500	436.150	80.005	19.995	103.811	19.692	30.114	0.481
717.000	436.427	80.004	19.995	103.806	19.700	29.441	0.487
717.500	436.662	80.005	19.994	103.801	19.712	28.545	0.510
718.000	436.947	80.005	19.995	103.803	19.721	27.807	0.516
718.500	437.196	80.005	19.994	103.804	19.729	27.157	0.527
719.000	437.426	80.005	19.994	103.804	19.737	26.597	0.507
719.500	437.696	80.004	19.995	103.804	19.748	25.723	0.490
720.000	437.942	80.006	19.994	103.806	19.755	25.168	0.508
720.500	438.210	80.004	19.994	103.804	19.761	24.652	0.515
721.000	438.492	80.006	19.995	103.802	19.771	23.863	0.532
721.500	438.683	80.005	19.995	103.802	19.781	23.081	0.512
722.000	438.983	80.004	19.995	103.801	19.788	22.562	0.482
722.500	439.224	80.004	19.994	103.798	19.793	22.208	0.516
723.000	439.497	80.003	19.994	103.795	19.802	21.450	0.528
723.500	439.724	80.005	19.997	103.797	19.811	20.730	0.507
724.000	439.954	80.005	19.995	103.797	19.817	20.285	0.478
724.500	440.257	80.005	19.995	103.799	19.827	19.506	0.495
725.000	440.499	80.005	19.994	103.800	19.832	19.102	0.539
725.500	440.766	80.005	19.995	103.800	19.839	18.557	0.527
726.000	441.006	80.004	19.994	103.799	19.847	17.912	0.508
726.500	441.298	80.005	19.995	103.803	19.853	17.443	0.519
727.000	441.524	80.006	19.995	103.805	19.858	17.077	0.525
727.500	441.777	80.004	19.995	103.803	19.869	16.249	0.499
728.000	442.048	80.006	19.994	103.801	19.877	15.627	0.501
728.500	442.300	80.005	19.994	103.801	19.882	15.179	0.524
729.000	442.549	80.005	19.995	103.795	19.888	14.768	0.512
729.500	442.789	80.004	19.996	103.791	19.894	14.270	0.495
730.000	443.068	80.003	19.995	103.790	19.901	13.716	0.504
730.500	443.317	80.005	19.994	103.790	19.907	13.227	0.523
731.000	443.537	80.004	19.995	103.791	19.911	12.929	0.499
731.500	443.787	80.004	19.995	103.792	19.915	12.585	0.470
732.000	444.083	80.004	19.995	103.794	19.924	11.943	0.508
732.500	444.319	80.005	19.995	103.797	19.928	11.608	0.539
733.000	444.553	80.004	19.994	103.798	19.936	10.937	0.501
733.500	444.789	80.005	19.994	103.800	19.942	10.503	0.470
734.000	445.060	80.005	19.995	103.802	19.943	10.408	0.489
734.500	445.296	80.004	19.994	103.804	19.950	9.902	0.507
735.000	445.597	80.005	19.995	103.802	19.956	9.376	0.522
735.500	445.841	80.006	19.993	103.803	19.959	9.121	0.541
736.000	446.089	80.005	19.993	103.800	19.967	8.570	0.519
736.500	446.304	80.006	19.994	103.799	19.967	8.494	0.477
737.000	446.570	80.005	19.994	103.797	19.974	8.001	0.472
737.500	446.819	80.005	19.994	103.801	19.976	7.828	0.498
738.000	447.066	80.005	19.994	103.806	19.982	7.325	0.505
738.500	447.314	80.004	19.994	103.809	19.980	7.532	0.496
739.000	447.591	80.004	19.994	103.814	19.988	6.901	0.510
739.500	447.827	80.003	19.993	103.813	19.987	6.927	0.519
740.000	448.115	80.004	19.994	103.811	19.993	6.531	0.519
740.500	448.313	80.005	19.994	103.807	19.995	6.337	0.505
741.000	448.605	80.004	19.994	103.804	19.998	6.088	0.488
741.500	448.836	80.004	19.993	103.799	20.002	5.816	0.507
742.000	449.082	80.004	19.995	103.799	20.004	5.639	0.500
742.500	449.352	80.005	19.994	103.797	20.006	5.451	0.496
743.000	449.616	80.005	19.993	103.796	20.014	4.867	0.525
743.500	449.888	80.005	19.993	103.796	20.012	4.980	0.535
744.000	450.106	80.004	19.993	103.798	20.015	4.772	0.513
744.500	450.362	80.003	19.993	103.798	20.020	4.359	0.482
745.000	450.623	80.004	19.994	103.797	20.021	4.331	0.495
745.500	450.871	80.006	19.994	103.796	20.023	4.140	0.513
746.000	451.115	80.005	19.994	103.796	20.023	4.142	0.501
746.500	451.360	80.004	19.993	103.794	20.027	3.855	0.491
747.000	451.647	80.004	19.993	103.794	20.026	3.935	0.511
747.500	451.894	80.004	19.993	103.794	20.027	3.803	0.533
748.000	452.142	80.005	19.993	103.796	20.029	3.641	0.514
748.500	452.384	80.004	19.993	103.796	20.032	3.429	0.492
749.000	452.648	80.005	19.994	103.796	20.036	3.152	0.498
749.500	452.909	80.006	19.994	103.796	20.034	3.265	0.515
750.000	453.179	80.005	19.993	103.796	20.038	2.969	0.528
750.500	453.406	80.004	19.994	103.797	20.040	2.837	0.514
751.000	453.696	80.005	19.994	103.797	20.042	2.661	0.507
751.500	453.942	80.005	19.993	103.797	20.044	2.529	0.527
752.000	454.191	80.005	19.992	103.797	20.040	2.836	0.516
752.500	454.419	80.005	19.995	103.799	20.042	2.648	0.486
753.000	454.700	80.005	19.995	103.800	20.045	2.439	0.493
753.500	454.948	80.005	19.994	103.805	20.044	2.482	0.519
754.000	455.212	80.005	19.994	103.807	20.050	2.052	0.521
754.500	455.460	80.006	19.994	103.810	20.051	1.974	0.512
755.000	455.681	80.006	19.995	103.809	20.051	1.928	0.490
755.500	455.986	80.006	19.994	103.807	20.053	1.755	0.497
756.000	456.231	80.006	19.994	103.802	20.051	1.946	0.538
756.500	456.469	80.006	19.994	103.800	20.054	1.714	0.517
757.000	456.765	80.007	19.994	103.797	20.054	1.730	0.508
757.500	457.006	80.006	19.994	103.796	20.052	1.835	0.536
758.000	457.255	80.006	19.993	103.796	20.053	1.779	0.514
758.500	457.469	80.007	19.995	103.796	20.054	1.747	0.477
759.000	457.742	80.006	19.993	103.795	20.054	1.708	0.475
759.500	457.987	80.007	19.994	103.797	20.055	1.652	0.502
760.000	458.241	80.006	19.994	103.802	20.054	1.712	0.508
760.500	458.492	80.005	19.993	103.803	20.057	1.438	0.502
761.000	458.741	80.006	19.994	103.802	20.056	1.589	0.503
761.500	459.036	80.004	19.994	103.802	20.056	1.539	0.522
762.000	459.316	80.005	19.993	103.801	20.059	1.330	0.559
762.500	459.550	80.006	19.994	103.796	20.058	1.410	0.545
763.000	459.799	80.005	19.993	103.795	20.058	1.423	0.499
763.500	460.069	80.005	19.993	103.795	20.059	1.353	0.501
764.000	460.320	80.007	19.993	103.796	20.058	1.418	0.520
764.500	460.576	80.007	19.993	103.795	20.059	1.342	0.514
765.000	460.824	80.004	19.993	103.795	20.061	1.150	0.505
765.500	461.056	80.006	19.994	103.795	20.062	1.048	0.492
766.000	461.328	80.007	19.993	103.795	20.061	1.163	0.492
766.500	461.604	80.006	19.993	103.795	20.064	0.960	0.526
767.000	461.844	80.006	19.994	103.795	20.064	0.923	0.532
767.500	462.082	80.005	19.993	103.795	20.062	1.096	0.497
768.000	462.375	80.005	19.994	103.795	20.063	1.003	0.505
768.500	462.633	80.006	19.994	103.794	20.063	0.975	0.541
769.000	462.851	80.007	19.993	103.793	20.061	1.161	0.514
769.500	463.127	80.007	19.993	103.793	20.066	0.787	0.485
770.000	463.369	80.005	19.994	103.793	20.065	0.886	0.506
770.500	463.637	80.007	19.993	103.792	20.067	0.683	0.514
771.000	463.872	80.006	19.993	103.794	20.065	0.863	0.506
771.500	464.123	80.006	19.994	103.794	20.067	0.713	0.494
772.000	464.369	80.006	19.993	103.794	20.063	0.968	0.492
772.500	464.630	80.007	19.993	103.794	20.067	0.724	0.502
773.001	464.862	80.007	19.992	103.793	20.070	0.467	0.500
773.500	465.120	80.007	19.994	103.793	20.068	0.599	0.491
774.000	465.350	80.008	19.994	103.792	20.070	0.417	0.489
774.500	465.605	80.007	19.994	103.792	20.065	0.884	0.486
775.000	465.865	80.008	19.993	103.791	20.067	0.670	0.500
775.500	466.113	80.007	19.994	103.789	20.070	0.482	0.512
776.000	466.387	80.007	19.992	103.787	20.069	0.508	0.515
776.500	466.633	80.007	19.993	103.787	20.071	0.413	0.521
777.000	466.889	80.009	19.993	103.787	20.069	0.564	0.511
777.500	467.155	80.006	19.993	103.787	20.069	0.497	0.512
778.000	467.412	80.008	19.993	103.790	20.070	0.450	0.523
778.500	467.673	80.007	19.994	103.792	20.069	0.549	0.521
779.000	467.962	80.007	19.994	103.792	20.067	0.707	0.533
779.500	468.179	80.007	19.994	103.792	20.071	0.372	0.528
780.000	468.426	80.008	19.993	103.792	20.070	0.480	0.485
780.500	468.696	80.008	19.993	103.792	20.073	0.186	0.491
781.000	468.934	80.006	19.993	103.792	20.071	0.372	0.512
781.500	469.185	80.008	19.993	103.792	20.070	0.426	0.498
782.000	469.461	80.007	19.993	103.791	20.069	0.551	0.508
782.500	469.720	80.007	19.993	103.789	20.070	0.482	0.531
783.000	469.992	80.007	19.993	103.789	20.070	0.480	0.533
783.500	470.259	80.006	19.994	103.789	20.073	0.197	0.535
784.000	470.477	80.006	19.994	103.789	20.071	0.398	0.512
784.500	470.755	80.007	19.993	103.791	20.070	0.458	0.490
785.000	470.991	80.008	19.994	103.793	20.072	0.337	0.505
785.500	471.252	80.006	19.993	103.793	20.070	0.417	0.506
786.000	471.506	80.007	19.994	103.794	20.069	0.553	0.506
786.500	471.805	80.005	19.994	103.796	20.074	0.179	0.534
787.000	472.075	80.005	19.994	103.795	20.071	0.411	0.561
787.500	472.316	80.005	19.994	103.795	20.071	0.387	0.540
788.000	472.551	80.003	19.994	103.794	20.075	0.091	0.493
788.500	472.794	80.005	19.995	103.793	20.075	0.026	0.477
789.000	473.077	80.006	19.994	103.792	20.073	0.197	0.502
789.500	473.312	80.006	19.994	103.791	20.075	0.095	0.522
790.000	473.617	80.006	19.995	103.791	20.076	0.006	0.529
790.500	473.827	80.006	19.994	103.793	20.076	-0.011	0.528
791.000	474.117	80.004	19.995	103.792	20.073	0.259	0.508
791.500	474.410	80.005	19.995	103.792	20.074	0.115	0.542
792.000	474.664	80.005	19.994	103.793	20.075	0.065	0.565
792.500	474.910	80.005	19.994	103.793	20.075	0.084	0.523
793.000	475.134	80.005	19.995	103.793	20.072	0.318	0.485
793.500	475.423	80.005	19.994	103.794	20.073	0.221	0.492
794.000	475.698	80.005	19.994	103.794	20.073	0.208	0.539
794.500	475.916	80.005	19.994	103.794	20.074	0.179	0.529
795.000	476.170	80.006	19.994	103.795	20.071	0.350	0.482
795.500	476.395	80.005	19.994	103.795	20.075	0.030	0.475
796.000	476.689	80.004	19.995	103.793	20.073	0.190	0.499
796.500	476.960	80.004	19.994	103.793	20.074	0.123	0.542
797.000	477.192	80.005	19.994	103.794	20.075	0.093	0.534
797.500	477.411	80.004	19.994	103.793	20.077	-0.121	0.477
798.000	477.722	80.004	19.994	103.796	20.077	-0.108	0.491
798.500	477.942	80.006	19.993	103.796	20.081	-0.374	0.531
799.000	478.199	80.004	19.993	103.796	20.077	-0.110	0.504
799.500	478.443	80.004	19.994	103.796	20.077	-0.108	0.489
800.000	478.703	80.004	19.994	103.795	20.078	-0.132	0.503
800.500	478.966	80.005	19.993	103.791	20.078	-0.173	0.514
801.000	479.230	80.004	19.993	103.791	20.076	-0.030	0.525
801.500	479.493	80.004	19.994	103.792	20.078	-0.184	0.527
802.000	479.735	80.005	19.994	103.792	20.081	-0.381	0.516
802.500	480.000	80.005	19.993	103.793	20.075	0.048	0.506
803.000	480.258	80.006	19.993	103.796	20.074	0.123	0.515
803.500	480.530	80.004	19.993	103.797	20.077	-0.128	0.526
804.000	480.756	80.004	19.994	103.796	20.077	-0.056	0.514
804.500	480.994	80.005	19.993	103.796	20.074	0.123	0.481
805.000	481.284	80.004	19.994	103.796	20.074	0.108	0.496
805.500	481.498	80.005	19.994	103.795	20.076	0.006	0.516
806.000	481.792	80.005	19.994	103.794	20.074	0.134	0.506
806.500	482.030	80.004	19.994	103.793	20.079	-0.225	0.520
807.000	482.311	80.004	19.993	103.794	20.073	0.205	0.526
807.500	482.568	80.003	19.995	103.794	20.078	-0.190	0.528
808.000	482.797	80.003	19.994	103.794	20.076	0.015	0.512
808.500	483.072	80.005	19.994	103.793	20.077	-0.119	0.495
809.000	483.323	80.007	19.993	103.790	20.076	0.011	0.515
809.500	483.567	80.005	19.994	103.789	20.076	0.024	0.511
810.000	483.838	80.005	19.994	103.789	20.076	-0.028	0.505
810.500	484.059	80.005	19.993	103.791	20.076	0.013	0.503
811.000	484.353	80.005	19.994	103.792	20.076	-0.048	0.503
811.500	484.589	80.005	19.994	103.798	20.079	-0.264	0.523
812.000	484.839	80.005	19.993	103.799	20.076	-0.041	0.509
812.500	485.138	80.005	19.995	103.799	20.077	-0.093	0.518
813.000	485.392	80.004	19.995	103.798	20.077	-0.112	0.551
813.500	485.627	80.003	19.996	103.798	20.077	-0.069	0.521
814.000	485.882	80.006	19.995	103.796	20.074	0.106	0.490
814.500	486.159	80.004	19.995	103.796	20.075	0.069	0.512
815.000	486.449	80.005	19.997	103.796	20.076	-0.032	0.550
815.500	486.673	80.004	19.994	103.797	20.076	0.022	0.540
816.000	486.931	80.004	19.995	103.799	20.075	0.093	0.498
816.500	487.160	80.004	19.995	103.799	20.077	-0.078	0.484
817.000	487.429	80.003	19.994	103.800	20.077	-0.074	0.492
817.500	487.663	80.005	19.994	103.799	20.076	-0.013	0.500
818.000	487.952	80.003	19.995	103.798	20.077	-0.097	0.513
818.500	488.190	80.002	19.995	103.794	20.075	0.080	0.525
819.000	488.427	80.003	19.995	103.794	20.077	-0.056	0.501
819.500	488.681	80.003	19.995	103.793	20.076	-0.002	0.483
820.000	488.929	80.004	19.995	103.793	20.077	-0.089	0.497
820.500	489.196	80.004	19.994	103.794	20.076	0.019	0.509
821.000	489.447	80.004	19.995	103.794	20.072	0.268	0.516
821.500	489.718	80.003	19.995	103.795	20.075	0.028	0.520
822.000	489.978	80.004	19.994	103.795	20.075	0.026	0.527
822.500	490.267	80.003	19.995	103.795	20.076	-0.045	0.540
823.000	490.516	80.002	19.994	103.795	20.075	0.080	0.543
823.500	490.763	80.003	19.995	103.795	20.077	-0.086	0.517
824.000	490.994	80.004	19.994	103.796	20.072	0.268	0.487
824.500	491.273	80.003	19.995	103.795	20.073	0.223	0.494
825.000	491.526	80.004	19.995	103.795	20.073	0.190	0.521
825.500	491.765	80.003	19.993	103.795	20.077	-0.078	0.512
826.000	492.025	80.004	19.994	103.793	20.076	-0.035	0.496
826.500	492.296	80.004	19.994	103.791	20.075	0.032	0.515
827.000	492.521	80.005	19.994	103.792	20.076	-0.009	0.513
827.500	492.774	80.004	19.994	103.791	20.075	0.089	0.487
828.000	493.038	80.003	19.994	103.791	20.077	-0.076	0.498
828.500	493.283	80.005	19.994	103.792	20.076	-0.009	0.513
829.000	493.566	80.005	19.994	103.793	20.076	-0.006	0.519
829.500	493.825	80.007	19.994	103.793	20.076	0.017	0.535
830.000	494.064	80.005	19.994	103.794	20.075	0.099	0.520
830.500	494.335	80.005	19.993	103.795	20.075	0.056	0.504
831.000	494.621	80.007	19.994	103.796	20.076	-0.030	0.534
831.500	494.856	80.006	19.992	103.797	20.076	-0.011	0.539
832.000	495.125	80.008	19.993	103.797	20.076	0.019	0.512
832.500	495.384	80.006	19.993	103.796	20.077	-0.067	0.516
833.000	495.640	80.008	19.993	103.794	20.079	-0.246	0.521
833.500	495.882	80.006	19.994	103.793	20.076	0.006	0.507
834.000	496.150	80.006	19.994	103.793	20.078	-0.160	0.504
834.500	496.385	80.007	19.993	103.793	20.079	-0.275	0.506
835.000	496.624	80.006	19.994	103.794	20.077	-0.089	0.488
835.500	496.864	80.007	19.993	103.792	20.075	0.037	0.476
836.000	497.152	80.007	19.993	103.790	20.078	-0.208	0.503
836.500	497.382	80.006	19.994	103.790	20.077	-0.104	0.523
837.000	497.653	80.007	19.993	103.789	20.078	-0.153	0.510
837.500	497.891	80.005	19.994	103.790	20.078	-0.149	0.506
838.000	498.132	80.008	19.993	103.791	20.075	0.056	0.494
838.500	498.430	80.006	19.994	103.792	20.075	0.067	0.508
839.000	498.673	80.005	19.994	103.795	20.078	-0.138	0.540
839.500	498.940	80.007	19.993	103.795	20.078	-0.175	0.526
840.000	499.164	80.005	19.994	103.795	20.075	0.030	0.500
840.500	499.445	80.006	19.994	103.795	20.076	-0.002	0.498
841.000	499.670	80.006	19.993	103.795	20.076	-0.030	0.505
841.500	499.939	80.006	19.994	103.793	20.075	0.043	0.500
842.000	500.201	80.007	19.994	103.792	20.077	-0.125	0.513
842.500	500.471	80.007	19.993	103.792	20.075	0.054	0.532
843.000	500.711	80.005	19.994	103.789	20.076	0.006	0.521
843.500	500.985	80.006	19.993	103.789	20.078	-0.158	0.512
844.000	501.184	80.006	19.993	103.789	20.078	-0.153	0.494
844.500	501.477	80.005	19.993	103.789	20.077	-0.058	0.482
845.000	501.756	80.005	19.993	103.789	20.078	-0.182	0.532
845.500	502.011	80.005	19.994	103.791	20.079	-0.218	0.553
846.000	502.261	80.006	19.994	103.791	20.076	0.013	0.520
846.500	502.487	80.006	19.994	103.791	20.078	-0.153	0.490
847.000	502.711	80.006	19.993	103.791	20.076	-0.039	0.463
847.500	502.987	80.006	19.994	103.791	20.079	-0.281	0.475
848.000	503.245	80.006	19.993	103.790	20.074	0.143	0.517
848.500	503.497	80.006	19.994	103.790	20.077	-0.078	0.522
849.000	503.759	80.006	19.994	103.790	20.077	-0.058	0.512
849.500	504.017	80.007	19.994	103.791	20.082	-0.454	0.517
850.000	504.293	80.006	19.993	103.793	20.079	-0.268	0.527
850.500	504.513	80.005	19.993	103.794	20.079	-0.233	0.516
851.000	504.767	80.005	19.994	103.794	20.077	-0.112	0.485
851.500	505.021	80.006	19.992	103.795	20.080	-0.316	0.491
852.000	505.280	80.005	19.993	103.794	20.079	-0.279	0.510
852.500	505.510	80.005	19.995	103.791	20.078	-0.173	0.501
853.000	505.778	80.007	19.992	103.792	20.077	-0.071	0.494
853.500	506.039	80.008	19.993	103.793	20.078	-0.162	0.514
854.000	506.292	80.007	19.993	103.792	20.077	-0.106	0.521
854.500	506.516	80.008	19.994	103.792	20.077	-0.130	0.495
855.000	506.776	80.007	19.994	103.790	20.076	-0.022	0.480
855.500	507.040	80.006	19.994	103.789	20.079	-0.212	0.504
856.000	507.327	80.007	19.993	103.788	20.077	-0.117	0.538
856.500	507.546	80.007	19.994	103.788	20.078	-0.156	0.529
857.000	507.816	80.008	19.993	103.789	20.074	0.104	0.498
857.500	508.048	80.006	19.993	103.791	20.077	-0.065	0.496
858.000	508.315	80.007	19.992	103.791	20.076	0.015	0.501
858.500	508.579	80.007	19.993	103.791	20.077	-0.086	0.515
859.000	508.815	80.007	19.994	103.791	20.075	0.061	0.515
859.500	509.115	80.008	19.993	103.792	20.080	-0.316	0.518
860.000	509.376	80.008	19.992	103.792	20.078	-0.147	0.549
860.500	509.614	80.008	19.993	103.793	20.075	0.030	0.530
861.000	509.873	80.009	19.995	103.793	20.075	0.099	0.497
861.500	510.093	80.009	19.991	103.793	20.074	0.156	0.487
862.000	510.363	80.007	19.992	103.792	20.072	0.337	0.484
862.500	510.620	80.008	19.994	103.791	20.076	-0.028	0.509
863.000	510.894	80.007	19.992	103.790	20.074	0.104	0.529
863.500	511.158	80.008	19.994	103.789	20.075	0.045	0.534
864.000	511.412	80.007	19.994	103.789	20.075	0.093	0.529
864.500	511.662	80.008	19.993	103.790	20.074	0.179	0.511
865.000	511.938	80.007	19.993	103.791	20.075	0.084	0.515
865.500	512.195	80.008	19.993	103.793	20.073	0.195	0.529
866.000	512.415	80.007	19.992	103.795	20.076	-0.015	0.505
866.500	512.690	80.006	19.992	103.795	20.073	0.186	0.486
867.000	512.912	80.007	19.992	103.795	20.077	-0.128	0.496
867.500	513.162	80.007	19.992	103.794	20.077	-0.089	0.485
868.000	513.474	80.007	19.993	103.794	20.074	0.110	0.517
868.500	513.679	80.006	19.993	103.794	20.076	-0.032	0.540
869.000	513.971	80.005	19.992	103.794	20.074	0.132	0.507
869.500	514.204	80.006	19.993	103.795	20.077	-0.104	0.511
870.000	514.470	80.007	19.992	103.796	20.077	-0.091	0.512
870.500	514.747	80.006	19.993	103.796	20.073	0.216	0.521
871.000	515.004	80.006	19.993	103.798	20.078	-0.147	0.539
871.500	515.260	80.006	19.994	103.798	20.075	0.091	0.524
872.000	515.509	80.004	19.992	103.790	20.075	0.052	0.509
872.500	515.720	80.004	19.995	103.765	20.077	-0.106	0.482
873.000	515.995	80.006	19.994	103.752	20.074	0.166	0.472
873.500	516.307	80.004	19.994	103.744	20.076	-0.037	0.536
874.000	516.501	80.006	19.992	103.744	20.077	-0.071	0.547
874.500	516.771	80.004	19.992	103.752	20.076	-0.030	0.485
875.000	517.022	80.005	19.994	103.778	20.075	0.054	0.493
875.500	517.285	80.005	19.995	103.815	20.076	0.017	0.518
876.000	517.523	80.003	19.994	103.845	20.076	-0.045	0.507
876.500	517.784	80.005	19.994	103.850	20.073	0.201	0.500
877.000	518.070	80.004	19.994	103.850	20.076	-0.032	0.523
877.500	518.309	80.006	19.993	103.849	20.075	0.041	0.536
878.000	518.560	80.005	19.993	103.824	20.080	-0.361	0.508
878.500	518.791	80.003	19.995	103.800	20.076	0.002	0.487
879.000	519.090	80.004	19.993	103.794	20.077	-0.076	0.506
879.500	519.301	80.004	19.994	103.793	20.081	-0.385	0.520
880.000	519.589	80.004	19.994	103.792	20.080	-0.324	0.505
880.500	519.855	80.007	19.993	103.793	20.080	-0.359	0.526
881.000	520.123	80.004	19.994	103.792	20.079	-0.283	0.544
881.500	520.348	80.006	19.993	103.790	20.078	-0.164	0.514
882.000	520.628	80.005	19.994	103.790	20.078	-0.134	0.499
882.500	520.905	80.005	19.993	103.790	20.074	0.169	0.531
883.000	521.149	80.004	19.994	103.791	20.078	-0.201	0.539
883.500	521.412	80.005	19.995	103.793	20.075	0.074	0.514
884.000	521.675	80.004	19.995	103.796	20.076	0.002	0.517
884.500	521.884	80.005	19.994	103.798	20.077	-0.108	0.499
885.000	522.180	80.004	19.995	103.798	20.077	-0.091	0.489
885.500	522.431	80.004	19.994	103.798	20.080	-0.322	0.526
886.000	522.663	80.003	19.995	103.797	20.076	-0.026	0.515
886.500	522.914	80.004	19.994	103.798	20.079	-0.236	0.483
887.000	523.196	80.005	19.993	103.800	20.078	-0.153	0.509
887.500	523.491	80.004	19.994	103.800	20.078	-0.169	0.555
888.000	523.702	80.002	19.995	103.799	20.078	-0.143	0.541
888.500	523.963	80.004	19.993	103.800	20.077	-0.076	0.489
889.000	524.193	80.003	19.993	103.798	20.078	-0.173	0.482
889.500	524.470	80.006	19.994	103.797	20.079	-0.262	0.500
890.000	524.721	80.004	19.994	103.797	20.081	-0.374	0.518
890.500	525.003	80.005	19.994	103.797	20.076	-0.022	0.530
891.000	525.248	80.003	19.993	103.796	20.079	-0.251	0.530
891.500	525.475	80.003	19.994	103.796	20.080	-0.290	0.500
892.000	525.707	80.007	19.993	103.795	20.078	-0.182	0.466
892.500	525.994	80.005	19.993	103.795	20.079	-0.227	0.489
893.000	526.251	80.003	19.993	103.795	20.078	-0.184	0.531
893.500	526.528	80.005	19.994	103.796	20.078	-0.162	0.539
894.000	526.742	80.005	19.993	103.796	20.080	-0.333	0.512
894.500	527.018	80.006	19.993	103.796	20.082	-0.495	0.490
895.001	527.267	80.005	19.993	103.796	20.082	-0.512	0.508
895.500	527.527	80.005	19.993	103.796	20.080	-0.322	0.517
896.000	527.784	80.005	19.993	103.794	20.080	-0.301	0.514
896.500	528.053	80.003	19.993	103.794	20.080	-0.331	0.522
897.000	528.313	80.006	19.993	103.793	20.080	-0.339	0.527
897.500	528.585	80.004	19.993	103.793	20.079	-0.255	0.530
898.000	528.812	80.003	19.993	103.792	20.080	-0.352	0.516
898.500	529.114	80.003	19.994	103.792	20.084	-0.623	0.514
899.000	529.346	80.003	19.993	103.792	20.075	0.093	0.531
899.500	529.609	80.004	19.993	103.792	20.082	-0.450	0.515
900.000	529.870	80.003	19.994	103.794	20.079	-0.216	0.510
900.500	530.135	80.004	19.995	103.796	20.079	-0.262	0.525
901.000	530.390	80.006	19.994	103.797	20.079	-0.240	0.523
901.500	530.657	80.003	19.994	103.797	20.080	-0.329	0.521
902.000	530.903	80.005	19.994	103.797	20.080	-0.350	0.518
902.500	531.103	80.003	19.994	103.795	20.080	-0.309	0.479
903.000	531.369	80.003	19.993	103.793	20.078	-0.132	0.456
903.500	531.662	80.004	19.994	103.792	20.079	-0.266	0.513
904.000	531.891	80.003	19.994	103.793	20.080	-0.348	0.541
904.500	532.181	80.005	19.993	103.793	20.079	-0.268	0.521
905.000	532.426	80.002	19.995	103.793	20.081	-0.391	0.527
905.500	532.662	80.004	19.994	103.793	20.080	-0.313	0.508
906.000	532.939	80.003	19.994	103.793	20.079	-0.240	0.497
906.500	533.212	80.003	19.994	103.793	20.078	-0.197	0.532
907.000	533.461	80.004	19.994	103.793	20.082	-0.456	0.536
907.500	533.725	80.004	19.995	103.792	20.078	-0.160	0.517
908.000	534.009	80.003	19.995	103.792	20.081	-0.432	0.530
908.500	534.244	80.004	19.995	103.792	20.082	-0.469	0.533
909.000	534.496	80.004	19.994	103.791	20.082	-0.454	0.503
909.500	534.782	80.005	19.994	103.791	20.080	-0.337	0.513
910.000	534.997	80.004	19.994	103.791	20.081	-0.432	0.519
910.500	535.264	80.004	19.995	103.790	20.078	-0.179	0.492
911.000	535.517	80.004	19.995	103.790	20.083	-0.558	0.501
911.500	535.803	80.004	19.994	103.792	20.078	-0.199	0.530
912.000	536.039	80.006	19.994	103.795	20.079	-0.285	0.531
912.500	536.329	80.005	19.995	103.795	20.082	-0.521	0.524
913.000	536.567	80.005	19.994	103.794	20.081	-0.396	0.527
913.500	536.814	80.006	19.994	103.794	20.081	-0.439	0.506
914.000	537.055	80.007	19.995	103.792	20.082	-0.512	0.486
914.500	537.310	80.007	19.993	103.789	20.082	-0.491	0.492
915.000	537.572	80.007	19.994	103.787	20.082	-0.458	0.507
915.500	537.788	80.005	19.995	103.787	20.081	-0.380	0.498
916.000	538.071	80.007	19.994	103.788	20.081	-0.372	0.489
916.500	538.345	80.006	19.993	103.788	20.082	-0.497	0.528
917.000	538.596	80.005	19.994	103.788	20.084	-0.651	0.541
917.500	538.849	80.006	19.995	103.789	20.079	-0.225	0.515
918.000	539.081	80.007	19.993	103.790	20.081	-0.368	0.495
918.500	539.324	80.007	19.995	103.787	20.078	-0.175	0.479
919.000	539.585	80.006	19.995	103.787	20.077	-0.061	0.489
919.500	539.888	80.006	19.996	103.787	20.079	-0.272	0.534
920.000	540.139	80.006	19.994	103.787	20.081	-0.413	0.559
920.500	540.353	80.005	19.995	103.789	20.080	-0.298	0.510
921.000	540.663	80.006	19.994	103.791	20.082	-0.463	0.495
921.500	540.893	80.007	19.994	103.788	20.078	-0.210	0.532
922.000	541.158	80.004	19.995	103.788	20.078	-0.162	0.517
922.500	541.396	80.005	19.994	103.788	20.080	-0.365	0.499
923.000	541.634	80.006	19.993	103.788	20.077	-0.102	0.490
923.500	541.899	80.005	19.994	103.785	20.080	-0.320	0.490
924.000	542.135	80.005	19.993	103.785	20.079	-0.218	0.501
924.500	542.414	80.007	19.993	103.784	20.078	-0.180	0.508
925.000	542.648	80.006	19.994	103.782	20.082	-0.495	0.514
925.500	542.891	80.005	19.992	103.781	20.081	-0.415	0.495
926.000	543.141	80.006	19.994	103.785	20.080	-0.322	0.485
926.500	543.417	80.005	19.994	103.789	20.082	-0.482	0.510
927.000	543.671	80.005	19.995	103.789	20.080	-0.329	0.528
927.500	543.937	80.006	19.993	103.792	20.080	-0.352	0.525
928.000	544.186	80.006	19.993	103.793	20.080	-0.331	0.518
928.500	544.416	80.006	19.993	103.794	20.079	-0.270	0.498
929.000	544.672	80.006	19.994	103.796	20.080	-0.339	0.483
929.500	544.925	80.006	19.994	103.797	20.079	-0.214	0.498
930.000	545.151	80.006	19.993	103.798	20.077	-0.117	0.494
930.500	545.414	80.006	19.994	103.798	20.080	-0.301	0.484
931.000	545.641	80.006	19.992	103.797	20.077	-0.112	0.489
931.500	545.879	80.006	19.993	103.795	20.077	-0.110	0.477
932.000	546.166	80.006	19.992	103.786	20.079	-0.277	0.495
932.500	546.378	80.005	19.995	103.758	20.077	-0.076	0.512
933.000	546.648	80.006	19.993	103.745	20.078	-0.164	0.491
933.500	546.901	80.006	19.994	103.740	20.079	-0.229	0.502
934.000	547.172	80.006	19.993	103.739	20.081	-0.422	0.523
934.500	547.418	80.006	19.993	103.748	20.081	-0.430	0.521
935.000	547.654	80.005	19.993	103.791	20.080	-0.313	0.500
935.500	547.892	80.007	19.993	103.842	20.080	-0.344	0.478
936.000	548.177	80.008	19.993	103.859	20.078	-0.138	0.498
936.500	548.462	80.007	19.992	103.861	20.082	-0.467	0.546
937.000	548.674	80.008	19.992	103.860	20.079	-0.251	0.534
937.500	548.918	80.006	19.993	103.845	20.076	-0.013	0.477
938.000	549.180	80.007	19.993	103.808	20.079	-0.244	0.481
938.500	549.438	80.007	19.993	103.797	20.080	-0.301	0.513
939.000	549.691	80.009	19.993	103.795	20.081	-0.437	0.516
939.500	549.977	80.008	19.993	103.795	20.081	-0.378	0.525
940.000	550.225	80.007	19.993	103.795	20.080	-0.350	0.536
940.500	550.467	80.007	19.993	103.796	20.080	-0.346	0.511
941.000	550.693	80.007	19.994	103.796	20.083	-0.530	0.478
941.500	551.007	80.008	19.993	103.794	20.078	-0.160	0.504
942.000	551.211	80.007	19.993	103.794	20.076	-0.006	0.529
942.500	551.465	80.007	19.993	103.794	20.078	-0.164	0.488
943.000	551.713	80.008	19.993	103.793	20.074	0.134	0.480
943.500	551.931	80.007	19.993	103.792	20.078	-0.143	0.484
944.000	552.214	80.007	19.994	103.792	20.077	-0.123	0.483
944.500	552.476	80.008	19.993	103.793	20.078	-0.188	0.523
945.000	552.723	80.007	19.992	103.790	20.080	-0.335	0.527
945.500	552.967	80.006	19.995	103.790	20.077	-0.063	0.500
946.000	553.215	80.007	19.993	103.790	20.077	-0.065	0.492
946.500	553.441	80.007	19.995	103.790	20.080	-0.318	0.483
947.000	553.721	80.006	19.993	103.789	20.079	-0.233	0.490
947.500	554.003	80.007	19.993	103.791	20.077	-0.099	0.534
948.000	554.220	80.006	19.993	103.792	20.080	-0.324	0.530
948.500	554.508	80.005	19.994	103.793	20.080	-0.322	0.502
949.000	554.733	80.005	19.993	103.794	20.079	-0.218	0.509
949.500	554.996	80.004	19.994	103.794	20.082	-0.469	0.501
950.000	555.260	80.005	19.994	103.794	20.083	-0.556	0.508
950.500	555.508	80.006	19.993	103.794	20.078	-0.190	0.520
951.000	555.769	80.006	19.993	103.795	20.078	-0.179	0.510
951.500	556.026	80.005	19.993	103.795	20.081	-0.385	0.513
952.000	556.288	80.004	19.993	103.795	20.080	-0.337	0.519
952.500	556.502	80.005	19.994	103.796	20.079	-0.272	0.498
953.000	556.743	80.006	19.993	103.795	20.080	-0.339	0.466
953.500	557.052	80.006	19.994	103.794	20.078	-0.156	0.503
954.000	557.277	80.004	19.994	103.794	20.078	-0.171	0.542
954.500	557.513	80.005	19.993	103.794	20.079	-0.221	0.497
955.000	557.766	80.005	19.993	103.794	20.079	-0.221	0.474
955.500	557.987	80.005	19.994	103.794	20.080	-0.301	0.481
956.000	558.247	80.005	19.994	103.796	20.079	-0.218	0.478
956.500	558.484	80.005	19.994	103.796	20.080	-0.350	0.489
957.000	558.748	80.005	19.993	103.796	20.078	-0.145	0.499
957.500	559.059	80.005	19.994	103.796	20.077	-0.091	0.538
958.000	559.266	80.005	19.993	103.797	20.079	-0.268	0.547
958.500	559.535	80.005	19.992	103.797	20.079	-0.246	0.497
959.000	559.792	80.006	19.992	103.797	20.081	-0.419	0.501
959.500	560.025	80.005	19.993	103.797	20.079	-0.225	0.508
960.000	560.282	80.006	19.992	103.797	20.080	-0.320	0.490
960.500	560.544	80.006	19.994	103.797	20.079	-0.266	0.504
961.000	560.834	80.006	19.993	103.796	20.081	-0.441	0.535
961.500	561.043	80.006	19.993	103.795	20.083	-0.575	0.526
962.000	561.340	80.005	19.994	103.795	20.079	-0.238	0.503
962.500	561.519	80.005	19.993	103.794	20.081	-0.426	0.491
963.000	561.824	80.005	19.993	103.794	20.078	-0.192	0.480
963.500	562.047	80.005	19.994	103.793	20.076	-0.013	0.506
964.000	562.334	80.005	19.993	103.793	20.083	-0.592	0.519
964.500	562.559	80.006	19.994	103.793	20.080	-0.335	0.511
965.000	562.821	80.006	19.994	103.793	20.081	-0.368	0.500
965.500	563.048	80.006	19.993	103.793	20.081	-0.422	0.488
966.000	563.317	80.007	19.994	103.793	20.081	-0.443	0.492
966.500	563.551	80.006	19.994	103.794	20.082	-0.499	0.499
967.000	563.800	80.006	19.994	103.794	20.080	-0.333	0.493
967.500	564.080	80.006	19.993	103.794	20.081	-0.376	0.506
968.000	564.302	80.005	19.994	103.794	20.082	-0.480	0.516
968.500	564.600	80.006	19.993	103.794	20.083	-0.586	0.511
969.000	564.775	80.006	19.992	103.793	20.083	-0.541	0.497
969.500	565.064	80.006	19.994	103.793	20.082	-0.460	0.468
970.000	565.330	80.004	19.993	103.792	20.080	-0.303	0.509
970.500	565.513	80.006	19.994	103.792	20.083	-0.569	0.502
971.000	565.767	80.006	19.993	103.792	20.081	-0.437	0.443
971.500	566.025	80.005	19.994	103.792	20.080	-0.333	0.475
972.000	566.326	80.005	19.993	103.792	20.086	-0.763	0.536
972.500	566.537	80.006	19.993	103.793	20.085	-0.692	0.536
973.000	566.746	80.006	19.994	103.792	20.081	-0.383	0.466
973.500	567.007	80.006	19.994	103.792	20.083	-0.586	0.445
974.000	567.263	80.005	19.993	103.792	20.093	-1.349	0.493
974.500	567.515	80.006	19.994	103.791	20.082	-0.504	0.512
975.000	567.852	80.006	19.995	103.792	20.074	0.134	0.549
975.500	568.022	80.005	19.993	103.791	20.073	0.195	0.548
976.000	568.280	80.005	19.994	103.791	20.086	-0.798	0.467
976.500	568.548	80.005	19.994	103.791	20.081	-0.413	0.477
977.000	568.742	80.007	19.994	103.791	20.083	-0.595	0.494
977.500	569.004	80.005	19.993	103.793	20.083	-0.527	0.459
978.000	569.254	80.005	19.994	103.799	20.080	-0.363	0.484
978.500	569.615	80.004	19.995	103.802	20.089	-1.070	0.561
979.000	569.813	80.004	19.993	103.802	20.084	-0.675	0.585
979.500	570.028	80.005	19.994	103.803	20.084	-0.605	0.486
980.000	570.254	80.005	19.994	103.801	20.081	-0.385	0.427
980.500	570.496	80.005	19.994	103.795	20.083	-0.543	0.455
981.000	570.781	80.004	19.994	103.794	20.083	-0.569	0.497
981.500	570.979	80.004	19.993	103.794	20.083	-0.579	0.505
982.000	571.399	80.005	19.994	103.796	20.083	-0.543	0.551
982.500	571.531	80.005	19.994	103.797	20.081	-0.374	0.585
983.000	571.701	80.005	19.994	103.797	20.080	-0.309	0.427
983.500	572.076	80.004	19.993	103.797	20.081	-0.400	0.423
984.000	572.158	80.004	19.995	103.798	20.080	-0.320	0.502
984.500	572.530	80.004	19.994	103.798	20.083	-0.573	0.456
985.000	572.822	80.004	19.994	103.797	20.081	-0.389	0.559
985.500	572.774	80.004	19.993	103.798	20.081	-0.413	0.454
986.000	573.522	80.006	19.994	103.797	20.081	-0.385	0.472
986.500	573.903	80.007	19.994	103.796	20.081	-0.387	0.914
987.000	573.417	80.004	19.994	103.794	20.078	-0.173	0.512
987.500	574.641	80.005	19.995	103.793	20.080	-0.344	0.317
988.000	574.968	80.005	19.993	103.793	20.081	-0.400	1.145
988.500	574.216	80.004	19.994	103.792	20.082	-0.471	0.563
989.000	574.372	80.004	19.994	103.793	20.084	-0.610	-0.511
989.500	574.979	80.008	19.992	103.796	20.082	-0.504	0.084
990.000	575.170	80.005	19.994	103.797	20.082	-0.467	0.780
990.500	576.101	80.005	19.994	103.796	20.080	-0.290	0.960
991.000	575.773	80.005	19.992	103.798	20.081	-0.437	0.863
991.500	576.257	80.005	19.994	103.797	20.080	-0.331	0.379
992.000	576.519	80.004	19.991	103.795	20.081	-0.370	0.451
992.500	576.690	80.005	19.995	103.797	20.081	-0.406	0.590
993.000	576.961	80.006	19.995	103.803	20.081	-0.409	0.438
993.500	577.152	80.005	19.994	103.808	20.080	-0.365	0.452
994.000	577.502	80.007	19.995	103.808	20.080	-0.290	0.502
994.500	577.787	80.006	19.994	103.815	20.081	-0.398	0.588
995.000	578.057	80.006	19.994	103.819	20.082	-0.510	0.595
995.500	578.272	80.006	19.995	103.822	20.081	-0.424	0.520
996.000	578.654	80.005	19.995	103.820	20.078	-0.151	0.541
996.500	578.778	80.006	19.994	103.821	20.080	-0.359	0.551
997.000	579.121	80.007	19.994	103.813	20.084	-0.677	0.487
997.500	579.254	80.006	19.994	103.806	20.080	-0.301	0.472
998.000	579.587	80.007	19.994	103.800	20.080	-0.348	0.471
998.500	579.896	80.006	19.993	103.796	20.080	-0.301	0.554
999.000	580.151	80.008	19.993	103.795	20.084	-0.612	0.603
999.500	580.352	80.005	19.994	103.795	20.082	-0.508	0.510
1000.000	580.683	80.005	19.994	103.796	20.082	-0.502	0.494
1000.500	580.935	80.007	19.994	103.795	20.080	-0.320	0.558
1001.000	581.173	80.006	19.994	103.796	20.083	-0.545	0.537
1001.500	581.492	80.006	19.995	103.796	20.083	-0.571	0.523
1002.000	581.785	80.006	19.994	103.796	20.082	-0.471	0.584
1002.500	582.014	80.007	19.994	103.798	20.079	-0.268	0.567
1003.000	582.282	80.007	19.994	103.805	20.081	-0.435	0.509
1003.500	582.506	80.007	19.995	103.808	20.082	-0.469	0.494
1004.000	582.806	80.006	19.994	103.810	20.081	-0.432	0.508
1004.500	583.096	80.005	19.994	103.810	20.081	-0.393	0.557
1005.000	583.285	80.005	19.993	103.809	20.079	-0.283	0.535
1005.500	583.626	80.004	19.994	103.802	20.077	-0.084	0.504
1006.000	583.889	80.005	19.994	103.798	20.078	-0.201	0.567
1006.500	584.093	80.005	19.994	103.795	20.078	-0.154	0.536
1007.000	584.385	80.005	19.994	103.795	20.079	-0.216	0.481
1007.500	584.641	80.005	19.995	103.794	20.078	-0.203	0.522
1008.000	584.951	80.005	19.994	103.797	20.080	-0.311	0.557
1008.500	585.186	80.004	19.995	103.800	20.079	-0.253	0.555
1009.000	585.482	80.005	19.994	103.802	20.078	-0.171	0.538
1009.500	585.729	80.005	19.994	103.802	20.080	-0.322	0.537
1010.000	585.937	80.002	19.995	103.802	20.080	-0.355	0.500
1010.500	586.266	80.005	19.994	103.799	20.081	-0.441	0.496
1011.000	586.539	80.005	19.993	103.798	20.080	-0.322	0.569
1011.500	586.799	80.005	19.994	103.797	20.080	-0.322	0.567
1012.000	587.092	80.004	19.993	103.796	20.080	-0.318	0.543
1012.500	587.267	80.003	19.995	103.796	20.080	-0.335	0.511
1013.000	587.637	80.005	19.995	103.796	20.080	-0.333	0.507
1013.500	587.841	80.006	19.994	103.795	20.077	-0.108	0.560
1014.000	588.137	80.006	19.993	103.795	20.081	-0.396	0.537
1014.500	588.436	80.006	19.994	103.797	20.081	-0.406	0.547
1015.000	588.712	80.005	19.995	103.798	20.081	-0.437	0.585
1015.500	588.987	80.004	19.993	103.800	20.081	-0.387	0.563
1016.000	589.253	80.005	19.993	103.800	20.081	-0.393	0.546
1016.500	589.468	80.006	19.993	103.801	20.079	-0.259	0.511
1017.000	589.763	80.006	19.993	103.800	20.081	-0.372	0.495
1017.500	590.064	80.007	19.993	103.799	20.078	-0.210	0.553
1018.000	590.341	80.006	19.994	103.797	20.081	-0.407	0.587
1018.500	590.559	80.005	19.992	103.797	20.082	-0.482	0.537
1019.000	590.831	80.006	19.992	103.796	20.080	-0.348	0.493
1019.500	591.060	80.007	19.992	103.796	20.079	-0.225	0.496
1020.000	591.305	80.007	19.993	103.796	20.081	-0.391	0.487
1020.500	591.615	80.007	19.993	103.798	20.081	-0.411	0.514
1021.000	591.870	80.007	19.992	103.798	20.078	-0.166	0.560
1021.500	592.189	80.006	19.993	103.798	20.081	-0.389	0.570
1022.000	592.417	80.007	19.993	103.797	20.079	-0.257	0.560
1022.500	592.677	80.007	19.994	103.797	20.077	-0.106	0.517
1023.000	592.985	80.007	19.993	103.796	20.081	-0.402	0.528
1023.500	593.258	80.007	19.992	103.796	20.079	-0.246	0.575
1024.000	593.532	80.007	19.993	103.796	20.081	-0.389	0.564
1024.499	593.796	80.008	19.992	103.795	20.081	-0.374	0.543
1024.999	594.029	80.006	19.993	103.797	20.081	-0.383	0.518
1025.500	594.362	80.008	19.993	103.798	20.081	-0.432	0.531
1026.000	594.561	80.008	19.993	103.797	20.081	-0.389	0.549
1026.499	594.847	80.006	19.992	103.797	20.079	-0.283	0.509
1026.999	595.144	80.007	19.994	103.797	20.077	-0.095	0.534
1027.499	595.404	80.006	19.994	103.796	20.081	-0.391	0.570
1027.999	595.666	80.007	19.993	103.797	20.080	-0.335	0.539
1028.499	595.959	80.007	19.992	103.805	20.083	-0.532	0.538
1028.999	596.198	80.007	19.993	103.812	20.078	-0.208	0.544
1029.499	596.468	80.007	19.994	103.814	20.077	-0.080	0.520
1029.999	596.732	80.006	19.993	103.816	20.077	-0.091	0.521
1030.499	597.019	80.007	19.994	103.816	20.080	-0.326	0.543
1031.000	597.292	80.007	19.993	103.809	20.078	-0.169	0.555
1031.500	597.538	80.005	19.993	103.802	20.078	-0.182	0.539
1031.999	597.806	80.006	19.994	103.800	20.080	-0.305	0.517
1032.499	598.088	80.006	19.994	103.798	20.079	-0.285	0.532
1032.999	598.333	80.005	19.993	103.797	20.081	-0.435	0.538
1033.499	598.600	80.006	19.993	103.796	20.084	-0.607	0.520
1033.999	598.879	80.005	19.993	103.796	20.083	-0.556	0.529
1034.499	599.138	80.004	19.994	103.796	20.079	-0.229	0.542
1035.000	599.373	80.005	19.993	103.795	20.081	-0.396	0.516
1035.501	599.661	80.006	19.994	103.795	20.080	-0.296	0.508
1036.000	599.908	80.005	19.993	103.795	20.080	-0.352	0.529
1036.499	600.184	80.004	19.992	103.795	20.078	-0.190	0.529
1036.999	600.435	80.005	19.993	103.794	20.081	-0.372	0.525
1037.499	600.690	80.004	19.993	103.795	20.081	-0.419	0.516
1037.999	600.973	80.004	19.994	103.794	20.079	-0.270	0.522
1038.499	601.209	80.005	19.993	103.795	20.081	-0.419	0.529
1038.999	601.495	80.003	19.993	103.794	20.077	-0.119	0.521
1039.499	601.710	80.005	19.993	103.796	20.078	-0.143	0.511
1039.999	602.022	80.005	19.994	103.795	20.079	-0.218	0.514
1040.499	602.260	80.006	19.994	103.795	20.081	-0.424	0.539
1040.999	602.533	80.005	19.993	103.797	20.080	-0.359	0.530
1041.499	602.755	80.006	19.995	103.799	20.080	-0.333	0.503
1041.999	603.045	80.003	19.994	103.801	20.081	-0.406	0.504
1042.499	603.299	80.007	19.994	103.801	20.081	-0.406	0.528
1042.999	603.548	80.005	19.994	103.800	20.079	-0.246	0.523
1043.499	603.808	80.005	19.994	103.798	20.077	-0.076	0.506
1043.999	604.065	80.005	19.995	103.796	20.077	-0.099	0.513
1044.499	604.274	80.006	19.993	103.792	20.078	-0.158	0.492
1044.999	604.547	80.005	19.994	103.792	20.077	-0.067	0.474
1045.499	604.824	80.005	19.994	103.793	20.078	-0.201	0.516
1045.999	605.031	80.006	19.995	103.794	20.078	-0.153	0.516
1046.499	605.312	80.004	19.993	103.794	20.079	-0.246	0.486
1046.999	605.566	80.006	19.993	103.795	20.078	-0.141	0.512
1047.499	605.845	80.005	19.994	103.795	20.081	-0.372	0.534
1048.000	606.059	80.005	19.995	103.795	20.078	-0.145	0.513
1048.500	606.363	80.006	19.993	103.794	20.078	-0.199	0.506
1048.999	606.578	80.006	19.993	103.794	20.080	-0.342	0.519
1049.499	606.830	80.007	19.994	103.793	20.079	-0.253	0.493
1049.999	607.056	80.006	19.995	103.793	20.081	-0.387	0.472
1050.499	607.299	80.006	19.993	103.793	20.078	-0.143	0.474
1051.000	607.561	80.007	19.994	103.794	20.079	-0.240	0.488
1051.500	607.804	80.006	19.994	103.794	20.079	-0.238	0.505
1051.999	608.045	80.005	19.993	103.794	20.081	-0.406	0.494
1052.499	608.315	80.006	19.995	103.795	20.078	-0.205	0.497
1052.999	608.544	80.007	19.994	103.798	20.079	-0.227	0.505
1053.500	608.778	80.006	19.994	103.799	20.080	-0.333	0.481
1054.000	609.058	80.006	19.994	103.799	20.079	-0.233	0.488
1054.499	609.275	80.005	19.993	103.799	20.081	-0.437	0.505
1054.999	609.536	80.007	19.994	103.798	20.081	-0.376	0.488
1055.499	609.797	80.007	19.994	103.795	20.081	-0.415	0.501
1055.999	610.024	80.006	19.994	103.794	20.077	-0.123	0.505
1056.499	610.287	80.005	19.993	103.794	20.080	-0.344	0.489
1057.000	610.462	80.004	19.994	103.794	20.081	-0.374	0.464
1057.500	610.714	80.005	19.994	103.794	20.081	-0.404	0.432
1057.999	610.948	80.005	19.993	103.794	20.081	-0.376	0.457
1058.499	611.184	80.005	19.994	103.794	20.080	-0.359	0.478
1058.999	611.424	80.004	19.994	103.793	20.083	-0.575	0.473
1059.499	611.663	80.005	19.993	103.793	20.078	-0.169	0.477
1060.000	611.899	80.005	19.994	103.793	20.081	-0.374	0.477
1060.500	612.160	80.004	19.993	103.794	20.079	-0.242	0.486
1060.999	612.388	80.005	19.993	103.794	20.079	-0.214	0.493
1061.499	612.651	80.005	19.994	103.796	20.080	-0.331	0.490
1061.999	612.872	80.006	19.993	103.800	20.079	-0.257	0.488
1062.499	613.123	80.004	19.995	103.800	20.077	-0.117	0.478
1062.999	613.351	80.005	19.993	103.801	20.083	-0.584	0.475
1063.499	613.595	80.005	19.994	103.800	20.081	-0.376	0.475
1063.999	613.855	80.004	19.992	103.798	20.078	-0.199	0.488
1064.499	614.047	80.004	19.994	103.796	20.078	-0.210	0.478
1064.999	614.290	80.005	19.994	103.796	20.080	-0.309	0.444
1065.499	614.550	80.004	19.994	103.796	20.081	-0.404	0.469
1065.999	614.760	80.005	19.994	103.797	20.082	-0.497	0.486
1066.500	615.036	80.005	19.994	103.798	20.082	-0.465	0.478
1067.001	615.266	80.005	19.994	103.798	20.081	-0.391	0.496
1067.500	615.516	80.005	19.993	103.797	20.084	-0.638	0.493
1067.999	615.766	80.003	19.993	103.797	20.080	-0.292	0.490
1068.499	616.004	80.004	19.994	103.797	20.076	-0.024	0.494
1068.999	616.268	80.004	19.994	103.797	20.080	-0.350	0.495
1069.499	616.472	80.004	19.994	103.797	20.082	-0.517	0.485
1069.999	616.734	80.004	19.994	103.798	20.082	-0.484	0.467
1070.499	616.995	80.005	19.994	103.799	20.082	-0.465	0.494
1070.999	617.255	80.004	19.994	103.799	20.083	-0.577	0.522
1071.499	617.487	80.004	19.994	103.801	20.084	-0.603	0.506
1071.999	617.726	80.007	19.994	103.801	20.080	-0.342	0.481
1072.499	617.986	80.006	19.995	103.801	20.080	-0.305	0.485
1072.999	618.220	80.005	19.994	103.803	20.081	-0.445	0.497
1073.499	618.500	80.004	19.994	103.804	20.079	-0.229	0.504
1073.999	618.716	80.005	19.993	103.805	20.080	-0.298	0.505
1074.500	618.943	80.005	19.994	103.808	20.082	-0.484	0.469
1075.000	619.209	80.005	19.994	103.806	20.082	-0.452	0.468
1075.499	619.473	80.006	19.994	103.806	20.080	-0.335	0.512
1075.999	619.712	80.006	19.994	103.807	20.080	-0.303	0.516
1076.499	619.941	80.006	19.994	103.805	20.081	-0.435	0.486
1076.999	620.217	80.005	19.994	103.806	20.081	-0.419	0.487
1077.500	620.485	80.006	19.994	103.807	20.077	-0.125	0.525
1078.001	620.772	80.005	19.994	103.808	20.078	-0.171	0.549
1078.500	620.995	80.006	19.993	103.807	20.080	-0.348	0.533
1078.999	621.245	80.006	19.993	103.806	20.080	-0.322	0.492
1079.499	621.529	80.005	19.993	103.801	20.080	-0.307	0.503
1079.999	621.755	80.006	19.993	103.803	20.078	-0.151	0.522
1080.499	622.016	80.006	19.994	103.807	20.078	-0.171	0.498
1080.999	622.284	80.006	19.994	103.810	20.078	-0.158	0.508
1081.499	622.562	80.006	19.994	103.815	20.079	-0.234	0.538
1081.999	622.819	80.006	19.994	103.821	20.079	-0.270	0.540
1082.499	623.049	80.006	19.994	103.825	20.077	-0.106	0.511
1082.999	623.298	80.006	19.993	103.820	20.076	-0.043	0.483
1083.499	623.576	80.006	19.993	103.815	20.078	-0.184	0.504
1083.999	623.870	80.007	19.993	103.810	20.080	-0.322	0.550
1084.499	624.131	80.005	19.993	103.805	20.079	-0.216	0.563
1084.999	624.349	80.006	19.993	103.799	20.080	-0.305	0.517
1085.499	624.672	80.005	19.993	103.798	20.079	-0.240	0.510
1085.999	624.902	80.006	19.994	103.799	20.081	-0.419	0.547
1086.500	625.133	80.006	19.993	103.799	20.075	0.078	0.507
1087.001	625.398	80.007	19.993	103.800	20.079	-0.223	0.479
1087.500	625.677	80.006	19.994	103.800	20.078	-0.205	0.520
1087.999	625.928	80.006	19.994	103.801	20.077	-0.093	0.537
1088.499	626.196	80.006	19.993	103.801	20.079	-0.214	0.525
1088.999	626.457	80.005	19.993	103.801	20.077	-0.121	0.523
1089.499	626.712	80.006	19.994	103.799	20.077	-0.102	0.523
1089.999	626.994	80.006	19.993	103.802	20.077	-0.117	0.527
1090.499	627.290	80.007	19.994	103.807	20.077	-0.106	0.557
1090.999	627.560	80.006	19.995	103.814	20.075	0.086	0.572
1091.499	627.801	80.006	19.994	103.817	20.078	-0.156	0.539
1091.999	628.049	80.006	19.993	103.823	20.076	-0.022	0.500
1092.499	628.362	80.006	19.994	103.825	20.076	0.015	0.525
1092.999	628.581	80.006	19.993	103.822	20.082	-0.450	0.547
1093.499	628.842	80.005	19.994	103.815	20.079	-0.285	0.506
1093.999	629.116	80.006	19.993	103.812	20.076	-0.041	0.508
1094.500	629.394	80.006	19.994	103.806	20.079	-0.259	0.543
1095.000	629.642	80.006	19.994	103.799	20.076	-0.004	0.538
1095.500	629.916	80.005	19.994	103.795	20.075	0.082	0.524
1096.001	630.171	80.005	19.995	103.794	20.076	-0.041	0.526
1096.500	630.416	80.005	19.994	103.799	20.074	0.158	0.515
1097.000	630.717	80.006	19.994	103.801	20.078	-0.143	0.523
1097.501	630.952	80.006	19.994	103.803	20.077	-0.061	0.541
1098.000	631.245	80.006	19.994	103.803	20.079	-0.244	0.532
1098.499	631.483	80.006	19.995	103.803	20.075	0.056	0.530
1098.999	631.761	80.006	19.995	103.798	20.076	-0.006	0.523
1099.499	632.031	80.007	19.994	103.795	20.078	-0.184	0.532
1099.999	632.306	80.006	19.995	103.793	20.076	0.013	0.546
1100.499	632.573	80.007	19.994	103.796	20.077	-0.099	0.544
1100.999	632.828	80.007	19.994	103.800	20.076	0.013	0.532
1101.499	633.084	80.007	19.993	103.804	20.075	0.039	0.517
1101.999	633.361	80.006	19.995	103.811	20.077	-0.091	0.522
1102.499	633.647	80.006	19.993	103.818	20.078	-0.205	0.548
1102.999	633.895	80.007	19.994	103.823	20.075	0.065	0.549
1103.499	634.183	80.005	19.995	103.825	20.075	0.069	0.535
1103.999	634.462	80.006	19.995	103.824	20.076	0.011	0.551
1104.500	634.711	80.007	19.993	103.818	20.080	-0.326	0.548
1105.001	634.994	80.007	19.995	103.813	20.079	-0.240	0.530
1105.500	635.276	80.007	19.994	103.811	20.077	-0.097	0.548
1105.999	635.540	80.007	19.994	103.807	20.073	0.190	0.555
1106.499	635.776	80.007	19.993	103.805	20.076	0.006	0.523
1106.999	636.066	80.007	19.993	103.803	20.076	-0.048	0.513
1107.499	636.325	80.007	19.994	103.801	20.075	0.078	0.538
1107.999	636.588	80.006	19.994	103.795	20.077	-0.082	0.535
1108.499	636.864	80.008	19.993	103.793	20.077	-0.121	0.530
1108.999	637.126	80.006	19.993	103.791	20.081	-0.372	0.539
1109.499	637.365	80.007	19.994	103.791	20.075	0.043	0.520
1109.999	637.644	80.006	19.993	103.791	20.075	0.089	0.509
1110.499	637.902	80.007	19.993	103.794	20.077	-0.086	0.527
1110.999	638.174	80.008	19.994	103.799	20.078	-0.138	0.534
1111.499	638.423	80.007	19.994	103.801	20.078	-0.192	0.526
1111.999	638.678	80.006	19.994	103.802	20.076	-0.024	0.513
1112.500	638.955	80.007	19.996	103.802	20.075	0.065	0.518
1113.000	639.211	80.007	19.996	103.800	20.074	0.166	0.532
1113.499	639.464	80.005	19.994	103.799	20.078	-0.199	0.520
1113.999	639.689	80.006	19.995	103.798	20.073	0.242	0.493
1114.499	639.959	80.006	19.994	103.799	20.076	-0.013	0.487
1114.999	640.225	80.005	19.994	103.803	20.076	0.004	0.516
1115.499	640.509	80.005	19.994	103.803	20.074	0.177	0.543
1115.999	640.728	80.005	19.993	103.802	20.073	0.208	0.527
1116.499	641.040	80.006	19.993	103.800	20.080	-0.296	0.517
1116.999	641.259	80.006	19.993	103.801	20.077	-0.095	0.531
1117.499	641.483	80.006	19.993	103.798	20.076	-0.041	0.487
1117.999	641.768	80.006	19.993	103.801	20.078	-0.171	0.476
1118.499	642.029	80.006	19.994	103.806	20.080	-0.333	0.528
1118.999	642.306	80.006	19.993	103.808	20.079	-0.229	0.542
1119.499	642.537	80.005	19.993	103.810	20.079	-0.272	0.523
1119.999	642.769	80.005	19.993	103.813	20.079	-0.223	0.485
1120.499	643.081	80.005	19.993	103.809	20.079	-0.249	0.503
1121.000	643.300	80.005	19.993	103.803	20.079	-0.231	0.538
1121.500	643.532	80.006	19.994	103.800	20.078	-0.205	0.491
1121.999	643.817	80.005	19.994	103.798	20.077	-0.093	0.484
1122.499	644.075	80.005	19.993	103.795	20.080	-0.294	0.530
1122.999	644.298	80.006	19.994	103.794	20.079	-0.223	0.512
1123.500	644.544	80.005	19.994	103.796	20.081	-0.417	0.475
1124.000	644.805	80.006	19.992	103.801	20.081	-0.387	0.488
1124.499	645.084	80.005	19.993	103.807	20.078	-0.156	0.523
1124.999	645.294	80.006	19.993	103.811	20.076	-0.032	0.515
1125.499	645.554	80.005	19.993	103.818	20.077	-0.091	0.480
1125.999	645.789	80.005	19.993	103.816	20.079	-0.225	0.483
1126.499	646.046	80.005	19.993	103.811	20.078	-0.154	0.493
1126.999	646.300	80.006	19.994	103.807	20.080	-0.296	0.501
1127.499	646.554	80.005	19.994	103.805	20.076	0.002	0.509
1128.000	646.812	80.005	19.993	103.804	20.077	-0.123	0.510
1128.500	647.035	80.005	19.994	103.811	20.079	-0.225	0.497
1128.999	647.289	80.005	19.994	103.818	20.077	-0.091	0.479
1129.499	647.566	80.006	19.994	103.825	20.077	-0.080	0.503
1129.999	647.787	80.005	19.992	103.831	20.079	-0.234	0.514
1130.499	648.032	80.005	19.993	103.830	20.078	-0.151	0.482
1130.999	648.280	80.005	19.994	103.824	20.081	-0.415	0.480
1131.500	648.556	80.006	19.993	103.818	20.080	-0.309	0.509
1132.000	648.815	80.006	19.993	103.811	20.078	-0.210	0.529
1132.499	649.046	80.004	19.994	103.807	20.078	-0.145	0.513
1132.999	649.344	80.005	19.994	103.805	20.077	-0.063	0.510
1133.499	649.589	80.005	19.993	103.805	20.075	0.078	0.536
1134.000	649.845	80.005	19.993	103.807	20.077	-0.063	0.522
1134.500	650.099	80.005	19.994	103.808	20.075	0.026	0.506
1134.999	650.349	80.005	19.994	103.804	20.076	0.000	0.507
1135.499	650.622	80.005	19.994	103.804	20.077	-0.076	0.513
1135.999	650.844	80.006	19.994	103.807	20.075	0.030	0.509
1136.499	651.102	80.005	19.994	103.812	20.076	-0.013	0.487
1136.999	651.373	80.005	19.995	103.817	20.076	-0.045	0.504
1137.499	651.591	80.005	19.994	103.826	20.072	0.279	0.509
1137.999	651.828	80.006	19.994	103.827	20.077	-0.119	0.472
1138.499	652.096	80.005	19.994	103.825	20.074	0.160	0.480
1138.999	652.344	80.005	19.994	103.824	20.077	-0.119	0.510
1139.499	652.588	80.004	19.994	103.825	20.075	0.069	0.504
1139.999	652.841	80.004	19.994	103.821	20.078	-0.175	0.495
1140.499	653.090	80.004	19.994	103.819	20.077	-0.084	0.499
1140.999	653.353	80.005	19.993	103.819	20.077	-0.058	0.506
1141.499	653.605	80.005	19.994	103.819	20.076	0.013	0.513
1141.999	653.852	80.004	19.995	103.818	20.077	-0.110	0.507
1142.499	654.111	80.004	19.992	103.818	20.075	0.054	0.503
1142.999	654.415	80.005	19.993	103.819	20.077	-0.087	0.534
1143.499	654.640	80.006	19.994	103.820	20.077	-0.078	0.546
1143.999	654.876	80.005	19.993	103.820	20.078	-0.205	0.495
1144.500	655.163	80.005	19.993	103.816	20.075	0.045	0.492
1145.000	655.377	80.004	19.993	103.813	20.076	-0.050	0.512
1145.500	655.640	80.005	19.993	103.812	20.077	-0.093	0.489
1146.000	655.895	80.004	19.993	103.809	20.074	0.136	0.497
1146.499	656.166	80.004	19.993	103.803	20.078	-0.169	0.522
1146.999	656.433	80.005	19.993	103.802	20.077	-0.058	0.532
1147.499	656.633	80.004	19.995	103.808	20.080	-0.363	0.503
1147.999	656.903	80.004	19.993	103.812	20.074	0.154	0.468
1148.499	657.148	80.004	19.995	103.817	20.079	-0.225	0.493
1148.999	657.393	80.005	19.993	103.823	20.077	-0.058	0.503
1149.500	657.671	80.005	19.993	103.825	20.079	-0.275	0.506
1150.000	657.945	80.006	19.993	103.824	20.077	-0.095	0.537
1150.500	658.159	80.004	19.993	103.826	20.078	-0.182	0.520
1151.000	658.435	80.005	19.993	103.826	20.078	-0.143	0.489
1151.499	658.709	80.005	19.993	103.826	20.076	-0.026	0.520
1151.999	658.964	80.005	19.993	103.830	20.077	-0.054	0.540
1152.499	659.204	80.005	19.993	103.829	20.079	-0.272	0.512
1152.999	659.467	80.005	19.993	103.829	20.079	-0.279	0.499
1153.499	659.737	80.005	19.992	103.830	20.074	0.166	0.518
1153.999	659.976	80.006	19.994	103.826	20.072	0.272	0.521
1154.499	660.237	80.006	19.993	103.819	20.080	-0.337	0.504
1154.999	660.460	80.005	19.993	103.815	20.075	0.037	0.492
1155.499	660.744	80.006	19.994	103.808	20.066	0.781	0.495
1155.999	660.996	80.006	19.993	103.805	20.083	-0.538	0.522
1156.499	661.248	80.007	19.994	103.804	20.077	-0.082	0.520
1156.999	661.531	80.007	19.993	103.808	20.075	0.067	0.520
1157.499	661.792	80.008	19.993	103.814	20.074	0.117	0.540
1157.999	661.985	80.006	19.993	103.819	20.071	0.344	0.499
1158.499	662.260	80.006	19.994	103.818	20.063	0.975	0.461
1158.999	662.529	80.007	19.993	103.817	20.077	-0.110	0.506
1159.500	662.765	80.006	19.993	103.813	20.076	-0.035	0.524
1160.001	663.048	80.007	19.994	103.812	20.079	-0.218	0.512
1160.500	663.271	80.006	19.994	103.810	20.077	-0.130	0.513
1161.000	663.552	80.007	19.993	103.810	20.081	-0.432	0.505
1161.501	663.779	80.007	19.993	103.813	20.072	0.305	0.506
1162.000	664.027	80.007	19.994	103.812	20.074	0.171	0.492
1162.499	664.336	80.007	19.995	103.807	20.079	-0.264	0.516
1162.999	664.557	80.007	19.994	103.806	20.077	-0.082	0.543
1163.499	664.808	80.007	19.992	103.804	20.076	-0.035	0.501
1164.000	665.016	80.007	19.995	103.801	20.062	1.086	0.466
1164.500	665.358	80.007	19.994	103.801	20.079	-0.251	0.505
1164.999	665.572	80.007	19.994	103.801	20.070	0.428	0.553
1165.499	665.811	80.005	19.994	103.803	20.076	-0.004	0.505
1166.000	666.058	80.006	19.995	103.810	20.077	-0.119	0.469
1166.501	666.385	80.006	19.993	103.815	20.075	0.102	0.530
1167.000	666.699	80.007	19.994	103.816	20.075	0.091	0.608
1167.499	666.649	80.006	19.994	103.819	20.077	-0.104	0.452
1167.999	667.004	80.006	19.993	103.818	20.074	0.117	0.284
1168.499	667.511	80.005	19.993	103.817	20.074	0.110	0.584
1168.999	667.594	80.007	19.995	103.817	20.078	-0.151	0.726
1169.499	667.192	80.007	19.993	103.821	20.075	0.084	0.136
1169.999	668.177	80.005	19.994	103.825	20.074	0.171	0.132
1170.499	669.031	80.007	19.994	103.824	20.073	0.210	1.211
1170.999	668.681	80.006	19.995	103.821	20.076	-0.022	1.172
1171.500	668.860	80.007	19.994	103.817	20.075	0.045	0.167
1172.001	668.803	80.005	19.993	103.814	20.075	0.043	-0.024
1172.500	669.127	80.007	19.996	103.814	20.075	0.089	0.194
1173.000	669.701	80.005	19.995	103.816	20.074	0.104	0.583
1173.500	669.867	80.006	19.996	103.821	20.077	-0.106	0.819
1174.000	670.166	80.007	19.994	103.827	20.076	0.022	0.602
1174.500	670.346	80.005	19.996	103.830	20.075	0.037	0.472
1174.999	670.837	80.007	19.995	103.828	20.073	0.197	0.575
1175.499	670.558	80.006	19.994	103.828	20.075	0.061	0.442
1175.999	670.974	80.006	19.994	103.823	20.075	0.056	0.174
1176.500	671.671	80.006	19.994	103.819	20.077	-0.091	0.625
1177.000	671.565	80.007	19.995	103.820	20.075	0.035	0.852
1177.499	671.821	80.007	19.993	103.822	20.074	0.164	0.371
1177.999	671.684	80.007	19.994	103.822	20.075	0.099	0.134
1178.500	672.406	80.006	19.994	103.827	20.075	0.054	0.351
1179.000	672.597	80.008	19.993	103.829	20.075	0.091	0.749
1179.499	672.875	80.007	19.994	103.829	20.073	0.203	0.691
1180.000	673.312	80.007	19.994	103.823	20.072	0.298	0.592
1180.500	673.496	80.008	19.993	103.819	20.071	0.411	0.668
1180.999	673.780	80.007	19.994	103.819	20.073	0.259	0.544
1181.499	674.028	80.008	19.994	103.817	20.074	0.138	0.500
1181.999	674.260	80.008	19.995	103.813	20.074	0.145	0.507
1182.500	674.594	80.009	19.993	103.814	20.074	0.151	0.523
1183.000	674.790	80.008	19.994	103.814	20.075	0.026	0.548
1183.500	675.033	80.009	19.995	103.807	20.074	0.117	0.484
1184.000	675.318	80.008	19.994	103.803	20.073	0.227	0.483
1184.499	675.580	80.008	19.993	103.801	20.071	0.415	0.537
1184.999	675.861	80.009	19.993	103.803	20.072	0.288	0.546
1185.499	676.088	80.008	19.993	103.803	20.069	0.564	0.526
1185.999	676.354	80.009	19.993	103.801	20.071	0.406	0.500
1186.499	676.624	80.008	19.994	103.802	20.074	0.175	0.514
1186.999	676.894	80.008	19.993	103.802	20.073	0.234	0.537
1187.499	677.100	80.009	19.993	103.797	20.074	0.121	0.508
1187.999	677.400	80.009	19.993	103.793	20.073	0.231	0.491
1188.499	677.729	80.008	19.994	103.794	20.071	0.342	0.568
1188.999	677.968	80.008	19.992	103.793	20.071	0.398	0.598
1189.499	678.198	80.008	19.993	103.792	20.070	0.428	0.519
1190.000	678.450	80.008	19.994	103.791	20.072	0.301	0.476
1190.500	678.736	80.007	19.993	103.790	20.069	0.497	0.510
1190.999	679.000	80.007	19.994	103.793	20.071	0.348	0.544
1191.499	679.290	80.006	19.995	103.801	20.073	0.244	0.552
1191.999	679.537	80.007	19.993	103.805	20.071	0.357	0.545
1192.499	679.782	80.006	19.994	103.807	20.071	0.404	0.514
1192.999	680.044	80.007	19.994	103.811	20.073	0.231	0.500
1193.499	680.292	80.005	19.993	103.814	20.073	0.188	0.509
1194.000	680.561	80.004	19.993	103.808	20.071	0.385	0.513
1194.501	680.840	80.005	19.994	103.804	20.072	0.285	0.532
1195.000	681.099	80.004	19.994	103.804	20.074	0.182	0.543
1195.499	681.299	80.006	19.995	103.801	20.071	0.342	0.498
1195.999	681.632	80.003	19.994	103.795	20.074	0.175	0.496
1196.499	681.889	80.004	19.995	103.794	20.072	0.296	0.562
1196.999	682.184	80.004	19.993	103.796	20.070	0.458	0.571
1197.499	682.405	80.005	19.994	103.801	20.068	0.597	0.534
1197.999	682.671	80.005	19.995	103.802	20.071	0.363	0.502
1198.499	682.917	80.004	19.995	103.801	20.070	0.471	0.500
1198.999	683.239	80.005	19.993	103.801	20.071	0.350	0.540
1199.499	683.478	80.005	19.995	103.800	20.071	0.368	0.564
1199.999	683.707	80.005	19.994	103.799	20.072	0.322	0.515
1200.499	684.007	80.004	19.995	103.800	20.071	0.374	0.499
1200.999	684.245	80.005	19.995	103.801	20.069	0.536	0.533
1201.500	684.546	80.005	19.995	103.800	20.071	0.381	0.538
1202.001	684.849	80.005	19.995	103.800	20.073	0.253	0.572
1202.500	685.007	80.005	19.994	103.796	20.068	0.616	0.532
1202.999	685.313	80.005	19.994	103.797	20.072	0.266	0.462
1203.499	685.634	80.004	19.994	103.797	20.073	0.216	0.546
1203.999	685.860	80.004	19.995	103.798	20.072	0.262	0.588
1204.499	686.115	80.005	19.994	103.799	20.070	0.445	0.514
1204.999	686.425	80.006	19.993	103.804	20.072	0.281	0.523
1205.499	686.658	80.006	19.993	103.802	20.073	0.199	0.554
1205.999	686.932	80.005	19.995	103.802	20.071	0.374	0.524
1206.499	687.229	80.005	19.994	103.802	20.072	0.266	0.539
1206.999	687.445	80.005	19.994	103.800	20.072	0.307	0.542
1207.500	687.729	80.006	19.994	103.796	20.071	0.391	0.506
1208.000	687.976	80.006	19.993	103.796	20.074	0.171	0.515
1208.499	688.297	80.005	19.992	103.794	20.072	0.301	0.550
1208.999	688.533	80.007	19.993	103.795	20.073	0.223	0.563
1209.499	688.742	80.005	19.993	103.794	20.072	0.335	0.501
1209.999	689.031	80.005	19.993	103.794	20.070	0.430	0.471
1210.499	689.321	80.006	19.994	103.794	20.075	0.078	0.538
1210.999	689.555	80.004	19.992	103.795	20.075	0.026	0.551
1211.499	689.849	80.006	19.993	103.802	20.075	0.037	0.526
1211.999	690.076	80.006	19.993	103.807	20.075	0.089	0.525
1212.500	690.359	80.005	19.992	103.807	20.073	0.208	0.516
1213.000	690.629	80.007	19.992	103.808	20.074	0.108	0.532
1213.499	690.868	80.006	19.994	103.808	20.074	0.156	0.531
1213.999	691.132	80.006	19.992	103.802	20.072	0.316	0.506
1214.499	691.387	80.006	19.993	103.797	20.078	-0.188	0.511
1214.999	691.663	80.006	19.993	103.797	20.076	-0.045	0.525
1215.499	691.936	80.005	19.993	103.797	20.072	0.270	0.540
1215.999	692.167	80.006	19.993	103.797	20.073	0.249	0.527
1216.499	692.460	80.006	19.993	103.797	20.076	0.006	0.514
1216.999	692.674	80.006	19.993	103.795	20.074	0.123	0.515
1217.499	692.940	80.007	19.991	103.791	20.072	0.311	0.494
1217.999	693.229	80.006	19.993	103.790	20.072	0.309	0.518
1218.499	693.496	80.006	19.993	103.791	20.070	0.484	0.555
1218.999	693.739	80.006	19.993	103.791	20.073	0.208	0.533
1219.499	694.029	80.007	19.993	103.793	20.075	0.043	0.521
1219.999	694.259	80.006	19.994	103.797	20.073	0.197	0.527
1220.499	694.537	80.006	19.994	103.798	20.070	0.471	0.514
1220.999	694.766	80.005	19.994	103.797	20.077	-0.056	0.508
1221.499	695.084	80.006	19.992	103.796	20.071	0.393	0.527
1222.000	695.354	80.006	19.993	103.795	20.073	0.251	0.568
1222.500	695.597	80.006	19.994	103.794	20.076	0.015	0.550
1223.000	695.880	80.006	19.994	103.793	20.071	0.415	0.519
1223.500	696.133	80.006	19.994	103.793	20.074	0.110	0.531
1224.000	696.373	80.005	19.994	103.791	20.075	0.056	0.514
1224.500	696.654	80.005	19.994	103.786	20.068	0.616	0.507
1224.999	696.908	80.006	19.993	103.782	20.071	0.413	0.528
1225.499	697.179	80.007	19.993	103.781	20.071	0.350	0.530
1226.000	697.426	80.006	19.994	103.780	20.073	0.225	0.521
1226.500	697.666	80.006	19.994	103.780	20.075	0.097	0.502
1226.999	697.926	80.005	19.994	103.785	20.075	0.082	0.493
1227.499	698.184	80.006	19.993	103.788	20.074	0.143	0.509
1227.999	698.446	80.005	19.994	103.788	20.074	0.125	0.519
1228.500	698.708	80.005	19.994	103.789	20.073	0.236	0.522
1229.000	698.961	80.005	19.994	103.789	20.071	0.363	0.520
1229.499	699.190	80.005	19.994	103.788	20.073	0.218	0.499
1229.999	699.475	80.005	19.995	103.789	20.076	-0.006	0.498
1230.499	699.665	80.005	19.993	103.791	20.073	0.231	0.495
1230.999	699.996	80.006	19.994	103.792	20.070	0.460	0.498
1231.499	700.248	80.006	19.994	103.792	20.072	0.288	0.552
1231.999	700.494	80.005	19.992	103.788	20.076	0.013	0.540
1232.499	700.740	80.005	19.995	103.786	20.072	0.298	0.494
1232.999	700.997	80.006	19.994	103.786	20.075	0.102	0.497
1233.499	701.212	80.005	19.995	103.782	20.071	0.355	0.488
1233.999	701.499	80.007	19.994	103.778	20.074	0.141	0.487
1234.500	701.706	80.006	19.993	103.779	20.071	0.402	0.498
1235.000	701.963	80.006	19.993	103.778	20.076	0.004	0.479
1235.499	702.215	80.005	19.994	103.776	20.073	0.231	0.487
1235.999	702.485	80.007	19.993	103.777	20.074	0.117	0.516
1236.499	702.722	80.007	19.994	103.779	20.071	0.361	0.515
1237.000	702.945	80.008	19.994	103.779	20.072	0.262	0.484
1237.500	703.219	80.007	19.993	103.779	20.073	0.238	0.478
1237.999	703.457	80.007	19.993	103.780	20.075	0.071	0.504
1238.499	703.698	80.006	19.994	103.783	20.072	0.266	0.496
1238.999	703.914	80.007	19.993	103.785	20.074	0.115	0.468
1239.500	704.219	80.006	19.993	103.787	20.073	0.201	0.489
1240.000	704.424	80.007	19.994	103.789	20.074	0.123	0.516
1240.499	704.702	80.007	19.993	103.790	20.076	-0.011	0.497
1240.999	704.949	80.008	19.992	103.790	20.074	0.121	0.504
1241.499	705.198	80.008	19.994	103.788	20.076	0.024	0.511
1241.999	705.460	80.009	19.993	103.786	20.074	0.158	0.503
1242.499	705.650	80.008	19.993	103.786	20.075	0.041	0.481
1242.999	705.969	80.008	19.993	103.786	20.075	0.037	0.480
1243.499	706.214	80.007	19.992	103.786	20.074	0.104	0.537
1243.999	706.427	80.009	19.992	103.787	20.071	0.368	0.511
1244.499	706.680	80.008	19.993	103.784	20.073	0.251	0.462
1244.999	706.881	80.008	19.993	103.780	20.075	0.043	0.460
1245.499	707.143	80.009	19.992	103.776	20.074	0.156	0.459
1245.999	707.390	80.008	19.993	103.772	20.071	0.355	0.486
1246.499	707.648	80.007	19.992	103.772	20.074	0.112	0.507
1246.999	707.917	80.008	19.993	103.778	20.075	0.097	0.516
1247.499	708.127	80.007	19.993	103.781	20.077	-0.074	0.503
1247.999	708.422	80.008	19.993	103.785	20.078	-0.166	0.492
1248.499	708.666	80.008	19.993	103.787	20.076	-0.035	0.522
1248.999	708.908	80.007	19.995	103.788	20.075	0.086	0.512
1249.499	709.167	80.007	19.993	103.785	20.074	0.179	0.494
1249.999	709.411	80.006	19.993	103.779	20.072	0.268	0.503
1250.500	709.649	80.008	19.993	103.775	20.074	0.112	0.493
1251.000	709.924	80.006	19.993	103.772	20.074	0.177	0.497
1251.499	710.170	80.007	19.993	103.771	20.074	0.119	0.516
1251.999	710.399	80.007	19.992	103.774	20.072	0.294	0.498
1252.499	710.673	80.007	19.993	103.778	20.068	0.586	0.489
1252.999	710.947	80.007	19.993	103.782	20.073	0.192	0.525
1253.499	711.205	80.008	19.993	103.788	20.074	0.149	0.540
1253.999	711.462	80.006	19.994	103.790	20.075	0.052	0.524
1254.499	711.683	80.008	19.994	103.790	20.076	0.009	0.497
1254.999	711.933	80.007	19.993	103.792	20.074	0.166	0.475
1255.499	712.218	80.007	19.994	103.791	20.077	-0.119	0.503
1255.999	712.479	80.005	19.993	103.791	20.075	0.056	0.540
1256.499	712.741	80.005	19.994	103.791	20.076	-0.006	0.535
1257.000	712.987	80.006	19.994	103.791	20.074	0.115	0.516
1257.500	713.212	80.006	19.993	103.790	20.075	0.067	0.489
1257.999	713.457	80.006	19.993	103.792	20.076	-0.004	0.471
1258.499	713.748	80.006	19.994	103.793	20.073	0.192	0.503
1259.000	713.972	80.006	19.994	103.793	20.072	0.262	0.525
1259.500	714.248	80.006	19.994	103.792	20.074	0.153	0.508
1259.999	714.468	80.006	19.993	103.790	20.075	0.035	0.498
1260.499	714.733	80.006	19.993	103.788	20.075	0.032	0.490
1260.999	714.997	80.005	19.994	103.787	20.073	0.192	0.507
1261.499	715.250	80.007	19.993	103.787	20.073	0.259	0.523
1262.000	715.529	80.006	19.995	103.783	20.073	0.212	0.524
1262.500	715.772	80.006	19.994	103.783	20.071	0.372	0.527
1262.999	716.002	80.007	19.994	103.783	20.072	0.337	0.498
1263.499	716.295	80.006	19.995	103.783	20.073	0.223	0.498
1263.999	716.519	80.006	19.994	103.783	20.073	0.184	0.520
1264.499	716.782	80.007	19.994	103.788	20.074	0.151	0.502
1264.999	717.017	80.006	19.995	103.790	20.073	0.201	0.493
1265.499	717.287	80.007	19.994	103.792	20.076	0.019	0.502
1265.999	717.543	80.007	19.994	103.790	20.073	0.212	0.516
1266.499	717.779	80.006	19.994	103.786	20.074	0.158	0.509
1266.999	718.029	80.006	19.994	103.784	20.072	0.272	0.489
1267.499	718.301	80.007	19.994	103.778	20.072	0.320	0.503
1267.999	718.563	80.008	19.993	103.773	20.071	0.378	0.528
1268.499	718.810	80.007	19.993	103.773	20.073	0.188	0.522
1268.999	719.037	80.007	19.993	103.776	20.073	0.253	0.492
1269.499	719.296	80.007	19.994	103.776	20.073	0.231	0.480
1269.999	719.575	80.008	19.993	103.780	20.075	0.071	0.512
1270.499	719.822	80.007	19.994	103.780	20.073	0.220	0.532
1270.999	720.064	80.008	19.993	103.776	20.074	0.119	0.507
1271.499	720.314	80.008	19.993	103.773	20.072	0.277	0.490
1272.000	720.587	80.008	19.994	103.770	20.074	0.153	0.508
1272.500	720.845	80.008	19.993	103.767	20.073	0.251	0.527
1272.999	721.096	80.007	19.993	103.764	20.074	0.149	0.520
1273.499	721.358	80.007	19.993	103.764	20.075	0.082	0.511
1273.999	721.587	80.007	19.994	103.765	20.072	0.272	0.502
1274.499	721.832	80.005	19.993	103.770	20.070	0.437	0.483
1274.999	722.089	80.006	19.994	103.774	20.073	0.208	0.488
1275.499	722.339	80.007	19.993	103.779	20.072	0.313	0.504
1275.999	722.583	80.005	19.993	103.782	20.073	0.251	0.501
1276.499	722.858	80.006	19.993	103.779	20.071	0.387	0.507
1276.999	723.115	80.005	19.994	103.772	20.071	0.415	0.525
1277.499	723.327	80.006	19.993	103.770	20.067	0.670	0.500
1277.999	723.601	80.006	19.993	103.769	20.071	0.402	0.478
1278.499	723.854	80.006	19.993	103.770	20.072	0.281	0.507
1278.999	724.122	80.005	19.994	103.771	20.071	0.393	0.524
1279.499	724.369	80.005	19.993	103.776	20.068	0.607	0.518
1279.999	724.600	80.004	19.993	103.775	20.069	0.517	0.496
1280.499	724.873	80.005	19.993	103.777	20.069	0.545	0.491
1280.999	725.086	80.005	19.994	103.779	20.067	0.668	0.495
1281.499	725.371	80.004	19.992	103.783	20.070	0.484	0.492
1282.000	725.617	80.003	19.994	103.783	20.070	0.454	0.515
1282.500	725.897	80.006	19.995	103.783	20.070	0.467	0.528
1282.999	726.182	80.006	19.994	103.784	20.067	0.674	0.546
1283.500	726.392	80.006	19.993	103.780	20.069	0.569	0.530
1284.001	726.697	80.004	19.992	103.781	20.065	0.830	0.505
1284.501	726.947	80.005	19.994	103.783	20.068	0.618	0.535
1285.001	727.181	80.005	19.994	103.787	20.068	0.633	0.520
1285.500	727.477	80.005	19.994	103.789	20.069	0.525	0.507
1285.999	727.729	80.005	19.994	103.792	20.069	0.527	0.539
1286.499	727.988	80.006	19.995	103.792	20.069	0.547	0.529
1286.999	728.229	80.004	19.993	103.791	20.069	0.556	0.505
1287.499	728.485	80.004	19.995	103.789	20.065	0.830	0.498
1287.999	728.733	80.006	19.995	103.787	20.065	0.858	0.501
1288.499	728.998	80.004	19.995	103.785	20.070	0.454	0.509
1288.999	729.231	80.005	19.994	103.782	20.068	0.610	0.505
1289.499	729.495	80.005	19.994	103.781	20.068	0.597	0.497
1289.999	729.743	80.005	19.995	103.780	20.069	0.564	0.505
1290.500	730.019	80.005	19.995	103.776	20.071	0.413	0.518
1291.000	730.260	80.004	19.995	103.773	20.068	0.631	0.520
1291.500	730.519	80.006	19.996	103.771	20.066	0.776	0.509
1292.000	730.762	80.005	19.993	103.769	20.067	0.720	0.501
1292.500	731.056	80.005	19.995	103.770	20.070	0.465	0.519
1293.000	731.278	80.005	19.996	103.776	20.069	0.573	0.526
1293.499	731.502	80.004	19.997	103.780	20.069	0.512	0.480
1293.999	731.780	80.006	19.995	103.785	20.066	0.774	0.474
1294.499	732.014	80.005	19.996	103.789	20.069	0.547	0.507
1295.000	732.291	80.005	19.995	103.790	20.066	0.800	0.512
1295.500	732.525	80.004	19.995	103.790	20.070	0.437	0.512
1295.999	732.786	80.004	19.994	103.789	20.071	0.413	0.503
1296.499	733.041	80.006	19.995	103.785	20.068	0.603	0.505
1296.999	733.314	80.004	19.996	103.779	20.070	0.441	0.522
1297.500	733.533	80.005	19.995	103.779	20.070	0.478	0.510
1298.000	733.758	80.004	19.993	103.779	20.066	0.774	0.468
1298.499	734.030	80.006	19.994	103.779	20.067	0.679	0.471
1298.999	734.276	80.004	19.995	103.781	20.068	0.594	0.508
1299.500	734.521	80.006	19.995	103.780	20.067	0.715	0.504
1300.000	734.823	80.006	19.994	103.772	20.067	0.724	0.518
1300.500	735.095	80.005	19.993	103.765	20.067	0.696	0.560
1301.000	735.304	80.007	19.994	103.762	20.069	0.521	0.528
1301.500	735.559	80.005	19.994	103.764	20.068	0.592	0.472
1301.999	735.838	80.004	19.995	103.772	20.069	0.538	0.499
1302.499	736.059	80.006	19.994	103.780	20.068	0.603	0.517
1303.000	736.323	80.007	19.994	103.788	20.070	0.458	0.493
1303.500	736.558	80.006	19.994	103.792	20.066	0.774	0.492
1303.999	736.876	80.007	19.994	103.792	20.067	0.653	0.526
1304.499	737.086	80.007	19.993	103.793	20.065	0.884	0.541
1304.999	737.357	80.006	19.994	103.792	20.067	0.666	0.505
1305.500	737.584	80.005	19.992	103.792	20.069	0.573	0.490
1306.001	737.842	80.006	19.993	103.792	20.067	0.724	0.491
1306.500	738.102	80.006	19.994	103.792	20.066	0.770	0.501
1306.999	738.345	80.005	19.993	103.787	20.068	0.618	0.510
1307.500	738.611	80.005	19.995	103.786	20.066	0.787	0.506
1308.000	738.862	80.007	19.993	103.780	20.066	0.804	0.514
1308.499	739.104	80.007	19.994	103.778	20.069	0.532	0.505
1309.000	739.373	80.005	19.994	103.773	20.068	0.616	0.502
1309.500	739.627	80.006	19.994	103.771	20.069	0.571	0.517
1309.999	739.917	80.007	19.994	103.769	20.065	0.884	0.534
1310.499	740.171	80.006	19.993	103.771	20.068	0.588	0.544
1310.999	740.429	80.005	19.993	103.773	20.069	0.523	0.527
1311.499	740.674	80.006	19.994	103.779	20.066	0.791	0.508
1311.999	740.928	80.006	19.993	103.783	20.067	0.659	0.502
1312.499	741.207	80.006	19.994	103.787	20.066	0.761	0.516
1312.999	741.454	80.005	19.993	103.790	20.066	0.763	0.529
1313.499	741.706	80.006	19.993	103.789	20.064	0.919	0.513
1313.999	741.951	80.006	19.994	103.789	20.068	0.649	0.498
1314.499	742.228	80.005	19.994	103.788	20.066	0.778	0.509
1314.999	742.494	80.006	19.993	103.789	20.069	0.549	0.533
1315.499	742.719	80.007	19.992	103.788	20.067	0.677	0.517
1315.999	742.988	80.005	19.994	103.789	20.068	0.588	0.492
1316.499	743.252	80.006	19.993	103.789	20.067	0.718	0.513
1316.999	743.521	80.006	19.993	103.789	20.068	0.586	0.532
