Sample ID:	C:\MCC\MCC Cal\Test\Cedar_Single_MCC_30K_min_211215_R3.txt
Sample Weight (mg):	4.8
Heating Rate (C/s):	0.5
Combustor Temp (C):	900
N2 Flow Rate (cc/min):	80
O2 Flow Rate (cc/min):	20
Calibration File:	C:\MCC\MCC Cal\Coeff1 JN10440_30_210304.txt.txt
T Correction Coefficients:	0	1.024463	0
Time Shift (s):	14
*
Time (s)	Temperature (C)	N2 flow rate (cc/min)	O2 flow rate (cc/min)	Flow Rate (cc/min)	Oxygen (%)	HRR (W/g)	Heating rate (C/s)
-0.001	109.428	80.003	19.996	102.972	20.366	-0.060	0.014
0.500	109.430	80.009	19.995	102.970	20.365	0.009	-0.020
1.000	109.451	80.007	19.998	102.970	20.364	0.073	-0.000
1.500	109.451	80.005	19.999	102.971	20.366	-0.053	0.022
2.000	109.464	80.005	19.997	102.971	20.366	-0.068	0.017
2.501	109.444	80.002	19.997	102.975	20.365	0.004	0.002
3.001	109.454	80.004	19.997	102.976	20.365	0.026	-0.008
3.500	109.413	80.005	19.996	102.976	20.367	-0.162	-0.020
4.000	109.438	80.004	19.996	102.975	20.364	0.095	-0.024
4.500	109.490	80.004	19.997	102.975	20.365	0.013	0.030
5.000	109.428	80.002	20.000	102.975	20.365	0.026	0.034
5.500	109.470	80.004	19.996	102.973	20.366	-0.080	-0.015
6.000	109.396	80.003	19.997	102.972	20.363	0.161	-0.026
6.500	109.449	80.004	19.998	102.972	20.362	0.184	-0.027
7.000	109.458	80.002	19.998	102.972	20.363	0.104	0.020
7.500	109.437	80.001	19.998	102.973	20.364	0.068	0.025
8.000	109.458	80.002	20.000	102.978	20.366	-0.053	-0.006
8.500	109.440	80.001	19.996	102.980	20.362	0.208	0.001
9.000	109.448	80.002	19.999	102.980	20.365	-0.022	-0.003
9.500	109.447	80.001	19.997	102.985	20.364	0.089	-0.001
10.000	109.437	80.002	19.997	102.993	20.363	0.104	-0.002
10.500	109.401	80.002	19.996	102.998	20.363	0.163	-0.028
11.000	109.441	80.003	19.997	103.005	20.362	0.164	-0.021
11.500	109.408	80.002	19.996	103.015	20.360	0.325	0.005
12.000	109.425	80.004	19.997	103.018	20.357	0.563	-0.004
12.500	109.450	80.001	19.997	103.022	20.357	0.550	0.013
13.000	109.479	80.002	19.996	103.025	20.355	0.636	0.047
13.500	109.432	80.003	19.994	103.033	20.357	0.548	0.018
14.000	109.486	80.002	19.997	103.041	20.355	0.660	-0.005
14.500	109.461	80.003	19.996	103.055	20.352	0.875	0.018
15.000	109.492	80.002	19.996	103.070	20.354	0.725	0.018
15.500	109.509	80.003	19.995	103.082	20.352	0.886	0.027
16.000	109.497	80.003	19.995	103.090	20.350	1.010	0.026
16.500	109.527	80.003	19.995	103.096	20.350	0.972	0.012
17.000	109.540	80.004	19.996	103.099	20.349	1.049	0.031
17.500	109.543	80.002	19.996	103.097	20.348	1.151	0.030
18.000	109.604	80.003	19.997	103.096	20.345	1.332	0.040
18.500	109.608	80.002	19.996	103.096	20.345	1.317	0.065
19.000	109.635	80.002	19.994	103.096	20.345	1.316	0.048
19.500	109.680	80.002	19.995	103.099	20.340	1.668	0.051
20.001	109.693	80.003	19.995	103.108	20.342	1.555	0.065
20.500	109.693	80.001	19.995	103.118	20.336	1.950	0.036
20.999	109.769	80.001	19.994	103.129	20.335	2.025	0.045
21.499	109.817	80.001	19.996	103.140	20.336	1.947	0.100
22.000	109.833	79.999	19.997	103.151	20.336	1.963	0.093
22.500	109.859	80.004	19.995	103.154	20.333	2.113	0.053
22.999	109.915	80.004	19.995	103.159	20.337	1.864	0.062
23.499	109.963	80.003	19.995	103.164	20.335	1.994	0.093
23.999	109.979	80.003	19.995	103.168	20.335	2.040	0.084
24.499	110.061	80.003	19.995	103.169	20.334	2.099	0.081
24.999	110.109	80.002	19.995	103.175	20.335	2.018	0.114
25.500	110.134	80.004	19.994	103.176	20.331	2.276	0.102
26.000	110.203	80.004	19.994	103.175	20.332	2.187	0.084
26.499	110.243	80.003	19.996	103.175	20.333	2.121	0.101
26.999	110.312	80.003	19.993	103.175	20.331	2.302	0.109
27.499	110.341	80.001	19.996	103.175	20.330	2.315	0.104
27.999	110.410	80.003	19.995	103.175	20.329	2.431	0.098
28.499	110.451	80.001	19.998	103.177	20.328	2.453	0.104
29.000	110.529	80.005	19.994	103.179	20.326	2.616	0.115
29.500	110.642	80.002	19.996	103.184	20.328	2.487	0.155
29.999	110.671	80.002	19.993	103.187	20.330	2.355	0.166
30.499	110.759	80.003	19.994	103.195	20.325	2.648	0.129
30.999	110.807	80.004	19.994	103.201	20.327	2.573	0.127
31.499	110.864	80.002	19.996	103.206	20.327	2.574	0.120
31.999	110.939	80.001	19.996	103.209	20.325	2.664	0.119
32.499	111.061	80.003	19.994	103.214	20.324	2.722	0.165
32.999	111.107	80.002	19.996	103.214	20.326	2.616	0.183
33.499	111.161	80.002	19.995	103.215	20.326	2.580	0.134
34.000	111.278	80.004	19.994	103.216	20.323	2.834	0.135
34.501	111.337	80.004	19.995	103.218	20.324	2.772	0.173
35.000	111.405	80.003	19.994	103.219	20.321	2.947	0.152
35.499	111.514	80.001	19.996	103.226	20.322	2.863	0.153
35.999	111.611	80.004	19.993	103.231	20.322	2.892	0.192
36.499	111.689	80.003	19.993	103.238	20.324	2.772	0.190
36.999	111.828	80.001	19.996	103.243	20.319	3.066	0.196
37.499	111.874	80.004	19.995	103.245	20.319	3.079	0.201
37.999	112.018	80.003	19.993	103.241	20.319	3.057	0.187
38.499	112.110	79.999	19.995	103.239	20.318	3.156	0.213
38.999	112.249	80.002	19.995	103.236	20.317	3.229	0.234
39.500	112.318	80.003	19.995	103.236	20.321	2.966	0.220
40.000	112.438	80.003	19.995	103.239	20.319	3.097	0.198
40.499	112.544	80.002	19.997	103.244	20.316	3.273	0.207
40.999	112.691	80.002	19.993	103.247	20.315	3.373	0.240
41.499	112.804	80.001	19.995	103.251	20.319	3.113	0.256
42.000	112.905	80.004	19.995	103.252	20.316	3.291	0.237
42.500	113.033	80.002	19.995	103.248	20.318	3.181	0.222
43.000	113.133	80.003	19.994	103.246	20.319	3.112	0.229
43.500	113.277	80.005	19.996	103.243	20.318	3.179	0.236
43.999	113.394	80.003	19.996	103.243	20.314	3.391	0.253
44.500	113.476	80.004	19.995	103.243	20.319	3.067	0.230
45.000	113.639	80.004	19.994	103.245	20.318	3.146	0.222
45.499	113.748	80.006	19.996	103.246	20.318	3.183	0.258
45.999	113.898	80.004	19.995	103.246	20.317	3.216	0.265
46.500	114.063	80.004	19.996	103.242	20.314	3.408	0.287
47.001	114.184	80.004	19.995	103.242	20.313	3.484	0.301
47.500	114.270	80.004	19.995	103.242	20.316	3.316	0.247
48.000	114.406	80.005	19.995	103.242	20.314	3.399	0.215
48.500	114.573	80.005	19.994	103.246	20.314	3.402	0.263
49.000	114.696	80.004	19.994	103.249	20.315	3.324	0.296
49.500	114.844	80.005	19.994	103.248	20.313	3.470	0.280
50.000	114.939	80.005	19.994	103.249	20.312	3.537	0.257
50.500	115.153	80.003	19.995	103.244	20.316	3.257	0.276
51.001	115.246	80.005	19.995	103.240	20.315	3.329	0.308
51.501	115.438	80.005	19.995	103.238	20.316	3.279	0.296
52.000	115.594	80.005	19.995	103.238	20.314	3.427	0.316
52.500	115.744	80.007	19.994	103.238	20.316	3.305	0.327
52.999	115.874	80.004	19.995	103.243	20.314	3.385	0.293
53.499	116.015	80.006	19.994	103.242	20.315	3.340	0.276
53.999	116.155	80.004	19.995	103.241	20.316	3.278	0.276
54.500	116.332	80.005	19.995	103.236	20.315	3.364	0.299
55.000	116.482	80.003	19.993	103.231	20.317	3.192	0.322
55.499	116.635	79.999	20.002	103.226	20.316	3.275	0.315
55.999	116.832	80.004	19.996	103.226	20.317	3.241	0.327
56.499	116.970	80.006	19.994	103.229	20.316	3.283	0.342
56.999	117.134	80.003	19.996	103.234	20.317	3.212	0.318
57.499	117.292	80.005	19.997	103.234	20.317	3.229	0.312
57.999	117.472	80.004	19.993	103.233	20.317	3.245	0.330
58.500	117.580	80.002	19.995	103.235	20.315	3.358	0.313
59.000	117.797	80.004	19.995	103.235	20.315	3.331	0.306
59.499	117.950	80.003	19.994	103.231	20.315	3.348	0.348
59.999	118.115	80.004	19.994	103.234	20.317	3.236	0.344
60.499	118.245	80.003	19.994	103.235	20.317	3.212	0.306
60.999	118.421	80.001	20.001	103.231	20.319	3.090	0.300
61.499	118.568	80.004	19.995	103.223	20.319	3.055	0.315
61.999	118.742	80.003	19.994	103.221	20.315	3.349	0.322
62.500	118.978	80.004	19.994	103.216	20.318	3.183	0.366
63.000	119.096	80.003	19.996	103.217	20.318	3.148	0.382
63.499	119.280	80.003	19.996	103.221	20.318	3.161	0.328
63.999	119.443	80.004	19.996	103.222	20.315	3.364	0.324
64.499	119.618	80.003	19.997	103.226	20.316	3.256	0.343
64.999	119.838	80.003	19.999	103.234	20.315	3.339	0.367
65.499	119.991	80.006	19.996	103.238	20.318	3.158	0.384
65.999	120.111	80.008	19.994	103.241	20.317	3.209	0.323
66.500	120.327	80.006	19.997	103.245	20.319	3.083	0.304
67.000	120.557	80.003	19.995	103.240	20.319	3.064	0.391
67.499	120.741	80.006	19.995	103.233	20.319	3.112	0.430
67.999	120.897	80.003	19.995	103.233	20.316	3.271	0.378
68.499	121.118	80.004	19.995	103.234	20.317	3.202	0.359
68.999	121.275	80.004	19.998	103.232	20.317	3.209	0.378
69.499	121.476	80.003	19.999	103.239	20.316	3.309	0.368
69.999	121.674	80.004	19.996	103.246	20.316	3.306	0.378
70.499	121.823	80.004	19.997	103.246	20.317	3.218	0.373
70.999	122.016	80.005	19.996	103.242	20.319	3.079	0.345
71.499	122.251	80.006	19.996	103.240	20.317	3.213	0.385
71.999	122.420	80.007	19.995	103.233	20.315	3.373	0.416
72.499	122.572	80.004	19.996	103.230	20.314	3.403	0.362
72.999	122.820	80.006	19.995	103.228	20.315	3.377	0.361
73.499	123.018	80.005	19.994	103.229	20.315	3.368	0.423
73.999	123.198	80.006	19.995	103.236	20.312	3.562	0.412
74.500	123.403	80.007	19.995	103.243	20.316	3.310	0.382
75.000	123.604	80.006	19.996	103.246	20.315	3.379	0.396
75.499	123.805	80.005	19.996	103.249	20.314	3.414	0.404
75.999	123.948	80.004	19.997	103.251	20.315	3.348	0.373
76.499	124.125	80.004	19.995	103.250	20.315	3.355	0.331
76.999	124.337	80.005	19.996	103.250	20.312	3.528	0.355
77.499	124.531	80.007	19.995	103.250	20.314	3.435	0.398
77.999	124.742	80.007	19.995	103.249	20.315	3.378	0.406
78.499	124.963	80.006	19.992	103.248	20.311	3.587	0.418
78.999	125.124	80.001	20.001	103.250	20.311	3.613	0.407
79.499	125.350	80.003	20.001	103.249	20.312	3.553	0.385
79.999	125.589	80.011	19.996	103.248	20.316	3.258	0.426
80.499	125.764	80.009	19.994	103.248	20.313	3.499	0.440
80.999	125.964	80.000	19.996	103.251	20.316	3.293	0.394
81.499	126.150	80.003	19.998	103.250	20.314	3.404	0.380
81.999	126.362	79.999	19.996	103.251	20.314	3.397	0.392
82.500	126.565	80.003	19.992	103.250	20.314	3.401	0.407
83.000	126.794	80.005	19.995	103.248	20.311	3.618	0.423
83.500	126.957	80.002	19.996	103.247	20.313	3.518	0.412
84.000	127.182	80.004	19.995	103.247	20.314	3.428	0.390
84.499	127.368	80.004	19.995	103.247	20.313	3.500	0.400
84.999	127.604	80.003	19.995	103.250	20.310	3.666	0.416
85.499	127.773	80.001	19.996	103.252	20.310	3.670	0.413
85.999	127.991	80.003	19.996	103.253	20.312	3.556	0.397
86.499	128.175	80.001	19.996	103.254	20.311	3.609	0.395
87.000	128.423	80.002	19.996	103.251	20.313	3.458	0.417
87.501	128.617	80.000	20.000	103.244	20.313	3.502	0.437
88.001	128.789	80.004	19.996	103.238	20.313	3.505	0.404
88.500	129.073	80.002	19.994	103.235	20.313	3.474	0.411
89.000	129.282	80.003	19.997	103.234	20.315	3.348	0.474
89.500	129.427	80.001	19.997	103.235	20.315	3.370	0.423
90.000	129.684	80.001	19.996	103.241	20.313	3.476	0.378
90.500	129.932	80.003	19.994	103.247	20.312	3.565	0.453
90.999	130.097	80.003	19.995	103.248	20.312	3.585	0.459
91.499	130.305	80.002	19.997	103.246	20.314	3.415	0.394
91.999	130.543	79.998	20.002	103.248	20.315	3.384	0.410
92.500	130.714	80.002	19.996	103.246	20.312	3.565	0.428
93.000	130.962	80.002	19.996	103.245	20.317	3.238	0.414
93.501	131.174	80.002	19.995	103.248	20.314	3.408	0.439
94.001	131.407	80.006	19.996	103.251	20.315	3.344	0.453
94.500	131.573	80.001	19.996	103.252	20.315	3.331	0.422
95.000	131.814	80.000	19.997	103.254	20.315	3.341	0.403
95.500	132.102	80.001	19.996	103.253	20.316	3.280	0.467
96.000	132.269	79.999	19.997	103.254	20.313	3.512	0.492
96.500	132.491	80.002	19.994	103.253	20.315	3.370	0.423
97.001	132.678	80.001	19.997	103.253	20.318	3.117	0.399
97.500	132.915	80.004	19.997	103.253	20.317	3.225	0.416
97.999	133.131	80.002	19.999	103.254	20.316	3.278	0.439
98.499	133.378	80.002	19.997	103.253	20.316	3.265	0.458
98.999	133.601	80.004	19.996	103.253	20.314	3.399	0.466
99.499	133.799	80.000	20.001	103.253	20.319	3.057	0.446
99.999	134.019	80.002	19.998	103.251	20.313	3.456	0.420
100.499	134.240	80.003	19.994	103.250	20.314	3.439	0.429
100.999	134.512	80.003	19.996	103.251	20.312	3.543	0.467
101.499	134.745	80.006	19.992	103.250	20.313	3.463	0.499
101.999	134.953	80.001	19.998	103.248	20.314	3.401	0.473
102.499	135.183	80.003	19.994	103.249	20.314	3.441	0.440
102.999	135.377	80.003	19.998	103.250	20.317	3.223	0.431
103.499	135.637	80.003	19.997	103.249	20.314	3.426	0.439
103.999	135.856	80.003	19.998	103.249	20.318	3.143	0.467
104.499	136.039	80.004	19.995	103.250	20.320	3.021	0.440
104.999	136.262	80.001	19.997	103.250	20.316	3.289	0.404
105.499	136.530	80.002	19.995	103.249	20.316	3.278	0.449
105.999	136.775	80.006	19.996	103.250	20.316	3.296	0.502
106.499	136.976	80.006	19.995	103.249	20.316	3.294	0.480
106.999	137.228	80.007	19.997	103.248	20.313	3.497	0.450
107.499	137.470	80.005	19.995	103.248	20.318	3.166	0.474
107.999	137.679	80.003	19.994	103.247	20.316	3.252	0.472
108.499	137.931	80.003	19.999	103.244	20.314	3.441	0.456
108.999	138.180	80.009	19.988	103.242	20.315	3.340	0.481
109.499	138.370	79.999	19.998	103.245	20.316	3.252	0.470
109.999	138.591	80.003	19.993	103.244	20.318	3.170	0.425
110.499	138.836	80.004	19.993	103.245	20.318	3.154	0.438
111.000	139.068	80.006	19.999	103.246	20.316	3.313	0.471
111.500	139.290	80.004	19.998	103.249	20.314	3.408	0.465
111.999	139.512	80.002	19.998	103.244	20.318	3.150	0.449
112.499	139.809	80.003	19.997	103.244	20.319	3.108	0.482
112.999	140.031	80.003	19.995	103.245	20.316	3.267	0.519
113.499	140.219	80.001	19.997	103.247	20.316	3.298	0.465
113.999	140.484	80.003	19.997	103.248	20.321	2.978	0.432
114.499	140.676	80.002	19.997	103.250	20.316	3.256	0.455
114.999	140.940	80.003	19.993	103.251	20.319	3.108	0.456
115.499	141.143	80.002	19.996	103.251	20.317	3.242	0.461
115.999	141.343	79.999	19.999	103.249	20.318	3.126	0.435
116.499	141.620	80.005	19.996	103.247	20.317	3.190	0.440
116.999	141.852	79.998	20.001	103.245	20.318	3.163	0.493
117.499	142.098	80.005	19.991	103.239	20.318	3.167	0.494
117.999	142.331	80.001	19.999	103.238	20.320	2.984	0.479
118.499	142.571	80.005	19.993	103.235	20.315	3.338	0.476
119.000	142.832	80.007	19.992	103.234	20.316	3.269	0.487
119.500	143.060	80.001	19.995	103.236	20.317	3.227	0.495
119.999	143.263	80.004	19.991	103.241	20.317	3.212	0.460
120.499	143.511	80.003	19.998	103.238	20.317	3.198	0.441
120.999	143.751	80.004	19.991	103.238	20.316	3.287	0.469
121.499	144.050	80.002	19.994	103.239	20.318	3.167	0.513
121.999	144.302	80.009	19.992	103.236	20.317	3.231	0.545
122.499	144.494	80.001	19.993	103.238	20.312	3.525	0.498
122.999	144.753	80.003	19.995	103.239	20.317	3.211	0.448
123.499	144.967	80.001	19.998	103.240	20.316	3.315	0.462
123.999	145.202	80.002	19.998	103.239	20.316	3.274	0.461
124.499	145.439	80.004	20.001	103.239	20.315	3.353	0.461
124.999	145.715	80.002	19.996	103.234	20.317	3.249	0.492
125.499	145.953	80.002	19.990	103.236	20.316	3.278	0.513
125.999	146.199	80.011	19.992	103.237	20.314	3.412	0.499
126.499	146.424	80.003	19.995	103.242	20.314	3.412	0.478
126.999	146.647	80.003	19.995	103.244	20.312	3.532	0.460
127.500	146.877	80.002	19.999	103.246	20.313	3.470	0.451
128.000	147.178	80.008	19.995	103.242	20.315	3.362	0.492
128.500	147.379	80.008	19.994	103.241	20.313	3.485	0.517
129.000	147.646	80.009	19.998	103.237	20.314	3.432	0.485
129.500	147.882	80.003	19.995	103.235	20.313	3.479	0.485
130.000	148.087	80.007	20.002	103.236	20.314	3.440	0.472
130.500	148.388	80.008	19.995	103.236	20.316	3.274	0.474
131.000	148.598	80.004	19.993	103.240	20.308	3.813	0.508
131.500	148.851	80.004	19.995	103.245	20.311	3.605	0.487
132.000	149.095	80.002	19.996	103.247	20.313	3.481	0.481
132.500	149.334	80.004	19.997	103.247	20.313	3.463	0.490
133.000	149.605	80.003	19.990	103.249	20.312	3.543	0.496
133.500	149.814	80.000	20.000	103.250	20.311	3.649	0.495
134.000	150.111	80.007	19.995	103.248	20.311	3.647	0.493
134.500	150.311	80.002	20.000	103.245	20.311	3.590	0.502
135.000	150.551	80.007	19.990	103.242	20.312	3.541	0.469
135.500	150.786	80.000	20.000	103.245	20.312	3.576	0.457
136.000	151.040	80.004	19.996	103.242	20.314	3.402	0.481
136.500	151.286	80.004	19.997	103.242	20.311	3.640	0.495
137.000	151.544	80.011	19.991	103.244	20.311	3.609	0.502
137.500	151.746	80.002	19.994	103.247	20.311	3.627	0.482
138.000	151.975	80.004	19.994	103.242	20.309	3.736	0.446
138.500	152.259	80.007	19.991	103.242	20.308	3.831	0.472
139.000	152.499	80.002	19.996	103.244	20.308	3.837	0.518
139.500	152.721	80.001	19.998	103.243	20.311	3.647	0.493
140.000	152.962	80.001	19.997	103.236	20.310	3.684	0.463
140.500	153.186	80.007	19.994	103.235	20.311	3.622	0.464
141.000	153.471	80.005	19.993	103.231	20.309	3.740	0.487
141.500	153.720	80.010	19.992	103.227	20.309	3.746	0.521
142.000	153.931	80.005	19.996	103.229	20.309	3.755	0.497
142.500	154.168	80.004	19.993	103.235	20.311	3.603	0.454
143.000	154.458	80.005	19.994	103.240	20.308	3.826	0.488
143.500	154.704	80.004	19.991	103.241	20.306	3.921	0.532
144.000	154.919	80.005	19.992	103.238	20.308	3.787	0.498
144.500	155.161	80.011	19.993	103.234	20.310	3.674	0.459
145.000	155.384	80.004	19.995	103.231	20.308	3.802	0.461
145.500	155.617	80.001	19.996	103.232	20.308	3.846	0.461
146.000	155.876	80.004	19.994	103.235	20.306	3.952	0.474
146.500	156.147	80.004	19.996	103.240	20.308	3.788	0.511
147.000	156.390	80.005	19.995	103.240	20.304	4.089	0.522
147.500	156.615	80.005	19.995	103.242	20.302	4.241	0.491
148.000	156.859	80.001	19.999	103.234	20.306	3.981	0.469
148.500	157.065	80.005	19.995	103.228	20.305	4.041	0.460
149.000	157.336	80.006	19.995	103.224	20.309	3.773	0.464
149.500	157.599	80.006	19.993	103.222	20.306	3.974	0.505
150.000	157.860	80.007	19.994	103.221	20.307	3.901	0.529
150.500	158.115	80.004	19.997	103.227	20.301	4.279	0.520
151.000	158.396	80.003	19.993	103.232	20.304	4.089	0.526
151.500	158.590	80.006	19.991	103.234	20.305	4.052	0.506
152.000	158.836	80.003	19.995	103.233	20.304	4.071	0.457
152.500	159.096	80.005	19.996	103.231	20.304	4.076	0.473
153.000	159.325	80.007	19.996	103.226	20.308	3.833	0.498
153.500	159.560	80.004	19.996	103.221	20.303	4.137	0.476
154.000	159.833	80.005	19.996	103.218	20.302	4.232	0.485
154.500	160.051	80.008	19.996	103.217	20.304	4.082	0.499
155.000	160.313	80.004	19.994	103.217	20.303	4.142	0.486
155.500	160.554	80.004	19.995	103.221	20.300	4.389	0.492
156.000	160.819	80.002	20.000	103.225	20.302	4.244	0.505
156.500	161.067	80.003	19.997	103.224	20.302	4.202	0.510
157.000	161.313	80.004	19.994	103.224	20.300	4.346	0.504
157.500	161.528	80.005	19.995	103.224	20.301	4.290	0.477
158.000	161.772	80.004	19.995	103.219	20.302	4.208	0.460
158.500	162.012	80.005	19.994	103.215	20.301	4.283	0.472
159.000	162.287	80.006	19.996	103.218	20.302	4.230	0.500
159.500	162.518	80.001	19.997	103.218	20.302	4.243	0.511
160.000	162.784	80.005	19.996	103.217	20.304	4.105	0.501
160.500	163.014	80.005	19.996	103.217	20.302	4.252	0.496
161.000	163.239	80.004	19.995	103.217	20.300	4.343	0.475
161.500	163.485	79.999	19.999	103.216	20.301	4.257	0.463
162.000	163.759	80.005	19.993	103.215	20.300	4.337	0.496
162.500	164.044	80.003	19.993	103.216	20.303	4.146	0.540
163.000	164.272	80.002	19.994	103.219	20.302	4.212	0.536
163.500	164.492	80.004	19.995	103.223	20.302	4.241	0.480
164.000	164.754	80.004	19.994	103.223	20.302	4.230	0.465
164.500	165.033	80.004	19.996	103.224	20.302	4.223	0.511
165.000	165.288	80.003	19.996	103.223	20.305	4.044	0.537
165.500	165.500	80.002	19.998	103.220	20.302	4.221	0.501
166.000	165.744	80.004	19.994	103.215	20.304	4.122	0.462
166.500	165.986	80.003	19.995	103.214	20.301	4.283	0.471
167.000	166.245	80.003	19.996	103.214	20.303	4.133	0.493
167.500	166.501	80.001	19.996	103.214	20.300	4.385	0.508
168.000	166.740	80.004	19.995	103.213	20.305	4.054	0.505
168.500	166.983	80.003	19.997	103.215	20.302	4.204	0.489
169.000	167.276	80.002	19.995	103.216	20.299	4.449	0.509
169.500	167.487	80.001	19.996	103.217	20.301	4.312	0.520
170.000	167.747	80.005	19.990	103.217	20.304	4.107	0.488
170.500	167.997	79.998	19.997	103.219	20.301	4.259	0.491
171.000	168.233	80.002	19.996	103.217	20.301	4.268	0.498
171.500	168.457	80.002	19.995	103.217	20.302	4.209	0.473
172.000	168.784	80.002	19.996	103.216	20.299	4.394	0.505
172.500	168.949	80.003	19.995	103.217	20.302	4.220	0.521
173.001	169.285	80.003	19.995	103.217	20.301	4.310	0.496
173.500	169.459	80.002	19.996	103.222	20.303	4.138	0.505
174.000	169.734	80.001	19.999	103.225	20.302	4.248	0.480
174.500	170.010	80.004	19.991	103.228	20.299	4.394	0.501
175.000	170.224	80.001	19.997	103.231	20.299	4.429	0.521
175.500	170.466	80.006	19.993	103.230	20.300	4.327	0.473
176.000	170.703	80.000	19.997	103.227	20.298	4.471	0.467
176.500	171.007	80.005	20.000	103.225	20.297	4.564	0.510
177.000	171.238	80.006	19.993	103.220	20.301	4.306	0.538
177.500	171.461	80.003	19.996	103.216	20.299	4.399	0.494
178.000	171.740	80.005	19.995	103.215	20.300	4.332	0.478
178.500	172.013	80.004	19.993	103.215	20.299	4.421	0.527
179.000	172.202	80.002	19.997	103.214	20.300	4.352	0.507
179.500	172.502	80.001	19.997	103.214	20.298	4.491	0.476
180.000	172.761	80.000	19.998	103.214	20.299	4.434	0.523
180.500	172.955	80.001	19.996	103.214	20.297	4.582	0.506
181.000	173.198	80.004	19.995	103.212	20.298	4.482	0.445
181.500	173.516	80.004	19.995	103.212	20.298	4.516	0.499
182.000	173.725	80.005	19.991	103.213	20.297	4.571	0.544
182.500	173.928	79.994	20.005	103.214	20.298	4.515	0.470
183.000	174.207	80.002	19.994	103.213	20.298	4.498	0.447
183.500	174.501	80.003	19.998	103.213	20.299	4.445	0.527
184.000	174.763	80.002	19.998	103.214	20.301	4.297	0.565
184.500	174.984	80.005	19.998	103.213	20.299	4.454	0.520
185.000	175.231	80.000	19.998	103.211	20.298	4.495	0.475
185.500	175.469	80.004	19.997	103.213	20.297	4.555	0.477
186.000	175.695	80.008	19.995	103.218	20.297	4.580	0.475
186.500	175.996	80.004	19.998	103.218	20.298	4.465	0.495
187.000	176.207	80.003	19.998	103.218	20.296	4.637	0.520
187.500	176.491	80.002	19.996	103.218	20.296	4.628	0.504
188.000	176.720	80.004	19.993	103.218	20.295	4.721	0.504
188.500	176.966	79.997	19.999	103.212	20.299	4.453	0.494
189.000	177.216	79.999	19.998	103.211	20.298	4.520	0.485
189.500	177.471	80.005	19.992	103.211	20.300	4.376	0.500
190.000	177.685	80.006	19.993	103.213	20.298	4.485	0.487
190.500	177.939	80.007	19.988	103.214	20.297	4.549	0.469
191.000	178.185	80.001	20.001	103.216	20.296	4.654	0.484
191.500	178.503	80.005	19.997	103.215	20.294	4.787	0.532
192.000	178.714	80.003	19.996	103.215	20.294	4.749	0.547
192.500	178.946	80.005	19.993	103.213	20.292	4.880	0.486
193.000	179.239	80.006	19.994	103.213	20.296	4.654	0.484
193.500	179.476	79.999	19.996	103.212	20.296	4.655	0.528
194.000	179.753	79.999	19.997	103.213	20.294	4.732	0.523
194.500	179.930	80.002	19.994	103.213	20.292	4.900	0.484
195.000	180.231	80.000	19.997	103.214	20.295	4.694	0.466
195.500	180.465	80.009	19.990	103.214	20.294	4.781	0.506
196.000	180.718	79.999	19.995	103.215	20.296	4.593	0.511
196.500	180.956	79.998	19.997	103.215	20.293	4.805	0.489
197.000	181.238	79.999	19.996	103.215	20.295	4.718	0.505
197.500	181.462	80.003	19.994	103.215	20.290	4.997	0.513
198.000	181.737	80.004	19.997	103.214	20.296	4.608	0.503
198.500	181.958	80.004	19.997	103.213	20.295	4.723	0.498
199.000	182.220	80.003	19.992	103.213	20.294	4.783	0.490
199.500	182.450	80.001	19.998	103.214	20.296	4.646	0.487
200.000	182.703	80.003	19.993	103.213	20.296	4.622	0.487
200.500	182.965	80.004	19.997	103.214	20.297	4.526	0.499
201.000	183.212	80.006	19.995	103.214	20.296	4.593	0.512
201.500	183.480	80.005	19.997	103.214	20.295	4.663	0.512
202.000	183.665	80.002	19.998	103.214	20.295	4.675	0.484
202.500	183.970	80.004	19.996	103.214	20.298	4.498	0.472
203.000	184.152	80.001	19.996	103.214	20.294	4.769	0.488
203.500	184.474	80.005	19.996	103.214	20.289	5.061	0.495
204.000	184.720	80.004	19.998	103.213	20.290	5.023	0.536
204.500	184.961	80.002	19.993	103.213	20.294	4.791	0.527
205.000	185.215	80.006	19.992	103.213	20.291	4.984	0.491
205.500	185.417	80.003	19.995	103.214	20.292	4.913	0.476
206.000	185.702	80.003	19.996	103.214	20.295	4.714	0.472
206.500	185.995	80.004	19.995	103.214	20.291	4.946	0.532
207.000	186.260	80.006	19.995	103.214	20.294	4.779	0.568
207.500	186.508	80.003	19.994	103.214	20.294	4.774	0.536
208.000	186.702	80.002	19.993	103.214	20.294	4.776	0.478
208.500	186.996	80.001	19.996	103.213	20.291	4.927	0.465
209.000	187.227	80.003	19.994	103.213	20.292	4.867	0.506
209.500	187.470	80.003	19.995	103.213	20.291	4.947	0.499
210.000	187.739	80.005	19.994	103.213	20.291	4.942	0.493
210.500	187.943	80.007	19.994	103.212	20.290	5.039	0.492
211.000	188.218	80.004	19.994	103.213	20.291	4.977	0.476
211.500	188.494	80.007	19.994	103.213	20.289	5.125	0.515
212.000	188.707	80.003	19.999	103.214	20.288	5.147	0.520
212.500	189.000	80.008	19.992	103.213	20.288	5.173	0.497
213.000	189.194	80.004	19.995	103.213	20.288	5.136	0.496
213.500	189.452	80.009	19.992	103.212	20.285	5.381	0.470
214.000	189.732	80.003	19.996	103.214	20.285	5.374	0.495
214.500	190.061	80.001	19.997	103.213	20.286	5.326	0.573
215.000	190.231	80.001	19.995	103.213	20.288	5.173	0.554
215.500	190.494	80.003	19.996	103.213	20.285	5.366	0.466
216.000	190.762	80.003	19.995	103.214	20.286	5.278	0.482
216.500	190.962	80.003	19.995	103.213	20.284	5.439	0.500
217.000	191.229	80.000	19.995	103.212	20.286	5.319	0.468
217.500	191.462	80.002	19.993	103.211	20.284	5.414	0.484
218.000	191.712	80.004	19.994	103.210	20.283	5.512	0.491
218.500	191.970	80.003	19.993	103.206	20.286	5.299	0.495
219.000	192.193	80.001	19.998	103.203	20.286	5.280	0.494
219.500	192.467	80.003	19.994	103.202	20.284	5.405	0.489
220.000	192.707	80.001	19.994	103.205	20.287	5.253	0.506
220.500	192.975	80.003	19.995	103.205	20.284	5.444	0.511
221.000	193.192	80.002	19.995	103.205	20.285	5.347	0.497
221.500	193.477	80.004	19.996	103.207	20.282	5.579	0.494
222.000	193.692	80.003	19.994	103.209	20.282	5.594	0.501
222.500	193.955	80.001	19.997	103.207	20.282	5.589	0.489
223.000	194.212	80.000	19.993	103.208	20.282	5.579	0.499
223.500	194.414	80.004	19.995	103.212	20.281	5.636	0.489
224.000	194.723	80.006	19.994	103.212	20.283	5.488	0.485
224.500	194.942	80.007	19.994	103.210	20.285	5.373	0.520
225.000	195.186	80.007	19.997	103.212	20.283	5.495	0.495
225.500	195.403	80.006	19.994	103.212	20.281	5.605	0.462
226.000	195.688	80.004	19.994	103.212	20.278	5.828	0.482
226.500	195.929	80.006	19.995	103.210	20.283	5.473	0.514
227.000	196.219	80.004	19.995	103.210	20.284	5.415	0.528
227.500	196.421	80.004	19.994	103.210	20.281	5.652	0.511
228.000	196.651	80.005	19.994	103.210	20.278	5.818	0.462
228.500	196.884	80.002	19.996	103.210	20.280	5.705	0.447
229.000	197.128	80.007	19.993	103.211	20.278	5.840	0.470
229.500	197.417	80.004	19.993	103.212	20.282	5.577	0.505
230.001	197.633	80.003	19.994	103.211	20.278	5.802	0.519
230.501	197.924	80.005	19.995	103.209	20.281	5.651	0.506
231.000	198.125	80.005	19.992	103.205	20.277	5.900	0.500
231.499	198.388	80.006	19.995	103.201	20.279	5.796	0.478
231.999	198.620	80.000	19.996	103.200	20.274	6.126	0.480
232.500	198.879	80.005	19.995	103.200	20.275	6.059	0.493
233.000	199.201	80.007	19.994	103.201	20.277	5.885	0.536
233.500	199.407	80.001	19.996	103.202	20.275	6.033	0.555
234.000	199.620	80.009	19.993	103.198	20.278	5.836	0.474
234.499	199.878	80.008	19.995	103.199	20.276	5.944	0.445
234.999	200.141	80.004	19.993	103.198	20.275	6.004	0.496
235.499	200.381	80.006	19.994	103.198	20.277	5.933	0.511
235.999	200.648	80.004	19.994	103.199	20.275	6.024	0.505
236.499	200.874	80.005	19.994	103.204	20.273	6.196	0.500
236.999	201.103	80.006	19.994	103.203	20.273	6.159	0.474
237.499	201.395	80.003	19.995	103.198	20.274	6.119	0.488
237.999	201.612	80.005	19.995	103.190	20.271	6.300	0.515
238.499	201.891	80.005	19.994	103.185	20.275	6.055	0.503
238.999	202.154	80.006	19.994	103.180	20.271	6.269	0.520
239.500	202.397	80.006	19.994	103.181	20.273	6.194	0.524
240.000	202.624	80.006	19.994	103.182	20.275	6.040	0.487
240.500	202.863	80.003	19.995	103.191	20.271	6.322	0.468
240.999	203.096	80.004	19.995	103.198	20.270	6.380	0.469
241.499	203.372	80.005	19.996	103.203	20.272	6.266	0.490
241.999	203.598	80.003	19.996	103.205	20.269	6.455	0.505
242.499	203.870	80.003	19.995	103.208	20.274	6.134	0.500
243.000	204.113	80.003	19.995	103.208	20.269	6.468	0.507
243.500	204.388	80.004	19.997	103.208	20.272	6.218	0.516
243.999	204.602	80.004	19.995	103.209	20.267	6.541	0.503
244.499	204.873	80.000	19.994	103.210	20.269	6.411	0.487
244.999	205.049	80.001	19.997	103.212	20.267	6.542	0.466
245.499	205.376	80.003	19.997	103.211	20.271	6.312	0.475
245.999	205.590	80.002	19.995	103.210	20.265	6.674	0.522
246.500	205.820	79.998	19.995	103.211	20.269	6.435	0.492
247.000	206.102	80.004	19.996	103.209	20.267	6.561	0.478
247.499	206.318	80.003	19.995	103.210	20.263	6.870	0.505
247.999	206.617	80.002	19.997	103.208	20.263	6.843	0.507
248.499	206.854	80.005	19.994	103.207	20.262	6.912	0.525
248.999	207.115	80.006	19.996	103.205	20.263	6.817	0.516
249.499	207.347	80.000	19.998	103.205	20.267	6.598	0.495
249.999	207.623	80.005	19.995	103.205	20.269	6.455	0.501
250.500	207.881	79.996	19.998	103.208	20.267	6.556	0.521
251.000	208.168	80.001	19.996	103.205	20.261	6.940	0.539
251.500	208.325	80.002	19.997	103.202	20.263	6.806	0.495
252.000	208.629	80.002	19.995	103.197	20.263	6.841	0.453
252.500	208.846	80.004	19.996	103.196	20.261	6.981	0.491
252.999	209.130	80.006	19.993	103.195	20.263	6.831	0.511
253.500	209.363	80.003	19.996	103.204	20.259	7.091	0.509
254.000	209.627	80.016	19.995	103.208	20.260	7.022	0.507
254.500	209.886	79.998	19.997	103.211	20.261	6.998	0.509
255.000	210.107	80.014	19.995	103.204	20.260	7.068	0.502
255.499	210.376	80.005	19.996	103.204	20.263	6.861	0.486
255.999	210.627	80.004	19.995	103.197	20.260	7.059	0.505
256.500	210.844	80.009	19.995	103.196	20.260	7.036	0.494
257.000	211.118	80.008	19.996	103.199	20.259	7.118	0.479
257.500	211.362	80.016	19.994	103.207	20.257	7.273	0.504
258.000	211.594	80.003	19.996	103.207	20.258	7.170	0.497
258.500	211.852	79.995	19.996	103.208	20.257	7.207	0.483
259.000	212.150	80.006	19.992	103.207	20.255	7.377	0.523
259.500	212.346	80.013	19.994	103.206	20.252	7.547	0.525
260.000	212.553	79.996	19.997	103.205	20.255	7.355	0.449
260.500	212.829	80.008	19.995	103.203	20.251	7.653	0.443
261.000	213.143	80.002	19.994	103.205	20.253	7.487	0.536
261.500	213.363	80.002	19.995	103.208	20.254	7.432	0.562
262.000	213.581	79.999	19.995	103.208	20.257	7.245	0.486
262.500	213.866	80.003	19.995	103.204	20.254	7.411	0.470
263.000	214.097	80.009	19.994	103.202	20.256	7.309	0.509
263.500	214.382	80.015	19.994	103.194	20.252	7.596	0.516
264.000	214.609	80.007	19.995	103.194	20.252	7.580	0.514
264.500	214.893	80.004	19.994	103.197	20.253	7.526	0.512
265.000	215.131	80.004	19.995	103.204	20.248	7.840	0.517
265.500	215.356	80.007	19.996	103.209	20.249	7.794	0.492
266.000	215.589	80.003	19.995	103.214	20.251	7.664	0.461
266.500	215.823	80.002	19.997	103.213	20.249	7.796	0.462
267.000	216.061	80.002	19.996	103.208	20.250	7.726	0.469
267.500	216.334	80.002	19.995	103.204	20.250	7.738	0.492
268.000	216.591	80.002	19.995	103.199	20.249	7.782	0.520
268.500	216.842	80.003	19.995	103.194	20.250	7.685	0.519
269.001	217.066	80.003	19.994	103.188	20.246	8.009	0.492
269.501	217.336	80.002	19.995	103.185	20.246	7.992	0.485
270.000	217.578	80.003	19.997	103.185	20.245	8.050	0.503
270.500	217.831	80.010	19.995	103.188	20.246	7.981	0.503
271.000	218.052	80.009	19.995	103.193	20.244	8.089	0.484
271.500	218.301	80.001	19.995	103.194	20.240	8.354	0.472
272.000	218.523	80.007	19.996	103.193	20.239	8.421	0.470
272.500	218.751	79.998	19.999	103.188	20.238	8.528	0.460
273.000	219.083	80.002	19.996	103.181	20.240	8.390	0.505
273.500	219.303	80.007	19.995	103.182	20.235	8.688	0.556
274.000	219.558	80.003	19.996	103.186	20.239	8.454	0.514
274.500	219.781	80.001	19.995	103.191	20.239	8.476	0.476
275.000	220.009	79.997	19.997	103.192	20.241	8.309	0.464
275.500	220.294	80.001	19.996	103.196	20.238	8.538	0.482
276.000	220.545	80.006	19.997	103.192	20.237	8.569	0.525
276.500	220.797	80.000	19.997	103.188	20.239	8.419	0.520
277.000	221.028	80.005	19.996	103.186	20.237	8.573	0.493
277.500	221.261	79.989	19.997	103.190	20.238	8.484	0.473
278.000	221.523	79.995	19.997	103.192	20.237	8.570	0.480
278.500	221.752	80.002	19.997	103.197	20.238	8.523	0.493
279.000	222.004	80.006	19.995	103.202	20.238	8.539	0.486
279.500	222.263	80.001	19.995	103.205	20.236	8.656	0.496
280.000	222.490	80.002	19.996	103.203	20.231	8.967	0.499
280.500	222.753	80.003	19.995	103.202	20.234	8.791	0.488
281.000	223.000	80.002	19.997	103.202	20.232	8.945	0.500
281.500	223.308	80.015	19.995	103.203	20.232	8.918	0.532
282.000	223.478	80.001	19.997	103.205	20.231	8.972	0.517
282.500	223.736	80.017	19.994	103.206	20.231	8.992	0.453
283.000	223.973	80.002	19.996	103.213	20.233	8.841	0.461
283.500	224.247	80.010	19.993	103.213	20.232	8.927	0.503
284.000	224.434	80.009	19.994	103.216	20.230	9.080	0.486
284.500	224.693	80.007	19.993	103.216	20.231	8.972	0.454
285.000	224.947	80.013	19.993	103.219	20.233	8.875	0.480
285.500	225.179	80.000	19.996	103.215	20.227	9.251	0.499
286.000	225.436	80.000	19.996	103.209	20.229	9.107	0.487
286.500	225.642	80.001	19.996	103.198	20.230	9.067	0.476
287.000	225.937	80.011	19.994	103.192	20.230	9.049	0.482
287.500	226.246	79.999	19.994	103.194	20.230	9.038	0.552
288.000	226.489	80.007	19.995	103.197	20.231	9.001	0.578
288.500	226.706	80.005	19.992	103.205	20.227	9.238	0.506
289.000	226.944	80.005	19.995	103.211	20.225	9.415	0.457
289.500	227.204	80.000	19.995	103.214	20.227	9.278	0.476
290.000	227.467	80.010	19.994	103.209	20.227	9.231	0.511
290.500	227.705	80.004	19.995	103.209	20.225	9.369	0.512
291.000	227.949	80.011	19.993	103.209	20.227	9.250	0.492
291.500	228.189	80.007	19.994	103.211	20.226	9.289	0.483
292.000	228.475	80.005	19.994	103.212	20.225	9.366	0.504
292.500	228.727	80.005	19.996	103.215	20.227	9.273	0.532
293.000	228.932	80.003	19.996	103.212	20.228	9.187	0.498
293.500	229.177	80.005	19.995	103.210	20.226	9.298	0.453
294.000	229.429	80.006	19.996	103.209	20.222	9.558	0.473
294.500	229.708	80.002	19.995	103.209	20.223	9.493	0.514
295.000	229.944	80.003	19.996	103.207	20.224	9.486	0.524
295.500	230.171	80.003	19.995	103.203	20.227	9.248	0.489
296.000	230.446	80.004	19.995	103.201	20.223	9.519	0.482
296.500	230.674	80.004	19.995	103.202	20.221	9.661	0.502
297.000	230.935	80.003	19.995	103.200	20.222	9.590	0.496
297.500	231.194	80.006	19.995	103.201	20.220	9.740	0.504
298.000	231.379	80.003	19.996	103.206	20.220	9.736	0.482
298.500	231.643	79.999	19.996	103.208	20.219	9.775	0.447
299.000	231.901	80.003	19.995	103.202	20.219	9.815	0.486
299.500	232.148	80.003	19.996	103.200	20.218	9.850	0.513
300.000	232.422	80.002	19.995	103.199	20.219	9.764	0.512
300.500	232.632	80.002	19.996	103.198	20.220	9.724	0.502
301.000	232.921	80.008	19.995	103.199	20.218	9.830	0.492
301.500	233.176	80.005	19.996	103.207	20.216	9.983	0.522
302.000	233.369	80.008	19.996	103.210	20.217	9.947	0.497
302.500	233.666	80.013	19.993	103.212	20.218	9.837	0.469
303.000	233.891	80.006	19.996	103.215	20.218	9.879	0.506
303.500	234.132	80.006	19.995	103.217	20.218	9.857	0.494
304.000	234.396	80.002	19.995	103.216	20.221	9.667	0.485
304.500	234.632	80.005	19.994	103.215	20.214	10.118	0.503
305.000	234.879	80.003	19.994	103.215	20.215	10.060	0.492
305.500	235.133	80.005	19.996	103.213	20.214	10.142	0.492
306.000	235.363	80.005	19.995	103.212	20.215	10.082	0.492
306.500	235.619	80.003	19.995	103.210	20.215	10.065	0.485
307.000	235.884	80.002	19.995	103.209	20.211	10.321	0.503
307.500	236.129	80.004	19.995	103.208	20.211	10.358	0.516
308.000	236.365	80.007	19.995	103.205	20.213	10.181	0.496
308.500	236.610	80.005	19.994	103.206	20.213	10.210	0.481
309.000	236.872	80.004	19.997	103.208	20.210	10.424	0.493
309.500	237.132	80.007	19.996	103.210	20.213	10.214	0.514
310.000	237.350	80.007	19.996	103.211	20.207	10.575	0.500
310.500	237.597	80.003	19.996	103.213	20.209	10.466	0.472
311.000	237.847	80.014	19.997	103.212	20.207	10.572	0.481
311.500	238.112	80.001	19.994	103.212	20.209	10.438	0.505
312.000	238.367	80.015	19.995	103.213	20.207	10.621	0.517
312.500	238.595	80.001	19.995	103.213	20.205	10.735	0.502
313.000	238.824	80.012	19.994	103.213	20.208	10.510	0.470
313.500	239.052	80.014	19.995	103.214	20.209	10.452	0.457
314.000	239.329	80.007	19.995	103.214	20.206	10.655	0.481
314.500	239.574	80.004	19.994	103.213	20.204	10.815	0.514
315.000	239.838	80.005	19.996	103.212	20.203	10.892	0.516
315.500	240.042	80.003	19.995	103.212	20.202	10.908	0.488
316.000	240.273	80.013	19.996	103.211	20.202	10.939	0.451
316.500	240.552	80.003	19.995	103.210	20.198	11.175	0.472
317.000	240.786	80.006	19.994	103.210	20.204	10.766	0.512
317.500	241.065	80.007	19.994	103.210	20.201	10.974	0.513
318.000	241.299	80.006	19.995	103.211	20.198	11.212	0.513
318.500	241.536	80.006	19.994	103.211	20.202	10.938	0.492
319.000	241.776	80.006	19.994	103.212	20.198	11.175	0.474
319.500	242.026	80.001	19.995	103.213	20.198	11.222	0.483
320.000	242.273	80.003	19.995	103.213	20.196	11.301	0.494
320.500	242.552	80.003	19.994	103.212	20.199	11.139	0.512
321.000	242.778	80.002	19.994	103.212	20.196	11.323	0.515
321.500	243.039	80.005	19.994	103.212	20.198	11.170	0.496
322.000	243.290	79.996	19.996	103.212	20.198	11.175	0.499
322.500	243.524	80.005	19.994	103.212	20.195	11.409	0.499
323.000	243.760	79.999	19.995	103.213	20.196	11.347	0.478
323.500	244.044	80.009	19.993	103.214	20.195	11.393	0.495
324.000	244.285	80.019	19.993	103.214	20.195	11.394	0.522
324.500	244.495	80.003	19.995	103.218	20.196	11.349	0.488
325.000	244.752	80.005	19.993	103.218	20.194	11.478	0.459
325.500	244.989	80.001	19.995	103.218	20.196	11.340	0.481
326.000	245.264	80.004	19.995	103.218	20.191	11.637	0.503
326.500	245.496	79.999	19.996	103.216	20.193	11.559	0.509
327.000	245.747	80.001	19.994	103.212	20.192	11.604	0.495
327.500	246.020	80.003	19.994	103.213	20.192	11.577	0.504
328.000	246.215	80.005	19.995	103.212	20.190	11.734	0.496
328.500	246.475	79.999	19.995	103.213	20.191	11.671	0.462
329.000	246.732	80.002	19.994	103.214	20.187	11.940	0.486
329.500	247.005	80.004	19.995	103.215	20.188	11.845	0.523
330.000	247.218	79.999	19.996	103.214	20.189	11.776	0.508
330.500	247.466	80.003	19.994	103.212	20.190	11.762	0.474
331.000	247.698	80.007	19.995	103.212	20.190	11.736	0.471
331.500	247.991	80.004	19.995	103.213	20.189	11.774	0.502
332.000	248.202	80.004	19.995	103.213	20.188	11.903	0.514
332.500	248.497	80.002	19.995	103.216	20.184	12.128	0.505
333.000	248.713	80.005	19.995	103.217	20.189	11.801	0.509
333.500	249.011	80.006	19.995	103.217	20.186	11.975	0.513
334.000	249.212	80.003	19.996	103.217	20.184	12.130	0.506
334.500	249.499	79.999	19.997	103.216	20.186	11.993	0.493
335.000	249.776	80.005	19.995	103.212	20.185	12.070	0.526
335.500	250.020	80.005	19.994	103.213	20.182	12.264	0.543
336.000	250.248	80.003	19.995	103.213	20.181	12.315	0.497
336.500	250.520	79.998	19.998	103.214	20.185	12.071	0.486
337.000	250.782	79.994	19.996	103.213	20.181	12.353	0.517
337.500	251.012	79.996	19.997	103.214	20.181	12.359	0.513
338.000	251.254	80.006	19.996	103.212	20.181	12.375	0.482
338.500	251.538	80.005	19.995	103.211	20.179	12.461	0.500
339.000	251.788	80.002	19.995	103.211	20.178	12.541	0.530
339.500	252.016	79.997	19.996	103.217	20.178	12.565	0.505
340.000	252.261	80.002	19.995	103.219	20.175	12.740	0.475
340.500	252.515	80.004	19.996	103.226	20.174	12.784	0.486
341.000	252.752	80.002	19.995	103.226	20.176	12.697	0.495
341.500	253.028	80.004	19.995	103.228	20.174	12.805	0.502
342.000	253.285	80.003	19.994	103.225	20.174	12.843	0.523
342.500	253.510	80.003	19.996	103.224	20.174	12.816	0.507
343.000	253.777	80.002	19.995	103.220	20.174	12.779	0.487
343.500	254.008	80.003	19.995	103.220	20.170	13.081	0.495
344.000	254.243	80.002	19.994	103.220	20.171	13.022	0.482
344.500	254.548	80.002	19.995	103.220	20.171	13.017	0.503
345.000	254.775	80.002	19.994	103.221	20.169	13.172	0.536
345.500	255.043	80.003	19.995	103.222	20.172	12.937	0.513
346.000	255.298	80.003	19.996	103.223	20.169	13.155	0.509
346.500	255.541	80.002	19.995	103.223	20.172	12.943	0.511
347.000	255.799	80.003	19.994	103.226	20.167	13.302	0.499
347.500	256.074	80.002	19.995	103.231	20.166	13.337	0.517
348.000	256.301	80.004	19.993	103.235	20.167	13.315	0.518
348.500	256.548	80.000	19.996	103.236	20.169	13.143	0.488
349.000	256.795	80.005	19.994	103.236	20.167	13.298	0.484
349.500	257.024	80.003	19.995	103.235	20.167	13.308	0.485
350.000	257.283	80.002	19.996	103.234	20.165	13.405	0.482
350.500	257.533	80.001	19.996	103.232	20.164	13.511	0.499
351.000	257.745	80.002	19.995	103.231	20.164	13.488	0.486
351.500	258.061	80.001	19.995	103.229	20.163	13.549	0.495
352.000	258.309	80.002	19.995	103.227	20.162	13.611	0.545
352.500	258.557	80.001	19.997	103.223	20.161	13.673	0.530
353.000	258.789	80.002	19.997	103.222	20.160	13.773	0.488
353.500	259.041	80.001	19.996	103.226	20.158	13.895	0.482
354.000	259.306	80.003	19.994	103.232	20.158	13.880	0.500
354.500	259.540	80.003	19.995	103.238	20.160	13.773	0.508
355.000	259.791	80.003	19.995	103.238	20.156	13.989	0.492
355.500	260.042	80.002	19.996	103.238	20.155	14.071	0.493
356.000	260.323	80.001	19.997	103.235	20.153	14.194	0.517
356.500	260.552	80.005	19.996	103.231	20.155	14.098	0.521
357.000	260.784	80.003	19.996	103.228	20.153	14.204	0.486
357.500	261.040	80.001	19.996	103.230	20.152	14.293	0.474
358.000	261.307	80.005	19.997	103.234	20.153	14.226	0.505
358.500	261.534	80.000	19.996	103.238	20.150	14.444	0.508
359.000	261.794	80.003	19.996	103.241	20.150	14.435	0.491
359.500	262.057	80.000	19.996	103.238	20.149	14.501	0.505
360.000	262.289	80.002	19.997	103.235	20.149	14.518	0.509
360.500	262.551	80.002	19.997	103.230	20.148	14.558	0.494
361.000	262.781	80.004	19.996	103.226	20.149	14.495	0.493
361.500	263.021	80.003	19.996	103.228	20.146	14.675	0.481
362.000	263.291	80.006	19.996	103.231	20.147	14.636	0.490
362.500	263.554	80.004	19.996	103.237	20.142	14.961	0.522
363.000	263.804	80.005	19.997	103.236	20.144	14.846	0.523
363.500	264.070	80.002	19.998	103.237	20.141	15.005	0.515
364.000	264.310	79.999	19.997	103.232	20.141	15.032	0.511
364.500	264.579	80.006	19.995	103.229	20.143	14.919	0.508
365.000	264.792	80.005	19.995	103.226	20.139	15.142	0.495
365.500	265.054	80.004	19.996	103.231	20.143	14.866	0.479
366.000	265.272	80.006	19.995	103.233	20.139	15.135	0.478
366.500	265.538	80.005	19.997	103.234	20.138	15.251	0.482
367.000	265.799	79.999	19.997	103.239	20.136	15.333	0.505
367.500	266.017	80.001	19.996	103.241	20.139	15.189	0.503
368.000	266.261	80.001	19.996	103.240	20.135	15.428	0.470
368.500	266.519	80.002	19.996	103.241	20.138	15.263	0.482
369.000	266.748	80.005	19.997	103.243	20.135	15.406	0.494
369.500	266.987	80.005	19.996	103.244	20.135	15.430	0.477
370.000	267.252	80.006	19.998	103.247	20.134	15.518	0.487
370.500	267.541	80.005	19.996	103.249	20.134	15.514	0.529
371.000	267.758	79.996	19.996	103.249	20.131	15.677	0.530
371.500	267.994	79.998	19.995	103.247	20.133	15.576	0.479
372.000	268.309	80.015	19.994	103.245	20.131	15.719	0.502
372.500	268.516	80.006	19.996	103.247	20.132	15.655	0.537
373.000	268.748	80.005	19.996	103.246	20.131	15.670	0.481
373.500	269.041	80.004	19.995	103.243	20.129	15.840	0.482
374.000	269.244	80.004	19.996	103.242	20.130	15.770	0.510
374.500	269.498	79.991	19.996	103.245	20.128	15.880	0.477
375.000	269.747	79.996	19.997	103.241	20.127	15.972	0.481
375.500	270.032	79.997	19.995	103.240	20.125	16.102	0.518
376.000	270.247	80.002	19.996	103.244	20.124	16.152	0.517
376.500	270.517	80.005	19.995	103.246	20.122	16.295	0.492
377.000	270.795	80.006	19.995	103.247	20.120	16.434	0.516
377.500	271.023	79.997	19.996	103.249	20.123	16.216	0.527
378.000	271.294	79.998	19.995	103.251	20.118	16.586	0.503
378.500	271.579	80.007	19.994	103.249	20.119	16.476	0.528
379.000	271.811	79.999	19.995	103.248	20.118	16.562	0.537
379.500	272.081	80.012	19.994	103.244	20.117	16.655	0.510
380.000	272.295	80.005	19.994	103.245	20.116	16.701	0.493
380.500	272.547	80.004	19.994	103.246	20.115	16.761	0.474
381.000	272.808	80.004	19.996	103.249	20.112	16.950	0.490
381.500	273.060	80.004	19.995	103.251	20.112	16.983	0.513
382.000	273.305	80.006	19.995	103.252	20.111	17.025	0.505
382.500	273.503	80.008	19.993	103.250	20.111	17.031	0.470
383.000	273.788	80.010	19.994	103.250	20.107	17.299	0.463
383.500	274.037	80.006	19.995	103.251	20.108	17.250	0.509
384.000	274.282	80.004	19.994	103.252	20.107	17.305	0.515
384.500	274.563	80.006	19.995	103.252	20.108	17.252	0.510
385.000	274.802	80.010	19.992	103.250	20.106	17.381	0.522
385.500	275.054	80.003	19.994	103.248	20.107	17.339	0.506
386.001	275.289	80.008	19.994	103.245	20.103	17.584	0.489
386.501	275.510	80.007	19.995	103.245	20.106	17.345	0.471
387.000	275.813	80.006	19.995	103.246	20.105	17.422	0.490
387.500	276.078	80.005	19.995	103.248	20.104	17.532	0.546
388.000	276.317	80.006	19.995	103.249	20.103	17.566	0.536
388.500	276.587	80.010	19.993	103.250	20.102	17.676	0.506
389.000	276.804	80.006	19.994	103.250	20.101	17.704	0.498
389.500	277.028	80.007	19.993	103.249	20.097	17.952	0.464
390.000	277.239	80.003	19.995	103.250	20.097	18.014	0.438
390.500	277.514	80.005	19.994	103.251	20.097	17.983	0.460
391.000	277.725	80.005	19.995	103.251	20.095	18.131	0.486
391.500	278.006	80.009	19.994	103.251	20.096	18.073	0.489
392.000	278.224	80.003	19.995	103.252	20.093	18.252	0.496
392.500	278.519	80.006	19.995	103.252	20.090	18.455	0.507
393.000	278.738	80.003	19.995	103.253	20.089	18.494	0.513
393.500	278.973	80.006	19.994	103.254	20.091	18.411	0.483
394.000	279.230	80.000	19.995	103.253	20.089	18.539	0.473
394.500	279.472	80.004	19.994	103.253	20.089	18.547	0.496
395.000	279.719	80.004	19.995	103.253	20.086	18.693	0.494
395.500	279.964	80.004	19.995	103.252	20.086	18.698	0.490
396.000	280.198	80.005	19.995	103.252	20.085	18.806	0.486
396.500	280.449	80.003	19.994	103.252	20.084	18.853	0.483
397.000	280.692	80.001	19.995	103.252	20.085	18.818	0.489
397.500	280.972	80.006	19.994	103.252	20.084	18.840	0.508
398.000	281.212	80.004	19.995	103.253	20.081	19.048	0.522
398.500	281.472	80.004	19.994	103.254	20.084	18.860	0.510
399.000	281.689	80.002	19.994	103.254	20.080	19.131	0.488
399.500	281.979	80.006	19.994	103.254	20.078	19.234	0.492
400.000	282.211	80.002	19.995	103.254	20.079	19.223	0.515
400.500	282.471	80.005	19.995	103.253	20.079	19.158	0.507
401.000	282.719	80.002	19.994	103.253	20.077	19.335	0.500
401.500	282.945	79.999	19.995	103.255	20.077	19.321	0.491
402.000	283.226	80.000	19.995	103.254	20.077	19.338	0.491
402.500	283.483	80.001	19.994	103.254	20.075	19.443	0.522
403.000	283.721	80.004	19.995	103.256	20.071	19.725	0.516
403.500	283.957	80.002	19.995	103.256	20.071	19.713	0.485
404.000	284.186	80.004	19.995	103.258	20.072	19.632	0.470
404.500	284.468	80.007	19.994	103.261	20.072	19.666	0.488
405.000	284.695	80.005	19.994	103.264	20.070	19.774	0.510
405.500	284.934	80.007	19.993	103.264	20.065	20.113	0.487
406.000	285.169	80.002	19.995	103.266	20.067	19.972	0.470
406.500	285.416	80.005	19.995	103.263	20.063	20.272	0.478
407.000	285.685	80.002	19.994	103.262	20.065	20.162	0.499
407.500	285.940	80.003	19.993	103.261	20.066	20.089	0.520
408.000	286.182	80.004	19.995	103.261	20.065	20.113	0.511
408.500	286.473	80.016	19.992	103.262	20.061	20.418	0.515
409.000	286.677	80.004	19.994	103.269	20.059	20.531	0.514
409.500	286.941	79.999	19.993	103.268	20.057	20.669	0.481
410.000	287.207	80.003	19.994	103.268	20.057	20.654	0.499
410.500	287.446	80.002	19.995	103.266	20.058	20.620	0.518
411.000	287.711	80.005	19.995	103.264	20.054	20.859	0.505
411.500	287.909	79.994	19.996	103.257	20.054	20.854	0.484
412.000	288.170	80.002	19.993	103.256	20.054	20.842	0.461
412.500	288.427	80.003	19.994	103.258	20.054	20.903	0.489
413.000	288.669	80.005	19.993	103.264	20.051	21.073	0.508
413.500	288.924	80.007	19.994	103.265	20.051	21.089	0.498
414.000	289.198	80.003	19.994	103.268	20.048	21.304	0.513
414.500	289.426	80.004	19.994	103.271	20.045	21.459	0.515
415.000	289.666	80.004	19.994	103.270	20.046	21.415	0.485
415.500	289.931	79.990	19.995	103.266	20.046	21.441	0.486
416.000	290.175	80.002	19.995	103.268	20.044	21.580	0.507
416.500	290.439	80.000	19.994	103.268	20.043	21.642	0.509
417.000	290.676	80.005	19.995	103.267	20.043	21.587	0.505
417.500	290.946	80.002	19.994	103.268	20.039	21.850	0.504
418.000	291.202	80.006	19.994	103.269	20.039	21.909	0.517
418.500	291.478	80.004	19.994	103.270	20.036	22.100	0.529
419.000	291.703	80.004	19.994	103.271	20.034	22.225	0.516
419.500	291.946	80.003	19.993	103.270	20.037	22.004	0.484
420.000	292.201	80.007	19.994	103.274	20.035	22.144	0.483
420.500	292.430	80.005	19.993	103.279	20.034	22.250	0.491
421.000	292.679	80.005	19.993	103.279	20.030	22.498	0.481
421.500	292.970	80.001	19.993	103.283	20.031	22.436	0.509
422.000	293.181	80.005	19.995	103.288	20.026	22.752	0.521
422.500	293.445	80.006	19.995	103.282	20.023	22.944	0.489
423.000	293.656	80.004	19.995	103.275	20.025	22.843	0.475
423.500	293.906	80.002	19.995	103.270	20.022	23.003	0.468
424.000	294.160	80.010	19.994	103.268	20.022	23.014	0.482
424.500	294.417	80.012	19.994	103.268	20.017	23.362	0.508
425.000	294.670	79.999	19.996	103.275	20.017	23.373	0.511
425.500	294.945	80.021	19.992	103.278	20.015	23.520	0.518
426.000	295.178	80.003	19.995	103.287	20.018	23.313	0.518
426.500	295.436	80.004	19.995	103.288	20.015	23.519	0.500
427.000	295.651	80.006	19.996	103.289	20.008	23.988	0.483
427.500	295.912	80.002	19.996	103.287	20.010	23.853	0.475
428.000	296.170	80.002	19.996	103.289	20.006	24.108	0.497
428.500	296.424	79.998	19.995	103.284	20.005	24.192	0.515
429.000	296.642	79.996	19.998	103.286	20.004	24.242	0.492
429.500	296.886	80.002	19.997	103.283	20.003	24.299	0.467
430.000	297.191	80.015	19.995	103.284	20.001	24.441	0.506
430.500	297.416	80.012	19.995	103.289	20.003	24.309	0.540
431.000	297.652	80.006	19.996	103.291	20.001	24.448	0.495
431.500	297.915	80.011	19.995	103.291	19.998	24.616	0.480
432.000	298.155	80.015	19.994	103.295	19.996	24.789	0.501
432.500	298.368	80.000	19.996	103.298	19.995	24.814	0.478
433.000	298.697	80.000	19.995	103.294	19.996	24.798	0.497
433.500	298.891	79.991	19.997	103.293	19.990	25.169	0.532
434.000	299.215	80.015	19.996	103.292	19.991	25.072	0.520
434.500	299.444	80.004	19.995	103.291	19.985	25.493	0.536
435.000	299.664	80.004	19.995	103.288	19.988	25.310	0.501
435.500	299.905	80.005	19.996	103.285	19.982	25.713	0.455
436.000	300.157	80.007	19.995	103.283	19.983	25.652	0.477
436.500	300.405	80.001	19.996	103.287	19.984	25.585	0.497
437.000	300.653	80.005	19.995	103.286	19.980	25.877	0.498
437.500	300.875	80.002	19.995	103.288	19.977	26.029	0.483
438.000	301.157	80.002	19.995	103.292	19.976	26.139	0.487
438.500	301.384	80.002	19.997	103.292	19.977	26.068	0.506
439.000	301.650	80.004	19.995	103.289	19.974	26.266	0.501
439.500	301.946	80.007	19.994	103.290	19.973	26.305	0.528
440.000	302.165	80.015	19.993	103.290	19.968	26.657	0.539
440.500	302.407	80.006	19.994	103.294	19.964	26.945	0.488
441.000	302.628	80.010	19.996	103.297	19.962	27.036	0.462
441.500	302.894	80.006	19.996	103.298	19.959	27.251	0.475
442.000	303.169	80.005	19.994	103.297	19.958	27.321	0.513
442.500	303.391	80.003	19.996	103.296	19.956	27.492	0.519
443.000	303.650	80.003	19.995	103.293	19.955	27.500	0.490
443.500	303.916	80.004	19.995	103.290	19.954	27.615	0.503
444.000	304.164	80.003	19.995	103.291	19.950	27.857	0.519
444.500	304.437	80.007	19.996	103.291	19.950	27.879	0.517
445.000	304.685	80.005	19.994	103.290	19.946	28.158	0.521
445.500	304.945	80.004	19.995	103.292	19.943	28.313	0.515
446.000	305.209	80.006	19.994	103.298	19.944	28.289	0.516
446.500	305.447	80.007	19.995	103.299	19.941	28.462	0.513
447.000	305.706	80.004	19.996	103.299	19.938	28.671	0.499
447.500	305.934	80.006	19.994	103.301	19.936	28.796	0.492
448.000	306.234	80.005	19.995	103.304	19.934	28.936	0.508
448.500	306.440	80.002	19.996	103.300	19.929	29.249	0.517
449.000	306.743	80.006	19.994	103.299	19.928	29.353	0.507
449.500	306.960	79.992	19.998	103.300	19.926	29.469	0.515
450.000	307.216	80.007	19.997	103.295	19.924	29.646	0.497
450.500	307.494	80.017	19.994	103.291	19.922	29.770	0.504
451.000	307.706	80.006	19.994	103.292	19.920	29.902	0.512
451.500	307.961	80.006	19.996	103.297	19.915	30.197	0.478
452.000	308.185	80.004	19.995	103.300	19.914	30.254	0.473
452.500	308.447	79.998	19.997	103.306	19.912	30.398	0.483
453.000	308.687	80.012	19.995	103.306	19.910	30.563	0.494
453.500	308.946	80.014	19.995	103.303	19.905	30.858	0.501
454.000	309.198	80.015	19.997	103.299	19.901	31.133	0.505
454.500	309.450	79.995	19.997	103.298	19.903	31.009	0.508
455.000	309.691	80.000	19.996	103.301	19.896	31.491	0.498
455.500	309.947	79.995	19.997	103.308	19.896	31.483	0.494
456.000	310.225	79.998	19.997	103.311	19.896	31.503	0.515
456.500	310.445	80.001	19.996	103.316	19.892	31.744	0.516
457.000	310.778	80.016	19.994	103.320	19.891	31.835	0.526
457.500	310.960	80.013	19.995	103.326	19.886	32.150	0.534
458.000	311.240	79.997	19.998	103.328	19.884	32.293	0.488
458.500	311.529	80.008	19.995	103.329	19.882	32.450	0.515
459.000	311.748	80.004	19.996	103.332	19.880	32.561	0.539
459.500	311.982	80.003	19.997	103.334	19.876	32.806	0.480
460.000	312.229	79.996	20.000	103.331	19.876	32.806	0.467
460.500	312.550	80.004	19.998	103.327	19.874	32.974	0.525
461.000	312.735	79.998	19.997	103.328	19.871	33.193	0.538
461.500	313.019	79.996	19.996	103.323	19.869	33.282	0.487
462.000	313.271	80.012	19.998	103.320	19.866	33.537	0.502
462.500	313.514	80.000	19.996	103.320	19.861	33.849	0.516
463.000	313.765	80.009	19.994	103.323	19.861	33.854	0.494
463.500	314.049	80.013	19.994	103.324	19.858	34.061	0.514
464.000	314.267	80.007	19.997	103.325	19.852	34.419	0.519
464.500	314.515	80.000	19.996	103.323	19.849	34.659	0.484
465.000	314.768	80.009	19.994	103.323	19.848	34.714	0.484
465.500	315.013	80.002	19.995	103.327	19.848	34.744	0.499
466.000	315.303	80.001	19.994	103.327	19.845	34.945	0.516
466.500	315.540	80.007	19.996	103.332	19.842	35.108	0.531
467.000	315.742	80.001	19.995	103.337	19.839	35.360	0.483
467.500	316.005	80.002	19.994	103.337	19.838	35.364	0.452
468.000	316.270	80.007	19.993	103.334	19.833	35.727	0.496
468.500	316.532	80.010	19.996	103.336	19.832	35.787	0.528
469.000	316.801	80.006	19.995	103.335	19.827	36.142	0.529
469.500	317.028	80.002	19.994	103.334	19.823	36.381	0.513
470.000	317.274	79.998	19.994	103.333	19.822	36.480	0.484
470.500	317.559	80.008	19.994	103.333	19.819	36.668	0.502
471.001	317.784	80.001	19.994	103.332	19.813	37.079	0.521
471.501	318.030	80.005	19.994	103.329	19.810	37.251	0.490
472.000	318.288	80.009	19.994	103.329	19.810	37.309	0.487
472.500	318.545	80.003	19.995	103.333	19.808	37.417	0.510
473.000	318.793	80.006	19.994	103.336	19.802	37.796	0.510
473.500	319.032	80.003	19.994	103.336	19.803	37.766	0.496
474.000	319.278	80.001	19.995	103.337	19.800	37.985	0.486
474.500	319.566	79.999	19.993	103.335	19.796	38.196	0.510
475.000	319.750	79.978	19.997	103.334	19.796	38.219	0.503
475.500	320.047	80.000	19.995	103.329	19.789	38.716	0.476
476.000	320.287	80.004	19.997	103.330	19.789	38.714	0.509
476.500	320.512	80.003	19.993	103.328	19.788	38.725	0.501
477.000	320.768	80.015	19.993	103.330	19.787	38.810	0.473
477.500	321.037	79.996	19.995	103.331	19.782	39.158	0.503
478.000	321.266	80.003	19.996	103.340	19.780	39.331	0.512
478.500	321.513	80.004	19.995	103.341	19.779	39.401	0.487
479.000	321.820	80.001	19.995	103.344	19.771	39.875	0.515
479.500	322.015	80.007	19.995	103.347	19.771	39.922	0.527
480.000	322.331	79.998	19.996	103.349	19.767	40.144	0.506
480.500	322.568	80.001	19.995	103.350	19.767	40.196	0.532
481.000	322.809	80.006	19.994	103.351	19.762	40.517	0.516
481.500	323.048	80.011	19.995	103.356	19.759	40.701	0.480
482.000	323.273	80.007	19.993	103.359	19.757	40.872	0.472
482.500	323.529	80.006	19.994	103.359	19.754	41.047	0.472
483.000	323.785	79.988	19.996	103.360	19.754	41.062	0.496
483.500	324.045	80.004	19.994	103.362	19.749	41.366	0.514
484.000	324.275	80.006	19.994	103.360	19.744	41.697	0.503
484.500	324.526	80.005	19.995	103.360	19.747	41.529	0.485
485.000	324.771	80.000	19.997	103.357	19.738	42.153	0.488
485.500	325.006	80.007	19.994	103.351	19.736	42.277	0.488
486.000	325.262	80.000	19.995	103.348	19.735	42.312	0.486
486.500	325.538	79.998	19.996	103.349	19.728	42.766	0.512
487.000	325.778	79.985	19.995	103.348	19.730	42.657	0.524
487.500	326.007	80.009	19.994	103.350	19.728	42.785	0.492
488.000	326.290	80.001	19.995	103.356	19.724	43.071	0.491
488.500	326.569	80.000	19.994	103.361	19.721	43.262	0.537
489.000	326.798	80.010	19.996	103.365	19.719	43.387	0.535
489.500	327.036	80.000	19.997	103.367	19.717	43.535	0.488
490.000	327.253	79.997	19.997	103.366	19.713	43.838	0.461
490.500	327.506	80.004	19.995	103.364	19.711	43.966	0.463
491.000	327.776	80.009	19.996	103.364	19.708	44.108	0.496
491.500	328.036	80.011	19.995	103.362	19.706	44.251	0.526
492.000	328.264	80.000	19.996	103.363	19.703	44.502	0.509
492.500	328.507	80.005	19.994	103.365	19.700	44.678	0.480
493.000	328.768	80.001	19.995	103.368	19.698	44.822	0.487
493.500	329.038	80.001	19.995	103.367	19.696	44.954	0.517
494.000	329.271	80.005	19.994	103.363	19.692	45.192	0.517
494.500	329.553	80.002	19.995	103.362	19.692	45.248	0.509
495.000	329.781	80.006	19.995	103.363	19.689	45.425	0.513
495.500	330.055	80.004	19.995	103.364	19.686	45.616	0.506
496.000	330.286	80.003	19.996	103.367	19.685	45.701	0.503
496.500	330.543	79.997	19.995	103.371	19.683	45.821	0.497
497.000	330.795	80.004	19.995	103.371	19.679	46.067	0.498
497.500	331.030	79.999	19.996	103.372	19.678	46.183	0.498
498.000	331.274	80.004	19.996	103.369	19.672	46.561	0.483
498.500	331.544	80.015	19.993	103.368	19.671	46.660	0.497
499.000	331.777	80.006	19.995	103.371	19.667	46.916	0.508
499.500	332.013	80.022	19.992	103.370	19.662	47.221	0.486
500.000	332.339	80.004	19.995	103.373	19.663	47.174	0.516
500.500	332.509	80.004	19.993	103.375	19.661	47.302	0.529
501.000	332.795	80.006	19.994	103.375	19.657	47.545	0.476
501.500	333.081	80.007	19.995	103.373	19.656	47.629	0.514
502.000	333.327	80.008	19.995	103.372	19.651	47.953	0.552
502.500	333.555	79.992	19.997	103.368	19.649	48.135	0.503
503.000	333.855	80.013	19.993	103.364	19.644	48.418	0.501
503.500	334.098	80.000	19.994	103.366	19.646	48.278	0.535
504.000	334.375	79.999	19.994	103.367	19.642	48.549	0.531
504.500	334.620	79.997	19.996	103.369	19.639	48.799	0.521
505.000	334.857	80.015	19.993	103.368	19.638	48.875	0.502
505.500	335.105	79.998	19.994	103.375	19.636	49.004	0.484
506.000	335.381	79.995	19.996	103.373	19.635	49.051	0.505
506.500	335.591	79.996	19.996	103.371	19.634	49.131	0.505
507.000	335.848	80.002	19.994	103.365	19.629	49.476	0.476
507.500	336.109	80.000	19.996	103.366	19.626	49.644	0.493
508.000	336.370	80.011	19.994	103.363	19.625	49.743	0.520
508.500	336.628	80.010	19.994	103.363	19.623	49.895	0.520
509.000	336.886	79.999	19.995	103.368	19.621	50.002	0.517
509.500	337.165	80.003	19.995	103.371	19.619	50.132	0.526
510.000	337.394	80.012	19.993	103.375	19.613	50.532	0.523
510.500	337.665	80.001	19.996	103.382	19.611	50.678	0.504
511.000	337.897	80.010	19.994	103.382	19.610	50.747	0.502
511.500	338.138	80.005	19.995	103.383	19.605	51.053	0.488
512.000	338.408	80.006	19.995	103.383	19.605	51.095	0.492
512.500	338.654	80.001	19.995	103.386	19.605	51.086	0.514
513.000	338.903	79.990	19.996	103.382	19.597	51.618	0.506
513.500	339.139	79.994	19.997	103.383	19.599	51.465	0.490
514.000	339.423	79.998	19.994	103.377	19.594	51.796	0.502
514.500	339.695	80.001	19.996	103.380	19.592	51.958	0.538
515.000	339.942	80.007	19.994	103.377	19.591	52.046	0.537
515.500	340.205	80.000	19.995	103.377	19.589	52.171	0.514
516.000	340.432	80.007	19.994	103.380	19.584	52.492	0.500
516.500	340.692	79.998	19.997	103.386	19.583	52.571	0.489
517.000	340.945	79.997	19.997	103.387	19.582	52.651	0.500
517.500	341.177	80.006	19.996	103.390	19.576	53.056	0.499
518.000	341.448	80.004	19.995	103.396	19.576	53.052	0.494
518.500	341.716	80.004	19.996	103.400	19.575	53.134	0.521
519.000	341.969	80.008	19.994	103.402	19.575	53.103	0.531
519.500	342.287	80.002	19.996	103.406	19.568	53.569	0.547
520.000	342.511	80.005	19.995	103.409	19.565	53.789	0.557
520.500	342.771	80.010	19.995	103.409	19.562	53.955	0.513
521.000	342.973	80.004	19.996	103.410	19.560	54.088	0.472
521.500	343.244	79.995	19.998	103.410	19.554	54.501	0.467
522.000	343.495	80.000	19.998	103.405	19.556	54.377	0.498
522.500	343.769	80.005	19.995	103.401	19.551	54.680	0.524
523.000	343.990	80.002	19.995	103.401	19.547	54.951	0.510
523.500	344.264	79.999	19.997	103.398	19.546	55.029	0.495
524.000	344.539	80.007	19.996	103.396	19.543	55.284	0.522
524.500	344.769	79.989	19.997	103.402	19.539	55.557	0.527
525.000	345.046	80.013	19.994	103.404	19.537	55.644	0.506
525.500	345.293	79.995	19.996	103.406	19.533	55.953	0.515
526.000	345.573	80.002	19.995	103.405	19.533	55.948	0.526
526.500	345.845	80.015	19.994	103.406	19.530	56.109	0.540
527.000	346.071	80.007	19.995	103.408	19.527	56.305	0.525
527.500	346.332	80.007	19.994	103.412	19.522	56.666	0.492
528.000	346.606	80.009	19.994	103.414	19.521	56.712	0.511
528.500	346.882	80.001	19.995	103.419	19.521	56.759	0.542
529.000	347.123	79.998	19.992	103.425	19.515	57.152	0.534
529.500	347.375	80.002	19.996	103.427	19.512	57.320	0.505
530.000	347.621	80.003	19.995	103.427	19.511	57.435	0.496
530.500	347.916	80.005	19.994	103.427	19.507	57.663	0.519
531.000	348.169	79.990	19.995	103.426	19.503	57.934	0.544
531.500	348.412	79.989	19.996	103.422	19.499	58.232	0.522
532.000	348.680	80.002	19.995	103.414	19.495	58.498	0.504
532.500	348.916	80.001	19.994	103.416	19.495	58.521	0.508
533.001	349.204	80.005	19.995	103.416	19.489	58.913	0.514
533.500	349.458	80.004	19.995	103.415	19.489	58.880	0.533
534.000	349.691	80.010	19.993	103.415	19.486	59.077	0.514
534.500	349.968	80.007	19.994	103.423	19.483	59.310	0.499
535.000	350.257	79.998	19.996	103.424	19.478	59.603	0.538
535.500	350.477	79.993	19.997	103.428	19.478	59.628	0.538
536.000	350.722	80.005	19.995	103.429	19.474	59.885	0.487
536.500	350.966	80.004	19.995	103.431	19.469	60.269	0.477
537.000	351.289	79.998	19.996	103.430	19.469	60.259	0.528
537.500	351.504	80.007	19.994	103.432	19.466	60.458	0.552
538.000	351.788	80.002	19.995	103.433	19.463	60.615	0.518
538.500	352.007	80.002	19.995	103.439	19.461	60.796	0.501
539.000	352.273	80.006	19.995	103.443	19.454	61.258	0.494
539.500	352.561	80.007	19.993	103.445	19.451	61.479	0.519
540.000	352.806	80.002	19.995	103.447	19.449	61.567	0.543
540.500	353.090	80.012	19.992	103.446	19.446	61.769	0.531
541.000	353.342	80.006	19.993	103.448	19.441	62.116	0.532
541.500	353.620	79.997	19.995	103.450	19.437	62.366	0.533
542.000	353.870	80.001	19.995	103.452	19.437	62.406	0.529
542.500	354.160	80.003	19.994	103.452	19.435	62.542	0.534
543.000	354.419	80.004	19.995	103.452	19.433	62.650	0.544
543.500	354.656	80.003	19.995	103.450	19.425	63.223	0.522
544.000	354.923	80.001	19.996	103.444	19.422	63.423	0.500
544.500	355.155	79.998	19.997	103.438	19.424	63.267	0.502
545.000	355.432	80.006	19.994	103.434	19.418	63.707	0.504
545.500	355.699	80.004	19.994	103.434	19.412	64.058	0.526
546.000	355.973	80.005	19.996	103.433	19.409	64.282	0.542
546.500	356.188	80.007	19.996	103.438	19.404	64.607	0.515
547.000	356.437	79.995	19.997	103.443	19.400	64.872	0.477
547.500	356.743	79.996	19.996	103.445	19.395	65.198	0.509
548.000	356.965	80.002	19.996	103.443	19.395	65.248	0.542
548.500	357.287	80.012	19.994	103.440	19.392	65.456	0.536
549.000	357.518	80.005	19.997	103.441	19.390	65.562	0.548
549.500	357.779	80.004	19.997	103.444	19.383	66.014	0.523
550.000	358.054	80.008	19.995	103.445	19.382	66.132	0.514
550.500	358.257	80.005	19.996	103.447	19.378	66.395	0.507
551.000	358.540	80.007	19.997	103.447	19.373	66.713	0.482
551.500	358.807	80.015	19.996	103.444	19.370	66.904	0.518
552.000	359.081	80.003	19.997	103.442	19.369	66.985	0.545
552.500	359.354	80.012	19.996	103.444	19.362	67.459	0.544
553.000	359.596	79.998	19.998	103.444	19.360	67.604	0.531
553.500	359.865	80.008	19.995	103.451	19.357	67.789	0.513
554.000	360.136	80.003	19.998	103.456	19.356	67.872	0.525
554.500	360.367	80.005	19.995	103.456	19.351	68.208	0.521
555.000	360.620	80.005	19.995	103.457	19.346	68.545	0.493
555.500	360.869	80.004	19.996	103.455	19.345	68.610	0.493
556.000	361.101	80.005	19.995	103.450	19.341	68.833	0.492
556.500	361.399	79.999	19.996	103.443	19.336	69.174	0.506
557.000	361.695	80.025	19.993	103.441	19.334	69.321	0.562
557.500	361.922	80.008	19.994	103.445	19.334	69.346	0.558
558.000	362.183	80.011	19.994	103.450	19.328	69.709	0.505
558.500	362.441	80.025	19.991	103.455	19.327	69.788	0.504
559.000	362.694	80.007	19.995	103.465	19.323	70.065	0.515
559.500	363.002	80.003	19.994	103.470	19.322	70.132	0.535
560.000	363.173	80.019	19.992	103.470	19.317	70.451	0.520
560.500	363.431	79.996	19.996	103.469	19.316	70.542	0.455
561.000	363.685	80.008	19.994	103.467	19.311	70.898	0.471
561.500	363.947	79.999	19.996	103.465	19.308	71.105	0.513
562.000	364.200	80.008	19.993	103.466	19.303	71.390	0.515
562.500	364.470	80.016	19.992	103.465	19.303	71.414	0.519
563.000	364.685	79.996	19.997	103.466	19.298	71.775	0.504
563.500	364.985	80.006	19.995	103.464	19.296	71.875	0.500
564.000	365.238	80.000	19.993	103.465	19.293	72.105	0.534
564.500	365.513	79.995	19.996	103.471	19.292	72.126	0.541
565.000	365.751	80.002	19.995	103.471	19.286	72.557	0.520
565.500	365.989	80.010	19.996	103.475	19.286	72.578	0.494
566.000	366.259	80.006	19.994	103.478	19.284	72.654	0.492
566.500	366.493	80.007	19.994	103.473	19.285	72.642	0.506
567.000	366.741	80.001	19.996	103.467	19.284	72.691	0.493
567.500	367.002	80.005	19.995	103.462	19.281	72.870	0.496
568.000	367.265	80.002	19.995	103.457	19.270	73.614	0.517
568.500	367.499	80.004	19.994	103.458	19.276	73.223	0.510
569.000	367.793	79.998	19.995	103.461	19.274	73.343	0.513
569.500	368.048	80.005	19.995	103.462	19.268	73.789	0.539
570.000	368.290	80.005	19.994	103.468	19.269	73.669	0.523
570.500	368.569	80.000	19.994	103.472	19.268	73.757	0.509
571.000	368.790	80.003	19.995	103.472	19.269	73.701	0.511
571.500	369.064	80.007	19.993	103.469	19.265	73.934	0.497
572.000	369.305	79.991	19.995	103.470	19.270	73.639	0.504
572.500	369.563	80.006	19.995	103.466	19.266	73.873	0.507
573.000	369.836	80.003	19.994	103.466	19.265	73.955	0.515
573.500	370.081	80.007	19.995	103.466	19.264	74.050	0.524
574.000	370.345	80.004	19.995	103.471	19.265	73.920	0.513
574.500	370.572	80.009	19.993	103.470	19.264	74.000	0.500
575.000	370.808	79.991	19.996	103.469	19.263	74.051	0.478
575.500	371.062	80.007	19.995	103.463	19.265	73.925	0.476
576.000	371.326	80.002	19.995	103.460	19.264	74.021	0.503
576.500	371.586	80.004	19.995	103.454	19.266	73.856	0.521
577.000	371.836	80.012	19.994	103.450	19.264	73.973	0.518
577.500	372.053	80.005	19.995	103.451	19.262	74.145	0.488
578.000	372.324	80.000	19.995	103.453	19.267	73.794	0.477
578.500	372.551	80.002	19.995	103.452	19.267	73.790	0.493
579.000	372.818	80.010	19.994	103.450	19.268	73.712	0.496
579.500	373.097	80.002	19.995	103.449	19.270	73.592	0.520
580.000	373.382	80.020	19.992	103.445	19.272	73.486	0.555
580.500	373.620	80.007	19.995	103.449	19.274	73.305	0.543
581.000	373.897	80.011	19.995	103.449	19.277	73.110	0.519
581.500	374.134	80.007	19.995	103.453	19.277	73.082	0.515
582.000	374.379	79.992	19.996	103.453	19.278	73.053	0.498
582.500	374.629	80.004	19.996	103.451	19.282	72.739	0.488
583.000	374.852	80.006	19.994	103.443	19.282	72.753	0.484
583.500	375.100	79.983	19.995	103.441	19.285	72.545	0.472
584.000	375.339	80.002	19.995	103.435	19.290	72.228	0.479
584.500	375.614	80.009	19.995	103.435	19.292	72.106	0.501
585.000	375.851	80.004	19.995	103.434	19.293	72.023	0.513
585.500	376.118	80.003	19.995	103.431	19.298	71.685	0.508
586.000	376.383	80.001	19.994	103.426	19.302	71.404	0.518
586.500	376.592	79.996	19.995	103.424	19.306	71.123	0.503
587.000	376.894	80.002	19.995	103.417	19.310	70.883	0.493
587.500	377.130	80.004	19.993	103.411	19.314	70.616	0.525
588.000	377.374	80.004	19.995	103.412	19.321	70.112	0.509
588.500	377.645	80.003	19.995	103.411	19.326	69.754	0.497
589.000	377.868	80.009	19.994	103.409	19.332	69.387	0.504
589.500	378.116	80.003	19.994	103.411	19.338	68.948	0.482
590.000	378.336	80.005	19.994	103.411	19.339	68.933	0.470
590.500	378.605	80.004	19.994	103.409	19.342	68.683	0.479
591.000	378.844	80.004	19.994	103.404	19.352	68.036	0.499
591.500	379.124	80.002	19.995	103.402	19.360	67.509	0.513
592.000	379.335	80.005	19.994	103.395	19.366	67.067	0.505
592.500	379.635	80.004	19.995	103.389	19.371	66.732	0.501
593.000	379.870	80.000	19.996	103.382	19.378	66.260	0.523
593.500	380.133	80.004	19.994	103.378	19.384	65.837	0.516
594.000	380.356	79.996	19.995	103.372	19.391	65.368	0.492
594.500	380.661	80.000	19.994	103.370	19.400	64.755	0.507
595.000	380.895	80.003	19.994	103.369	19.407	64.347	0.534
595.500	381.146	80.004	19.994	103.368	19.414	63.875	0.512
596.000	381.368	80.002	19.994	103.366	19.423	63.236	0.479
596.500	381.599	80.002	19.996	103.361	19.427	62.939	0.463
597.000	381.875	80.000	19.996	103.354	19.435	62.394	0.480
597.500	382.095	80.003	19.995	103.346	19.441	62.026	0.501
598.000	382.352	80.003	19.994	103.342	19.451	61.337	0.486
598.500	382.635	80.005	19.995	103.336	19.462	60.605	0.509
599.000	382.873	80.002	19.995	103.335	19.470	60.038	0.531
599.500	383.104	80.006	19.994	103.335	19.481	59.346	0.495
600.000	383.323	80.001	19.993	103.334	19.488	58.836	0.459
600.500	383.612	80.005	19.993	103.330	19.499	58.131	0.479
601.001	383.859	80.005	19.994	103.328	19.503	57.863	0.522
601.501	384.090	80.004	19.996	103.322	19.517	56.876	0.507
602.000	384.341	80.000	19.994	103.314	19.526	56.300	0.480
602.500	384.633	80.002	19.994	103.306	19.533	55.791	0.512
603.000	384.867	80.006	19.994	103.301	19.544	55.097	0.534
603.500	385.102	80.009	19.994	103.295	19.556	54.307	0.498
604.000	385.336	80.000	19.993	103.294	19.567	53.545	0.469
604.500	385.599	79.997	19.994	103.297	19.579	52.740	0.483
605.000	385.815	80.005	19.994	103.296	19.587	52.169	0.488
605.500	386.089	80.006	19.994	103.293	19.601	51.273	0.485
606.000	386.346	80.004	19.993	103.290	19.610	50.627	0.510
606.500	386.607	80.002	19.995	103.286	19.619	50.031	0.524
607.000	386.856	80.003	19.995	103.283	19.632	49.194	0.514
607.500	387.079	80.003	19.995	103.283	19.643	48.403	0.491
608.001	387.316	80.005	19.995	103.278	19.652	47.840	0.466
608.500	387.566	80.018	19.991	103.272	19.668	46.777	0.474
609.000	387.821	80.004	19.996	103.270	19.677	46.131	0.496
609.500	388.132	80.006	19.996	103.262	19.690	45.297	0.535
610.000	388.343	80.007	19.994	103.255	19.698	44.746	0.543
610.500	388.596	80.007	19.996	103.255	19.707	44.130	0.493
611.000	388.823	80.005	19.996	103.254	19.721	43.166	0.472
611.500	389.050	80.003	19.997	103.247	19.729	42.689	0.467
612.000	389.299	80.001	19.995	103.241	19.743	41.721	0.465
612.500	389.558	80.001	19.996	103.239	19.756	40.861	0.492
613.000	389.833	80.007	19.995	103.235	19.763	40.407	0.521
613.500	390.098	80.007	19.994	103.229	19.772	39.741	0.537
614.000	390.317	80.004	19.994	103.232	19.786	38.843	0.512
614.500	390.567	80.002	19.995	103.234	19.798	38.035	0.477
615.000	390.800	80.005	19.995	103.231	19.807	37.396	0.476
615.500	391.050	80.005	19.995	103.227	19.815	36.859	0.483
616.000	391.283	80.001	19.996	103.225	19.829	35.969	0.483
616.500	391.518	80.003	19.995	103.218	19.838	35.331	0.476
617.000	391.786	79.998	19.997	103.213	19.848	34.700	0.485
617.500	392.061	80.006	19.994	103.208	19.858	34.014	0.523
618.000	392.317	80.006	19.994	103.207	19.869	33.249	0.537
618.500	392.577	80.004	19.994	103.206	19.880	32.516	0.523
619.000	392.804	80.009	19.995	103.206	19.885	32.170	0.501
619.500	393.072	80.008	19.997	103.207	19.899	31.271	0.491
620.000	393.310	80.005	19.995	103.208	19.910	30.507	0.501
620.500	393.586	79.993	19.994	103.207	19.917	30.056	0.510
621.000	393.861	80.002	19.994	103.205	19.925	29.473	0.533
621.500	394.113	80.002	19.995	103.205	19.933	28.952	0.539
622.000	394.340	80.005	19.994	103.204	19.946	28.104	0.503
622.500	394.615	80.005	19.995	103.204	19.954	27.528	0.490
623.000	394.890	80.004	19.996	103.204	19.962	26.996	0.526
623.500	395.170	80.006	19.994	103.206	19.967	26.687	0.552
624.000	395.410	80.005	19.995	103.201	19.976	26.067	0.537
624.500	395.632	80.007	19.995	103.198	19.985	25.484	0.491
625.000	395.898	80.005	19.995	103.195	19.994	24.853	0.475
625.500	396.171	80.002	19.995	103.191	20.003	24.248	0.514
626.000	396.441	80.003	19.994	103.186	20.009	23.901	0.541
626.500	396.653	80.015	19.994	103.184	20.016	23.373	0.512
627.000	396.888	80.003	19.996	103.181	20.024	22.880	0.464
627.500	397.161	80.007	19.994	103.177	20.028	22.573	0.477
628.000	397.426	80.007	19.994	103.175	20.038	21.945	0.523
628.500	397.689	80.006	19.994	103.176	20.039	21.888	0.533
629.000	397.935	80.006	19.994	103.180	20.047	21.294	0.518
629.500	398.204	80.007	19.994	103.185	20.052	20.980	0.512
630.000	398.460	80.003	19.994	103.186	20.059	20.508	0.520
630.500	398.722	80.007	19.995	103.188	20.064	20.161	0.522
631.000	398.970	80.008	19.995	103.186	20.069	19.838	0.514
631.500	399.224	80.005	19.995	103.183	20.076	19.398	0.506
632.000	399.461	80.021	19.993	103.176	20.076	19.409	0.497
632.500	399.723	80.009	19.994	103.176	20.082	18.961	0.495
633.000	399.998	80.002	19.995	103.173	20.086	18.733	0.518
633.500	400.249	80.006	19.995	103.171	20.090	18.415	0.532
634.000	400.513	80.008	19.995	103.169	20.097	17.965	0.521
634.500	400.770	80.005	19.995	103.170	20.102	17.642	0.518
635.000	401.017	80.005	19.994	103.168	20.101	17.673	0.513
635.500	401.277	80.007	19.996	103.168	20.104	17.496	0.506
636.000	401.549	80.004	19.995	103.169	20.108	17.238	0.519
636.500	401.837	80.005	19.995	103.171	20.112	16.984	0.546
637.000	402.069	80.009	19.995	103.170	20.114	16.804	0.540
637.500	402.323	80.006	19.995	103.170	20.116	16.700	0.502
638.000	402.579	80.007	19.996	103.171	20.122	16.317	0.498
638.500	402.859	80.005	19.995	103.171	20.126	16.009	0.523
639.000	403.105	80.006	19.995	103.171	20.126	16.022	0.531
639.500	403.388	80.005	19.996	103.172	20.131	15.690	0.527
640.000	403.631	80.004	19.995	103.170	20.130	15.730	0.527
640.500	403.872	80.003	19.995	103.170	20.132	15.605	0.505
641.000	404.115	80.004	19.995	103.170	20.137	15.252	0.484
641.500	404.393	80.003	19.995	103.170	20.138	15.210	0.503
642.000	404.646	80.008	19.995	103.170	20.143	14.915	0.526
642.500	404.910	80.001	19.994	103.173	20.144	14.815	0.524
643.000	405.166	80.002	19.996	103.173	20.146	14.675	0.518
643.500	405.426	80.002	19.996	103.173	20.152	14.251	0.518
644.000	405.668	80.000	19.997	103.172	20.150	14.399	0.509
644.500	405.942	80.004	19.995	103.171	20.156	14.015	0.509
645.000	406.192	80.002	19.995	103.171	20.154	14.157	0.520
645.500	406.474	80.006	19.995	103.171	20.155	14.101	0.528
646.000	406.721	80.004	19.995	103.171	20.158	13.902	0.531
646.500	406.972	79.998	19.997	103.173	20.157	13.952	0.514
647.000	407.239	80.004	19.995	103.171	20.159	13.820	0.508
647.500	407.479	79.991	19.996	103.170	20.162	13.594	0.512
648.000	407.753	80.001	19.995	103.166	20.160	13.709	0.510
648.500	407.997	80.002	19.996	103.165	20.167	13.299	0.516
649.000	408.288	80.010	19.994	103.159	20.162	13.600	0.527
649.500	408.535	80.004	19.996	103.164	20.162	13.584	0.537
650.000	408.758	80.004	19.996	103.164	20.167	13.298	0.503
650.500	409.049	80.009	19.993	103.165	20.167	13.293	0.492
651.000	409.318	79.996	19.995	103.164	20.164	13.474	0.537
651.500	409.553	80.002	19.996	103.164	20.166	13.322	0.532
652.000	409.788	80.005	19.995	103.160	20.168	13.190	0.487
652.500	410.096	80.005	19.995	103.161	20.169	13.110	0.507
653.000	410.347	80.004	19.994	103.164	20.168	13.183	0.551
653.500	410.615	80.005	19.995	103.167	20.168	13.225	0.539
654.000	410.872	80.000	19.995	103.173	20.171	13.000	0.522
654.500	411.090	80.004	19.994	103.175	20.172	12.918	0.499
655.000	411.394	80.004	19.995	103.174	20.171	13.021	0.498
655.500	411.641	80.003	19.994	103.168	20.170	13.046	0.537
656.000	411.890	80.003	19.995	103.163	20.174	12.789	0.523
656.500	412.176	80.007	19.994	103.161	20.173	12.902	0.516
657.000	412.441	80.006	19.994	103.161	20.172	12.962	0.543
657.500	412.689	80.005	19.994	103.160	20.173	12.876	0.531
658.000	412.922	80.004	19.994	103.161	20.173	12.904	0.497
658.500	413.229	80.010	19.994	103.161	20.175	12.758	0.511
659.000	413.442	80.001	19.994	103.162	20.174	12.822	0.530
659.500	413.708	80.005	19.995	103.158	20.172	12.926	0.499
660.000	413.976	80.004	19.993	103.156	20.177	12.610	0.506
660.500	414.232	80.008	19.993	103.161	20.178	12.553	0.529
661.000	414.476	80.003	19.993	103.165	20.176	12.661	0.512
661.500	414.745	80.005	19.995	103.165	20.177	12.588	0.506
662.000	414.989	80.004	19.995	103.165	20.178	12.506	0.513
662.500	415.264	80.007	19.994	103.164	20.180	12.396	0.516
663.000	415.505	80.003	19.993	103.163	20.180	12.422	0.518
663.500	415.772	80.006	19.994	103.161	20.183	12.216	0.512
664.000	416.024	80.006	19.995	103.162	20.183	12.168	0.514
664.500	416.275	80.002	19.994	103.163	20.183	12.185	0.511
665.000	416.541	80.003	19.994	103.166	20.183	12.215	0.510
665.500	416.805	80.005	19.994	103.167	20.182	12.281	0.524
666.000	417.059	80.005	19.994	103.169	20.182	12.301	0.524
666.500	417.336	80.008	19.992	103.167	20.183	12.197	0.524
667.000	417.594	80.002	19.995	103.168	20.185	12.078	0.533
667.500	417.817	80.001	19.993	103.165	20.185	12.080	0.508
668.000	418.131	80.002	19.994	103.166	20.182	12.272	0.509
668.500	418.334	80.000	19.993	103.165	20.186	12.009	0.527
669.000	418.606	80.006	19.995	103.167	20.188	11.868	0.496
669.500	418.846	80.005	19.996	103.169	20.188	11.853	0.493
670.000	419.114	80.002	19.996	103.171	20.187	11.950	0.510
670.500	419.347	80.005	19.997	103.169	20.189	11.777	0.505
671.000	419.604	80.002	19.995	103.169	20.188	11.844	0.496
671.500	419.869	80.007	19.995	103.169	20.187	11.925	0.506
672.000	420.147	80.003	19.994	103.168	20.189	11.774	0.533
672.500	420.397	80.002	19.994	103.171	20.189	11.797	0.536
673.000	420.633	80.003	19.993	103.171	20.190	11.757	0.507
673.500	420.901	80.002	19.994	103.166	20.193	11.559	0.494
674.000	421.158	80.002	19.995	103.160	20.192	11.605	0.514
674.500	421.420	80.003	19.995	103.160	20.192	11.616	0.522
675.000	421.684	80.002	19.995	103.158	20.192	11.571	0.522
675.500	421.950	80.003	19.995	103.157	20.190	11.714	0.528
676.000	422.169	80.003	19.995	103.163	20.191	11.653	0.508
676.500	422.441	80.002	19.995	103.168	20.192	11.586	0.488
677.000	422.729	80.003	19.995	103.169	20.195	11.412	0.525
677.500	422.966	80.002	19.996	103.170	20.190	11.725	0.543
678.000	423.234	80.003	19.995	103.171	20.191	11.692	0.515
678.500	423.502	80.002	19.994	103.170	20.192	11.570	0.520
679.000	423.770	80.004	19.995	103.169	20.193	11.557	0.536
679.500	424.021	80.003	19.993	103.169	20.192	11.612	0.528
680.000	424.245	80.000	19.996	103.168	20.196	11.347	0.497
680.500	424.499	80.003	19.996	103.168	20.197	11.275	0.476
681.000	424.744	80.005	19.994	103.169	20.197	11.233	0.488
681.500	425.034	80.004	19.995	103.170	20.195	11.419	0.517
682.000	425.303	80.005	19.993	103.169	20.196	11.342	0.547
682.500	425.560	80.003	19.993	103.171	20.198	11.201	0.542
683.000	425.803	80.005	19.994	103.173	20.196	11.348	0.513
683.500	426.079	80.004	19.995	103.173	20.198	11.224	0.510
684.000	426.326	80.004	19.994	103.171	20.196	11.337	0.521
684.500	426.587	80.006	19.994	103.166	20.199	11.125	0.516
685.000	426.825	80.004	19.994	103.166	20.198	11.187	0.503
685.500	427.056	80.006	19.995	103.165	20.199	11.140	0.483
686.000	427.326	80.005	19.994	103.162	20.197	11.260	0.485
686.500	427.596	80.005	19.995	103.160	20.198	11.182	0.521
687.000	427.851	80.005	19.994	103.160	20.200	11.058	0.533
687.500	428.097	80.004	19.994	103.160	20.199	11.119	0.513
688.000	428.391	80.004	19.995	103.160	20.200	11.062	0.521
688.500	428.631	80.005	19.994	103.162	20.200	11.088	0.537
689.000	428.904	80.005	19.994	103.164	20.200	11.035	0.524
689.500	429.143	80.005	19.995	103.165	20.200	11.062	0.512
690.000	429.382	80.005	19.996	103.166	20.201	10.962	0.494
690.500	429.648	80.007	19.993	103.165	20.201	10.997	0.491
691.000	429.869	80.005	19.993	103.163	20.202	10.902	0.496
691.500	430.145	80.005	19.995	103.159	20.203	10.838	0.492
692.000	430.383	80.006	19.993	103.159	20.203	10.849	0.506
692.500	430.657	80.005	19.994	103.158	20.204	10.794	0.513
693.000	430.909	80.004	19.994	103.153	20.204	10.777	0.519
693.500	431.137	80.005	19.995	103.152	20.201	11.022	0.503
694.000	431.416	80.004	19.993	103.154	20.205	10.714	0.494
694.500	431.649	80.005	19.995	103.156	20.203	10.832	0.509
695.000	431.915	80.006	19.994	103.156	20.203	10.847	0.505
695.500	432.203	80.005	19.994	103.156	20.206	10.646	0.527
696.000	432.458	80.004	19.995	103.157	20.204	10.804	0.548
696.500	432.677	80.005	19.993	103.158	20.207	10.570	0.508
697.000	432.922	80.003	19.994	103.154	20.206	10.678	0.469
697.500	433.226	80.003	19.995	103.147	20.204	10.768	0.507
698.000	433.469	80.004	19.995	103.149	20.206	10.659	0.548
698.500	433.728	80.007	19.995	103.151	20.209	10.447	0.524
699.000	433.950	80.006	19.994	103.151	20.208	10.542	0.491
699.500	434.224	80.006	19.995	103.148	20.209	10.487	0.489
700.000	434.482	80.007	19.994	103.151	20.205	10.730	0.514
700.500	434.731	80.004	19.994	103.152	20.205	10.748	0.519
701.000	435.006	80.007	19.996	103.149	20.207	10.613	0.516
701.500	435.233	80.004	19.996	103.150	20.206	10.657	0.513
702.000	435.491	80.004	19.995	103.150	20.208	10.546	0.494
702.500	435.757	80.004	19.994	103.152	20.205	10.723	0.505
703.000	436.022	80.004	19.995	103.155	20.208	10.551	0.527
703.500	436.275	80.005	19.994	103.151	20.210	10.415	0.524
704.000	436.536	80.005	19.994	103.148	20.209	10.446	0.516
704.500	436.771	80.006	19.995	103.154	20.210	10.409	0.505
705.000	437.003	80.005	19.997	103.153	20.210	10.371	0.481
705.500	437.283	80.004	19.995	103.148	20.212	10.284	0.490
706.000	437.539	80.007	19.994	103.148	20.212	10.268	0.524
706.500	437.787	80.004	19.995	103.148	20.210	10.375	0.520
707.000	438.017	80.005	19.997	103.144	20.213	10.178	0.491
707.500	438.278	80.004	19.995	103.146	20.213	10.196	0.485
708.000	438.537	80.009	19.994	103.147	20.206	10.647	0.506
708.500	438.787	80.004	19.996	103.152	20.212	10.227	0.515
709.000	439.046	80.004	19.995	103.156	20.222	9.604	0.509
709.500	439.279	80.006	19.994	103.158	20.217	9.907	0.500
710.000	439.523	80.004	19.996	103.155	20.213	10.178	0.484
710.500	439.788	80.006	19.994	103.156	20.212	10.264	0.493
711.000	440.033	80.004	19.993	103.154	20.212	10.227	0.510
711.500	440.269	80.004	19.996	103.150	20.211	10.307	0.495
712.000	440.544	80.006	19.993	103.154	20.213	10.192	0.496
712.500	440.776	80.007	19.994	103.155	20.215	10.040	0.509
713.000	441.044	80.008	19.995	103.153	20.213	10.157	0.504
713.500	441.245	80.006	19.996	103.151	20.214	10.141	0.485
714.000	441.535	80.005	19.995	103.153	20.217	9.931	0.480
714.500	441.759	80.004	19.994	103.146	20.215	10.083	0.502
715.000	442.030	80.008	19.994	103.141	20.213	10.187	0.504
715.500	442.231	80.005	19.994	103.143	20.218	9.830	0.483
716.000	442.487	80.007	19.995	103.145	20.218	9.828	0.464
716.500	442.752	80.006	19.995	103.145	20.216	9.964	0.489
717.000	442.987	80.005	19.992	103.149	20.215	10.042	0.510
717.500	443.236	80.004	19.996	103.149	20.218	9.828	0.492
718.000	443.506	80.007	19.994	103.144	20.224	9.474	0.502
718.500	443.754	80.006	19.993	103.144	20.223	9.498	0.519
719.000	443.979	80.003	19.994	103.144	20.222	9.589	0.496
719.500	444.215	80.003	19.994	103.143	20.221	9.633	0.467
720.000	444.475	80.005	19.994	103.145	20.222	9.604	0.479
720.500	444.725	80.004	19.995	103.146	20.225	9.378	0.503
721.000	444.977	80.007	19.992	103.146	20.224	9.458	0.505
721.500	445.223	80.005	19.994	103.147	20.219	9.805	0.500
722.000	445.529	80.003	19.996	103.146	20.219	9.761	0.525
722.500	445.706	80.001	19.994	103.144	20.223	9.502	0.517
723.000	445.951	79.999	19.994	103.144	20.225	9.403	0.452
723.500	446.210	80.007	19.992	103.142	20.226	9.347	0.463
724.000	446.438	80.002	19.995	103.141	20.223	9.522	0.496
724.500	446.708	80.004	19.995	103.141	20.224	9.425	0.492
725.000	446.928	80.001	19.995	103.142	20.225	9.374	0.493
725.500	447.282	80.002	19.995	103.144	20.224	9.456	0.532
726.000	447.470	80.003	19.995	103.144	20.223	9.509	0.558
726.500	447.715	80.002	19.996	103.142	20.223	9.541	0.487
727.000	447.977	80.005	19.996	103.141	20.227	9.218	0.470
727.500	448.229	80.001	19.995	103.141	20.226	9.329	0.511
728.000	448.493	80.002	19.995	103.141	20.227	9.242	0.515
728.500	448.728	80.002	19.994	103.141	20.229	9.143	0.508
729.000	449.007	80.004	19.996	103.141	20.229	9.128	0.507
729.500	449.198	80.001	19.998	103.144	20.229	9.103	0.492
730.000	449.452	80.004	19.996	103.143	20.229	9.132	0.457
730.500	449.697	80.002	19.996	103.141	20.227	9.257	0.472
731.000	449.964	80.003	19.996	103.146	20.227	9.239	0.506
731.500	450.217	80.004	19.994	103.147	20.227	9.261	0.516
732.000	450.460	80.003	19.996	103.146	20.229	9.142	0.508
732.500	450.736	80.002	19.996	103.148	20.230	9.073	0.507
733.000	450.991	80.005	19.995	103.148	20.231	8.998	0.525
733.500	451.221	80.004	19.996	103.144	20.233	8.833	0.509
734.000	451.517	80.004	19.997	103.148	20.232	8.882	0.506
734.500	451.750	80.004	19.995	103.150	20.230	9.025	0.527
735.000	451.989	80.002	19.996	103.150	20.232	8.904	0.500
735.500	452.229	80.001	19.994	103.148	20.235	8.727	0.476
736.000	452.467	80.003	19.996	103.146	20.233	8.860	0.479
736.500	452.725	80.002	19.995	103.141	20.234	8.789	0.487
737.000	452.951	80.002	19.996	103.140	20.234	8.764	0.489
737.500	453.214	80.000	19.995	103.138	20.232	8.890	0.486
738.000	453.429	80.002	19.996	103.137	20.234	8.799	0.484
738.500	453.687	80.006	19.995	103.137	20.236	8.634	0.476
739.000	453.970	80.002	19.996	103.137	20.232	8.882	0.507
739.500	454.220	80.001	19.996	103.136	20.233	8.842	0.537
740.000	454.440	80.004	19.996	103.136	20.235	8.740	0.502
740.500	454.697	80.002	19.997	103.137	20.233	8.847	0.473
741.000	454.956	80.003	19.996	103.136	20.236	8.672	0.496
741.500	455.214	80.004	19.995	103.140	20.234	8.806	0.516
742.000	455.479	80.003	19.995	103.142	20.236	8.665	0.520
742.500	455.680	80.003	19.999	103.144	20.235	8.686	0.495
743.000	455.992	80.004	19.996	103.146	20.235	8.735	0.490
743.500	456.232	80.004	19.996	103.150	20.238	8.489	0.533
744.000	456.440	80.006	19.995	103.147	20.234	8.801	0.500
744.500	456.733	80.004	19.995	103.146	20.238	8.524	0.474
745.000	456.967	80.003	19.994	103.143	20.239	8.446	0.514
745.500	457.239	80.003	19.997	103.140	20.240	8.397	0.516
746.000	457.481	80.004	19.996	103.136	20.237	8.594	0.510
746.501	457.741	80.003	19.995	103.136	20.239	8.415	0.508
747.001	457.991	80.006	19.996	103.138	20.237	8.550	0.506
747.500	458.245	80.006	19.995	103.143	20.237	8.545	0.507
748.000	458.477	79.999	20.002	103.146	20.239	8.441	0.495
748.500	458.788	80.003	19.995	103.144	20.245	8.017	0.514
749.000	459.027	80.006	19.996	103.145	20.242	8.242	0.547
749.500	459.249	80.000	19.996	103.145	20.240	8.408	0.506
750.000	459.506	80.000	19.997	103.140	20.238	8.501	0.470
750.500	459.758	80.004	19.994	103.138	20.243	8.172	0.494
751.000	460.009	80.001	20.001	103.138	20.242	8.224	0.506
751.500	460.265	80.003	19.995	103.135	20.241	8.282	0.505
752.000	460.516	80.005	19.993	103.136	20.243	8.179	0.507
752.500	460.782	80.003	19.993	103.144	20.243	8.147	0.512
753.000	460.989	80.002	19.996	103.148	20.246	7.993	0.495
753.500	461.234	80.003	19.995	103.151	20.244	8.103	0.462
754.000	461.486	80.002	19.995	103.154	20.244	8.084	0.475
754.500	461.763	80.001	19.995	103.151	20.241	8.285	0.513
755.000	462.022	80.003	19.995	103.146	20.247	7.874	0.533
755.500	462.269	80.002	19.996	103.143	20.246	8.000	0.521
756.000	462.517	80.001	19.995	103.142	20.245	8.020	0.501
756.500	462.776	80.001	19.996	103.145	20.246	7.997	0.501
757.000	463.005	80.002	19.995	103.148	20.245	8.044	0.498
757.500	463.281	80.006	19.994	103.147	20.247	7.928	0.497
758.000	463.510	80.003	19.995	103.147	20.247	7.915	0.505
758.500	463.781	80.006	19.994	103.150	20.247	7.936	0.502
759.000	464.027	80.007	19.994	103.150	20.246	7.980	0.508
759.500	464.308	80.004	19.996	103.147	20.250	7.734	0.522
760.000	464.546	80.005	19.995	103.147	20.252	7.597	0.523
760.500	464.779	80.004	19.994	103.152	20.250	7.705	0.495
761.000	465.040	80.003	19.996	103.152	20.248	7.818	0.483
761.500	465.256	80.003	19.996	103.149	20.249	7.761	0.486
762.000	465.537	80.007	19.994	103.151	20.248	7.835	0.487
762.500	465.786	80.005	19.995	103.150	20.248	7.811	0.513
763.000	466.069	80.003	19.996	103.145	20.245	8.038	0.530
763.500	466.301	80.005	19.995	103.145	20.250	7.726	0.523
764.000	466.565	80.005	19.995	103.148	20.250	7.737	0.506
764.500	466.830	80.003	19.994	103.144	20.255	7.386	0.513
765.000	467.064	80.002	19.995	103.144	20.252	7.572	0.514
765.500	467.330	80.003	19.995	103.146	20.252	7.559	0.500
766.000	467.569	80.004	19.996	103.145	20.254	7.430	0.502
766.500	467.824	80.005	19.994	103.143	20.255	7.374	0.499
767.000	468.098	80.004	19.997	103.142	20.252	7.595	0.512
767.500	468.331	80.006	19.995	103.142	20.254	7.407	0.518
768.000	468.599	80.005	19.995	103.138	20.253	7.535	0.504
768.500	468.802	80.006	19.996	103.135	20.253	7.515	0.485
769.000	469.078	80.004	19.995	103.133	20.251	7.606	0.475
769.500	469.346	80.005	19.996	103.137	20.251	7.670	0.512
770.000	469.583	80.005	19.992	103.140	20.249	7.766	0.525
770.500	469.841	80.006	19.992	103.143	20.252	7.549	0.500
771.000	470.085	80.007	19.994	103.146	20.253	7.531	0.498
771.500	470.323	80.005	19.994	103.146	20.252	7.564	0.492
772.000	470.611	80.006	19.995	103.143	20.251	7.664	0.504
772.500	470.898	80.005	19.995	103.140	20.253	7.500	0.551
773.000	471.101	80.005	19.995	103.138	20.254	7.451	0.532
773.500	471.380	80.005	19.995	103.135	20.251	7.662	0.486
774.000	471.660	80.005	19.995	103.135	20.256	7.316	0.520
774.500	471.898	80.004	19.995	103.134	20.251	7.612	0.538
775.000	472.135	80.004	19.997	103.134	20.253	7.493	0.496
775.500	472.371	80.005	19.996	103.134	20.254	7.431	0.474
776.000	472.617	80.004	19.997	103.136	20.254	7.412	0.478
776.500	472.864	80.004	19.996	103.136	20.254	7.412	0.487
777.000	473.127	80.003	19.996	103.137	20.256	7.321	0.501
777.500	473.406	80.004	19.997	103.141	20.253	7.522	0.526
778.000	473.670	80.006	19.995	103.147	20.256	7.334	0.543
778.500	473.946	80.005	19.996	103.150	20.254	7.405	0.542
779.000	474.184	80.005	19.994	103.153	20.253	7.478	0.527
779.500	474.467	80.004	19.993	103.153	20.253	7.482	0.518
780.000	474.693	80.003	19.997	103.148	20.256	7.331	0.515
780.500	474.964	80.005	19.993	103.143	20.256	7.305	0.503
781.000	475.247	80.007	19.995	103.138	20.253	7.526	0.525
781.500	475.469	80.008	19.993	103.138	20.255	7.387	0.530
782.000	475.715	80.000	19.996	103.143	20.256	7.305	0.487
782.500	475.983	80.000	20.000	103.143	20.255	7.383	0.491
783.000	476.216	80.005	19.995	103.143	20.259	7.135	0.507
783.500	476.465	80.004	19.995	103.143	20.257	7.248	0.491
784.000	476.713	80.005	19.995	103.147	20.258	7.193	0.490
784.500	476.979	80.004	19.995	103.144	20.258	7.185	0.506
785.000	477.243	80.005	19.996	103.148	20.257	7.233	0.522
785.500	477.499	80.004	19.994	103.150	20.261	6.990	0.525
786.000	477.727	80.006	19.995	103.149	20.263	6.802	0.502
786.500	477.977	80.005	19.995	103.146	20.259	7.098	0.481
787.000	478.237	80.005	19.996	103.145	20.259	7.072	0.495
787.500	478.515	80.005	19.995	103.142	20.259	7.072	0.524
788.000	478.776	80.008	19.995	103.144	20.260	7.069	0.538
788.500	478.973	80.002	19.995	103.147	20.261	6.939	0.498
789.000	479.259	80.005	19.996	103.145	20.262	6.912	0.470
789.500	479.491	80.009	19.995	103.147	20.261	6.970	0.500
790.000	479.746	80.005	19.996	103.149	20.260	7.021	0.503
790.500	480.015	80.006	19.997	103.151	20.259	7.109	0.506
791.000	480.265	80.005	19.997	103.152	20.260	7.052	0.521
791.500	480.488	80.007	19.995	103.151	20.258	7.192	0.496
792.000	480.817	80.009	19.996	103.151	20.260	7.011	0.513
792.500	481.016	80.006	19.994	103.149	20.260	7.010	0.540
793.000	481.263	80.004	20.000	103.147	20.261	6.937	0.487
793.500	481.556	80.006	19.996	103.145	20.262	6.880	0.493
794.000	481.788	80.003	19.995	103.144	20.261	6.955	0.532
794.500	482.043	80.010	19.993	103.142	20.262	6.917	0.506
795.000	482.317	80.004	19.997	103.142	20.260	7.019	0.508
795.500	482.535	80.004	19.995	103.140	20.263	6.829	0.510
796.000	482.796	80.004	19.996	103.138	20.261	6.960	0.485
796.500	483.046	80.007	19.993	103.139	20.261	6.937	0.495
797.000	483.301	80.008	19.995	103.141	20.261	6.935	0.509
797.500	483.597	80.003	19.994	103.143	20.262	6.929	0.528
798.000	483.811	80.007	19.993	103.144	20.261	6.939	0.530
798.500	484.063	80.004	19.997	103.145	20.263	6.822	0.488
799.000	484.333	80.005	19.995	103.143	20.259	7.127	0.494
799.500	484.566	80.003	19.997	103.142	20.260	7.004	0.513
800.000	484.791	80.002	20.001	103.143	20.261	6.937	0.480
800.500	485.101	80.003	19.995	103.143	20.260	7.066	0.496
801.000	485.315	80.005	19.996	103.141	20.264	6.787	0.529
801.500	485.607	80.005	19.997	103.142	20.265	6.715	0.515
802.000	485.838	80.000	20.001	103.140	20.264	6.788	0.514
802.500	486.134	80.003	19.999	103.135	20.264	6.778	0.525
803.000	486.382	80.003	19.996	103.133	20.263	6.814	0.535
803.500	486.625	80.003	19.994	103.134	20.259	7.077	0.517
804.000	486.850	80.004	19.995	103.135	20.263	6.818	0.479
804.500	487.112	80.003	19.997	103.135	20.262	6.911	0.477
805.000	487.343	80.003	19.996	103.136	20.262	6.924	0.490
805.500	487.606	80.004	19.994	103.137	20.263	6.858	0.494
806.000	487.844	80.006	19.997	103.137	20.263	6.818	0.497
806.500	488.115	80.001	19.997	103.136	20.262	6.908	0.505
807.000	488.390	80.004	19.995	103.135	20.265	6.708	0.528
807.500	488.613	80.004	19.997	103.136	20.261	6.970	0.523
808.000	488.915	80.004	19.997	103.136	20.260	7.035	0.512
808.500	489.141	80.005	19.994	103.135	20.258	7.152	0.526
809.000	489.392	80.002	19.997	103.137	20.260	7.004	0.502
809.500	489.627	80.002	19.997	103.137	20.259	7.115	0.481
810.000	489.918	80.002	19.995	103.136	20.265	6.723	0.506
810.500	490.105	80.004	19.995	103.135	20.262	6.878	0.502
811.000	490.386	80.001	20.001	103.135	20.261	6.940	0.473
811.500	490.650	80.000	20.000	103.131	20.265	6.708	0.507
812.000	490.935	80.003	19.995	103.130	20.263	6.865	0.547
812.500	491.156	80.004	19.997	103.131	20.264	6.772	0.527
813.000	491.419	80.003	19.994	103.131	20.260	7.010	0.494
813.500	491.686	80.004	19.995	103.132	20.262	6.873	0.507
814.000	491.953	80.003	19.995	103.135	20.262	6.931	0.532
814.500	492.236	80.000	19.997	103.136	20.262	6.909	0.542
815.000	492.460	80.002	19.998	103.136	20.265	6.723	0.529
815.500	492.719	80.005	19.996	103.135	20.264	6.770	0.495
816.000	492.978	80.003	19.992	103.135	20.263	6.842	0.500
816.500	493.173	80.007	19.995	103.134	20.263	6.832	0.486
817.000	493.485	80.006	19.996	103.135	20.261	6.960	0.481
817.500	493.710	80.006	19.998	103.137	20.264	6.752	0.522
818.000	494.014	80.004	19.996	103.136	20.263	6.849	0.533
818.500	494.256	80.004	19.997	103.136	20.262	6.930	0.537
819.000	494.487	79.999	19.995	103.135	20.265	6.716	0.509
819.500	494.788	80.003	19.994	103.133	20.262	6.924	0.503
820.000	495.028	80.006	19.995	103.132	20.262	6.897	0.537
820.500	495.251	80.003	19.996	103.133	20.260	7.008	0.502
821.000	495.503	80.004	19.996	103.133	20.263	6.829	0.469
821.500	495.756	80.004	19.995	103.133	20.262	6.873	0.490
822.000	496.038	80.003	19.998	103.134	20.260	7.002	0.520
822.500	496.290	80.003	19.993	103.134	20.263	6.807	0.534
823.000	496.519	80.004	19.996	103.134	20.261	6.993	0.508
823.500	496.764	80.003	19.996	103.134	20.262	6.917	0.478
824.000	497.014	80.003	19.997	103.133	20.259	7.081	0.484
824.500	497.298	80.003	19.996	103.133	20.259	7.090	0.514
825.000	497.547	80.002	19.996	103.132	20.262	6.887	0.534
825.500	497.816	80.002	19.995	103.132	20.261	6.948	0.526
826.000	498.059	80.002	19.995	103.132	20.261	6.968	0.515
826.500	498.352	80.003	19.995	103.132	20.261	6.958	0.524
827.000	498.585	80.003	19.995	103.133	20.259	7.079	0.531
827.500	498.832	80.004	19.995	103.133	20.261	6.958	0.503
828.000	499.057	80.005	19.995	103.133	20.261	6.975	0.476
828.500	499.313	80.004	19.997	103.135	20.262	6.929	0.477
829.000	499.571	80.001	19.998	103.139	20.261	6.956	0.497
829.500	499.851	80.003	19.997	103.139	20.261	6.991	0.526
830.000	500.066	80.004	19.997	103.139	20.259	7.070	0.516
830.500	500.325	80.003	19.996	103.139	20.264	6.789	0.485
831.000	500.554	80.004	19.996	103.138	20.263	6.842	0.481
831.500	500.844	80.002	19.996	103.134	20.261	6.977	0.503
832.000	501.127	80.004	19.996	103.133	20.256	7.282	0.546
832.500	501.347	80.001	19.995	103.135	20.260	7.010	0.539
833.000	501.595	79.999	20.002	103.136	20.261	6.999	0.486
833.500	501.805	80.000	19.995	103.135	20.262	6.888	0.463
834.000	502.117	80.005	19.991	103.135	20.262	6.895	0.490
834.500	502.369	79.999	19.996	103.135	20.265	6.705	0.543
835.000	502.586	80.001	19.998	103.133	20.265	6.729	0.517
835.500	502.866	80.003	19.997	103.132	20.265	6.685	0.483
836.000	503.090	80.002	19.996	103.134	20.265	6.703	0.500
836.500	503.342	80.003	19.995	103.134	20.267	6.561	0.490
837.000	503.589	80.003	19.996	103.133	20.265	6.703	0.487
837.500	503.821	80.003	19.995	103.132	20.265	6.720	0.489
838.000	504.098	80.002	19.994	103.132	20.266	6.601	0.494
838.500	504.325	80.000	19.998	103.132	20.263	6.820	0.507
839.000	504.552	80.009	19.997	103.131	20.267	6.540	0.479
839.500	504.807	80.004	19.995	103.130	20.264	6.749	0.468
840.000	505.072	80.001	19.997	103.131	20.264	6.774	0.501
840.500	505.317	80.004	19.992	103.132	20.260	7.012	0.515
841.000	505.592	79.997	19.994	103.133	20.265	6.670	0.515
841.500	505.834	80.003	19.994	103.135	20.264	6.761	0.518
842.000	506.075	80.001	19.995	103.137	20.266	6.610	0.500
842.500	506.370	80.004	19.998	103.137	20.265	6.688	0.509
843.000	506.609	80.002	19.996	103.137	20.264	6.745	0.535
843.500	506.834	80.002	19.994	103.138	20.264	6.769	0.499
844.000	507.095	80.006	19.993	103.140	20.264	6.783	0.475
844.500	507.315	80.003	19.997	103.141	20.264	6.752	0.483
845.000	507.557	80.003	19.996	103.141	20.263	6.829	0.472
845.500	507.867	80.003	19.994	103.142	20.262	6.924	0.507
846.000	508.094	80.009	19.986	103.140	20.261	6.971	0.545
846.500	508.322	80.005	19.997	103.141	20.260	7.006	0.496
847.000	508.592	80.003	19.997	103.141	20.264	6.736	0.477
847.500	508.877	80.003	19.996	103.141	20.263	6.847	0.527
848.000	509.116	80.005	19.995	103.140	20.263	6.833	0.539
848.500	509.372	80.003	19.995	103.140	20.259	7.085	0.509
849.000	509.634	80.005	19.998	103.137	20.261	6.963	0.506
849.501	509.917	80.004	19.997	103.137	20.260	7.067	0.531
850.000	510.166	80.007	19.995	103.138	20.263	6.813	0.539
850.500	510.401	79.999	20.002	103.138	20.261	6.939	0.508
851.000	510.687	80.009	19.995	103.136	20.259	7.085	0.502
851.500	510.885	80.004	19.997	103.136	20.264	6.767	0.503
852.000	511.188	80.007	19.997	103.135	20.262	6.898	0.493
852.500	511.439	80.005	19.993	103.133	20.260	7.068	0.527
853.000	511.688	80.004	19.998	103.133	20.262	6.889	0.527
853.500	511.918	80.003	20.002	103.134	20.261	6.990	0.489
854.000	512.189	80.006	19.995	103.133	20.263	6.801	0.490
854.500	512.390	80.004	19.997	103.133	20.262	6.882	0.487
855.000	512.688	80.006	19.994	103.133	20.265	6.716	0.486
855.500	512.923	80.003	19.993	103.132	20.262	6.917	0.516
856.000	513.212	80.005	19.993	103.134	20.264	6.762	0.528
856.500	513.473	80.003	19.998	103.137	20.265	6.703	0.536
857.000	513.734	80.004	19.996	103.136	20.260	7.027	0.536
857.500	513.959	80.005	19.996	103.137	20.266	6.661	0.504
858.000	514.220	80.003	19.994	103.137	20.261	6.964	0.486
858.500	514.521	80.006	19.988	103.137	20.264	6.793	0.524
859.000	514.734	80.005	19.991	103.137	20.262	6.928	0.538
859.500	514.987	80.006	19.990	103.139	20.262	6.904	0.490
860.000	515.258	80.008	19.987	103.140	20.262	6.880	0.495
860.500	515.502	80.006	19.992	103.141	20.261	6.960	0.520
861.000	515.721	80.006	19.994	103.141	20.260	7.023	0.489
861.500	516.031	80.003	19.991	103.140	20.263	6.858	0.496
862.000	516.229	80.002	19.998	103.140	20.261	6.986	0.518
862.500	516.509	79.999	19.994	103.139	20.262	6.911	0.493
863.000	516.767	80.003	19.996	103.137	20.263	6.825	0.508
863.500	517.026	80.005	19.996	103.137	20.261	6.988	0.527
864.000	517.269	80.005	19.997	103.136	20.262	6.911	0.510
864.500	517.509	79.999	20.000	103.135	20.262	6.871	0.493
865.000	517.768	79.997	20.001	103.134	20.259	7.101	0.491
865.500	518.017	80.004	19.995	103.134	20.262	6.927	0.503
866.000	518.318	80.004	19.997	103.136	20.263	6.849	0.529
866.500	518.547	79.998	19.992	103.137	20.262	6.902	0.540
867.000	518.812	80.006	19.997	103.140	20.263	6.843	0.512
867.500	519.069	79.997	19.996	103.143	20.263	6.836	0.508
868.000	519.323	80.007	19.993	103.144	20.261	6.966	0.516
868.500	519.591	80.006	19.993	103.142	20.259	7.085	0.516
869.000	519.836	80.006	19.996	103.141	20.261	6.959	0.518
869.500	520.077	80.004	19.996	103.137	20.265	6.713	0.500
870.000	520.349	80.001	20.001	103.136	20.263	6.832	0.500
870.500	520.613	80.008	19.993	103.134	20.262	6.894	0.525
871.000	520.839	80.005	19.991	103.136	20.263	6.834	0.513
871.500	521.095	80.011	19.996	103.135	20.264	6.786	0.486
872.000	521.359	80.007	19.994	103.136	20.260	7.009	0.500
872.500	521.638	80.007	19.994	103.136	20.263	6.835	0.531
873.000	521.862	80.003	19.997	103.139	20.262	6.892	0.523
873.500	522.131	80.005	20.000	103.139	20.263	6.826	0.498
874.000	522.399	80.007	19.993	103.138	20.264	6.793	0.515
874.500	522.626	80.002	20.000	103.138	20.259	7.073	0.516
875.000	522.883	80.006	19.995	103.137	20.262	6.930	0.489
875.500	523.167	80.002	19.999	103.135	20.258	7.161	0.513
876.000	523.370	80.007	19.994	103.131	20.258	7.140	0.514
876.500	523.670	80.005	19.993	103.132	20.259	7.093	0.495
877.000	523.912	80.003	19.998	103.131	20.260	7.017	0.523
877.500	524.186	80.007	19.991	103.134	20.258	7.194	0.529
878.000	524.436	80.003	19.997	103.135	20.259	7.112	0.520
878.500	524.687	80.007	19.995	103.137	20.260	7.020	0.513
879.000	524.950	80.006	19.994	103.137	20.257	7.262	0.507
879.500	525.200	80.010	19.995	103.140	20.258	7.170	0.513
880.000	525.477	80.008	19.996	103.140	20.260	7.004	0.520
880.500	525.735	80.008	19.994	103.144	20.260	7.010	0.531
881.000	526.015	80.006	19.995	103.148	20.261	6.999	0.537
881.500	526.278	80.003	19.994	103.152	20.259	7.101	0.541
882.000	526.518	80.006	19.997	103.151	20.258	7.140	0.523
882.500	526.777	80.002	19.995	103.151	20.257	7.262	0.500
883.000	527.056	80.006	19.993	103.149	20.255	7.352	0.518
883.500	527.309	80.008	19.997	103.148	20.261	6.999	0.535
884.000	527.521	80.005	19.996	103.144	20.259	7.134	0.499
884.500	527.791	80.008	19.988	103.142	20.254	7.454	0.474
885.000	528.110	80.005	19.994	103.144	20.259	7.108	0.535
885.500	528.348	80.007	19.994	103.148	20.259	7.130	0.572
886.000	528.566	80.005	19.994	103.149	20.257	7.203	0.506
886.500	528.873	80.005	19.993	103.151	20.256	7.276	0.491
887.000	529.111	80.003	19.998	103.151	20.259	7.114	0.535
887.500	529.395	80.007	19.986	103.145	20.258	7.136	0.534
888.000	529.676	80.002	19.999	103.140	20.259	7.110	0.544
888.500	529.867	80.002	20.002	103.136	20.257	7.264	0.518
889.000	530.218	80.000	20.002	103.134	20.262	6.933	0.507
889.500	530.434	80.001	19.995	103.132	20.257	7.203	0.554
890.000	530.693	79.999	19.998	103.134	20.255	7.364	0.521
890.500	530.948	80.005	19.997	103.132	20.257	7.223	0.495
891.000	531.223	80.003	19.996	103.133	20.259	7.101	0.522
891.500	531.472	80.008	19.996	103.133	20.255	7.353	0.527
892.000	531.716	80.006	19.993	103.135	20.257	7.231	0.508
892.500	531.990	80.010	19.993	103.136	20.256	7.291	0.505
893.000	532.304	80.001	19.993	103.140	20.254	7.435	0.553
893.500	532.565	80.004	19.993	103.141	20.255	7.362	0.582
894.000	532.822	80.006	19.995	103.142	20.257	7.254	0.547
894.500	533.053	80.004	19.994	103.142	20.257	7.269	0.503
895.000	533.313	80.006	19.996	103.138	20.254	7.464	0.489
895.500	533.552	80.005	19.996	103.135	20.256	7.327	0.495
896.000	533.863	80.004	19.994	103.134	20.252	7.599	0.525
896.500	534.101	80.002	19.998	103.133	20.253	7.524	0.549
897.000	534.382	80.003	19.995	103.133	20.258	7.168	0.534
897.500	534.658	80.005	19.995	103.134	20.257	7.262	0.538
898.000	534.938	80.004	19.996	103.134	20.255	7.353	0.557
898.500	535.190	80.004	19.995	103.134	20.257	7.240	0.544
899.000	535.446	80.002	19.999	103.134	20.254	7.417	0.520
899.500	535.721	80.002	19.997	103.134	20.257	7.242	0.519
900.000	535.991	80.005	19.997	103.134	20.253	7.530	0.538
900.500	536.265	80.004	19.993	103.133	20.258	7.163	0.545
901.000	536.475	80.004	19.996	103.136	20.256	7.297	0.514
901.500	536.787	80.003	19.997	103.136	20.254	7.460	0.503
902.000	537.009	80.007	19.996	103.136	20.257	7.222	0.528
902.500	537.303	80.001	19.991	103.137	20.254	7.460	0.525
903.000	537.523	80.007	20.000	103.139	20.256	7.301	0.515
903.500	537.791	80.007	19.994	103.135	20.257	7.239	0.501
904.000	538.053	80.004	19.994	103.135	20.251	7.636	0.509
904.500	538.350	80.004	19.997	103.137	20.264	6.760	0.544
905.000	538.567	80.006	19.996	103.135	20.249	7.755	0.536
905.500	538.872	80.003	19.996	103.134	20.247	7.919	0.518
906.000	539.082	80.005	19.996	103.133	20.252	7.589	0.519
906.500	539.332	80.003	19.998	103.133	20.251	7.642	0.487
907.000	539.611	80.003	19.995	103.131	20.249	7.804	0.494
907.500	539.837	80.002	19.997	103.131	20.255	7.379	0.517
908.000	540.136	80.006	19.992	103.132	20.256	7.298	0.515
908.500	540.354	80.001	19.993	103.134	20.256	7.278	0.521
909.000	540.628	80.004	19.995	103.135	20.256	7.298	0.504
909.500	540.964	80.001	20.001	103.136	20.252	7.552	0.551
910.000	541.172	80.004	19.996	103.135	20.253	7.512	0.577
910.500	541.367	80.005	19.995	103.134	20.253	7.481	0.473
911.000	541.738	80.000	20.000	103.134	20.254	7.413	0.485
911.500	541.948	80.004	19.996	103.133	20.251	7.660	0.573
912.000	542.189	80.004	19.996	103.136	20.252	7.578	0.516
912.500	542.533	80.003	19.997	103.143	20.253	7.510	0.518
913.000	542.684	79.999	19.995	103.143	20.253	7.510	0.540
913.500	543.047	80.002	19.994	103.144	20.252	7.572	0.504
914.000	543.182	80.002	20.001	103.146	20.251	7.653	0.506
914.500	543.535	80.002	19.996	103.143	20.253	7.534	0.493
915.000	543.859	80.005	19.995	103.139	20.254	7.406	0.583
915.500	544.058	80.002	19.998	103.140	20.251	7.629	0.600
916.000	544.317	80.007	19.995	103.139	20.253	7.481	0.490
916.500	544.493	80.002	19.995	103.137	20.256	7.302	0.447
917.000	544.761	80.006	19.995	103.138	20.258	7.159	0.439
917.500	545.112	80.004	19.998	103.137	20.252	7.563	0.531
918.000	545.091	80.004	19.998	103.136	20.255	7.368	0.475
918.500	545.920	80.002	19.997	103.136	20.253	7.499	0.569
919.000	545.295	80.001	19.997	103.135	20.255	7.375	0.506
919.500	545.583	80.003	19.995	103.136	20.251	7.620	-0.066
920.000	546.121	79.999	19.999	103.136	20.253	7.527	0.245
920.500	546.633	80.008	19.995	103.136	20.254	7.415	0.938
921.000	546.454	80.003	19.992	103.137	20.252	7.563	0.692
921.500	547.089	80.003	19.998	103.139	20.255	7.383	0.395
922.000	547.354	80.003	19.996	103.137	20.254	7.463	0.678
922.500	547.716	79.997	19.999	103.137	20.254	7.445	0.763
923.000	547.932	80.002	19.995	103.137	20.252	7.553	0.603
923.500	548.144	80.001	19.994	103.136	20.251	7.638	0.503
924.000	548.329	80.000	20.001	103.136	20.255	7.379	0.412
924.500	548.555	80.002	19.998	103.136	20.254	7.454	0.404
925.000	548.997	80.002	19.995	103.136	20.255	7.379	0.540
925.500	549.046	80.000	19.998	103.137	20.254	7.422	0.579
926.000	549.419	80.000	19.996	103.138	20.257	7.223	0.456
926.500	549.671	80.002	19.994	103.137	20.254	7.432	0.524
927.000	549.999	80.001	19.996	103.135	20.259	7.090	0.602
927.500	550.153	80.002	19.996	103.136	20.252	7.541	0.531
928.000	550.351	80.002	19.998	103.135	20.253	7.488	0.417
928.500	550.688	80.004	19.995	103.134	20.253	7.494	0.443
929.000	550.988	80.005	19.998	103.134	20.251	7.609	0.587
929.500	551.222	80.001	19.995	103.136	20.250	7.696	0.586
930.000	551.486	80.006	19.996	103.137	20.250	7.726	0.516
930.500	551.769	80.004	19.997	103.137	20.254	7.437	0.522
931.000	551.970	80.007	19.996	103.137	20.251	7.663	0.515
931.500	552.229	80.000	19.994	103.136	20.255	7.347	0.472
932.000	552.476	80.007	19.993	103.137	20.250	7.731	0.483
932.500	552.771	80.007	19.996	103.139	20.253	7.525	0.524
933.000	553.033	80.005	19.997	103.139	20.252	7.559	0.550
933.500	553.268	80.005	19.992	103.139	20.255	7.366	0.527
934.000	553.580	80.002	19.996	103.140	20.253	7.519	0.522
934.500	553.774	80.006	19.992	103.140	20.252	7.547	0.527
935.000	554.094	80.004	19.993	103.137	20.252	7.540	0.510
935.500	554.360	80.005	20.000	103.138	20.256	7.324	0.550
936.000	554.574	80.003	19.996	103.136	20.252	7.604	0.533
936.500	554.849	80.002	19.992	103.135	20.253	7.525	0.484
937.000	555.157	80.003	19.994	103.136	20.253	7.530	0.536
937.500	555.421	80.003	19.992	103.136	20.255	7.384	0.578
938.000	555.608	80.003	19.997	103.135	20.254	7.408	0.512
938.500	555.891	80.003	19.992	103.136	20.252	7.548	0.460
939.000	556.202	80.005	19.993	103.136	20.252	7.543	0.532
939.500	556.412	80.003	19.996	103.136	20.250	7.722	0.558
940.000	556.731	80.003	19.993	103.135	20.254	7.450	0.525
940.500	556.950	80.008	19.994	103.135	20.248	7.830	0.533
941.000	557.194	80.004	20.001	103.135	20.251	7.662	0.500
941.500	557.438	80.003	19.995	103.134	20.252	7.565	0.476
942.000	557.723	80.004	19.994	103.133	20.251	7.653	0.509
942.500	557.965	80.006	19.996	103.134	20.251	7.636	0.528
943.000	558.256	80.008	19.993	103.133	20.249	7.740	0.530
943.500	558.459	80.004	19.996	103.133	20.247	7.914	0.513
944.000	558.717	80.003	19.995	103.132	20.249	7.748	0.477
944.500	559.010	80.006	19.993	103.133	20.247	7.901	0.506
945.000	559.218	80.004	19.992	103.137	20.248	7.872	0.526
945.500	559.541	80.006	19.997	103.141	20.246	7.954	0.516
946.000	559.765	80.004	19.992	103.142	20.246	7.974	0.539
946.500	560.052	80.008	19.994	103.142	20.250	7.683	0.529
947.000	560.280	80.002	20.001	103.143	20.250	7.734	0.513
947.500	560.575	80.003	20.000	103.138	20.250	7.680	0.519
948.000	560.776	80.009	19.993	103.133	20.249	7.742	0.509
948.500	561.082	80.004	19.998	103.133	20.245	8.059	0.501
949.000	561.362	80.008	19.989	103.132	20.246	7.959	0.547
949.500	561.580	80.003	19.992	103.133	20.249	7.764	0.542
950.000	561.882	80.003	19.997	103.134	20.251	7.612	0.509
950.500	562.099	80.005	19.995	103.135	20.246	7.983	0.519
951.000	562.354	80.007	19.995	103.134	20.245	8.073	0.496
951.500	562.634	80.006	19.995	103.135	20.248	7.851	0.504
952.000	562.897	80.005	19.993	103.134	20.245	8.071	0.539
952.500	563.137	80.004	19.994	103.134	20.251	7.661	0.523
953.000	563.389	80.006	19.996	103.134	20.246	7.950	0.498
953.500	563.607	80.003	19.992	103.134	20.246	7.961	0.481
954.000	563.898	80.003	19.997	103.134	20.244	8.091	0.489
954.500	564.129	80.007	19.995	103.134	20.247	7.891	0.516
955.000	564.416	80.004	19.993	103.135	20.247	7.917	0.520
955.500	564.615	80.006	19.995	103.135	20.247	7.886	0.502
956.000	564.883	80.006	19.996	103.135	20.249	7.800	0.476
956.500	565.139	80.003	19.992	103.135	20.248	7.811	0.495
957.000	565.400	79.996	19.992	103.135	20.244	8.138	0.521
957.500	565.656	80.002	19.998	103.132	20.246	7.950	0.517
958.000	565.926	80.008	19.992	103.130	20.243	8.153	0.522
958.500	566.183	80.003	19.999	103.130	20.245	8.056	0.526
959.000	566.406	80.005	19.997	103.128	20.247	7.899	0.503
959.500	566.660	80.006	19.994	103.127	20.243	8.197	0.478
960.000	566.932	80.004	19.994	103.130	20.245	8.065	0.501
960.500	567.200	80.012	19.994	103.132	20.243	8.149	0.533
961.000	567.476	80.007	19.993	103.132	20.245	8.062	0.542
961.500	567.712	80.006	19.993	103.134	20.244	8.111	0.528
962.000	567.949	80.005	20.000	103.134	20.240	8.376	0.492
962.500	568.190	80.008	19.995	103.131	20.244	8.097	0.476
963.000	568.474	80.002	19.997	103.131	20.243	8.186	0.502
963.500	568.718	80.006	19.996	103.130	20.244	8.100	0.526
964.000	568.978	80.002	19.998	103.129	20.242	8.254	0.516
964.500	569.267	80.002	19.996	103.129	20.243	8.206	0.527
965.000	569.478	80.000	19.997	103.130	20.246	7.983	0.524
965.500	569.731	80.000	20.000	103.129	20.245	8.071	0.482
966.000	569.988	80.002	19.994	103.127	20.242	8.250	0.487
966.500	570.277	80.010	19.994	103.130	20.243	8.144	0.528
967.000	570.562	80.005	19.996	103.130	20.245	8.014	0.560
967.500	570.759	80.003	19.993	103.131	20.244	8.119	0.528
968.000	571.037	80.003	19.993	103.132	20.242	8.217	0.478
968.500	571.284	80.000	19.997	103.134	20.244	8.137	0.500
969.000	571.551	80.003	19.999	103.132	20.248	7.837	0.519
969.500	571.781	80.005	19.998	103.131	20.244	8.102	0.505
970.000	572.045	80.005	19.992	103.131	20.243	8.192	0.496
970.500	572.306	80.003	19.999	103.132	20.245	8.047	0.510
971.000	572.562	80.003	19.991	103.132	20.242	8.248	0.521
971.500	572.787	80.007	19.995	103.133	20.242	8.248	0.499
972.000	573.061	80.007	19.993	103.135	20.243	8.203	0.490
972.500	573.312	80.001	19.997	103.137	20.243	8.159	0.512
973.000	573.602	80.003	19.991	103.137	20.242	8.274	0.533
973.500	573.885	79.998	19.995	103.140	20.243	8.166	0.557
974.000	574.137	80.006	19.996	103.140	20.243	8.155	0.554
974.500	574.385	80.003	19.996	103.140	20.245	8.035	0.518
975.000	574.671	80.004	19.994	103.138	20.244	8.086	0.517
975.500	574.903	79.998	19.992	103.138	20.243	8.178	0.526
976.000	575.191	80.005	19.994	103.138	20.241	8.314	0.519
976.500	575.392	80.005	19.997	103.137	20.240	8.343	0.504
977.000	575.714	80.004	19.994	103.137	20.245	8.023	0.506
977.500	575.923	80.003	19.997	103.137	20.239	8.429	0.527
978.000	576.183	80.001	19.995	103.138	20.240	8.374	0.500
978.500	576.437	80.002	19.997	103.137	20.241	8.285	0.491
979.001	576.745	80.001	19.996	103.137	20.241	8.298	0.539
979.500	576.993	80.001	19.998	103.138	20.240	8.378	0.560
980.000	577.233	80.006	19.992	103.137	20.241	8.308	0.522
980.500	577.486	80.002	19.994	103.139	20.238	8.526	0.490
981.000	577.721	80.007	19.994	103.138	20.238	8.499	0.490
981.500	577.989	80.005	19.987	103.137	20.240	8.345	0.495
982.000	578.239	80.006	19.989	103.139	20.242	8.252	0.511
982.500	578.505	79.999	19.996	103.141	20.239	8.458	0.517
983.001	578.765	80.001	19.997	103.139	20.240	8.384	0.521
983.500	579.029	80.004	19.993	103.138	20.238	8.500	0.525
984.000	579.309	80.005	19.994	103.139	20.238	8.506	0.534
984.500	579.559	80.004	19.992	103.137	20.239	8.475	0.537
985.000	579.833	80.002	19.998	103.142	20.235	8.716	0.527
985.500	580.037	80.009	19.991	103.142	20.238	8.513	0.501
986.000	580.327	80.004	19.994	103.145	20.237	8.548	0.486
986.500	580.533	80.006	19.998	103.145	20.237	8.581	0.495
987.000	580.864	80.004	19.999	103.143	20.237	8.573	0.516
987.500	581.073	80.005	19.994	103.136	20.240	8.359	0.539
988.000	581.333	80.002	19.994	103.136	20.238	8.487	0.505
988.500	581.581	80.003	19.996	103.134	20.239	8.455	0.489
989.000	581.844	80.005	19.993	103.136	20.237	8.571	0.509
989.500	582.109	80.004	19.995	103.138	20.237	8.573	0.519
990.000	582.346	80.002	19.996	103.139	20.236	8.614	0.515
990.500	582.608	80.003	19.995	103.138	20.236	8.636	0.501
991.000	582.839	80.003	19.994	103.137	20.239	8.459	0.496
991.500	583.102	80.002	19.996	103.136	20.238	8.493	0.494
992.000	583.360	80.003	19.994	103.139	20.237	8.559	0.507
992.500	583.620	80.002	19.995	103.139	20.241	8.336	0.519
993.000	583.868	80.004	19.995	103.139	20.240	8.381	0.513
993.500	584.126	80.004	19.995	103.140	20.238	8.538	0.507
994.000	584.390	80.001	19.995	103.141	20.237	8.555	0.514
994.500	584.607	80.003	19.992	103.137	20.237	8.551	0.501
995.000	584.870	80.002	19.996	103.137	20.236	8.630	0.481
995.500	585.166	80.002	19.995	103.142	20.236	8.656	0.519
996.000	585.397	80.005	19.995	103.142	20.237	8.553	0.543
996.500	585.686	80.002	19.994	103.142	20.237	8.599	0.524
997.000	585.919	80.003	19.994	103.142	20.234	8.749	0.521
997.500	586.194	80.003	19.996	103.141	20.238	8.480	0.515
998.000	586.415	80.004	19.995	103.137	20.236	8.635	0.502
998.500	586.691	80.002	19.995	103.136	20.238	8.518	0.497
999.000	586.947	80.000	19.996	103.138	20.235	8.713	0.514
999.500	587.208	80.000	19.997	103.138	20.237	8.564	0.525
1000.000	587.442	80.004	19.992	103.138	20.238	8.505	0.506
1000.500	587.710	80.002	19.995	103.138	20.236	8.673	0.498
1001.000	587.965	80.002	19.996	103.140	20.237	8.574	0.513
1001.500	588.230	80.003	19.994	103.140	20.238	8.538	0.522
1002.000	588.492	80.004	19.996	103.141	20.235	8.730	0.523
1002.500	588.728	80.001	19.996	103.142	20.235	8.708	0.513
1003.000	589.000	80.002	19.996	103.141	20.234	8.748	0.504
1003.500	589.215	80.003	19.995	103.140	20.234	8.764	0.498
1004.000	589.489	80.004	19.995	103.137	20.233	8.847	0.487
1004.500	589.759	80.001	20.000	103.135	20.239	8.432	0.516
1005.000	589.970	80.002	19.994	103.133	20.237	8.558	0.513
1005.500	590.272	80.002	19.996	103.134	20.234	8.777	0.497
1006.000	590.559	80.002	19.997	103.136	20.237	8.608	0.551
1006.500	590.811	80.006	19.994	103.139	20.234	8.745	0.564
1007.000	591.036	80.003	19.999	103.141	20.237	8.602	0.508
1007.501	591.287	80.004	19.996	103.140	20.236	8.624	0.477
1008.001	591.549	79.999	19.996	103.139	20.235	8.702	0.495
1008.500	591.832	80.002	19.996	103.136	20.236	8.657	0.529
1009.000	592.078	80.002	19.998	103.133	20.236	8.669	0.537
1009.500	592.295	79.999	20.002	103.131	20.238	8.529	0.495
1010.000	592.573	80.008	19.997	103.131	20.237	8.553	0.479
1010.500	592.781	79.996	19.999	103.131	20.238	8.538	0.491
1011.000	593.087	79.999	19.997	103.129	20.237	8.591	0.500
1011.500	593.308	80.003	20.000	103.129	20.235	8.721	0.521
1012.000	593.596	80.001	19.996	103.130	20.235	8.697	0.518
1012.500	593.847	80.004	19.992	103.131	20.235	8.717	0.524
1013.000	594.115	80.003	19.994	103.130	20.237	8.569	0.529
1013.500	594.397	80.007	19.991	103.131	20.234	8.774	0.535
1014.000	594.616	80.003	20.002	103.133	20.235	8.688	0.526
1014.500	594.847	80.001	19.998	103.130	20.234	8.806	0.476
1015.000	595.149	80.002	19.997	103.129	20.236	8.648	0.492
1015.500	595.360	80.005	19.995	103.129	20.233	8.836	0.523
1016.000	595.637	80.008	19.992	103.130	20.234	8.792	0.501
1016.500	595.847	80.006	19.996	103.130	20.233	8.874	0.488
1017.000	596.111	80.003	19.995	103.132	20.233	8.834	0.480
1017.500	596.372	80.002	19.997	103.133	20.231	8.947	0.500
1018.000	596.633	80.005	19.995	103.133	20.231	8.966	0.524
1018.500	596.901	80.003	19.997	103.132	20.233	8.876	0.526
1019.000	597.161	80.004	19.999	103.131	20.233	8.873	0.529
1019.500	597.386	80.003	19.997	103.131	20.231	8.982	0.506
1020.000	597.666	80.005	19.994	103.130	20.234	8.757	0.495
1020.500	597.913	80.003	19.993	103.131	20.234	8.794	0.515
1021.000	598.127	80.005	19.996	103.130	20.233	8.847	0.494
1021.500	598.410	80.005	19.997	103.130	20.233	8.852	0.479
1022.000	598.642	80.002	20.000	103.130	20.232	8.931	0.506
1022.500	598.881	80.006	19.995	103.129	20.232	8.905	0.493
1023.000	599.122	80.004	19.996	103.130	20.233	8.831	0.475
1023.500	599.404	80.005	19.996	103.131	20.235	8.703	0.502
1024.001	599.661	80.005	19.995	103.130	20.234	8.805	0.531
1024.501	599.904	80.005	19.996	103.131	20.232	8.893	0.519
1025.000	600.188	80.004	19.996	103.131	20.231	8.975	0.513
1025.499	600.439	80.005	19.997	103.131	20.233	8.851	0.531
1026.000	600.678	80.005	19.996	103.131	20.234	8.788	0.513
1026.501	600.897	80.006	19.996	103.132	20.233	8.874	0.474
1027.001	601.160	80.005	19.995	103.132	20.232	8.920	0.470
1027.500	601.431	80.004	19.996	103.132	20.232	8.927	0.507
1028.000	601.664	80.005	19.994	103.133	20.232	8.904	0.519
1028.500	601.945	80.003	19.995	103.134	20.234	8.767	0.509
1028.999	602.173	80.007	19.996	103.134	20.234	8.783	0.512
1029.499	602.414	80.005	19.997	103.134	20.231	8.957	0.489
1029.999	602.706	80.006	19.997	103.135	20.234	8.756	0.501
1030.499	602.906	80.005	19.997	103.135	20.231	8.999	0.512
1031.000	603.168	80.005	19.996	103.134	20.228	9.213	0.477
1031.501	603.402	80.005	19.996	103.133	20.232	8.898	0.480
1032.000	603.685	80.005	19.996	103.134	20.235	8.734	0.507
1032.499	603.904	80.005	19.996	103.134	20.233	8.860	0.509
1032.999	604.186	80.005	19.994	103.133	20.234	8.748	0.501
1033.499	604.440	80.004	19.994	103.134	20.234	8.778	0.518
1034.000	604.702	80.004	19.996	103.134	20.232	8.893	0.526
1034.501	604.943	80.004	19.998	103.134	20.233	8.873	0.509
1035.000	605.195	80.006	19.996	103.133	20.233	8.854	0.498
1035.500	605.435	80.002	19.995	103.134	20.232	8.898	0.493
1036.000	605.695	80.006	19.998	103.133	20.235	8.717	0.496
1036.500	605.945	80.004	19.995	103.133	20.232	8.896	0.505
1037.000	606.230	80.006	19.993	103.133	20.233	8.814	0.522
1037.500	606.478	80.006	19.994	103.134	20.231	8.982	0.534
1037.999	606.726	80.005	19.996	103.134	20.235	8.688	0.515
1038.499	606.997	80.005	19.995	103.135	20.232	8.882	0.507
1038.999	607.232	80.007	19.994	103.135	20.231	8.955	0.512
1039.499	607.505	80.008	19.994	103.136	20.228	9.170	0.507
1039.999	607.771	80.004	19.992	103.135	20.226	9.295	0.524
1040.499	608.032	80.006	19.996	103.135	20.232	8.937	0.533
1041.000	608.307	80.006	19.994	103.137	20.233	8.864	0.531
1041.500	608.523	80.005	19.993	103.139	20.226	9.293	0.514
1041.999	608.790	80.006	19.994	103.139	20.228	9.174	0.487
1042.499	609.115	80.006	19.995	103.139	20.230	9.057	0.537
1042.999	609.313	80.006	19.994	103.138	20.227	9.236	0.557
1043.499	609.597	80.006	19.994	103.136	20.228	9.161	0.503
1043.999	609.834	80.005	19.995	103.133	20.225	9.391	0.502
1044.500	610.100	80.005	19.995	103.134	20.227	9.219	0.512
1045.000	610.354	80.006	19.995	103.135	20.228	9.174	0.511
1045.500	610.615	80.006	19.994	103.135	20.228	9.201	0.517
1045.999	610.865	80.006	19.994	103.136	20.228	9.161	0.513
1046.500	611.144	80.006	19.995	103.135	20.229	9.117	0.520
1047.000	611.392	80.006	19.995	103.134	20.232	8.909	0.528
1047.499	611.702	80.004	19.996	103.133	20.228	9.194	0.543
1047.999	611.881	80.006	19.994	103.133	20.230	9.066	0.524
1048.500	612.204	80.005	19.995	103.133	20.228	9.192	0.496
1049.000	612.451	80.005	19.995	103.134	20.229	9.132	0.536
1049.500	612.698	80.005	19.994	103.135	20.228	9.165	0.532
1049.999	613.014	80.006	19.996	103.136	20.227	9.245	0.528
1050.500	613.227	80.005	19.994	103.136	20.230	9.036	0.546
1051.000	613.495	80.004	19.995	103.136	20.226	9.306	0.505
1051.499	613.751	80.003	19.996	103.137	20.229	9.100	0.502
1051.999	614.029	80.005	19.993	103.136	20.228	9.180	0.529
1052.500	614.286	80.005	19.995	103.134	20.224	9.472	0.535
1053.000	614.525	80.005	19.996	103.134	20.225	9.364	0.515
1053.500	614.778	80.003	19.995	103.134	20.227	9.271	0.494
1053.999	615.045	80.002	19.995	103.134	20.228	9.192	0.506
1054.499	615.294	80.003	19.996	103.134	20.228	9.189	0.518
1055.000	615.525	80.003	19.996	103.132	20.225	9.388	0.498
1055.500	615.788	80.003	19.995	103.130	20.225	9.353	0.487
1056.000	616.053	80.004	19.993	103.131	20.225	9.410	0.511
1056.500	616.328	80.004	19.995	103.131	20.225	9.404	0.534
1057.000	616.560	80.003	19.995	103.131	20.227	9.233	0.523
1057.499	616.835	80.004	19.995	103.133	20.225	9.388	0.507
1057.999	617.102	80.003	19.994	103.135	20.226	9.306	0.525
1058.499	617.339	80.002	19.995	103.135	20.227	9.238	0.523
1058.999	617.611	80.004	19.996	103.134	20.225	9.375	0.506
1059.499	617.863	80.004	19.994	103.135	20.226	9.289	0.516
1059.999	618.135	80.005	19.996	103.136	20.224	9.450	0.524
1060.499	618.377	80.002	19.995	103.137	20.227	9.234	0.519
1060.999	618.632	80.005	19.994	103.138	20.227	9.269	0.506
1061.500	618.898	80.003	19.995	103.139	20.223	9.501	0.509
1062.000	619.155	80.003	19.994	103.140	20.222	9.559	0.522
1062.499	619.410	80.003	19.993	103.141	20.223	9.543	0.517
1063.000	619.677	80.003	19.995	103.140	20.221	9.665	0.516
1063.500	619.919	80.003	19.996	103.138	20.220	9.737	0.515
1063.999	620.154	80.004	19.995	103.138	20.218	9.835	0.493
1064.499	620.433	80.005	19.994	103.136	20.223	9.506	0.496
1064.999	620.657	80.004	19.993	103.135	20.224	9.468	0.508
1065.499	620.906	80.004	19.993	103.135	20.224	9.428	0.488
1065.999	621.170	80.004	19.993	103.137	20.223	9.546	0.493
1066.499	621.411	80.005	19.992	103.137	20.225	9.373	0.509
1066.999	621.691	80.004	19.995	103.138	20.225	9.364	0.513
1067.499	621.940	80.003	19.995	103.137	20.225	9.384	0.525
1067.999	622.186	80.005	19.993	103.138	20.224	9.438	0.512
1068.499	622.431	80.004	19.994	103.137	20.225	9.358	0.492
1068.999	622.719	80.006	19.995	103.136	20.225	9.391	0.512
1069.499	622.945	80.003	19.994	103.136	20.227	9.270	0.524
1069.999	623.209	80.003	19.993	103.137	20.225	9.395	0.502
1070.499	623.499	80.005	19.995	103.137	20.227	9.261	0.522
1070.999	623.729	80.005	19.995	103.136	20.228	9.155	0.537
1071.499	623.993	80.004	19.996	103.137	20.224	9.422	0.507
1071.999	624.238	80.004	19.994	103.136	20.226	9.322	0.502
1072.500	624.493	80.004	19.992	103.136	20.226	9.322	0.504
1073.000	624.748	80.004	19.995	103.136	20.226	9.307	0.505
1073.500	624.982	80.003	19.995	103.136	20.225	9.373	0.500
1073.999	625.259	80.004	19.995	103.135	20.225	9.358	0.500
1074.499	625.470	80.003	19.995	103.135	20.226	9.327	0.500
1074.999	625.718	80.006	19.995	103.136	20.227	9.245	0.473
1075.500	625.974	80.004	19.994	103.136	20.228	9.172	0.481
1076.000	626.233	80.004	19.994	103.136	20.227	9.256	0.509
1076.500	626.469	80.006	19.995	103.136	20.224	9.453	0.505
1077.000	626.719	80.004	19.994	103.134	20.229	9.119	0.491
1077.500	626.954	80.004	19.995	103.132	20.230	9.074	0.485
1078.000	627.212	80.005	19.996	103.132	20.230	9.036	0.489
1078.499	627.507	80.005	19.995	103.132	20.227	9.255	0.523
1078.999	627.747	80.003	19.994	103.130	20.227	9.219	0.544
1079.500	628.021	80.004	19.996	103.130	20.226	9.301	0.524
1080.000	628.265	80.004	19.994	103.131	20.226	9.290	0.516
1080.500	628.515	80.002	19.995	103.130	20.226	9.310	0.506
1081.000	628.744	80.003	19.998	103.131	20.227	9.223	0.487
1081.499	629.035	80.003	19.995	103.132	20.226	9.326	0.499
1081.999	629.259	80.003	19.997	103.132	20.227	9.258	0.517
1082.499	629.517	80.004	19.997	103.131	20.225	9.355	0.498
1082.999	629.771	80.001	19.997	103.131	20.224	9.437	0.497
1083.499	630.031	80.003	19.996	103.131	20.224	9.442	0.513
1084.000	630.283	80.003	19.996	103.131	20.224	9.418	0.513
1084.500	630.526	80.003	19.996	103.132	20.223	9.489	0.504
1084.999	630.779	80.003	19.995	103.134	20.224	9.447	0.496
1085.500	631.035	80.002	19.995	103.133	20.222	9.593	0.503
1086.000	631.250	80.003	19.996	103.133	20.226	9.312	0.490
1086.499	631.497	80.002	19.996	103.132	20.225	9.380	0.466
1086.999	631.725	80.004	19.994	103.132	20.222	9.574	0.468
1087.500	632.025	80.003	19.997	103.136	20.226	9.294	0.501
1088.000	632.247	80.004	19.997	103.136	20.225	9.353	0.525
1088.500	632.483	80.003	19.994	103.137	20.224	9.477	0.490
1089.000	632.732	80.001	19.998	103.141	20.221	9.670	0.472
1089.499	633.002	80.002	19.997	103.148	20.226	9.318	0.502
1089.999	633.242	80.003	19.998	103.146	20.224	9.433	0.514
1090.500	633.520	80.003	19.997	103.147	20.225	9.398	0.514
1091.000	633.784	80.005	19.996	103.145	20.227	9.256	0.530
1091.500	634.003	80.003	19.996	103.141	20.222	9.612	0.513
1091.999	634.269	80.004	19.996	103.135	20.221	9.616	0.484
1092.500	634.497	80.003	19.996	103.135	20.223	9.497	0.489
1093.000	634.732	80.003	19.996	103.134	20.223	9.535	0.478
1093.500	634.987	80.005	19.994	103.134	20.221	9.680	0.477
1094.000	635.234	80.005	19.995	103.134	20.220	9.692	0.496
1094.499	635.500	80.004	19.997	103.131	20.222	9.607	0.508
1094.999	635.739	80.005	19.996	103.129	20.221	9.676	0.509
1095.500	635.987	80.004	19.997	103.126	20.225	9.389	0.496
1096.000	636.247	80.003	19.996	103.126	20.223	9.488	0.497
1096.500	636.479	80.005	19.995	103.126	20.223	9.528	0.500
1097.000	636.702	80.004	19.995	103.129	20.222	9.584	0.473
1097.500	636.965	80.005	19.997	103.129	20.221	9.650	0.470
1098.000	637.211	80.006	19.996	103.132	20.219	9.800	0.498
1098.500	637.472	80.005	19.995	103.132	20.222	9.577	0.508
1098.999	637.685	80.004	19.995	103.132	20.220	9.696	0.491
1099.499	637.952	80.005	19.995	103.131	20.217	9.899	0.477
1099.999	638.235	80.004	19.995	103.131	20.223	9.492	0.515
1100.499	638.481	80.005	19.996	103.132	20.222	9.603	0.539
1100.999	638.727	80.005	19.995	103.133	20.219	9.808	0.511
1101.500	639.011	80.004	19.996	103.133	20.217	9.940	0.511
1102.000	639.223	80.003	19.993	103.133	20.219	9.759	0.513
1102.500	639.468	80.005	19.995	103.133	20.219	9.810	0.476
1102.999	639.751	80.006	19.995	103.133	20.219	9.753	0.492
1103.499	640.009	80.006	19.995	103.133	20.219	9.815	0.534
1103.999	640.224	80.005	19.995	103.132	20.216	10.012	0.507
1104.499	640.547	80.005	19.996	103.133	20.215	10.047	0.506
1104.999	640.730	80.004	19.994	103.133	20.217	9.925	0.522
1105.499	641.001	80.004	19.995	103.133	20.215	10.025	0.480
1105.999	641.288	80.006	19.996	103.133	20.216	9.983	0.506
1106.499	641.499	80.005	19.994	103.133	20.217	9.915	0.528
1107.000	641.772	80.005	19.995	103.132	20.214	10.085	0.491
1107.500	642.028	80.005	19.994	103.131	20.216	9.959	0.506
1108.000	642.311	80.005	19.996	103.130	20.218	9.852	0.534
1108.500	642.571	80.003	19.995	103.129	20.215	10.064	0.541
1109.000	642.833	80.004	19.996	103.129	20.216	10.000	0.533
1109.499	643.077	80.003	19.996	103.130	20.214	10.129	0.515
1109.999	643.394	80.005	19.994	103.132	20.217	9.897	0.533
1110.499	643.599	80.004	19.995	103.135	20.215	10.054	0.541
1110.999	643.887	80.005	19.996	103.137	20.213	10.160	0.508
1111.499	644.119	80.003	19.996	103.137	20.212	10.273	0.507
1111.999	644.384	80.004	19.995	103.139	20.210	10.372	0.509
1112.500	644.646	80.003	19.995	103.139	20.213	10.169	0.512
1113.000	644.846	80.003	19.995	103.138	20.214	10.096	0.495
1113.499	645.117	80.004	19.996	103.137	20.212	10.268	0.467
1114.000	645.431	80.004	19.995	103.137	20.214	10.151	0.528
1114.500	645.673	80.003	19.996	103.136	20.214	10.124	0.570
1115.000	645.889	80.003	19.996	103.136	20.212	10.235	0.507
1115.500	646.143	80.004	19.995	103.136	20.214	10.098	0.465
1116.000	646.427	80.001	19.996	103.135	20.212	10.264	0.504
1116.499	646.691	80.004	19.994	103.134	20.215	10.078	0.543
1116.999	646.976	80.004	19.993	103.134	20.212	10.264	0.548
1117.500	647.205	80.005	19.996	103.135	20.214	10.143	0.531
1118.000	647.457	80.003	19.995	103.135	20.213	10.204	0.497
1118.500	647.743	80.005	19.994	103.136	20.212	10.220	0.509
1119.000	647.969	80.004	19.997	103.136	20.214	10.144	0.525
1119.499	648.257	80.005	19.997	103.136	20.214	10.140	0.513
1119.999	648.482	80.005	19.995	103.135	20.214	10.118	0.514
1120.499	648.774	80.004	19.994	103.135	20.208	10.533	0.515
1120.999	649.035	80.004	19.996	103.135	20.213	10.180	0.534
1121.499	649.316	80.004	19.996	103.134	20.213	10.217	0.547
1122.000	649.568	80.005	19.995	103.134	20.211	10.290	0.538
1122.500	649.828	80.005	19.996	103.134	20.213	10.216	0.523
1123.000	650.098	80.004	19.996	103.134	20.210	10.357	0.521
1123.500	650.328	80.006	19.996	103.134	20.207	10.589	0.515
1124.000	650.614	80.006	19.995	103.135	20.210	10.355	0.508
1124.500	650.884	80.005	19.996	103.134	20.212	10.224	0.536
1125.000	651.149	80.005	19.996	103.134	20.212	10.284	0.546
1125.499	651.385	80.005	19.995	103.134	20.214	10.151	0.518
1125.999	651.644	80.005	19.994	103.133	20.211	10.315	0.498
1126.500	651.938	80.006	19.995	103.133	20.209	10.462	0.524
1127.001	652.199	80.006	19.994	103.129	20.208	10.535	0.554
1127.501	652.454	80.006	19.994	103.130	20.208	10.501	0.535
1128.000	652.742	80.006	19.994	103.130	20.207	10.598	0.529
1128.499	652.971	80.006	19.994	103.131	20.209	10.428	0.530
1128.999	653.244	80.007	19.994	103.130	20.211	10.338	0.510
1129.500	653.507	80.007	19.995	103.133	20.209	10.433	0.519
1130.000	653.716	80.006	19.994	103.133	20.211	10.351	0.504
1130.499	654.023	80.006	19.994	103.133	20.209	10.450	0.494
1130.999	654.274	80.007	19.994	103.134	20.211	10.304	0.537
1131.500	654.591	80.005	19.993	103.134	20.210	10.403	0.563
1132.000	654.820	80.006	19.995	103.135	20.211	10.290	0.557
1132.500	655.075	80.005	19.994	103.133	20.210	10.381	0.515
1133.000	655.355	80.005	19.994	103.132	20.211	10.317	0.510
1133.499	655.624	80.005	19.994	103.130	20.209	10.458	0.542
1133.999	655.854	80.005	19.994	103.130	20.210	10.394	0.524
1134.500	656.128	80.005	19.994	103.130	20.207	10.567	0.502
1135.000	656.379	80.004	19.995	103.132	20.208	10.512	0.514
1135.499	656.663	80.005	19.995	103.132	20.212	10.281	0.530
1135.999	656.916	80.005	19.995	103.132	20.206	10.657	0.536
1136.499	657.131	80.005	19.994	103.131	20.209	10.428	0.502
1137.000	657.395	80.005	19.995	103.128	20.212	10.277	0.473
1137.500	657.683	80.004	19.996	103.125	20.210	10.386	0.515
1137.999	657.922	80.005	19.995	103.124	20.209	10.425	0.540
1138.499	658.208	80.003	19.995	103.124	20.210	10.357	0.526
1139.000	658.445	80.005	19.994	103.125	20.209	10.483	0.524
1139.500	658.724	80.003	19.994	103.126	20.208	10.489	0.520
1139.999	659.007	80.004	19.994	103.125	20.210	10.356	0.538
1140.499	659.234	80.002	19.996	103.126	20.210	10.388	0.536
1141.000	659.459	80.003	19.994	103.126	20.210	10.383	0.482
1141.500	659.717	80.005	19.994	103.127	20.209	10.483	0.468
1142.000	660.040	80.004	19.994	103.129	20.208	10.512	0.532
1142.499	660.249	80.004	19.994	103.133	20.208	10.527	0.556
1142.999	660.510	80.003	19.994	103.134	20.209	10.448	0.501
1143.499	660.808	80.003	19.994	103.134	20.208	10.505	0.515
1143.999	661.091	80.003	19.996	103.134	20.208	10.549	0.569
1144.499	661.339	80.003	19.996	103.134	20.207	10.583	0.556
1144.999	661.615	80.002	19.996	103.133	20.206	10.646	0.528
1145.499	661.854	80.003	19.995	103.133	20.206	10.677	0.520
1145.999	662.117	80.003	19.995	103.133	20.210	10.410	0.509
1146.499	662.384	80.003	19.994	103.132	20.206	10.646	0.516
1146.999	662.652	80.003	19.996	103.132	20.208	10.489	0.532
1147.500	662.869	80.003	19.995	103.132	20.208	10.492	0.510
1148.000	663.122	80.003	19.995	103.131	20.207	10.581	0.478
1148.500	663.403	80.003	19.994	103.130	20.208	10.495	0.502
1148.999	663.621	80.004	19.997	103.130	20.209	10.476	0.516
1149.499	663.923	80.004	19.997	103.132	20.205	10.703	0.509
1150.000	664.152	80.004	19.996	103.132	20.207	10.571	0.525
1150.500	664.398	80.003	19.995	103.133	20.206	10.655	0.503
1150.999	664.729	80.004	19.995	103.135	20.207	10.599	0.526
1151.499	664.928	80.004	19.996	103.134	20.210	10.409	0.553
1151.999	665.215	80.004	19.995	103.133	20.209	10.466	0.508
1152.499	665.434	80.003	19.996	103.132	20.207	10.568	0.496
1152.999	665.704	80.004	19.997	103.132	20.207	10.605	0.497
1153.499	665.997	80.003	19.995	103.132	20.207	10.570	0.526
1154.000	666.220	80.004	19.996	103.131	20.208	10.494	0.540
1154.500	666.461	80.003	19.995	103.130	20.207	10.585	0.490
1155.000	666.741	80.003	19.996	103.130	20.209	10.468	0.492
1155.500	666.984	80.004	19.996	103.130	20.210	10.409	0.521
1156.000	667.247	80.005	19.996	103.130	20.207	10.585	0.514
1156.499	667.456	80.004	19.995	103.131	20.208	10.496	0.489
1156.999	667.746	80.005	19.994	103.131	20.209	10.439	0.486
1157.500	668.007	80.003	19.995	103.131	20.208	10.508	0.525
1158.000	668.241	80.005	19.995	103.131	20.206	10.660	0.523
1158.500	668.519	80.005	19.995	103.129	20.204	10.770	0.504
1159.000	668.743	80.004	19.995	103.127	20.206	10.677	0.507
1159.499	669.026	80.004	19.995	103.123	20.206	10.637	0.505
1159.999	669.281	80.005	19.994	103.119	20.204	10.782	0.522
1160.499	669.501	80.005	19.995	103.118	20.206	10.680	0.506
1160.999	669.787	80.004	19.995	103.117	20.205	10.709	0.491
1161.500	670.029	80.004	19.995	103.116	20.204	10.779	0.517
1162.000	670.253	80.004	19.995	103.120	20.205	10.704	0.497
1162.499	670.541	80.006	19.994	103.121	20.205	10.694	0.489
1162.999	670.796	80.005	19.996	103.123	20.207	10.562	0.527
1163.499	671.011	80.005	19.995	103.124	20.206	10.646	0.507
1163.999	671.248	80.005	19.995	103.125	20.204	10.801	0.461
1164.500	671.520	80.004	19.994	103.120	20.206	10.646	0.481
1165.000	671.852	80.005	19.995	103.115	20.205	10.744	0.557
1165.499	672.048	80.004	19.994	103.108	20.206	10.678	0.566
1166.000	672.339	80.004	19.994	103.108	20.205	10.709	0.507
1166.500	672.603	80.004	19.995	103.106	20.205	10.735	0.521
1166.999	672.847	80.004	19.994	103.107	20.205	10.727	0.532
1167.499	673.057	80.005	19.995	103.110	20.205	10.696	0.481
1168.000	673.362	80.003	19.995	103.111	20.206	10.647	0.484
1168.500	673.613	80.004	19.994	103.111	20.208	10.519	0.535
1169.000	673.863	80.004	19.993	103.114	20.205	10.737	0.529
1169.499	674.111	80.005	19.995	103.116	20.207	10.601	0.500
1169.999	674.388	80.002	19.995	103.116	20.205	10.707	0.512
1170.499	674.649	80.005	19.995	103.122	20.206	10.641	0.531
1170.999	674.908	80.003	19.994	103.124	20.203	10.833	0.529
1171.500	675.107	80.004	19.995	103.127	20.207	10.618	0.489
1172.000	675.433	80.003	19.995	103.128	20.205	10.739	0.492
1172.499	675.655	80.003	19.995	103.131	20.202	10.919	0.536
1172.999	675.939	80.004	19.995	103.131	20.204	10.760	0.527
1173.499	676.155	80.003	19.995	103.125	20.205	10.742	0.503
1173.999	676.421	80.003	19.994	103.120	20.205	10.723	0.491
1174.499	676.666	80.004	19.994	103.119	20.205	10.752	0.497
1175.000	676.931	80.004	19.994	103.118	20.203	10.832	0.510
1175.500	677.173	80.004	19.995	103.119	20.203	10.884	0.508
1175.999	677.428	80.005	19.995	103.124	20.206	10.646	0.502
1176.500	677.698	80.003	19.994	103.127	20.208	10.497	0.511
1177.000	677.953	80.003	19.996	103.128	20.206	10.675	0.525
1177.499	678.178	80.004	19.995	103.128	20.205	10.715	0.503
1177.999	678.419	80.004	19.996	103.128	20.207	10.567	0.473
1178.500	678.689	80.004	19.994	103.127	20.204	10.773	0.488
1179.000	678.921	80.004	19.995	103.129	20.204	10.813	0.507
1179.500	679.179	80.005	19.995	103.128	20.205	10.738	0.496
1180.000	679.443	80.005	19.996	103.128	20.205	10.744	0.506
1180.499	679.659	80.004	19.996	103.125	20.201	10.960	0.501
1180.999	679.947	80.005	19.996	103.127	20.204	10.799	0.492
1181.500	680.168	80.004	19.995	103.126	20.203	10.865	0.506
1182.000	680.404	80.004	19.996	103.126	20.203	10.840	0.483
1182.500	680.698	80.005	19.996	103.128	20.203	10.859	0.494
1183.000	680.949	80.005	19.996	103.131	20.203	10.826	0.538
1183.500	681.192	80.005	19.994	103.129	20.202	10.902	0.519
1183.999	681.426	80.004	19.995	103.124	20.200	11.053	0.485
1184.499	681.692	80.005	19.996	103.123	20.201	10.960	0.489
1184.999	681.911	80.004	19.996	103.120	20.206	10.686	0.493
1185.499	682.158	80.004	19.996	103.115	20.203	10.830	0.475
1185.999	682.421	80.005	19.995	103.115	20.204	10.794	0.488
1186.499	682.699	80.006	19.996	103.119	20.201	11.016	0.526
1186.999	682.894	80.006	19.995	103.121	20.205	10.713	0.507
1187.500	683.216	80.005	19.994	103.125	20.202	10.901	0.495
1188.000	683.433	80.004	19.994	103.129	20.203	10.870	0.528
1188.499	683.649	80.004	19.996	103.128	20.203	10.874	0.485
1188.999	683.941	80.005	19.995	103.130	20.204	10.817	0.470
1189.499	684.182	80.004	19.995	103.129	20.203	10.884	0.521
1189.999	684.451	80.004	19.995	103.128	20.201	10.974	0.522
1190.499	684.696	80.005	19.995	103.126	20.204	10.755	0.512
1190.999	684.954	80.005	19.995	103.128	20.202	10.897	0.508
1191.499	685.169	80.005	19.995	103.129	20.200	11.086	0.488
1191.999	685.462	80.005	19.995	103.131	20.202	10.912	0.491
1192.500	685.680	80.004	19.997	103.133	20.200	11.025	0.509
1193.000	685.921	80.004	19.995	103.134	20.202	10.933	0.485
1193.499	686.151	80.003	19.994	103.131	20.202	10.889	0.464
1193.999	686.402	80.004	19.995	103.125	20.202	10.914	0.476
1194.500	686.678	80.005	19.995	103.119	20.204	10.796	0.505
1195.000	686.862	80.005	19.995	103.114	20.201	11.005	0.494
1195.500	687.147	80.003	19.995	103.112	20.202	10.929	0.464
1195.999	687.389	80.004	19.994	103.111	20.204	10.779	0.497
1196.500	687.660	80.003	19.994	103.114	20.203	10.873	0.520
1197.000	687.904	80.003	19.994	103.119	20.202	10.953	0.514
1197.500	688.148	80.004	19.994	103.125	20.200	11.085	0.501
1198.000	688.343	80.004	19.995	103.127	20.200	11.050	0.463
1198.499	688.579	80.004	19.993	103.130	20.201	10.996	0.435
1198.999	688.884	80.003	19.995	103.132	20.200	11.081	0.486
1199.499	689.103	80.003	19.994	103.131	20.200	11.052	0.532
1199.999	689.385	80.005	19.994	103.124	20.200	11.085	0.512
1200.499	689.682	80.004	19.993	103.123	20.197	11.242	0.540
1201.000	689.917	80.005	19.995	103.124	20.202	10.954	0.556
1201.500	690.179	80.005	19.995	103.125	20.200	11.068	0.514
1201.999	690.426	80.005	19.995	103.125	20.199	11.144	0.503
1202.500	690.654	80.005	19.997	103.130	20.198	11.189	0.492
1203.000	690.944	80.004	19.995	103.127	20.200	11.059	0.497
1203.499	691.193	80.004	19.995	103.126	20.198	11.183	0.529
1204.000	691.428	80.004	19.995	103.121	20.200	11.056	0.512
1204.500	691.696	80.006	19.995	103.120	20.198	11.212	0.494
1204.999	691.943	80.004	19.996	103.117	20.199	11.135	0.509
1205.500	692.197	80.006	19.995	103.118	20.200	11.033	0.508
1206.000	692.426	80.005	19.995	103.114	20.200	11.079	0.492
1206.500	692.667	80.004	19.995	103.114	20.199	11.141	0.476
1206.999	692.943	80.004	19.996	103.116	20.199	11.128	0.494
1207.499	693.179	80.006	19.995	103.119	20.198	11.220	0.515
1207.999	693.446	80.005	19.995	103.116	20.200	11.057	0.508
1208.499	693.728	80.004	19.995	103.120	20.198	11.181	0.526
1209.000	693.995	80.006	19.997	103.124	20.197	11.276	0.549
1209.500	694.200	80.005	19.997	103.124	20.197	11.248	0.511
1209.999	694.487	80.007	19.997	103.122	20.197	11.275	0.482
1210.499	694.691	80.006	19.996	103.125	20.196	11.305	0.492
1210.999	694.982	80.005	19.996	103.126	20.195	11.364	0.493
1211.499	695.207	80.006	19.996	103.126	20.198	11.168	0.505
1211.999	695.445	80.005	19.996	103.125	20.193	11.493	0.489
1212.499	695.743	80.005	19.997	103.121	20.196	11.334	0.499
1213.000	695.989	80.005	19.995	103.115	20.198	11.212	0.540
1213.500	696.258	80.004	19.997	103.109	20.195	11.363	0.529
1214.000	696.471	80.005	19.996	103.105	20.197	11.249	0.499
1214.499	696.738	80.005	19.997	103.105	20.195	11.359	0.481
1214.999	697.023	80.005	19.996	103.109	20.194	11.474	0.516
1215.500	697.235	80.004	19.997	103.116	20.195	11.386	0.525
1216.000	697.522	80.005	19.996	103.116	20.194	11.428	0.498
1216.499	697.787	80.004	19.996	103.117	20.192	11.621	0.526
1216.999	697.981	80.004	19.996	103.117	20.199	11.113	0.505
1217.500	698.227	80.005	19.996	103.118	20.195	11.412	0.449
1218.000	698.510	80.005	19.996	103.114	20.194	11.436	0.485
1218.500	698.738	80.005	19.997	103.118	20.195	11.393	0.520
1218.999	699.007	80.003	19.996	103.118	20.194	11.481	0.504
1219.499	699.279	80.003	19.996	103.113	20.193	11.553	0.519
1220.000	699.484	80.003	19.996	103.113	20.193	11.535	0.509
1220.500	699.773	80.004	19.996	103.115	20.193	11.525	0.486
1220.999	699.950	80.004	19.995	103.112	20.191	11.667	0.480
1221.499	700.230	80.004	19.996	103.112	20.191	11.680	0.461
1221.999	700.491	80.004	19.995	103.118	20.190	11.699	0.499
1222.499	700.751	80.004	19.995	103.115	20.189	11.815	0.531
1222.999	701.004	80.003	19.995	103.113	20.191	11.680	0.517
1223.499	701.267	80.004	19.995	103.115	20.191	11.670	0.514
1223.999	701.492	80.003	19.995	103.119	20.190	11.739	0.502
1224.499	701.761	80.004	19.995	103.113	20.192	11.606	0.491
1224.999	702.016	80.003	19.995	103.116	20.189	11.766	0.509
1225.499	702.213	80.003	19.995	103.121	20.192	11.582	0.488
1225.999	702.479	80.004	19.995	103.124	20.193	11.528	0.458
1226.500	702.753	80.005	19.994	103.120	20.191	11.628	0.502
1227.000	702.969	80.003	19.996	103.119	20.189	11.798	0.515
1227.499	703.231	80.004	19.995	103.114	20.193	11.546	0.484
1227.999	703.502	80.003	19.995	103.108	20.188	11.878	0.506
1228.499	703.718	80.004	19.994	103.106	20.190	11.720	0.510
1229.000	703.965	80.004	19.995	103.108	20.189	11.780	0.475
1229.500	704.245	80.004	19.995	103.114	20.188	11.850	0.495
1229.999	704.470	80.005	19.994	103.120	20.186	12.025	0.515
1230.499	704.780	80.004	19.995	103.125	20.189	11.820	0.520
1231.000	705.022	80.003	19.994	103.128	20.190	11.756	0.544
1231.500	705.293	80.005	19.994	103.124	20.189	11.773	0.533
1232.000	705.460	80.005	19.995	103.121	20.190	11.716	0.476
1232.500	705.749	80.004	19.994	103.117	20.189	11.802	0.447
1232.999	705.971	80.004	19.994	103.116	20.188	11.852	0.483
1233.499	706.243	80.003	19.995	103.116	20.189	11.786	0.502
1234.000	706.507	80.003	19.994	103.118	20.196	11.344	0.515
1234.500	706.748	80.004	19.996	103.116	20.191	11.654	0.521
1235.000	706.992	80.005	19.995	103.113	20.189	11.775	0.496
1235.500	707.248	80.003	19.996	103.112	20.188	11.861	0.492
1236.000	707.440	80.004	19.993	103.108	20.189	11.806	0.474
1236.500	707.724	80.004	19.995	103.111	20.192	11.600	0.462
1236.999	707.989	80.005	19.994	103.117	20.188	11.852	0.512
1237.499	708.270	80.005	19.995	103.125	20.190	11.703	0.547
1237.999	708.479	80.005	19.995	103.128	20.191	11.672	0.518
1238.499	708.749	80.003	19.995	103.128	20.191	11.685	0.485
1239.000	709.005	80.004	19.994	103.124	20.191	11.649	0.503
1239.500	709.278	80.004	19.994	103.121	20.192	11.569	0.527
1239.999	709.526	80.004	19.995	103.119	20.191	11.673	0.525
1240.500	709.760	80.005	19.994	103.119	20.190	11.739	0.501
1241.000	710.014	80.004	19.995	103.119	20.191	11.628	0.485
1241.500	710.264	80.005	19.995	103.118	20.189	11.775	0.496
1242.000	710.514	80.005	19.995	103.119	20.189	11.783	0.502
1242.500	710.813	80.004	19.994	103.120	20.189	11.765	0.524
1243.000	711.022	80.004	19.996	103.120	20.189	11.799	0.529
1243.500	711.252	80.004	19.994	103.121	20.187	11.954	0.474
1244.000	711.524	80.004	19.994	103.121	20.185	12.082	0.471
1244.500	711.783	80.004	19.994	103.120	20.184	12.114	0.516
1244.999	712.007	80.003	19.995	103.118	20.185	12.084	0.506
1245.499	712.253	80.004	19.995	103.114	20.187	11.924	0.476
1246.000	712.545	80.003	19.994	103.117	20.187	11.897	0.504
1246.500	712.786	80.004	19.995	103.119	20.188	11.861	0.536
1246.999	713.063	80.004	19.995	103.119	20.186	11.998	0.526
1247.499	713.297	80.004	19.994	103.120	20.187	11.898	0.515
1248.000	713.605	80.003	19.995	103.122	20.187	11.944	0.527
1248.500	713.833	80.005	19.995	103.118	20.185	12.067	0.539
1249.000	714.079	80.002	19.995	103.117	20.188	11.831	0.505
1249.500	714.358	80.003	19.995	103.117	20.185	12.060	0.499
1250.000	714.620	80.002	19.995	103.118	20.188	11.860	0.532
1250.500	714.846	80.003	19.995	103.120	20.186	12.005	0.514
1251.000	715.097	80.004	19.995	103.123	20.185	12.089	0.483
1251.500	715.372	80.004	19.994	103.122	20.186	12.003	0.502
1252.000	715.631	80.004	19.996	103.126	20.184	12.161	0.530
1252.500	715.879	80.003	19.995	103.124	20.189	11.823	0.520
1253.000	716.175	80.004	19.994	103.124	20.185	12.045	0.526
1253.500	716.410	80.003	19.995	103.125	20.185	12.073	0.538
1253.999	716.672	80.003	19.996	103.127	20.182	12.250	0.514
1254.500	716.943	80.004	19.995	103.122	20.184	12.110	0.515
1255.000	717.182	80.004	19.994	103.122	20.184	12.105	0.522
1255.499	717.452	80.003	19.995	103.118	20.186	11.991	0.510
1255.999	717.724	80.003	19.994	103.113	20.183	12.179	0.526
1256.499	717.929	80.003	19.994	103.114	20.186	12.019	0.509
1256.999	718.184	80.002	19.995	103.116	20.185	12.092	0.468
1257.500	718.429	80.002	19.995	103.119	20.183	12.166	0.480
1258.000	718.669	80.003	19.995	103.122	20.187	11.892	0.492
1258.500	718.951	80.004	19.994	103.129	20.185	12.079	0.504
1259.000	719.189	80.003	19.996	103.129	20.187	11.897	0.521
1259.499	719.435	80.004	19.993	103.133	20.185	12.078	0.502
1259.999	719.726	80.005	19.996	103.132	20.184	12.110	0.510
1260.499	719.947	80.004	19.994	103.134	20.186	12.013	0.524
1260.999	720.220	80.004	19.996	103.134	20.186	11.994	0.503
1261.499	720.475	80.004	19.994	103.136	20.186	11.974	0.511
1262.000	720.730	80.004	19.995	103.136	20.187	11.920	0.519
1262.500	720.972	80.005	19.994	103.135	20.187	11.953	0.503
1263.000	721.236	80.004	19.994	103.130	20.184	12.117	0.502
1263.499	721.475	80.004	19.994	103.123	20.185	12.086	0.505
1263.999	721.771	80.005	19.995	103.122	20.183	12.189	0.519
1264.499	721.984	80.005	19.995	103.120	20.186	12.017	0.522
1265.000	722.255	80.004	19.994	103.120	20.181	12.344	0.496
1265.500	722.495	80.006	19.994	103.125	20.186	12.017	0.497
1265.999	722.725	80.004	19.995	103.132	20.183	12.183	0.491
1266.500	723.019	80.006	19.994	103.130	20.180	12.407	0.497
1267.000	723.270	80.005	19.994	103.126	20.181	12.305	0.534
1267.499	723.511	80.005	19.994	103.119	20.183	12.209	0.518
1267.999	723.724	80.006	19.994	103.112	20.182	12.276	0.473
1268.499	723.997	80.005	19.993	103.105	20.180	12.379	0.470
1268.999	724.280	80.005	19.996	103.106	20.179	12.443	0.521
1269.499	724.536	80.006	19.996	103.112	20.180	12.397	0.547
1269.999	724.832	80.006	19.996	103.118	20.183	12.224	0.546
1270.499	725.083	80.006	19.995	103.123	20.178	12.521	0.550
1270.999	725.323	80.006	19.994	103.127	20.179	12.475	0.519
1271.500	725.559	80.007	19.994	103.125	20.180	12.412	0.484
1272.000	725.813	80.004	19.995	103.124	20.180	12.378	0.483
1272.499	726.051	80.007	19.994	103.124	20.180	12.429	0.491
1272.999	726.295	80.005	19.996	103.126	20.181	12.338	0.487
1273.499	726.564	80.005	19.995	103.126	20.179	12.472	0.498
1273.999	726.847	80.006	19.996	103.129	20.175	12.735	0.532
1274.499	727.116	80.006	19.995	103.130	20.177	12.616	0.552
1274.999	727.364	80.005	19.995	103.130	20.178	12.521	0.534
1275.500	727.631	80.003	19.996	103.129	20.175	12.746	0.516
1276.000	727.874	80.005	19.994	103.128	20.178	12.539	0.513
1276.499	728.141	80.004	19.996	103.126	20.177	12.585	0.510
1276.999	728.382	80.005	19.994	103.126	20.177	12.612	0.509
1277.499	728.660	80.003	19.994	103.126	20.177	12.615	0.514
1278.000	728.897	80.005	19.995	103.125	20.174	12.805	0.518
1278.500	729.147	80.004	19.994	103.127	20.173	12.865	0.501
1278.999	729.400	80.005	19.994	103.130	20.173	12.834	0.494
1279.500	729.632	80.004	19.996	103.130	20.174	12.779	0.494
1280.000	729.946	80.004	19.995	103.130	20.177	12.609	0.516
1280.500	730.167	80.004	19.995	103.131	20.173	12.863	0.541
1281.000	730.439	80.004	19.995	103.131	20.173	12.880	0.514
1281.500	730.658	80.004	19.995	103.131	20.175	12.724	0.491
1281.999	730.925	80.005	19.994	103.130	20.175	12.734	0.489
1282.499	731.171	80.004	19.995	103.130	20.174	12.808	0.500
1282.999	731.482	80.005	19.995	103.128	20.172	12.911	0.535
1283.499	731.690	80.005	19.994	103.127	20.174	12.810	0.538
1283.999	731.933	80.005	19.994	103.127	20.174	12.774	0.485
1284.500	732.223	80.005	19.995	103.127	20.176	12.643	0.491
1285.000	732.506	80.005	19.996	103.128	20.174	12.784	0.553
1285.500	732.744	80.005	19.995	103.130	20.174	12.813	0.547
1285.999	733.011	80.005	19.995	103.130	20.174	12.802	0.513
1286.499	733.250	80.006	19.994	103.128	20.171	13.002	0.506
1286.999	733.529	80.006	19.995	103.128	20.174	12.831	0.512
1287.500	733.760	80.007	19.994	103.126	20.178	12.502	0.514
1288.000	734.025	80.006	19.994	103.126	20.174	12.769	0.503
1288.499	734.265	80.005	19.995	103.125	20.174	12.829	0.500
1288.999	734.540	80.005	19.995	103.122	20.173	12.875	0.510
1289.499	734.778	80.006	19.995	103.119	20.173	12.873	0.514
1289.999	735.050	80.007	19.996	103.118	20.172	12.911	0.512
1290.500	735.305	80.007	19.994	103.118	20.172	12.944	0.519
1291.000	735.551	80.006	19.994	103.115	20.170	13.090	0.514
1291.499	735.786	80.008	19.995	103.118	20.173	12.866	0.491
1291.999	736.053	80.006	19.995	103.120	20.170	13.034	0.491
1292.499	736.313	80.006	19.995	103.116	20.170	13.089	0.514
1292.999	736.559	80.007	19.995	103.112	20.172	12.914	0.516
1293.499	736.833	80.009	19.994	103.116	20.169	13.105	0.513
1293.999	737.080	80.007	19.995	103.118	20.170	13.037	0.521
1294.500	737.331	80.007	19.995	103.119	20.169	13.122	0.510
1295.000	737.618	80.007	19.995	103.125	20.172	12.960	0.518
1295.499	737.850	80.006	19.994	103.127	20.170	13.057	0.528
1295.999	738.095	80.007	19.995	103.128	20.168	13.172	0.497
1296.500	738.361	80.008	19.995	103.127	20.172	12.962	0.494
1297.000	738.626	80.007	19.994	103.123	20.169	13.157	0.521
1297.500	738.916	80.007	19.995	103.123	20.167	13.260	0.544
1298.000	739.170	80.007	19.995	103.123	20.170	13.079	0.550
1298.500	739.402	80.006	19.995	103.122	20.170	13.084	0.515
1299.000	739.658	80.005	19.995	103.123	20.167	13.249	0.487
1299.500	739.928	80.006	19.995	103.126	20.171	12.981	0.507
1300.000	740.222	80.007	19.994	103.125	20.172	12.938	0.545
1300.500	740.438	80.005	19.995	103.126	20.168	13.179	0.537
1301.000	740.733	80.005	19.996	103.126	20.166	13.358	0.510
1301.499	740.976	80.004	19.996	103.124	20.170	13.084	0.524
1301.999	741.207	80.005	19.995	103.122	20.168	13.210	0.506
1302.500	741.471	80.004	19.996	103.125	20.171	13.015	0.485
1303.000	741.736	80.004	19.996	103.125	20.170	13.094	0.512
1303.500	741.993	80.004	19.995	103.128	20.166	13.315	0.525
1303.999	742.262	80.003	19.995	103.128	20.171	13.013	0.524
1304.499	742.495	80.003	19.995	103.127	20.165	13.370	0.514
1304.999	742.731	80.004	19.995	103.122	20.167	13.298	0.486
1305.499	743.041	80.004	19.994	103.119	20.166	13.309	0.508
1305.999	743.251	80.004	19.996	103.119	20.166	13.347	0.533
1306.500	743.477	80.002	19.995	103.122	20.168	13.180	0.478
1307.001	743.755	80.004	19.995	103.122	20.165	13.379	0.470
1307.500	744.045	80.003	19.995	103.123	20.164	13.474	0.536
1307.999	744.281	80.003	19.996	103.120	20.164	13.499	0.547
1308.499	744.540	80.003	19.996	103.120	20.167	13.256	0.511
1308.999	744.817	80.003	19.997	103.119	20.166	13.366	0.516
1309.499	745.073	80.004	19.995	103.121	20.166	13.341	0.534
1309.999	745.281	80.004	19.995	103.121	20.164	13.482	0.498
