Sample ID:	C:\MCC\MCC Cal\Test\Cedar_Single_MCC_30K_min_211214_R2.txt
Sample Weight (mg):	4.62
Heating Rate (C/s):	0.5
Combustor Temp (C):	900
N2 Flow Rate (cc/min):	80
O2 Flow Rate (cc/min):	20
Calibration File:	C:\MCC\MCC Cal\Coeff1 JN10440_30_210304.txt.txt
T Correction Coefficients:	0	1.024463	0
Time Shift (s):	14
*
Time (s)	Temperature (C)	N2 flow rate (cc/min)	O2 flow rate (cc/min)	Flow Rate (cc/min)	Oxygen (%)	HRR (W/g)	Heating rate (C/s)
0.000	109.093	80.006	19.997	103.002	19.867	0.009	-0.025
0.500	109.146	80.005	19.996	103.003	19.864	0.228	0.001
1.000	109.125	80.004	19.996	103.007	19.864	0.226	0.036
1.500	109.131	80.005	19.996	103.008	19.865	0.200	0.008
2.000	109.142	80.003	19.996	103.013	19.867	0.006	0.001
2.500	109.093	80.005	19.995	103.014	19.868	-0.007	-0.010
3.000	109.117	80.005	19.995	103.012	19.867	0.022	-0.031
3.500	109.092	80.006	19.995	103.010	19.866	0.119	-0.014
4.000	109.080	80.003	19.995	103.010	19.868	0.000	-0.019
4.500	109.118	80.004	19.995	103.010	19.867	0.019	-0.005
5.000	109.111	80.003	19.996	103.006	19.866	0.089	0.029
5.500	109.143	80.003	19.995	103.006	19.866	0.128	0.028
6.000	109.127	80.004	19.995	103.006	19.868	-0.050	0.021
6.500	109.140	80.004	19.996	103.005	19.869	-0.080	0.007
7.000	109.140	80.003	19.996	103.004	19.868	-0.063	0.005
7.500	109.102	80.003	19.996	103.008	19.865	0.154	-0.012
8.000	109.110	80.003	19.996	103.009	19.863	0.310	-0.034
8.500	109.126	80.003	19.996	103.009	19.864	0.217	-0.003
9.000	109.094	80.005	19.996	103.011	19.863	0.350	0.004
9.500	109.124	80.003	19.995	103.012	19.867	0.061	-0.009
10.000	109.105	80.003	19.995	103.013	19.866	0.115	0.004
10.500	109.134	80.003	19.995	103.015	19.862	0.369	0.010
11.001	109.115	80.002	19.994	103.019	19.864	0.215	0.010
11.501	109.087	80.004	19.996	103.026	19.862	0.384	-0.018
12.000	109.128	80.003	19.996	103.032	19.859	0.578	-0.017
12.500	109.134	80.003	19.995	103.039	19.862	0.413	0.029
13.000	109.111	80.003	19.995	103.045	19.861	0.458	0.015
13.500	109.092	80.004	19.995	103.049	19.859	0.588	-0.029
14.001	109.108	80.004	19.995	103.050	19.861	0.451	-0.022
14.501	109.125	80.005	19.995	103.051	19.859	0.621	0.015
15.000	109.146	80.004	19.996	103.051	19.858	0.696	0.035
15.500	109.142	80.005	19.995	103.055	19.856	0.779	0.028
16.000	109.153	80.003	19.996	103.061	19.858	0.655	0.012
16.500	109.176	80.004	19.995	103.069	19.858	0.649	0.020
17.000	109.187	80.003	19.995	103.076	19.855	0.868	0.033
17.500	109.196	80.004	19.996	103.083	19.854	0.948	0.027
18.000	109.192	80.003	19.996	103.087	19.854	0.946	0.013
18.500	109.218	80.006	19.996	103.088	19.854	0.966	0.014
19.000	109.239	80.005	19.996	103.088	19.855	0.905	0.034
19.500	109.239	80.005	19.995	103.089	19.852	1.074	0.034
20.000	109.248	80.004	19.995	103.091	19.852	1.087	0.015
20.500	109.283	80.004	19.995	103.092	19.851	1.130	0.026
21.000	109.304	80.004	19.995	103.094	19.848	1.334	0.050
21.500	109.286	80.004	19.994	103.101	19.849	1.325	0.030
22.000	109.340	80.006	19.995	103.108	19.850	1.254	0.019
22.500	109.339	80.004	19.994	103.114	19.845	1.553	0.044
23.000	109.365	80.005	19.995	103.119	19.847	1.453	0.039
23.500	109.432	80.005	19.995	103.126	19.844	1.624	0.059
24.000	109.449	80.006	19.996	103.131	19.845	1.570	0.089
24.500	109.488	80.004	19.994	103.138	19.844	1.630	0.070
25.000	109.494	80.004	19.995	103.146	19.841	1.875	0.050
25.500	109.505	80.005	19.995	103.153	19.843	1.698	0.031
26.000	109.536	80.004	19.994	103.160	19.839	1.962	0.030
26.500	109.610	80.004	19.994	103.166	19.840	1.912	0.073
27.000	109.634	80.004	19.994	103.172	19.837	2.114	0.101
27.500	109.672	80.004	19.995	103.173	19.837	2.137	0.080
28.000	109.732	80.004	19.995	103.173	19.835	2.239	0.080
28.500	109.764	80.004	19.995	103.173	19.837	2.138	0.095
29.000	109.829	80.005	19.994	103.172	19.835	2.241	0.095
29.500	109.876	80.004	19.992	103.176	19.834	2.317	0.105
30.000	109.946	80.004	19.995	103.182	19.834	2.350	0.114
30.500	109.987	80.004	19.995	103.190	19.834	2.372	0.114
31.000	110.065	80.004	19.994	103.197	19.834	2.341	0.114
31.500	110.086	80.004	19.995	103.203	19.831	2.532	0.109
32.000	110.150	80.004	19.995	103.204	19.828	2.729	0.092
32.501	110.213	80.005	19.994	103.206	19.830	2.597	0.106
33.001	110.312	80.004	19.995	103.208	19.828	2.783	0.144
33.500	110.338	80.003	19.994	103.213	19.826	2.894	0.143
34.000	110.391	80.004	19.994	103.220	19.827	2.796	0.102
34.500	110.467	80.005	19.995	103.224	19.828	2.764	0.104
35.000	110.570	80.004	19.994	103.224	19.826	2.890	0.154
35.500	110.631	80.006	19.995	103.231	19.826	2.909	0.172
36.000	110.730	80.004	19.995	103.234	19.827	2.811	0.162
36.501	110.808	80.004	19.994	103.235	19.826	2.918	0.169
37.001	110.900	80.004	19.994	103.239	19.823	3.121	0.173
37.501	110.946	80.004	19.993	103.244	19.824	3.056	0.154
38.001	111.034	80.005	19.994	103.244	19.822	3.145	0.136
38.500	111.126	80.005	19.994	103.244	19.821	3.273	0.157
39.000	111.231	80.004	19.994	103.245	19.821	3.236	0.188
39.500	111.308	80.005	19.994	103.245	19.822	3.190	0.190
40.001	111.412	80.006	19.995	103.244	19.823	3.139	0.181
40.501	111.521	80.006	19.994	103.244	19.823	3.103	0.197
41.001	111.588	80.006	19.995	103.243	19.820	3.329	0.194
41.500	111.716	80.006	19.994	103.244	19.819	3.385	0.185
42.001	111.800	80.006	19.994	103.249	19.819	3.372	0.204
42.501	111.922	80.007	19.995	103.255	19.821	3.240	0.209
43.000	111.988	80.006	19.995	103.259	19.819	3.382	0.197
43.500	112.145	80.005	19.994	103.260	19.817	3.499	0.205
44.001	112.196	80.005	19.994	103.259	19.820	3.313	0.216
44.501	112.311	80.006	19.994	103.254	19.816	3.580	0.187
45.000	112.464	80.005	19.994	103.249	19.818	3.426	0.217
45.501	112.568	80.005	19.994	103.245	19.817	3.517	0.262
46.001	112.692	80.005	19.995	103.245	19.819	3.378	0.243
46.501	112.804	80.007	19.995	103.245	19.817	3.526	0.232
47.000	112.892	80.006	19.994	103.249	19.818	3.478	0.218
47.500	113.030	80.007	19.994	103.253	19.818	3.452	0.213
48.001	113.155	80.006	19.993	103.257	19.817	3.497	0.245
48.501	113.255	80.007	19.995	103.263	19.816	3.584	0.244
49.001	113.394	80.007	19.993	103.263	19.817	3.545	0.232
49.500	113.525	80.008	19.994	103.263	19.816	3.575	0.254
50.000	113.679	80.005	19.995	103.264	19.815	3.692	0.277
50.500	113.813	80.005	19.994	103.262	19.813	3.786	0.287
51.000	113.951	80.005	19.993	103.262	19.815	3.673	0.280
51.500	114.050	80.007	19.995	103.269	19.816	3.619	0.255
52.000	114.177	80.006	19.994	103.273	19.815	3.632	0.232
52.500	114.313	80.005	19.993	103.275	19.815	3.666	0.245
53.000	114.474	80.006	19.994	103.279	19.814	3.759	0.280
53.500	114.578	80.005	19.994	103.282	19.813	3.799	0.281
54.000	114.747	80.005	19.994	103.282	19.812	3.874	0.269
54.500	114.874	80.006	19.993	103.283	19.812	3.881	0.284
55.000	115.049	80.005	19.993	103.283	19.809	4.084	0.299
55.500	115.144	80.006	19.993	103.285	19.813	3.838	0.287
56.000	115.308	80.005	19.993	103.285	19.813	3.822	0.264
56.500	115.457	80.005	19.993	103.285	19.810	3.983	0.285
57.000	115.621	80.006	19.994	103.285	19.811	3.928	0.313
57.500	115.765	80.005	19.994	103.286	19.811	3.942	0.311
58.001	115.924	80.006	19.993	103.286	19.814	3.742	0.306
58.501	116.082	80.006	19.994	103.286	19.809	4.113	0.310
59.000	116.234	80.006	19.993	103.285	19.812	3.892	0.313
59.500	116.399	80.007	19.994	103.285	19.812	3.859	0.313
60.000	116.566	80.006	19.993	103.285	19.807	4.219	0.324
60.500	116.724	80.007	19.994	103.285	19.811	3.963	0.328
61.000	116.879	80.004	19.994	103.285	19.809	4.115	0.319
61.500	117.065	80.005	19.993	103.284	19.812	3.872	0.327
62.000	117.222	80.005	19.994	103.283	19.814	3.762	0.342
62.501	117.363	80.005	19.994	103.283	19.810	4.007	0.320
63.001	117.550	80.007	19.995	103.283	19.814	3.744	0.313
63.500	117.697	80.006	19.995	103.283	19.809	4.056	0.331
64.000	117.880	80.007	19.994	103.284	19.813	3.783	0.332
64.500	118.059	80.006	19.994	103.284	19.813	3.785	0.346
65.000	118.243	80.006	19.995	103.284	19.811	3.965	0.363
65.500	118.432	80.006	19.994	103.284	19.810	4.022	0.367
66.000	118.627	80.005	19.993	103.284	19.809	4.113	0.378
66.500	118.792	80.005	19.996	103.286	19.811	3.948	0.372
67.000	118.930	80.005	19.994	103.286	19.810	4.024	0.332
67.500	119.090	80.006	19.995	103.286	19.811	3.944	0.301
68.000	119.268	80.006	19.994	103.286	19.810	4.006	0.318
68.500	119.462	80.007	19.995	103.286	19.812	3.846	0.355
69.000	119.684	80.007	19.994	103.284	19.813	3.840	0.394
69.500	119.813	80.005	19.994	103.284	19.810	4.009	0.383
70.000	120.051	80.007	19.993	103.283	19.811	3.920	0.359
70.500	120.164	80.006	19.994	103.283	19.811	3.937	0.359
71.001	120.381	80.007	19.994	103.283	19.810	3.992	0.340
71.501	120.601	80.007	19.994	103.284	19.813	3.779	0.384
72.000	120.783	80.007	19.993	103.284	19.814	3.751	0.419
72.500	120.983	80.006	19.994	103.284	19.811	3.961	0.392
73.000	121.188	80.007	19.994	103.284	19.811	3.979	0.393
73.500	121.320	80.006	19.995	103.284	19.810	4.044	0.371
74.001	121.532	80.006	19.996	103.284	19.812	3.901	0.341
74.501	121.737	80.005	19.993	103.284	19.810	4.033	0.381
75.001	121.963	80.006	19.994	103.284	19.813	3.812	0.424
75.501	122.126	80.006	19.994	103.284	19.811	3.912	0.410
76.000	122.335	80.004	19.995	103.284	19.812	3.877	0.381
76.500	122.546	80.005	19.995	103.284	19.814	3.727	0.396
77.001	122.742	80.003	19.993	103.284	19.812	3.896	0.414
77.501	122.970	80.004	19.995	103.285	19.812	3.853	0.416
78.000	123.175	80.005	19.996	103.285	19.814	3.727	0.428
78.500	123.376	80.005	19.995	103.286	19.815	3.638	0.419
79.000	123.536	80.005	19.995	103.286	19.810	3.992	0.384
79.500	123.735	80.003	19.996	103.286	19.811	3.940	0.360
80.000	123.952	80.003	19.996	103.286	19.811	3.940	0.387
80.500	124.133	80.004	19.995	103.286	19.813	3.779	0.407
81.000	124.331	80.005	19.996	103.285	19.814	3.727	0.389
81.500	124.574	80.004	19.996	103.285	19.809	4.050	0.410
82.000	124.779	80.004	19.996	103.283	19.812	3.861	0.445
82.500	124.966	80.005	19.996	103.283	19.814	3.725	0.421
83.000	125.209	80.003	19.995	103.282	19.815	3.688	0.412
83.501	125.396	80.004	19.994	103.282	19.814	3.770	0.430
84.001	125.583	80.004	19.994	103.282	19.814	3.736	0.402
84.500	125.799	80.005	19.994	103.283	19.813	3.835	0.388
85.000	126.027	80.004	19.995	103.283	19.813	3.809	0.423
85.501	126.252	80.004	19.994	103.282	19.813	3.779	0.448
86.001	126.452	80.005	19.995	103.282	19.813	3.818	0.439
86.501	126.676	80.004	19.995	103.278	19.812	3.851	0.425
87.001	126.869	80.005	19.995	103.278	19.808	4.167	0.421
87.501	127.042	80.006	19.995	103.278	19.813	3.801	0.392
88.001	127.304	80.004	19.994	103.278	19.809	4.056	0.400
88.501	127.523	80.004	19.994	103.278	19.814	3.729	0.458
89.001	127.726	80.004	19.995	103.281	19.814	3.749	0.452
89.501	127.980	80.004	19.995	103.281	19.813	3.790	0.440
90.000	128.169	80.005	19.995	103.281	19.811	3.940	0.450
90.500	128.416	80.004	19.995	103.282	19.812	3.870	0.439
91.001	128.610	80.005	19.995	103.283	19.813	3.814	0.438
91.501	128.859	80.003	19.995	103.283	19.814	3.757	0.442
92.000	129.091	80.004	19.996	103.284	19.812	3.896	0.462
92.500	129.296	80.004	19.996	103.284	19.813	3.803	0.459
93.000	129.485	80.005	19.996	103.283	19.811	3.955	0.416
93.500	129.714	80.004	19.995	103.283	19.808	4.173	0.407
94.000	129.953	80.003	19.996	103.282	19.811	3.961	0.443
94.500	130.175	80.005	19.996	103.282	19.808	4.132	0.464
95.000	130.419	80.005	19.994	103.282	19.809	4.102	0.463
95.500	130.646	80.004	19.995	103.282	19.808	4.172	0.469
96.000	130.864	80.003	19.995	103.282	19.810	4.016	0.458
96.500	131.094	80.005	19.996	103.282	19.809	4.072	0.446
97.000	131.323	80.003	19.994	103.282	19.808	4.150	0.453
97.500	131.524	80.003	19.995	103.282	19.808	4.184	0.444
98.000	131.783	80.004	19.995	103.281	19.809	4.100	0.445
98.500	131.972	80.005	19.994	103.281	19.809	4.057	0.454
99.000	132.220	80.003	19.996	103.281	19.807	4.200	0.442
99.500	132.440	80.004	19.995	103.282	19.806	4.286	0.452
100.000	132.648	80.004	19.995	103.281	19.808	4.178	0.448
100.501	132.886	80.005	19.994	103.280	19.808	4.176	0.437
101.001	133.098	80.004	19.994	103.280	19.806	4.286	0.448
101.500	133.334	80.004	19.995	103.280	19.808	4.171	0.449
102.000	133.568	80.005	19.995	103.280	19.807	4.254	0.459
102.500	133.805	80.005	19.996	103.281	19.808	4.122	0.471
103.000	134.013	80.004	19.996	103.282	19.808	4.163	0.458
103.500	134.290	80.004	19.996	103.283	19.812	3.875	0.465
104.000	134.510	80.005	19.995	103.283	19.809	4.076	0.491
104.500	134.694	80.005	19.995	103.282	19.809	4.057	0.451
105.000	134.946	80.003	19.997	103.282	19.806	4.277	0.420
105.500	135.191	80.005	19.996	103.279	19.806	4.265	0.467
106.000	135.463	80.004	19.996	103.278	19.807	4.252	0.507
106.500	135.666	80.004	19.996	103.278	19.805	4.353	0.496
107.001	135.869	80.004	19.995	103.278	19.808	4.136	0.440
107.501	136.129	80.004	19.996	103.278	19.806	4.280	0.435
108.001	136.370	80.003	19.995	103.280	19.810	4.020	0.482
108.500	136.586	80.003	19.996	103.281	19.807	4.202	0.479
109.000	136.857	80.004	19.995	103.281	19.808	4.139	0.471
109.500	137.053	80.004	19.996	103.281	19.806	4.266	0.477
110.001	137.325	80.004	19.996	103.281	19.807	4.215	0.468
110.501	137.572	80.004	19.996	103.281	19.805	4.364	0.493
111.000	137.821	80.005	19.996	103.281	19.806	4.290	0.507
111.500	138.024	80.003	19.996	103.281	19.805	4.332	0.474
112.000	138.275	80.004	19.996	103.282	19.804	4.401	0.454
112.500	138.565	80.004	19.995	103.282	19.807	4.239	0.498
113.001	138.777	80.004	19.995	103.281	19.805	4.362	0.521
113.501	139.001	80.004	19.995	103.282	19.806	4.303	0.468
114.000	139.237	80.004	19.995	103.282	19.806	4.306	0.448
114.500	139.489	80.004	19.995	103.281	19.804	4.429	0.474
115.001	139.762	80.003	19.995	103.282	19.807	4.247	0.507
115.501	139.979	80.004	19.995	103.282	19.809	4.072	0.508
116.000	140.197	80.003	19.995	103.282	19.807	4.251	0.463
116.500	140.468	80.003	19.995	103.283	19.809	4.074	0.462
117.000	140.730	80.004	19.995	103.283	19.808	4.156	0.511
117.500	140.977	80.005	19.994	103.284	19.808	4.161	0.521
118.000	141.245	80.004	19.995	103.284	19.811	3.952	0.512
118.500	141.494	80.003	19.994	103.285	19.809	4.070	0.516
119.000	141.738	80.004	19.994	103.285	19.805	4.336	0.505
119.500	141.967	80.004	19.994	103.285	19.807	4.193	0.483
120.000	142.199	80.005	19.995	103.285	19.808	4.122	0.467
120.500	142.451	80.004	19.994	103.285	19.806	4.261	0.473
121.000	142.752	80.004	19.995	103.285	19.808	4.174	0.518
121.500	143.016	80.004	19.994	103.284	19.807	4.195	0.559
122.000	143.234	80.004	19.994	103.284	19.807	4.221	0.523
122.500	143.476	80.006	19.993	103.283	19.805	4.367	0.471
123.000	143.709	80.005	19.994	103.283	19.807	4.230	0.468
123.500	143.997	80.005	19.995	103.283	19.803	4.516	0.498
124.000	144.255	80.006	19.994	103.283	19.806	4.269	0.533
124.500	144.496	80.006	19.994	103.284	19.804	4.447	0.523
125.001	144.738	80.006	19.994	103.284	19.806	4.298	0.491
125.501	144.983	80.006	19.995	103.284	19.806	4.282	0.485
126.000	145.256	80.006	19.994	103.284	19.807	4.205	0.502
126.500	145.483	80.007	19.994	103.285	19.804	4.447	0.509
127.000	145.759	80.006	19.995	103.285	19.809	4.083	0.502
127.500	146.014	80.006	19.994	103.284	19.804	4.421	0.518
128.000	146.268	80.007	19.995	103.283	19.803	4.529	0.520
128.500	146.533	80.006	19.994	103.283	19.801	4.635	0.514
129.000	146.788	80.005	19.994	103.283	19.804	4.434	0.519
129.500	147.031	80.006	19.994	103.282	19.803	4.521	0.508
130.000	147.302	80.005	19.994	103.281	19.805	4.378	0.506
130.500	147.531	80.006	19.993	103.276	19.803	4.519	0.508
131.000	147.811	80.006	19.996	103.273	19.805	4.389	0.505
131.500	148.070	80.005	19.996	103.273	19.804	4.458	0.524
132.000	148.343	80.005	19.996	103.274	19.802	4.543	0.535
132.500	148.596	80.005	19.994	103.275	19.804	4.413	0.529
133.000	148.827	80.006	19.994	103.279	19.804	4.432	0.505
133.500	149.087	80.007	19.994	103.280	19.802	4.582	0.487
134.000	149.364	80.005	19.995	103.280	19.804	4.467	0.514
134.500	149.607	80.006	19.995	103.278	19.804	4.398	0.529
135.000	149.859	80.006	19.994	103.278	19.804	4.467	0.508
135.501	150.149	80.006	19.994	103.277	19.804	4.416	0.519
136.000	150.366	80.005	19.995	103.272	19.805	4.368	0.524
136.500	150.592	80.005	19.994	103.267	19.805	4.374	0.475
137.000	150.873	80.004	19.993	103.268	19.803	4.507	0.475
137.500	151.104	80.005	19.995	103.268	19.803	4.478	0.509
138.000	151.386	80.006	19.996	103.271	19.802	4.544	0.512
138.500	151.645	80.005	19.995	103.276	19.803	4.498	0.527
139.000	151.926	80.006	19.996	103.279	19.805	4.346	0.541
139.500	152.156	80.004	19.995	103.275	19.802	4.585	0.526
140.000	152.432	80.005	19.994	103.269	19.805	4.383	0.509
140.500	152.708	80.005	19.996	103.265	19.803	4.501	0.529
141.000	152.916	80.005	19.994	103.262	19.804	4.438	0.518
141.500	153.175	80.004	19.993	103.261	19.800	4.732	0.475
142.000	153.417	80.005	19.993	103.264	19.802	4.557	0.484
142.500	153.680	80.005	19.994	103.267	19.804	4.435	0.503
143.000	153.937	80.005	19.994	103.265	19.802	4.537	0.513
143.500	154.200	80.006	19.994	103.264	19.803	4.535	0.520
144.000	154.464	80.005	19.995	103.261	19.804	4.457	0.523
144.500	154.696	80.006	19.995	103.254	19.802	4.587	0.511
145.000	154.960	80.005	19.993	103.254	19.802	4.596	0.496
145.500	155.219	80.007	19.994	103.256	19.800	4.734	0.510
146.000	155.483	80.006	19.994	103.253	19.800	4.693	0.523
146.500	155.714	80.008	19.994	103.253	19.802	4.568	0.509
147.000	155.977	80.007	19.995	103.254	19.803	4.483	0.495
147.500	156.231	80.007	19.994	103.252	19.802	4.563	0.505
148.000	156.509	80.008	19.994	103.249	19.804	4.427	0.524
148.500	156.782	80.008	19.995	103.250	19.799	4.771	0.542
149.000	157.014	80.007	19.993	103.249	19.804	4.427	0.528
149.500	157.258	80.007	19.994	103.246	19.803	4.494	0.490
150.000	157.519	80.007	19.993	103.244	19.801	4.626	0.491
150.500	157.776	80.007	19.994	103.244	19.802	4.550	0.512
151.000	158.028	80.007	19.993	103.244	19.802	4.579	0.513
151.500	158.297	80.008	19.994	103.245	19.800	4.700	0.514
152.000	158.557	80.008	19.994	103.247	19.799	4.754	0.525
152.500	158.828	80.007	19.994	103.248	19.799	4.811	0.530
153.000	159.061	80.007	19.993	103.248	19.800	4.709	0.518
153.501	159.330	80.008	19.993	103.248	19.799	4.759	0.503
154.000	159.565	80.007	19.994	103.248	19.798	4.858	0.503
154.500	159.831	80.009	19.995	103.246	19.798	4.849	0.503
155.000	160.066	80.008	19.995	103.246	19.798	4.871	0.501
155.500	160.317	80.008	19.996	103.247	19.799	4.754	0.494
156.000	160.558	80.006	19.996	103.246	19.797	4.919	0.489
156.500	160.861	80.007	19.995	103.246	19.801	4.648	0.518
157.000	161.114	80.007	19.994	103.246	19.797	4.923	0.550
157.500	161.354	80.007	19.996	103.246	19.799	4.793	0.524
158.000	161.632	80.009	19.995	103.246	19.798	4.865	0.505
158.500	161.864	80.007	19.994	103.246	19.798	4.821	0.514
159.000	162.113	80.006	19.994	103.246	19.800	4.730	0.495
159.500	162.395	80.007	19.994	103.245	19.798	4.833	0.506
160.000	162.618	80.006	19.994	103.243	19.802	4.568	0.518
160.500	162.909	80.006	19.994	103.242	19.801	4.666	0.509
161.000	163.128	80.006	19.995	103.242	19.800	4.696	0.512
161.500	163.421	80.005	19.994	103.241	19.798	4.848	0.511
162.001	163.662	80.006	19.994	103.242	19.800	4.719	0.523
162.500	163.921	80.005	19.995	103.242	19.798	4.854	0.517
163.000	164.184	80.005	19.993	103.242	19.799	4.750	0.511
163.500	164.428	80.005	19.994	103.242	19.800	4.730	0.515
164.000	164.700	80.003	19.993	103.243	19.798	4.875	0.511
164.500	164.989	80.005	19.994	103.242	19.796	4.964	0.538
165.000	165.164	80.005	19.994	103.243	19.794	5.116	0.513
165.500	165.450	80.005	19.995	103.243	19.794	5.107	0.462
166.000	165.670	80.003	19.995	103.243	19.798	4.862	0.483
166.500	165.931	80.005	19.995	103.243	19.797	4.887	0.494
167.000	166.194	80.005	19.995	103.243	19.796	4.993	0.503
167.500	166.444	80.004	19.995	103.243	19.797	4.895	0.519
168.000	166.717	80.005	19.995	103.243	19.797	4.891	0.518
168.500	166.952	80.005	19.995	103.243	19.799	4.787	0.515
169.000	167.233	80.005	19.995	103.242	19.798	4.876	0.512
169.500	167.466	80.005	19.995	103.242	19.797	4.899	0.515
170.000	167.722	80.004	19.996	103.240	19.796	4.960	0.502
170.500	167.978	80.004	19.995	103.239	19.793	5.229	0.501
171.000	168.218	80.005	19.995	103.239	19.793	5.198	0.504
171.500	168.468	80.005	19.996	103.238	19.796	4.973	0.493
172.000	168.704	80.004	19.996	103.238	19.798	4.874	0.488
172.500	168.999	80.004	19.996	103.240	19.794	5.131	0.508
173.000	169.232	80.005	19.996	103.241	19.794	5.114	0.530
173.500	169.487	80.006	19.996	103.242	19.797	4.937	0.508
174.000	169.776	80.006	19.995	103.243	19.794	5.097	0.516
174.500	170.007	80.004	19.995	103.243	19.795	5.043	0.532
175.000	170.252	80.004	19.994	103.243	19.794	5.104	0.498
175.500	170.474	80.004	19.994	103.242	19.795	5.047	0.472
176.000	170.744	80.006	19.994	103.243	19.795	5.038	0.480
176.500	170.984	80.004	19.994	103.243	19.793	5.180	0.501
177.000	171.250	80.005	19.994	103.243	19.795	5.091	0.508
177.500	171.510	80.005	19.995	103.243	19.795	5.030	0.516
178.000	171.729	80.005	19.994	103.240	19.792	5.264	0.503
178.500	171.968	80.005	19.994	103.240	19.795	5.025	0.468
179.000	172.231	80.008	19.994	103.238	19.792	5.284	0.480
179.500	172.482	80.004	19.994	103.238	19.797	4.954	0.508
180.000	172.740	80.005	19.994	103.238	19.792	5.279	0.511
180.500	172.968	80.005	19.995	103.241	19.793	5.233	0.498
181.000	173.239	80.005	19.994	103.242	19.792	5.247	0.493
181.500	173.469	80.005	19.994	103.243	19.792	5.271	0.500
182.000	173.725	80.004	19.993	103.244	19.793	5.231	0.493
182.500	174.007	80.005	19.995	103.243	19.792	5.266	0.512
183.000	174.286	80.005	19.994	103.241	19.795	5.054	0.549
183.500	174.510	80.004	19.995	103.240	19.789	5.483	0.532
184.001	174.702	80.004	19.995	103.240	19.792	5.271	0.460
184.501	174.937	80.005	19.995	103.239	19.790	5.429	0.421
185.000	175.188	80.006	19.995	103.237	19.787	5.609	0.456
185.500	175.458	80.003	19.994	103.236	19.790	5.373	0.504
186.000	175.720	80.005	19.995	103.235	19.793	5.174	0.526
186.500	175.958	80.005	19.994	103.236	19.790	5.412	0.516
187.000	176.201	80.005	19.995	103.237	19.789	5.447	0.491
187.500	176.441	80.005	19.994	103.237	19.794	5.139	0.482
188.000	176.701	80.003	19.994	103.238	19.791	5.366	0.491
188.500	176.923	80.004	19.995	103.237	19.789	5.457	0.491
189.000	177.180	80.003	19.995	103.235	19.793	5.197	0.480
189.500	177.431	80.004	19.995	103.236	19.788	5.544	0.494
190.000	177.688	80.003	19.995	103.236	19.792	5.284	0.508
190.500	177.915	80.004	19.996	103.236	19.792	5.269	0.496
191.000	178.173	80.004	19.996	103.237	19.792	5.260	0.484
191.500	178.419	80.003	19.995	103.238	19.790	5.399	0.494
192.000	178.651	80.003	19.994	103.237	19.791	5.370	0.491
192.500	178.905	80.004	19.994	103.238	19.790	5.374	0.482
193.000	179.151	80.002	19.995	103.238	19.789	5.489	0.493
193.500	179.400	80.002	19.995	103.235	19.791	5.333	0.498
194.000	179.668	80.003	19.995	103.231	19.793	5.174	0.506
194.500	179.897	80.002	19.996	103.232	19.792	5.300	0.507
195.000	180.132	80.004	19.996	103.232	19.791	5.358	0.481
195.500	180.401	80.003	19.996	103.232	19.791	5.353	0.484
196.000	180.628	80.004	19.996	103.233	19.791	5.314	0.500
196.500	180.882	80.004	19.995	103.232	19.794	5.101	0.489
197.000	181.120	80.003	19.995	103.226	19.791	5.359	0.486
197.500	181.341	80.003	19.996	103.227	19.794	5.114	0.476
198.000	181.617	80.002	19.996	103.227	19.791	5.303	0.478
198.500	181.810	80.003	19.997	103.231	19.793	5.230	0.483
199.000	182.120	80.002	19.997	103.236	19.792	5.301	0.486
199.500	182.347	80.003	19.996	103.238	19.794	5.102	0.520
200.000	182.629	80.003	19.996	103.235	19.794	5.124	0.523
200.500	182.864	80.003	19.996	103.229	19.791	5.332	0.513
201.000	183.076	80.004	19.996	103.228	19.793	5.191	0.481
201.500	183.356	80.004	19.996	103.227	19.793	5.182	0.469
202.000	183.576	80.004	19.995	103.228	19.790	5.432	0.496
202.500	183.809	80.004	19.996	103.235	19.792	5.280	0.477
203.000	184.084	80.005	19.995	103.241	19.793	5.210	0.480
203.500	184.301	80.004	19.995	103.240	19.795	5.067	0.500
204.000	184.581	80.004	19.995	103.238	19.792	5.241	0.495
204.500	184.846	80.006	19.994	103.236	19.791	5.345	0.521
205.000	185.048	80.004	19.995	103.228	19.789	5.499	0.506
205.500	185.323	80.005	19.995	103.223	19.792	5.256	0.472
206.000	185.604	80.004	19.995	103.224	19.792	5.249	0.517
206.500	185.824	80.005	19.995	103.228	19.795	5.052	0.529
207.000	186.079	80.007	19.995	103.232	19.792	5.297	0.488
207.500	186.308	80.006	19.995	103.239	19.788	5.519	0.480
208.000	186.600	80.006	19.994	103.241	19.788	5.521	0.503
208.500	186.850	80.006	19.994	103.239	19.790	5.394	0.531
209.000	187.107	80.006	19.993	103.232	19.790	5.426	0.524
209.500	187.369	80.006	19.994	103.230	19.789	5.443	0.513
210.000	187.601	80.006	19.994	103.225	19.787	5.604	0.506
210.500	187.871	80.006	19.993	103.224	19.789	5.446	0.498
211.000	188.078	80.005	19.993	103.221	19.792	5.259	0.490
211.500	188.317	80.007	19.994	103.219	19.791	5.318	0.462
212.000	188.572	80.008	19.995	103.217	19.791	5.326	0.470
212.500	188.812	80.005	19.993	103.222	19.790	5.385	0.494
213.000	189.057	80.006	19.994	103.223	19.790	5.411	0.490
213.500	189.349	80.005	19.993	103.223	19.792	5.238	0.511
214.000	189.594	80.006	19.994	103.227	19.790	5.432	0.537
214.500	189.841	80.005	19.994	103.223	19.792	5.257	0.514
215.000	190.080	80.006	19.994	103.221	19.793	5.224	0.489
215.500	190.347	80.007	19.994	103.219	19.790	5.400	0.496
216.000	190.543	80.006	19.993	103.219	19.788	5.536	0.484
216.500	190.820	80.005	19.994	103.221	19.788	5.532	0.468
217.000	191.059	80.007	19.995	103.225	19.789	5.467	0.495
217.500	191.329	80.004	19.993	103.223	19.787	5.610	0.513
218.000	191.561	80.007	19.994	103.220	19.787	5.614	0.505
218.500	191.781	80.005	19.993	103.218	19.786	5.680	0.477
219.000	192.057	80.006	19.994	103.212	19.787	5.595	0.474
219.500	192.294	80.006	19.995	103.208	19.785	5.749	0.505
220.000	192.542	80.005	19.994	103.206	19.787	5.597	0.499
220.500	192.800	80.006	19.993	103.209	19.786	5.712	0.495
221.000	193.024	80.004	19.994	103.210	19.786	5.665	0.494
221.500	193.269	80.005	19.994	103.210	19.787	5.602	0.475
222.000	193.487	80.004	19.993	103.212	19.783	5.910	0.466
222.500	193.757	80.004	19.994	103.212	19.786	5.697	0.476
223.000	193.996	80.005	19.994	103.210	19.785	5.781	0.498
223.500	194.237	80.006	19.995	103.210	19.783	5.885	0.494
224.000	194.518	80.005	19.994	103.211	19.785	5.781	0.501
224.500	194.743	80.007	19.993	103.209	19.785	5.721	0.514
225.000	194.978	80.006	19.994	103.210	19.784	5.793	0.483
225.500	195.262	80.006	19.994	103.213	19.784	5.829	0.490
226.000	195.485	80.006	19.994	103.214	19.785	5.764	0.513
226.500	195.748	80.006	19.995	103.216	19.784	5.792	0.497
227.000	195.983	80.006	19.994	103.218	19.783	5.925	0.492
227.500	196.217	80.007	19.994	103.216	19.781	6.001	0.484
228.000	196.500	80.006	19.994	103.214	19.782	5.959	0.493
228.500	196.727	80.005	19.995	103.215	19.783	5.892	0.513
229.000	196.960	80.007	19.994	103.214	19.784	5.855	0.485
229.500	197.194	80.006	19.994	103.213	19.782	5.968	0.464
230.000	197.448	80.006	19.994	103.213	19.782	5.940	0.478
230.500	197.685	80.008	19.994	103.212	19.782	5.996	0.489
231.000	197.959	80.007	19.995	103.212	19.780	6.088	0.501
231.500	198.203	80.008	19.994	103.210	19.779	6.194	0.515
232.000	198.385	80.007	19.994	103.210	19.779	6.187	0.472
232.501	198.679	80.007	19.995	103.210	19.779	6.148	0.451
233.000	198.917	80.007	19.994	103.210	19.775	6.439	0.504
233.500	199.145	80.007	19.994	103.212	19.778	6.240	0.499
234.000	199.420	80.008	19.993	103.213	19.775	6.435	0.485
234.500	199.615	80.007	19.994	103.215	19.778	6.276	0.487
235.000	199.893	80.009	19.994	103.217	19.780	6.081	0.472
235.500	200.147	80.008	19.994	103.216	19.777	6.320	0.502
236.000	200.377	80.008	19.993	103.212	19.776	6.374	0.508
236.500	200.660	80.009	19.993	103.210	19.775	6.450	0.499
237.000	200.857	80.008	19.994	103.210	19.775	6.434	0.497
237.500	201.124	80.008	19.994	103.211	19.772	6.645	0.471
238.000	201.394	80.006	19.994	103.211	19.774	6.508	0.500
238.500	201.609	80.007	19.993	103.213	19.773	6.617	0.511
239.000	201.868	80.007	19.994	103.217	19.774	6.543	0.480
239.500	202.089	80.007	19.994	103.215	19.771	6.744	0.477
240.000	202.380	80.007	19.994	103.213	19.772	6.673	0.496
240.500	202.628	80.007	19.994	103.213	19.774	6.519	0.525
241.000	202.857	80.006	19.993	103.211	19.772	6.664	0.508
241.500	203.135	80.006	19.994	103.208	19.771	6.738	0.492
242.000	203.322	80.006	19.995	103.209	19.772	6.636	0.486
242.500	203.609	80.006	19.994	103.208	19.769	6.885	0.470
243.000	203.830	80.006	19.994	103.209	19.771	6.723	0.491
243.500	204.077	80.005	19.994	103.209	19.769	6.896	0.488
244.000	204.335	80.005	19.994	103.209	19.769	6.875	0.487
244.500	204.567	80.006	19.993	103.208	19.768	6.940	0.498
245.000	204.789	80.006	19.994	103.208	19.768	6.940	0.472
245.500	205.058	80.005	19.995	103.207	19.767	7.028	0.473
246.000	205.297	80.006	19.994	103.207	19.767	7.018	0.499
246.500	205.545	80.005	19.993	103.208	19.764	7.189	0.497
247.000	205.811	80.004	19.994	103.209	19.765	7.135	0.500
247.500	206.048	80.004	19.993	103.209	19.768	6.933	0.509
248.000	206.281	80.005	19.993	103.210	19.766	7.110	0.487
248.500	206.556	80.005	19.993	103.210	19.767	7.002	0.489
249.000	206.787	80.006	19.994	103.211	19.765	7.145	0.507
249.500	207.018	80.005	19.994	103.210	19.765	7.124	0.484
250.000	207.281	80.005	19.994	103.211	19.763	7.254	0.478
250.500	207.532	80.005	19.994	103.211	19.762	7.365	0.504
251.001	207.809	80.004	19.994	103.211	19.764	7.183	0.521
251.500	208.049	80.005	19.993	103.211	19.764	7.209	0.522
252.000	208.283	80.006	19.993	103.211	19.762	7.363	0.495
252.500	208.500	80.005	19.994	103.211	19.763	7.295	0.463
253.000	208.767	80.005	19.994	103.211	19.763	7.296	0.468
253.500	209.019	80.004	19.995	103.212	19.762	7.326	0.501
254.000	209.242	80.005	19.994	103.210	19.763	7.293	0.497
254.500	209.514	80.005	19.994	103.210	19.761	7.412	0.485
255.000	209.734	80.006	19.995	103.210	19.759	7.568	0.494
255.500	209.999	80.004	19.994	103.210	19.759	7.579	0.488
256.000	210.251	80.004	19.994	103.214	19.761	7.416	0.501
256.501	210.502	80.005	19.995	103.214	19.762	7.354	0.510
257.000	210.754	80.004	19.995	103.215	19.757	7.692	0.503
257.500	210.992	80.004	19.995	103.215	19.760	7.508	0.496
258.000	211.245	80.005	19.995	103.216	19.757	7.686	0.491
258.500	211.483	80.005	19.996	103.215	19.758	7.605	0.491
259.000	211.720	80.004	19.995	103.220	19.760	7.512	0.483
259.500	211.976	80.005	19.995	103.221	19.758	7.649	0.484
260.000	212.210	80.006	19.995	103.220	19.756	7.779	0.491
260.500	212.441	80.004	19.995	103.219	19.752	8.076	0.478
261.000	212.718	80.005	19.995	103.215	19.752	8.022	0.486
261.500	212.964	80.004	19.995	103.211	19.754	7.944	0.515
262.001	213.220	80.005	19.995	103.211	19.753	8.003	0.512
262.500	213.452	80.004	19.996	103.212	19.754	7.907	0.495
263.000	213.726	80.006	19.995	103.211	19.751	8.135	0.497
263.500	213.994	80.005	19.996	103.212	19.753	7.964	0.524
264.000	214.190	80.004	19.994	103.210	19.754	7.950	0.503
264.500	214.451	80.004	19.995	103.211	19.751	8.124	0.460
265.000	214.743	80.005	19.994	103.213	19.750	8.174	0.504
265.500	214.976	80.003	19.996	103.214	19.750	8.185	0.539
266.000	215.225	80.006	19.996	103.215	19.751	8.118	0.504
266.500	215.451	80.005	19.996	103.217	19.747	8.411	0.479
267.000	215.716	80.004	19.994	103.217	19.749	8.285	0.484
267.500	215.978	80.004	19.995	103.213	19.749	8.248	0.509
268.000	216.202	80.003	19.994	103.213	19.746	8.476	0.506
268.500	216.487	80.004	19.994	103.211	19.748	8.358	0.497
269.000	216.702	80.003	19.996	103.210	19.747	8.421	0.504
269.500	216.937	80.005	19.995	103.212	19.746	8.465	0.475
270.000	217.221	80.003	19.995	103.212	19.746	8.458	0.485
270.500	217.446	80.004	19.995	103.213	19.746	8.458	0.514
271.000	217.703	80.004	19.995	103.215	19.747	8.412	0.495
271.500	217.957	80.004	19.994	103.214	19.746	8.460	0.497
272.000	218.174	80.004	19.994	103.211	19.745	8.575	0.491
272.500	218.458	80.005	19.994	103.211	19.745	8.567	0.486
273.000	218.690	80.004	19.995	103.210	19.744	8.617	0.508
273.500	218.916	80.004	19.995	103.207	19.743	8.664	0.487
274.000	219.159	80.004	19.994	103.208	19.741	8.829	0.464
274.500	219.386	80.004	19.994	103.208	19.743	8.712	0.469
275.000	219.661	80.004	19.994	103.211	19.746	8.489	0.486
275.500	219.898	80.004	19.995	103.211	19.742	8.781	0.507
276.000	220.122	80.004	19.994	103.211	19.738	9.024	0.487
276.500	220.351	80.004	19.995	103.210	19.741	8.822	0.457
277.000	220.615	80.004	19.995	103.210	19.740	8.900	0.473
277.500	220.881	80.003	19.995	103.207	19.740	8.872	0.512
278.000	221.141	80.004	19.996	103.206	19.739	8.965	0.528
278.500	221.382	80.005	19.996	103.206	19.739	8.981	0.513
279.000	221.608	80.003	19.995	103.206	19.739	8.975	0.484
279.501	221.871	80.004	19.994	103.207	19.738	9.027	0.478
280.001	222.098	80.004	19.995	103.210	19.741	8.831	0.490
280.500	222.345	80.003	19.996	103.209	19.737	9.098	0.482
281.000	222.619	80.005	19.995	103.210	19.742	8.758	0.498
281.500	222.840	80.005	19.995	103.210	19.740	8.897	0.508
282.000	223.069	80.005	19.995	103.209	19.738	9.009	0.472
282.500	223.358	80.004	19.995	103.207	19.738	9.057	0.484
283.000	223.625	80.004	19.995	103.208	19.737	9.132	0.537
283.500	223.825	80.003	19.996	103.207	19.738	9.041	0.511
284.000	224.088	80.006	19.995	103.207	19.740	8.874	0.465
284.500	224.358	80.006	19.995	103.206	19.739	8.994	0.498
285.000	224.617	80.006	19.994	103.206	19.737	9.131	0.531
285.500	224.827	80.005	19.995	103.205	19.736	9.165	0.499
286.000	225.085	80.005	19.995	103.205	19.737	9.072	0.469
286.500	225.347	80.006	19.996	103.205	19.734	9.300	0.494
287.000	225.583	80.005	19.994	103.206	19.735	9.243	0.508
287.500	225.837	80.005	19.995	103.209	19.734	9.287	0.494
288.000	226.047	80.006	19.995	103.211	19.730	9.582	0.477
288.500	226.311	80.007	19.995	103.211	19.734	9.317	0.470
289.000	226.570	80.006	19.994	103.210	19.732	9.475	0.499
289.500	226.822	80.007	19.995	103.210	19.730	9.568	0.517
290.000	227.031	80.005	19.996	103.206	19.731	9.492	0.486
290.500	227.304	80.007	19.995	103.205	19.730	9.579	0.472
291.000	227.558	80.006	19.995	103.204	19.729	9.644	0.505
291.500	227.837	80.008	19.995	103.204	19.730	9.610	0.530
292.000	228.065	80.007	19.996	103.204	19.729	9.666	0.520
292.500	228.340	80.005	19.995	103.204	19.727	9.822	0.505
293.000	228.573	80.005	19.995	103.205	19.725	9.961	0.505
293.500	228.879	80.005	19.996	103.208	19.728	9.705	0.524
294.000	229.124	80.007	19.996	103.209	19.729	9.635	0.545
294.500	229.348	80.005	19.996	103.209	19.724	9.989	0.510
295.000	229.638	80.007	19.995	103.210	19.727	9.777	0.492
295.500	229.884	80.005	19.995	103.208	19.728	9.733	0.525
296.000	230.103	80.006	19.996	103.204	19.727	9.829	0.500
296.501	230.381	80.005	19.995	103.204	19.725	9.933	0.481
297.000	230.666	80.005	19.995	103.204	19.727	9.777	0.530
297.500	230.860	80.006	19.994	103.204	19.725	9.937	0.521
298.000	231.116	80.006	19.995	103.204	19.724	10.019	0.464
298.500	231.378	80.006	19.995	103.206	19.723	10.045	0.485
299.000	231.624	80.005	19.994	103.209	19.722	10.138	0.513
299.500	231.857	80.007	19.995	103.210	19.721	10.225	0.493
300.000	232.102	80.006	19.995	103.212	19.722	10.179	0.478
300.500	232.356	80.005	19.994	103.212	19.724	9.995	0.488
301.000	232.601	80.006	19.994	103.211	19.719	10.340	0.499
301.500	232.845	80.006	19.994	103.209	19.722	10.164	0.495
302.000	233.118	80.005	19.994	103.208	19.721	10.197	0.503
302.500	233.324	80.006	19.994	103.209	19.724	10.002	0.498
303.000	233.601	80.006	19.994	103.211	19.721	10.216	0.481
303.500	233.845	80.005	19.995	103.213	19.722	10.132	0.502
304.000	234.094	80.006	19.994	103.213	19.719	10.334	0.507
304.500	234.353	80.006	19.994	103.214	19.719	10.355	0.501
305.000	234.598	80.005	19.995	103.212	19.717	10.468	0.506
305.500	234.833	80.005	19.995	103.210	19.718	10.422	0.492
306.000	235.069	80.006	19.994	103.209	19.719	10.373	0.475
306.500	235.327	80.006	19.994	103.208	19.719	10.390	0.483
307.000	235.542	80.006	19.994	103.208	19.718	10.427	0.484
307.500	235.817	80.005	19.995	103.207	19.720	10.275	0.481
308.000	236.078	80.007	19.993	103.210	19.719	10.380	0.513
308.500	236.286	80.006	19.994	103.211	19.718	10.405	0.503
309.000	236.587	80.005	19.993	103.217	19.719	10.366	0.489
309.500	236.829	80.006	19.992	103.218	19.718	10.398	0.526
310.000	237.067	80.005	19.994	103.218	19.719	10.368	0.512
310.500	237.320	80.006	19.994	103.218	19.713	10.806	0.485
311.000	237.555	80.006	19.995	103.218	19.714	10.727	0.489
311.500	237.826	80.006	19.994	103.213	19.714	10.692	0.497
312.000	238.085	80.006	19.994	103.214	19.714	10.680	0.519
312.500	238.342	80.007	19.993	103.214	19.710	10.985	0.523
313.000	238.538	80.007	19.994	103.210	19.711	10.884	0.484
313.500	238.787	80.007	19.995	103.211	19.708	11.105	0.449
314.000	239.086	80.006	19.993	103.212	19.707	11.167	0.497
314.500	239.315	80.007	19.994	103.210	19.710	11.002	0.538
315.000	239.556	80.007	19.993	103.211	19.709	11.044	0.499
315.500	239.819	80.007	19.994	103.214	19.710	10.952	0.487
316.000	240.096	80.005	19.994	103.216	19.709	11.066	0.522
316.500	240.283	80.007	19.994	103.220	19.706	11.227	0.502
317.000	240.532	80.007	19.993	103.227	19.706	11.285	0.450
317.500	240.822	80.008	19.993	103.228	19.706	11.291	0.487
318.000	241.090	80.007	19.995	103.226	19.707	11.166	0.548
318.500	241.316	80.007	19.994	103.227	19.706	11.294	0.526
319.000	241.554	80.007	19.995	103.221	19.703	11.441	0.479
319.500	241.833	80.006	19.994	103.214	19.706	11.257	0.491
320.000	242.060	80.008	19.994	103.214	19.705	11.353	0.512
320.500	242.310	80.007	19.994	103.213	19.701	11.583	0.491
321.000	242.591	80.006	19.995	103.210	19.704	11.403	0.504
321.500	242.854	80.006	19.996	103.217	19.704	11.401	0.537
322.000	243.092	80.005	19.995	103.221	19.703	11.505	0.523
322.500	243.344	80.005	19.994	103.224	19.703	11.476	0.496
323.000	243.574	80.006	19.995	103.231	19.702	11.565	0.486
323.500	243.809	80.005	19.995	103.237	19.699	11.743	0.473
324.000	244.100	80.005	19.994	103.233	19.701	11.624	0.495
324.500	244.305	80.004	19.994	103.232	19.701	11.588	0.511
325.000	244.573	80.004	19.994	103.228	19.700	11.697	0.484
325.500	244.829	80.004	19.995	103.222	19.700	11.660	0.499
326.000	245.046	80.004	19.994	103.215	19.699	11.730	0.499
326.500	245.284	80.004	19.994	103.213	19.701	11.598	0.464
327.000	245.577	80.004	19.994	103.212	19.700	11.716	0.493
327.500	245.823	80.004	19.994	103.216	19.700	11.688	0.535
328.000	246.070	80.002	19.994	103.220	19.697	11.892	0.516
328.500	246.319	80.003	19.995	103.224	19.700	11.676	0.494
329.000	246.531	80.003	19.995	103.228	19.699	11.759	0.479
329.500	246.827	80.004	19.993	103.233	19.697	11.883	0.485
330.000	247.041	80.004	19.994	103.232	19.697	11.892	0.508
330.500	247.308	80.005	19.995	103.229	19.697	11.880	0.496
331.000	247.538	80.003	19.995	103.225	19.698	11.833	0.489
331.500	247.819	80.004	19.994	103.225	19.697	11.862	0.504
332.000	248.070	80.003	19.995	103.224	19.695	12.017	0.522
332.500	248.324	80.003	19.993	103.227	19.697	11.867	0.519
333.000	248.565	80.004	19.994	103.229	19.695	12.065	0.500
333.500	248.793	80.004	19.995	103.234	19.695	11.997	0.482
334.000	249.063	80.004	19.993	103.236	19.691	12.317	0.483
334.500	249.322	80.003	19.992	103.231	19.691	12.326	0.513
335.000	249.594	80.005	19.996	103.226	19.694	12.126	0.530
335.500	249.857	80.005	19.993	103.223	19.689	12.415	0.533
336.000	250.081	80.003	19.994	103.219	19.689	12.469	0.510
336.500	250.336	80.005	19.994	103.221	19.691	12.343	0.483
337.000	250.600	80.004	19.994	103.226	19.687	12.572	0.499
337.500	250.864	80.003	19.994	103.231	19.689	12.431	0.524
338.000	251.116	80.004	19.993	103.235	19.687	12.559	0.522
338.500	251.373	80.005	19.995	103.236	19.685	12.745	0.512
339.000	251.631	80.006	19.994	103.230	19.687	12.594	0.512
339.500	251.883	80.007	19.994	103.224	19.688	12.544	0.513
340.000	252.173	80.005	19.993	103.223	19.684	12.815	0.526
340.500	252.400	80.005	19.994	103.218	19.680	13.089	0.530
341.000	252.637	80.005	19.994	103.221	19.680	13.083	0.491
341.500	252.894	80.005	19.994	103.228	19.680	13.056	0.479
342.000	253.115	80.005	19.994	103.234	19.682	12.937	0.486
342.500	253.424	80.005	19.995	103.236	19.683	12.870	0.504
343.000	253.635	80.005	19.994	103.240	19.679	13.142	0.525
343.500	253.889	80.005	19.995	103.242	19.682	12.945	0.493
344.000	254.137	80.005	19.995	103.242	19.681	12.977	0.483
344.500	254.399	80.006	19.994	103.240	19.681	13.010	0.506
345.000	254.648	80.006	19.995	103.238	19.680	13.091	0.511
345.500	254.882	80.005	19.994	103.235	19.678	13.214	0.497
346.000	255.119	80.005	19.995	103.233	19.678	13.225	0.477
346.500	255.384	80.005	19.995	103.231	19.679	13.143	0.487
347.000	255.649	80.007	19.994	103.233	19.678	13.184	0.516
347.500	255.890	80.007	19.995	103.234	19.677	13.290	0.518
348.000	256.132	80.005	19.994	103.236	19.674	13.497	0.495
348.500	256.394	80.005	19.994	103.238	19.674	13.466	0.493
349.000	256.635	80.005	19.995	103.240	19.675	13.426	0.503
349.500	256.878	80.005	19.994	103.240	19.670	13.739	0.493
350.000	257.145	80.005	19.994	103.240	19.673	13.528	0.497
350.500	257.399	80.004	19.994	103.241	19.671	13.684	0.515
351.000	257.649	80.004	19.995	103.240	19.667	13.953	0.513
351.500	257.903	80.004	19.994	103.236	19.667	13.976	0.504
352.000	258.158	80.006	19.994	103.233	19.667	13.968	0.506
352.500	258.385	80.005	19.993	103.233	19.669	13.870	0.495
353.000	258.654	80.005	19.995	103.233	19.668	13.901	0.489
353.500	258.880	80.005	19.994	103.234	19.666	14.078	0.496
354.000	259.146	80.005	19.994	103.237	19.669	13.834	0.494
354.500	259.387	80.003	19.994	103.240	19.665	14.144	0.499
355.000	259.642	80.004	19.995	103.240	19.666	14.061	0.501
355.500	259.904	80.005	19.995	103.236	19.666	14.046	0.507
356.000	260.142	80.004	19.994	103.235	19.666	14.022	0.509
356.500	260.411	80.005	19.995	103.235	19.667	13.976	0.504
357.000	260.624	80.004	19.995	103.235	19.664	14.161	0.494
357.500	260.938	80.004	19.995	103.235	19.665	14.124	0.504
358.000	261.168	80.005	19.994	103.237	19.663	14.228	0.535
358.500	261.402	80.004	19.995	103.235	19.666	14.065	0.504
359.000	261.666	80.005	19.993	103.233	19.661	14.399	0.481
359.500	261.902	80.004	19.995	103.232	19.663	14.247	0.499
360.000	262.144	80.004	19.996	103.227	19.660	14.503	0.489
360.500	262.355	80.003	19.995	103.224	19.660	14.482	0.466
361.000	262.671	80.004	19.994	103.225	19.660	14.471	0.490
361.500	262.878	80.004	19.995	103.227	19.659	14.545	0.525
362.000	263.134	80.004	19.994	103.229	19.659	14.566	0.493
362.500	263.364	80.004	19.995	103.233	19.657	14.647	0.475
363.000	263.640	80.006	19.994	103.239	19.656	14.750	0.496
363.500	263.892	80.005	19.996	103.240	19.658	14.644	0.517
364.000	264.122	80.005	19.994	103.241	19.658	14.633	0.504
364.500	264.405	80.005	19.996	103.241	19.655	14.844	0.497
365.000	264.615	80.004	19.996	103.241	19.656	14.781	0.503
365.500	264.859	80.005	19.994	103.241	19.649	15.212	0.474
366.000	265.144	80.004	19.995	103.242	19.652	14.999	0.492
366.500	265.374	80.005	19.994	103.242	19.652	15.012	0.522
367.000	265.615	80.005	19.995	103.242	19.648	15.279	0.492
367.500	265.879	80.005	19.995	103.243	19.650	15.168	0.488
368.000	266.131	80.007	19.995	103.243	19.649	15.234	0.511
368.500	266.391	80.006	19.996	103.243	19.646	15.433	0.514
369.000	266.645	80.006	19.994	103.243	19.646	15.420	0.513
369.500	266.880	80.006	19.994	103.242	19.648	15.316	0.501
370.000	267.136	80.006	19.994	103.242	19.648	15.320	0.490
370.500	267.402	80.007	19.994	103.242	19.646	15.453	0.507
371.000	267.668	80.006	19.994	103.242	19.645	15.494	0.527
371.500	267.927	80.006	19.994	103.242	19.647	15.355	0.528
372.000	268.198	80.005	19.994	103.241	19.646	15.468	0.527
372.500	268.411	80.006	19.994	103.241	19.644	15.554	0.507
373.000	268.657	80.006	19.994	103.242	19.642	15.708	0.472
373.500	268.901	80.006	19.996	103.242	19.641	15.782	0.475
374.000	269.139	80.006	19.995	103.242	19.640	15.868	0.486
374.500	269.432	80.005	19.995	103.243	19.642	15.712	0.506
375.000	269.676	80.005	19.994	103.243	19.639	15.934	0.533
375.500	269.945	80.004	19.993	103.243	19.637	16.064	0.525
376.000	270.157	80.005	19.994	103.243	19.638	15.978	0.497
376.500	270.441	80.005	19.994	103.243	19.637	16.087	0.489
377.000	270.668	80.004	19.994	103.244	19.635	16.223	0.503
377.500	270.948	80.004	19.996	103.244	19.635	16.184	0.509
378.000	271.193	80.005	19.996	103.244	19.633	16.374	0.516
378.500	271.411	80.005	19.997	103.244	19.634	16.298	0.494
379.000	271.672	80.004	19.995	103.244	19.633	16.373	0.471
379.500	271.952	80.004	19.996	103.244	19.630	16.581	0.510
380.000	272.189	80.004	19.996	103.244	19.631	16.461	0.529
380.500	272.456	80.004	19.994	103.244	19.632	16.457	0.510
381.001	272.690	80.004	19.996	103.244	19.631	16.466	0.503
381.500	272.976	80.005	19.995	103.244	19.628	16.691	0.510
382.000	273.180	80.005	19.996	103.244	19.630	16.541	0.504
382.500	273.400	80.004	19.995	103.244	19.631	16.488	0.457
383.000	273.677	80.004	19.995	103.244	19.628	16.694	0.461
383.501	273.935	80.005	19.996	103.244	19.627	16.768	0.516
384.000	274.173	80.003	19.995	103.245	19.628	16.692	0.515
384.500	274.490	80.005	19.996	103.245	19.626	16.826	0.526
385.000	274.710	80.004	19.996	103.245	19.624	16.991	0.546
385.500	274.965	80.003	19.995	103.244	19.624	16.965	0.506
386.000	275.196	80.004	19.995	103.244	19.621	17.173	0.481
386.500	275.436	80.004	19.995	103.245	19.625	16.911	0.479
387.000	275.698	80.004	19.995	103.248	19.623	17.069	0.487
387.500	275.978	80.005	19.996	103.251	19.617	17.464	0.522
388.000	276.177	80.004	19.995	103.253	19.619	17.320	0.510
388.500	276.447	80.005	19.995	103.254	19.618	17.424	0.474
389.000	276.653	80.005	19.995	103.254	19.615	17.609	0.473
389.500	276.937	80.005	19.995	103.254	19.617	17.454	0.483
390.000	277.165	80.005	19.994	103.252	19.616	17.571	0.501
390.500	277.405	80.005	19.996	103.250	19.614	17.705	0.490
391.000	277.653	80.006	19.995	103.252	19.617	17.450	0.478
391.500	277.920	80.005	19.995	103.253	19.613	17.719	0.502
392.000	278.194	80.007	19.995	103.251	19.610	17.937	0.528
392.500	278.438	80.006	19.995	103.251	19.615	17.623	0.529
393.000	278.687	80.005	19.994	103.252	19.614	17.689	0.505
393.500	278.895	80.006	19.995	103.250	19.609	18.054	0.475
394.000	279.172	80.007	19.994	103.248	19.608	18.084	0.471
394.500	279.445	80.007	19.994	103.247	19.609	17.997	0.518
395.000	279.688	80.008	19.994	103.248	19.606	18.225	0.533
395.500	279.944	80.008	19.993	103.248	19.606	18.244	0.507
396.000	280.214	80.008	19.994	103.247	19.605	18.303	0.512
396.500	280.495	80.007	19.994	103.248	19.603	18.418	0.538
397.000	280.717	80.007	19.994	103.248	19.599	18.732	0.527
397.500	280.983	80.006	19.992	103.247	19.600	18.642	0.495
398.000	281.190	80.007	19.993	103.247	19.603	18.454	0.480
398.500	281.468	80.008	19.994	103.248	19.597	18.851	0.479
399.000	281.702	80.008	19.994	103.248	19.596	18.922	0.499
399.500	281.947	80.009	19.994	103.248	19.598	18.768	0.496
400.000	282.207	80.006	19.994	103.248	19.596	18.933	0.492
400.500	282.464	80.008	19.993	103.250	19.594	19.083	0.511
401.000	282.715	80.007	19.993	103.254	19.593	19.117	0.512
401.500	282.958	80.007	19.994	103.257	19.594	19.110	0.501
402.000	283.219	80.006	19.994	103.259	19.591	19.284	0.499
402.500	283.469	80.006	19.994	103.259	19.588	19.466	0.508
403.000	283.704	80.007	19.994	103.256	19.587	19.566	0.498
403.500	283.919	80.006	19.994	103.255	19.588	19.471	0.468
404.000	284.177	80.005	19.995	103.256	19.588	19.513	0.462
404.500	284.467	80.006	19.995	103.256	19.587	19.533	0.511
405.000	284.755	80.005	19.993	103.257	19.584	19.801	0.563
405.500	284.928	80.006	19.993	103.258	19.587	19.587	0.519
406.000	285.223	80.005	19.994	103.257	19.585	19.697	0.464
406.501	285.492	80.005	19.994	103.256	19.584	19.766	0.515
407.000	285.755	80.003	19.995	103.256	19.581	19.992	0.548
407.500	285.984	80.005	19.994	103.256	19.579	20.135	0.512
408.000	286.231	80.005	19.994	103.254	19.576	20.311	0.485
408.500	286.462	80.004	19.994	103.253	19.577	20.241	0.477
409.001	286.703	80.005	19.995	103.251	19.575	20.377	0.474
409.501	286.983	80.004	19.994	103.250	19.575	20.403	0.496
410.000	287.209	80.004	19.995	103.250	19.574	20.485	0.514
410.500	287.455	80.004	19.994	103.251	19.571	20.667	0.489
411.000	287.733	80.004	19.994	103.257	19.571	20.675	0.498
411.500	287.944	80.004	19.995	103.258	19.567	20.993	0.507
412.000	288.226	80.005	19.994	103.258	19.568	20.865	0.491
412.500	288.458	80.005	19.994	103.262	19.568	20.919	0.504
413.000	288.684	80.004	19.994	103.268	19.567	20.931	0.486
413.500	288.967	80.004	19.994	103.269	19.564	21.202	0.483
414.000	289.202	80.005	19.993	103.266	19.564	21.193	0.514
414.500	289.469	80.004	19.995	103.266	19.563	21.228	0.510
415.000	289.703	80.004	19.994	103.264	19.562	21.330	0.501
415.500	290.000	80.005	19.995	103.259	19.559	21.555	0.516
416.000	290.193	80.004	19.993	103.255	19.559	21.523	0.511
416.500	290.430	80.004	19.994	103.260	19.558	21.569	0.460
417.000	290.743	80.005	19.995	103.264	19.558	21.595	0.490
417.500	290.964	80.005	19.994	103.264	19.554	21.852	0.542
418.000	291.239	80.004	19.993	103.265	19.552	21.984	0.515
418.500	291.463	80.006	19.995	103.265	19.550	22.116	0.497
419.000	291.748	80.005	19.995	103.262	19.550	22.137	0.504
419.501	291.978	80.005	19.995	103.263	19.545	22.515	0.512
420.001	292.243	80.006	19.995	103.265	19.546	22.397	0.505
420.500	292.486	80.004	19.995	103.267	19.547	22.387	0.501
421.000	292.780	80.005	19.995	103.268	19.546	22.460	0.522
421.500	292.993	80.005	19.994	103.269	19.546	22.454	0.522
422.000	293.222	80.005	19.994	103.270	19.543	22.629	0.474
422.500	293.485	80.006	19.994	103.272	19.543	22.612	0.467
423.000	293.736	80.006	19.995	103.273	19.544	22.556	0.503
423.501	293.979	80.004	19.994	103.275	19.540	22.846	0.504
424.000	294.224	80.005	19.994	103.278	19.538	22.954	0.491
424.500	294.488	80.005	19.994	103.278	19.536	23.155	0.499
425.000	294.744	80.005	19.994	103.278	19.535	23.175	0.515
425.500	294.988	80.005	19.994	103.279	19.536	23.160	0.510
426.000	295.268	80.005	19.993	103.280	19.530	23.560	0.511
426.500	295.497	80.005	19.995	103.279	19.529	23.643	0.517
427.000	295.735	80.005	19.995	103.276	19.528	23.691	0.488
427.501	296.014	80.005	19.994	103.277	19.525	23.887	0.492
428.000	296.237	80.004	19.994	103.277	19.526	23.855	0.510
428.500	296.493	80.006	19.995	103.277	19.525	23.863	0.490
429.000	296.735	80.006	19.995	103.279	19.519	24.295	0.488
429.500	296.998	80.004	19.994	103.281	19.523	24.030	0.502
430.000	297.276	80.005	19.994	103.282	19.520	24.263	0.523
430.500	297.492	80.005	19.994	103.281	19.520	24.271	0.518
431.000	297.763	80.004	19.995	103.281	19.514	24.682	0.491
431.500	298.000	80.005	19.994	103.281	19.515	24.611	0.498
432.000	298.272	80.004	19.995	103.282	19.512	24.776	0.508
432.500	298.551	80.006	19.994	103.282	19.511	24.848	0.530
433.000	298.776	80.004	19.994	103.282	19.511	24.891	0.528
433.500	299.023	80.006	19.995	103.282	19.508	25.102	0.488
434.000	299.269	80.004	19.994	103.283	19.506	25.186	0.483
434.500	299.493	80.004	19.994	103.283	19.506	25.252	0.482
435.000	299.785	80.004	19.994	103.283	19.504	25.380	0.493
435.500	300.015	80.003	19.994	103.283	19.501	25.588	0.519
436.000	300.292	80.004	19.996	103.283	19.499	25.726	0.515
436.500	300.531	80.005	19.994	103.284	19.497	25.846	0.512
437.000	300.797	80.004	19.993	103.284	19.495	25.992	0.511
437.500	301.065	80.003	19.996	103.285	19.497	25.877	0.520
438.000	301.306	80.004	19.997	103.289	19.493	26.155	0.521
438.500	301.548	80.004	19.996	103.295	19.490	26.340	0.496
439.000	301.830	80.003	19.998	103.295	19.490	26.334	0.504
439.500	302.080	80.004	19.998	103.296	19.487	26.546	0.528
440.000	302.307	80.004	19.997	103.298	19.484	26.782	0.504
440.500	302.622	80.003	19.997	103.296	19.479	27.096	0.509
441.000	302.819	80.004	19.995	103.291	19.479	27.127	0.527
441.500	303.070	80.003	19.996	103.294	19.475	27.361	0.480
442.000	303.286	80.004	19.996	103.294	19.475	27.371	0.458
442.500	303.582	80.003	19.995	103.291	19.472	27.576	0.490
443.000	303.843	80.003	19.996	103.292	19.470	27.720	0.534
443.500	304.100	80.004	19.995	103.292	19.467	27.951	0.537
444.000	304.328	80.004	19.995	103.290	19.464	28.170	0.502
444.500	304.634	80.005	19.996	103.290	19.461	28.331	0.509
445.000	304.859	80.004	19.996	103.290	19.463	28.211	0.532
445.500	305.103	80.003	19.995	103.293	19.462	28.282	0.500
446.000	305.383	80.005	19.995	103.294	19.460	28.431	0.497
446.500	305.649	80.004	19.994	103.293	19.454	28.866	0.535
447.000	305.886	80.005	19.995	103.296	19.453	28.896	0.524
447.500	306.135	80.004	19.998	103.302	19.452	29.022	0.495
448.000	306.396	80.006	19.995	103.298	19.448	29.247	0.498
448.501	306.641	80.006	19.996	103.297	19.445	29.472	0.508
449.001	306.897	80.005	19.996	103.297	19.441	29.743	0.504
449.500	307.149	80.005	19.997	103.295	19.441	29.796	0.504
450.000	307.420	80.005	19.996	103.293	19.438	29.996	0.516
450.500	307.645	80.005	19.996	103.298	19.436	30.130	0.510
451.000	307.902	80.006	19.995	103.300	19.436	30.089	0.489
451.500	308.198	80.005	19.995	103.303	19.435	30.162	0.517
452.000	308.452	80.006	19.996	103.304	19.433	30.320	0.551
452.500	308.680	80.006	19.996	103.305	19.424	30.926	0.516
453.000	308.918	80.007	19.994	103.302	19.425	30.888	0.475
453.500	309.202	80.007	19.995	103.304	19.422	31.070	0.494
454.000	309.420	80.006	19.996	103.306	19.420	31.219	0.512
454.500	309.671	80.006	19.995	103.309	19.417	31.448	0.486
455.000	309.918	80.006	19.995	103.310	19.414	31.648	0.484
455.500	310.197	80.007	19.995	103.315	19.414	31.618	0.512
456.000	310.430	80.006	19.995	103.317	19.412	31.782	0.519
456.500	310.686	80.005	19.995	103.319	19.407	32.103	0.501
457.000	310.940	80.006	19.994	103.320	19.408	32.094	0.500
457.500	311.202	80.006	19.994	103.322	19.403	32.382	0.513
458.000	311.455	80.006	19.995	103.321	19.403	32.428	0.515
458.500	311.735	80.006	19.995	103.321	19.398	32.761	0.524
459.000	311.970	80.006	19.995	103.321	19.398	32.794	0.524
459.500	312.284	80.006	19.995	103.323	19.392	33.206	0.532
460.000	312.505	80.006	19.994	103.322	19.392	33.171	0.542
460.500	312.741	80.005	19.994	103.324	19.390	33.338	0.496
461.000	313.010	80.005	19.994	103.324	19.388	33.490	0.481
461.500	313.272	80.005	19.995	103.324	19.382	33.879	0.518
462.000	313.491	80.005	19.995	103.324	19.383	33.797	0.506
462.500	313.757	80.006	19.994	103.325	19.381	33.977	0.483
463.000	313.981	80.005	19.994	103.324	19.377	34.221	0.487
463.500	314.308	80.005	19.996	103.325	19.372	34.550	0.521
464.000	314.496	80.006	19.995	103.325	19.372	34.598	0.533
464.500	314.715	80.006	19.996	103.325	19.369	34.783	0.461
465.000	315.040	80.006	19.995	103.325	19.364	35.135	0.476
465.500	315.294	80.005	19.995	103.325	19.364	35.165	0.561
466.000	315.548	80.006	19.996	103.325	19.361	35.360	0.543
466.500	315.778	80.006	19.995	103.324	19.359	35.488	0.496
467.000	316.026	80.005	19.996	103.324	19.354	35.859	0.482
467.500	316.305	80.006	19.996	103.324	19.354	35.839	0.503
468.000	316.503	80.006	19.995	103.325	19.350	36.142	0.502
468.500	316.779	80.006	19.994	103.325	19.350	36.104	0.475
469.000	317.033	80.004	19.995	103.325	19.345	36.497	0.502
469.500	317.294	80.005	19.994	103.325	19.345	36.447	0.523
470.000	317.545	80.006	19.995	103.325	19.342	36.677	0.514
470.501	317.774	80.007	19.995	103.323	19.338	36.981	0.496
471.000	318.061	80.006	19.995	103.322	19.337	37.055	0.498
471.500	318.318	80.007	19.994	103.322	19.331	37.443	0.530
472.000	318.538	80.006	19.994	103.322	19.333	37.274	0.510
472.500	318.806	80.006	19.995	103.324	19.329	37.618	0.482
473.000	319.037	80.007	19.995	103.324	19.326	37.826	0.494
473.500	319.278	80.006	19.995	103.324	19.323	38.008	0.485
474.000	319.529	80.007	19.995	103.324	19.319	38.320	0.482
474.500	319.797	80.007	19.995	103.324	19.317	38.403	0.506
475.000	320.072	80.007	19.995	103.325	19.316	38.510	0.532
475.500	320.294	80.007	19.995	103.328	19.311	38.842	0.520
476.000	320.567	80.007	19.995	103.331	19.311	38.842	0.495
476.500	320.781	80.006	19.995	103.336	19.308	39.082	0.491
477.000	321.068	80.007	19.996	103.343	19.307	39.147	0.494
477.500	321.336	80.007	19.996	103.345	19.302	39.496	0.528
478.000	321.580	80.007	19.996	103.345	19.300	39.632	0.533
478.500	321.831	80.006	19.995	103.342	19.299	39.660	0.504
479.000	322.084	80.007	19.995	103.337	19.296	39.916	0.500
479.500	322.357	80.007	19.996	103.333	19.292	40.193	0.515
480.000	322.565	80.008	19.995	103.335	19.291	40.261	0.503
480.500	322.819	80.007	19.995	103.337	19.289	40.391	0.471
481.000	323.040	80.006	19.996	103.342	19.286	40.616	0.469
481.500	323.288	80.006	19.995	103.344	19.283	40.830	0.473
482.001	323.555	80.007	19.996	103.349	19.282	40.871	0.492
482.500	323.784	80.006	19.995	103.348	19.275	41.354	0.505
483.000	324.033	80.007	19.995	103.348	19.274	41.404	0.487
483.500	324.317	80.006	19.995	103.348	19.271	41.609	0.505
484.000	324.557	80.006	19.995	103.348	19.271	41.642	0.528
484.500	324.795	80.005	19.995	103.348	19.268	41.870	0.501
485.000	325.037	80.007	19.995	103.348	19.265	42.038	0.479
485.500	325.336	80.005	19.993	103.351	19.264	42.105	0.510
486.000	325.568	80.004	19.996	103.349	19.261	42.362	0.536
486.500	325.818	80.005	19.995	103.353	19.260	42.395	0.507
487.000	326.078	80.005	19.995	103.353	19.255	42.726	0.495
487.500	326.299	80.005	19.993	103.353	19.252	42.965	0.495
488.000	326.562	80.004	19.995	103.353	19.254	42.817	0.483
488.500	326.857	80.004	19.994	103.357	19.248	43.220	0.521
489.000	327.070	80.005	19.995	103.357	19.250	43.136	0.533
489.500	327.310	80.003	19.995	103.357	19.246	43.402	0.481
490.000	327.591	80.004	19.994	103.358	19.243	43.564	0.487
490.500	327.824	80.004	19.995	103.358	19.238	43.950	0.517
491.000	328.052	80.005	19.995	103.358	19.238	43.971	0.487
491.500	328.302	80.005	19.993	103.360	19.235	44.155	0.469
492.000	328.587	80.005	19.994	103.360	19.231	44.432	0.507
492.500	328.849	80.006	19.994	103.360	19.230	44.481	0.541
493.000	329.091	80.005	19.995	103.361	19.225	44.830	0.526
493.500	329.378	80.004	19.994	103.360	19.225	44.854	0.517
494.000	329.613	80.005	19.995	103.360	19.224	44.956	0.525
494.500	329.877	80.005	19.995	103.360	19.223	44.995	0.510
495.000	330.108	80.005	19.995	103.360	19.219	45.278	0.497
495.501	330.358	80.003	19.995	103.360	19.216	45.458	0.488
496.001	330.633	80.004	19.996	103.360	19.215	45.538	0.503
496.500	330.866	80.005	19.996	103.361	19.210	45.883	0.517
497.000	331.087	80.004	19.993	103.361	19.208	46.032	0.481
497.500	331.351	80.006	19.995	103.361	19.205	46.251	0.469
498.000	331.622	80.004	19.996	103.361	19.206	46.208	0.510
498.500	331.899	80.005	19.995	103.361	19.203	46.407	0.541
499.000	332.120	80.005	19.996	103.361	19.200	46.624	0.523
499.500	332.376	80.005	19.996	103.360	19.197	46.828	0.488
500.000	332.643	80.006	19.994	103.361	19.195	46.938	0.500
500.500	332.903	80.003	19.996	103.361	19.195	46.937	0.525
501.000	333.130	80.005	19.995	103.361	19.190	47.284	0.507
501.500	333.383	80.004	19.996	103.361	19.187	47.535	0.484
502.000	333.635	80.005	19.995	103.361	19.188	47.424	0.493
502.500	333.907	80.005	19.995	103.362	19.183	47.787	0.514
503.000	334.178	80.005	19.994	103.362	19.180	48.002	0.533
503.500	334.462	80.005	19.995	103.363	19.178	48.161	0.549
504.000	334.699	80.004	19.994	103.367	19.176	48.274	0.538
504.500	334.934	80.004	19.994	103.369	19.176	48.269	0.497
505.000	335.188	80.006	19.994	103.371	19.174	48.421	0.480
505.500	335.438	80.006	19.993	103.371	19.171	48.604	0.496
506.000	335.701	80.004	19.996	103.371	19.168	48.862	0.508
506.500	335.946	80.005	19.994	103.367	19.164	49.125	0.511
507.000	336.202	80.005	19.995	103.366	19.164	49.117	0.505
507.500	336.412	80.004	19.993	103.365	19.162	49.247	0.483
508.000	336.703	80.005	19.994	103.366	19.159	49.447	0.483
508.500	336.935	80.005	19.994	103.365	19.155	49.735	0.512
509.000	337.211	80.004	19.995	103.365	19.158	49.555	0.515
509.500	337.473	80.004	19.995	103.364	19.155	49.780	0.523
510.000	337.718	80.005	19.994	103.363	19.151	49.996	0.523
510.500	337.944	80.005	19.993	103.363	19.149	50.172	0.489
511.000	338.200	80.005	19.994	103.364	19.148	50.217	0.477
511.500	338.476	80.006	19.996	103.365	19.146	50.349	0.507
512.000	338.683	80.005	19.994	103.369	19.141	50.715	0.507
512.500	338.963	80.004	19.995	103.369	19.141	50.741	0.485
513.000	339.199	80.004	19.994	103.369	19.142	50.690	0.502
513.500	339.464	80.004	19.994	103.370	19.134	51.198	0.509
514.000	339.728	80.005	19.995	103.370	19.132	51.330	0.516
514.500	339.964	80.003	19.994	103.369	19.129	51.538	0.515
515.000	340.213	80.004	19.994	103.371	19.128	51.640	0.492
515.500	340.463	80.004	19.993	103.372	19.126	51.764	0.492
516.000	340.708	80.005	19.994	103.370	19.123	51.962	0.497
516.500	340.972	80.003	19.994	103.370	19.119	52.267	0.502
517.001	341.216	80.003	19.994	103.368	19.122	52.055	0.509
517.501	341.483	80.003	19.994	103.367	19.118	52.357	0.510
518.000	341.707	80.006	19.993	103.369	19.116	52.512	0.501
518.500	341.993	80.004	19.993	103.370	19.112	52.764	0.500
519.000	342.215	80.004	19.993	103.372	19.111	52.844	0.509
519.500	342.485	80.004	19.995	103.372	19.107	53.114	0.500
520.000	342.734	80.004	19.994	103.371	19.108	53.012	0.505
520.500	342.954	80.003	19.994	103.375	19.104	53.299	0.494
521.000	343.241	80.006	19.993	103.380	19.101	53.508	0.488
521.500	343.430	80.005	19.993	103.379	19.103	53.403	0.492
522.000	343.716	80.005	19.994	103.381	19.097	53.829	0.475
522.500	343.953	80.004	19.995	103.384	19.097	53.783	0.499
523.000	344.239	80.003	19.994	103.383	19.092	54.144	0.523
523.500	344.509	80.005	19.993	103.384	19.091	54.226	0.539
524.000	344.736	80.003	19.994	103.389	19.087	54.536	0.526
524.500	345.010	80.005	19.994	103.391	19.084	54.742	0.499
525.000	345.259	80.004	19.993	103.392	19.083	54.811	0.512
525.500	345.482	80.005	19.994	103.394	19.082	54.831	0.498
526.000	345.752	80.004	19.993	103.394	19.077	55.209	0.482
526.500	346.006	80.005	19.993	103.392	19.078	55.147	0.508
527.000	346.266	80.006	19.994	103.395	19.074	55.429	0.519
527.500	346.524	80.004	19.992	103.397	19.070	55.675	0.516
528.000	346.750	80.004	19.995	103.397	19.069	55.787	0.501
528.500	346.991	80.004	19.994	103.396	19.066	56.002	0.475
529.000	347.278	80.004	19.994	103.397	19.062	56.253	0.498
529.500	347.498	80.005	19.996	103.397	19.061	56.314	0.518
530.000	347.733	80.005	19.994	103.397	19.059	56.442	0.481
530.500	347.987	80.007	19.994	103.396	19.053	56.891	0.472
531.000	348.257	80.006	19.995	103.400	19.054	56.799	0.506
531.500	348.512	80.006	19.995	103.403	19.051	57.002	0.524
532.000	348.753	80.007	19.994	103.403	19.046	57.361	0.510
532.500	349.008	80.006	19.994	103.403	19.048	57.214	0.496
533.000	349.255	80.007	19.994	103.402	19.042	57.630	0.499
533.500	349.531	80.006	19.994	103.401	19.042	57.689	0.513
534.000	349.775	80.006	19.995	103.401	19.039	57.868	0.522
534.500	350.047	80.005	19.996	103.401	19.032	58.373	0.518
535.000	350.306	80.006	19.994	103.404	19.034	58.256	0.523
535.500	350.580	80.007	19.994	103.404	19.029	58.583	0.532
536.000	350.818	80.007	19.995	103.404	19.027	58.719	0.523
536.500	351.058	80.007	19.994	103.403	19.023	58.961	0.495
537.000	351.307	80.008	19.994	103.404	19.024	58.946	0.483
537.500	351.576	80.007	19.994	103.402	19.017	59.424	0.503
538.000	351.800	80.006	19.995	103.401	19.019	59.264	0.506
538.500	352.030	80.005	19.993	103.403	19.014	59.638	0.474
539.000	352.362	80.006	19.994	103.407	19.014	59.629	0.508
539.500	352.616	80.007	19.995	103.408	19.012	59.769	0.574
540.000	352.864	80.005	19.995	103.409	19.004	60.308	0.544
540.500	353.118	80.006	19.996	103.411	19.002	60.478	0.502
541.000	353.342	80.007	19.995	103.414	19.002	60.464	0.490
541.500	353.626	80.006	19.996	103.417	18.997	60.793	0.493
542.000	353.892	80.005	19.995	103.422	18.994	61.023	0.529
542.500	354.134	80.005	19.996	103.423	18.991	61.243	0.529
543.000	354.379	80.007	19.996	103.427	18.987	61.516	0.498
543.500	354.659	80.005	19.995	103.429	18.982	61.843	0.506
544.000	354.902	80.006	19.995	103.431	18.979	62.089	0.524
544.500	355.168	80.005	19.994	103.430	18.977	62.226	0.516
545.000	355.381	80.006	19.996	103.434	18.974	62.415	0.494
545.500	355.674	80.005	19.996	103.436	18.973	62.527	0.493
546.000	355.905	80.005	19.995	103.436	18.970	62.696	0.515
546.500	356.195	80.005	19.996	103.436	18.962	63.226	0.522
547.000	356.423	80.004	19.995	103.437	18.965	63.039	0.519
547.500	356.677	80.004	19.995	103.437	18.960	63.365	0.500
548.000	356.951	80.005	19.994	103.437	18.957	63.573	0.505
548.500	357.183	80.004	19.996	103.437	18.955	63.768	0.517
549.000	357.456	80.006	19.995	103.437	18.952	63.986	0.506
549.500	357.703	80.005	19.995	103.438	18.947	64.291	0.512
550.000	357.927	80.006	19.994	103.437	18.946	64.399	0.495
550.500	358.180	80.005	19.995	103.435	18.942	64.634	0.474
551.000	358.486	80.007	19.994	103.435	18.937	65.015	0.518
551.500	358.727	80.006	19.995	103.433	18.935	65.121	0.553
552.000	358.970	80.007	19.996	103.433	18.934	65.237	0.516
552.500	359.217	80.006	19.995	103.435	18.929	65.585	0.487
553.000	359.522	80.008	19.994	103.436	18.929	65.529	0.521
553.500	359.768	80.006	19.995	103.438	18.926	65.800	0.551
554.000	359.989	80.006	19.995	103.443	18.922	66.053	0.509
554.500	360.243	80.007	19.996	103.445	18.918	66.335	0.471
555.000	360.510	80.008	19.995	103.445	18.917	66.376	0.497
555.500	360.768	80.007	19.995	103.446	18.912	66.737	0.523
556.000	361.010	80.008	19.995	103.446	18.910	66.858	0.513
556.500	361.283	80.009	19.995	103.444	18.906	67.180	0.508
557.000	361.530	80.008	19.994	103.441	18.906	67.202	0.517
557.500	361.763	80.006	19.995	103.440	18.902	67.449	0.500
558.000	362.012	80.008	19.996	103.440	18.899	67.679	0.481
558.500	362.281	80.008	19.996	103.437	18.897	67.820	0.500
559.000	362.509	80.007	19.998	103.437	18.891	68.204	0.508
559.500	362.777	80.006	19.995	103.436	18.887	68.510	0.497
560.000	363.031	80.008	19.996	103.437	18.889	68.384	0.509
560.500	363.267	80.008	19.994	103.437	18.883	68.797	0.506
561.000	363.531	80.005	19.996	103.437	18.881	68.918	0.495
561.500	363.773	80.007	19.993	103.438	18.881	68.920	0.503
562.000	364.017	80.006	19.995	103.437	18.878	69.104	0.496
562.500	364.285	80.006	19.996	103.438	18.872	69.550	0.499
563.000	364.520	80.006	19.994	103.438	18.871	69.602	0.508
563.500	364.802	80.006	19.995	103.439	18.869	69.749	0.510
564.000	365.035	80.007	19.996	103.439	18.868	69.842	0.516
564.500	365.314	80.006	19.995	103.443	18.864	70.110	0.514
565.000	365.560	80.005	19.996	103.444	18.861	70.283	0.519
565.500	365.786	80.005	19.995	103.446	18.860	70.361	0.498
566.000	366.064	80.005	19.995	103.446	18.859	70.472	0.487
566.500	366.293	80.004	19.995	103.446	18.859	70.465	0.505
567.000	366.540	80.005	19.995	103.444	18.853	70.862	0.492
567.500	366.813	80.005	19.997	103.444	18.853	70.857	0.498
568.000	367.093	80.004	19.996	103.443	18.852	70.924	0.536
568.500	367.337	80.003	19.996	103.443	18.849	71.174	0.539
569.000	367.580	80.003	19.995	103.442	18.849	71.181	0.506
569.500	367.815	80.002	19.995	103.441	18.847	71.299	0.482
570.000	368.101	80.004	19.996	103.440	18.847	71.265	0.499
570.500	368.307	80.004	19.995	103.439	18.849	71.161	0.507
571.000	368.575	80.004	19.995	103.439	18.849	71.149	0.483
571.500	368.815	80.004	19.995	103.439	18.851	71.014	0.491
572.000	369.093	80.003	19.997	103.439	18.846	71.334	0.513
572.500	369.334	80.004	19.995	103.439	18.849	71.128	0.518
573.000	369.581	80.003	19.996	103.439	18.846	71.318	0.504
573.500	369.840	80.004	19.996	103.439	18.846	71.324	0.497
574.000	370.074	80.004	19.996	103.439	18.842	71.610	0.499
574.500	370.357	80.004	19.995	103.440	18.846	71.323	0.505
575.000	370.557	80.003	19.995	103.439	18.846	71.321	0.500
575.500	370.806	80.004	19.995	103.440	18.846	71.359	0.466
576.000	371.044	80.004	19.995	103.439	18.843	71.514	0.468
576.500	371.326	80.003	19.997	103.439	18.848	71.202	0.504
577.000	371.577	80.003	19.996	103.439	18.850	71.033	0.527
577.500	371.797	80.003	19.996	103.438	18.847	71.283	0.502
578.000	372.097	80.003	19.995	103.438	18.848	71.188	0.495
578.500	372.341	80.003	19.996	103.439	18.850	71.012	0.532
579.000	372.557	80.003	19.995	103.438	18.852	70.915	0.502
579.500	372.835	80.005	19.995	103.437	18.855	70.694	0.477
580.000	373.117	80.004	19.994	103.434	18.855	70.671	0.528
580.500	373.384	80.004	19.994	103.429	18.857	70.513	0.554
581.000	373.627	80.005	19.995	103.426	18.861	70.276	0.529
581.500	373.877	80.004	19.994	103.421	18.861	70.252	0.501
582.000	374.105	80.004	19.994	103.417	18.865	69.945	0.486
582.500	374.408	80.005	19.994	103.415	18.868	69.783	0.505
583.000	374.644	80.006	19.995	103.413	18.871	69.550	0.535
583.500	374.866	80.003	19.994	103.408	18.873	69.423	0.498
584.000	375.133	80.004	19.994	103.406	18.876	69.191	0.473
584.500	375.409	80.004	19.994	103.404	18.881	68.816	0.516
585.000	375.676	80.005	19.994	103.403	18.884	68.639	0.543
585.500	375.936	80.005	19.993	103.402	18.889	68.253	0.535
586.000	376.160	80.005	19.994	103.401	18.894	67.930	0.505
586.500	376.415	80.004	19.994	103.401	18.899	67.605	0.482
587.000	376.695	80.005	19.995	103.398	18.901	67.421	0.508
587.500	376.937	80.004	19.995	103.394	18.903	67.268	0.529
588.000	377.204	80.005	19.994	103.389	18.910	66.813	0.515
588.500	377.444	80.005	19.994	103.387	18.918	66.271	0.508
589.000	377.715	80.003	19.993	103.382	18.919	66.155	0.509
589.500	377.956	80.004	19.995	103.378	18.924	65.788	0.512
590.000	378.168	80.005	19.994	103.374	18.932	65.241	0.482
590.500	378.454	80.004	19.994	103.371	18.935	65.064	0.475
591.000	378.701	80.005	19.993	103.365	18.942	64.524	0.516
591.500	378.943	80.003	19.995	103.362	18.947	64.236	0.511
592.000	379.252	80.004	19.995	103.361	18.954	63.690	0.521
592.500	379.472	80.004	19.993	103.359	18.960	63.297	0.540
593.000	379.734	80.004	19.994	103.353	18.969	62.660	0.505
593.500	379.999	80.004	19.994	103.347	18.972	62.433	0.504
594.000	380.230	80.004	19.994	103.340	18.981	61.830	0.512
594.500	380.501	80.006	19.993	103.333	18.987	61.397	0.499
595.000	380.733	80.005	19.993	103.327	18.993	60.955	0.502
595.500	381.019	80.003	19.994	103.325	19.001	60.444	0.510
596.000	381.282	80.004	19.994	103.325	19.010	59.773	0.534
596.500	381.550	80.004	19.995	103.323	19.016	59.341	0.541
597.000	381.777	80.005	19.994	103.323	19.025	58.770	0.513
597.500	382.038	80.004	19.994	103.320	19.035	58.035	0.491
598.000	382.292	80.005	19.994	103.317	19.045	57.345	0.501
598.500	382.532	80.005	19.995	103.311	19.051	56.935	0.504
599.000	382.753	80.004	19.994	103.304	19.060	56.297	0.478
599.500	383.066	80.004	19.994	103.297	19.069	55.673	0.497
600.000	383.336	80.004	19.994	103.290	19.079	54.970	0.558
600.500	383.567	80.005	19.994	103.286	19.087	54.398	0.542
601.000	383.797	80.004	19.994	103.284	19.097	53.714	0.481
601.500	384.051	80.003	19.995	103.282	19.107	53.020	0.472
602.000	384.318	80.006	19.993	103.282	19.117	52.294	0.502
602.500	384.594	80.006	19.995	103.279	19.123	51.885	0.532
603.000	384.859	80.007	19.994	103.276	19.133	51.181	0.542
603.500	385.083	80.005	19.995	103.272	19.145	50.372	0.515
604.000	385.329	80.006	19.994	103.268	19.155	49.682	0.479
604.500	385.597	80.004	19.996	103.261	19.164	49.050	0.492
605.000	385.865	80.004	19.995	103.256	19.176	48.187	0.525
605.500	386.113	80.003	19.995	103.251	19.183	47.689	0.526
606.000	386.345	80.005	19.994	103.248	19.193	46.991	0.498
606.500	386.604	80.006	19.995	103.245	19.205	46.199	0.485
607.000	386.853	80.005	19.994	103.242	19.216	45.429	0.500
607.500	387.090	80.005	19.994	103.240	19.229	44.488	0.497
608.000	387.371	80.005	19.996	103.235	19.237	43.922	0.502
608.500	387.598	80.005	19.994	103.232	19.247	43.217	0.514
609.000	387.869	80.005	19.996	103.227	19.255	42.684	0.503
609.500	388.119	80.006	19.996	103.222	19.266	41.938	0.509
610.000	388.403	80.006	19.995	103.218	19.278	41.059	0.527
610.500	388.645	80.005	19.994	103.215	19.290	40.239	0.530
611.000	388.885	80.004	19.995	103.210	19.298	39.680	0.504
611.500	389.189	80.006	19.994	103.208	19.311	38.773	0.513
612.000	389.406	80.006	19.995	103.206	19.319	38.188	0.533
612.500	389.682	80.006	19.995	103.206	19.328	37.602	0.507
613.000	389.915	80.006	19.994	103.205	19.339	36.839	0.501
613.500	390.171	80.007	19.994	103.205	19.350	36.075	0.499
614.000	390.440	80.006	19.995	103.204	19.360	35.389	0.508
614.500	390.715	80.007	19.994	103.203	19.367	34.856	0.535
615.000	390.917	80.005	19.994	103.203	19.382	33.846	0.510
615.500	391.174	80.008	19.994	103.198	19.390	33.264	0.468
616.000	391.452	80.007	19.994	103.193	19.398	32.731	0.497
616.500	391.689	80.007	19.994	103.188	19.408	31.982	0.525
617.000	391.931	80.005	19.994	103.182	19.418	31.353	0.497
617.500	392.195	80.007	19.995	103.179	19.425	30.801	0.493
618.000	392.458	80.005	19.995	103.182	19.437	29.996	0.516
618.500	392.716	80.007	19.994	103.182	19.443	29.561	0.524
619.000	393.000	80.006	19.994	103.182	19.452	28.957	0.531
619.500	393.206	80.007	19.995	103.180	19.461	28.343	0.516
620.000	393.479	80.007	19.995	103.175	19.465	28.010	0.485
620.500	393.753	80.006	19.994	103.169	19.476	27.289	0.513
621.000	394.030	80.007	19.994	103.166	19.484	26.694	0.548
621.500	394.270	80.008	19.994	103.164	19.492	26.184	0.534
622.000	394.529	80.007	19.993	103.164	19.499	25.676	0.508
622.500	394.777	80.007	19.994	103.164	19.508	25.073	0.502
623.000	395.014	80.008	19.994	103.165	19.518	24.351	0.496
623.500	395.280	80.006	19.995	103.165	19.524	23.951	0.494
624.000	395.570	80.007	19.993	103.165	19.530	23.540	0.530
624.500	395.823	80.006	19.995	103.165	19.536	23.076	0.549
625.000	396.081	80.007	19.994	103.165	19.545	22.456	0.527
625.500	396.306	80.007	19.993	103.164	19.551	22.019	0.497
626.000	396.570	80.006	19.995	103.162	19.556	21.702	0.486
626.500	396.817	80.007	19.996	103.161	19.562	21.312	0.500
627.000	397.068	80.006	19.993	103.161	19.569	20.772	0.504
627.500	397.315	80.006	19.995	103.160	19.577	20.268	0.498
628.000	397.590	80.007	19.995	103.161	19.582	19.865	0.510
628.500	397.845	80.006	19.994	103.162	19.589	19.434	0.526
629.000	398.123	80.006	19.994	103.162	19.592	19.199	0.532
629.500	398.385	80.007	19.994	103.159	19.596	18.901	0.536
630.000	398.633	80.006	19.994	103.156	19.601	18.541	0.525
630.500	398.885	80.006	19.994	103.153	19.606	18.233	0.505
631.000	399.141	80.007	19.994	103.150	19.611	17.907	0.504
631.500	399.381	80.005	19.996	103.145	19.615	17.614	0.502
632.000	399.658	80.005	19.996	103.145	19.619	17.329	0.506
632.500	399.936	80.006	19.996	103.147	19.621	17.145	0.535
633.000	400.134	80.005	19.995	103.148	19.629	16.643	0.515
633.500	400.421	80.005	19.995	103.148	19.632	16.402	0.481
634.000	400.659	80.006	19.995	103.152	19.634	16.292	0.505
634.500	400.897	80.007	19.995	103.155	19.636	16.097	0.500
635.000	401.143	80.006	19.994	103.156	19.640	15.845	0.480
635.500	401.379	80.005	19.996	103.155	19.645	15.468	0.483
636.000	401.646	80.006	19.994	103.153	19.646	15.439	0.492
636.500	401.921	80.007	19.995	103.150	19.650	15.151	0.522
637.000	402.187	80.008	19.995	103.147	19.654	14.864	0.542
637.500	402.425	80.007	19.995	103.145	19.654	14.846	0.523
638.000	402.723	80.005	19.995	103.145	19.657	14.670	0.520
638.500	402.959	80.007	19.995	103.148	19.662	14.349	0.535
639.000	403.227	80.007	19.996	103.151	19.662	14.288	0.519
639.500	403.483	80.008	19.994	103.151	19.667	14.003	0.514
640.000	403.769	80.007	19.993	103.152	19.665	14.107	0.533
640.500	404.020	80.006	19.996	103.154	19.668	13.897	0.539
641.000	404.253	80.007	19.995	103.154	19.671	13.724	0.510
641.500	404.529	80.007	19.994	103.153	19.671	13.713	0.496
642.000	404.767	80.007	19.995	103.154	19.676	13.364	0.512
642.500	405.018	80.008	19.994	103.154	19.677	13.281	0.501
643.000	405.250	80.008	19.993	103.150	19.675	13.405	0.486
643.500	405.514	80.007	19.995	103.148	19.678	13.170	0.490
644.000	405.783	80.006	19.994	103.150	19.680	13.086	0.515
644.500	406.029	80.007	19.994	103.150	19.681	12.977	0.524
645.000	406.298	80.008	19.995	103.148	19.683	12.855	0.515
645.500	406.544	80.007	19.995	103.146	19.685	12.705	0.515
646.000	406.789	80.007	19.994	103.147	19.680	13.041	0.503
646.500	407.054	80.007	19.994	103.142	19.687	12.567	0.500
647.000	407.312	80.008	19.993	103.136	19.684	12.812	0.517
647.500	407.583	80.005	19.994	103.134	19.687	12.606	0.526
648.000	407.828	80.006	19.995	103.135	19.688	12.502	0.522
648.500	408.085	80.007	19.994	103.135	19.690	12.382	0.509
649.000	408.309	80.006	19.994	103.138	19.689	12.408	0.492
649.500	408.571	80.005	19.995	103.140	19.690	12.352	0.484
650.000	408.822	80.005	19.995	103.141	19.692	12.232	0.499
650.500	409.107	80.004	19.994	103.143	19.694	12.097	0.524
651.000	409.356	80.005	19.994	103.142	19.693	12.156	0.535
651.500	409.596	80.005	19.995	103.140	19.693	12.167	0.511
652.000	409.852	80.006	19.994	103.139	19.696	11.954	0.493
652.500	410.122	80.004	19.996	103.137	19.693	12.184	0.511
653.000	410.388	80.004	19.994	103.135	19.697	11.900	0.531
653.500	410.637	80.003	19.995	103.135	19.696	11.951	0.525
654.000	410.875	80.004	19.995	103.135	19.696	11.975	0.501
654.500	411.124	80.003	19.994	103.137	19.697	11.897	0.487
655.000	411.401	80.003	19.995	103.140	19.697	11.856	0.507
655.500	411.647	80.003	19.995	103.142	19.698	11.822	0.524
656.000	411.913	80.005	19.994	103.143	19.700	11.703	0.517
656.500	412.181	80.006	19.994	103.146	19.700	11.644	0.523
657.000	412.385	80.004	19.994	103.145	19.698	11.789	0.503
657.500	412.657	80.004	19.995	103.142	19.701	11.631	0.474
658.000	412.933	80.003	19.995	103.140	19.701	11.594	0.512
658.500	413.161	80.004	19.995	103.139	19.701	11.599	0.526
659.000	413.426	80.004	19.995	103.136	19.704	11.365	0.499
659.500	413.641	80.004	19.996	103.138	19.703	11.430	0.486
660.000	413.868	80.004	19.995	103.139	19.705	11.337	0.461
660.500	414.161	80.005	19.994	103.142	19.706	11.278	0.481
661.000	414.366	80.003	19.995	103.144	19.704	11.365	0.509
661.500	414.664	80.004	19.996	103.145	19.706	11.219	0.500
662.000	414.920	80.003	19.995	103.146	19.705	11.336	0.528
662.500	415.112	80.004	19.995	103.147	19.709	11.017	0.501
663.000	415.371	80.003	19.996	103.145	19.707	11.202	0.449
663.500	415.655	80.003	19.995	103.145	19.708	11.113	0.497
664.000	415.874	80.004	19.995	103.147	19.709	11.075	0.523
664.500	416.137	80.003	19.996	103.147	19.708	11.095	0.493
665.000	416.409	80.005	19.995	103.147	19.708	11.107	0.508
665.500	416.637	80.004	19.995	103.147	19.710	10.954	0.517
666.000	416.883	80.005	19.995	103.144	19.711	10.914	0.487
666.500	417.137	80.005	19.996	103.142	19.711	10.934	0.487
667.000	417.397	80.005	19.996	103.142	19.709	11.008	0.507
667.500	417.643	80.005	19.996	103.141	19.713	10.784	0.511
668.000	417.903	80.003	19.997	103.141	19.712	10.827	0.506
668.500	418.160	80.003	19.996	103.144	19.712	10.847	0.511
669.000	418.438	80.006	19.996	103.142	19.712	10.860	0.526
669.500	418.701	80.004	19.996	103.140	19.712	10.829	0.538
670.000	418.961	80.005	19.996	103.138	19.715	10.638	0.532
670.500	419.163	80.006	19.994	103.138	19.710	10.998	0.492
671.000	419.456	80.004	19.996	103.135	19.711	10.938	0.479
671.500	419.718	80.005	19.995	103.134	19.710	10.962	0.525
672.000	419.927	80.004	19.996	103.134	19.710	10.957	0.513
672.500	420.218	80.007	19.995	103.138	19.713	10.791	0.485
673.000	420.445	80.006	19.994	103.137	19.714	10.678	0.509
673.500	420.706	80.005	19.995	103.137	19.712	10.862	0.503
674.000	421.001	80.006	19.994	103.137	19.716	10.569	0.523
674.500	421.209	80.006	19.993	103.134	19.716	10.563	0.530
675.000	421.468	80.006	19.994	103.128	19.717	10.469	0.485
675.500	421.738	80.005	19.994	103.127	19.718	10.390	0.498
676.000	421.997	80.005	19.996	103.128	19.715	10.609	0.529
676.500	422.271	80.006	19.994	103.127	19.720	10.290	0.531
677.000	422.476	80.003	19.995	103.128	19.717	10.507	0.506
677.500	422.720	80.004	19.995	103.129	19.716	10.544	0.464
678.000	422.981	80.004	19.994	103.127	19.722	10.166	0.478
678.500	423.281	80.005	19.996	103.129	19.721	10.193	0.533
679.000	423.478	80.005	19.995	103.129	19.721	10.211	0.529
679.500	423.756	80.007	19.995	103.129	19.722	10.156	0.486
680.000	424.030	80.004	19.996	103.130	19.723	10.083	0.513
680.500	424.281	80.003	19.996	103.132	19.721	10.191	0.538
681.000	424.551	80.003	19.995	103.131	19.719	10.313	0.523
681.500	424.781	80.006	19.995	103.132	19.718	10.408	0.511
682.000	425.029	80.005	19.995	103.132	19.719	10.334	0.489
682.500	425.271	80.007	19.994	103.131	19.720	10.294	0.483
683.000	425.528	80.005	19.993	103.130	19.720	10.276	0.494
683.500	425.802	80.005	19.994	103.128	19.721	10.191	0.516
684.000	426.053	80.006	19.994	103.128	19.719	10.380	0.528
684.500	426.305	80.005	19.994	103.127	19.724	10.000	0.514
685.000	426.529	80.005	19.994	103.128	19.724	9.966	0.489
685.500	426.803	80.003	19.995	103.130	19.723	10.091	0.487
686.000	427.051	80.004	19.995	103.131	19.727	9.814	0.510
686.500	427.294	80.004	19.995	103.134	19.725	9.896	0.506
687.000	427.572	80.005	19.994	103.137	19.726	9.863	0.506
687.500	427.815	80.005	19.995	103.138	19.727	9.772	0.521
688.000	428.096	80.005	19.994	103.138	19.727	9.812	0.523
688.500	428.339	80.007	19.995	103.140	19.727	9.755	0.524
689.000	428.568	80.005	19.994	103.139	19.727	9.787	0.498
689.500	428.865	80.007	19.994	103.135	19.728	9.736	0.499
690.000	429.111	80.006	19.994	103.133	19.730	9.553	0.534
690.500	429.380	80.006	19.994	103.132	19.730	9.571	0.529
691.000	429.631	80.005	19.995	103.132	19.728	9.748	0.518
691.500	429.834	80.003	19.995	103.131	19.727	9.772	0.488
692.000	430.118	80.006	19.995	103.131	19.731	9.490	0.470
692.500	430.355	80.006	19.994	103.132	19.731	9.527	0.504
693.000	430.624	80.006	19.994	103.130	19.733	9.355	0.514
693.500	430.873	80.006	19.994	103.128	19.735	9.199	0.512
694.000	431.150	80.006	19.994	103.131	19.731	9.490	0.522
694.500	431.405	80.006	19.995	103.130	19.730	9.614	0.529
695.000	431.651	80.005	19.994	103.130	19.732	9.438	0.516
695.500	431.860	80.005	19.994	103.132	19.732	9.427	0.478
696.000	432.123	80.006	19.993	103.131	19.734	9.332	0.464
696.500	432.395	80.005	19.995	103.129	19.736	9.158	0.503
697.000	432.657	80.005	19.994	103.129	19.734	9.291	0.534
697.500	432.923	80.006	19.994	103.129	19.736	9.195	0.531
698.000	433.162	80.005	19.995	103.129	19.736	9.148	0.517
698.500	433.436	80.006	19.995	103.129	19.736	9.130	0.510
699.000	433.705	80.006	19.993	103.129	19.738	9.028	0.528
699.500	433.984	80.006	19.993	103.129	19.739	8.919	0.545
700.000	434.207	80.005	19.993	103.129	19.736	9.129	0.525
700.500	434.494	80.006	19.994	103.129	19.740	8.899	0.507
701.000	434.737	80.005	19.993	103.129	19.738	8.995	0.520
701.500	434.996	80.006	19.994	103.129	19.738	9.028	0.515
702.000	435.248	80.006	19.994	103.129	19.740	8.861	0.507
702.500	435.503	80.006	19.995	103.129	19.741	8.791	0.509
703.000	435.749	80.006	19.994	103.131	19.741	8.847	0.504
703.500	435.987	80.005	19.994	103.131	19.741	8.802	0.493
704.000	436.291	80.006	19.995	103.130	19.744	8.606	0.513
704.500	436.535	80.005	19.994	103.130	19.742	8.765	0.545
705.000	436.744	80.005	19.993	103.130	19.743	8.648	0.501
705.500	437.046	80.006	19.994	103.129	19.744	8.576	0.482
706.000	437.266	80.006	19.993	103.130	19.742	8.763	0.516
706.500	437.524	80.005	19.994	103.130	19.743	8.673	0.500
707.000	437.778	80.007	19.993	103.130	19.741	8.806	0.494
707.500	438.045	80.006	19.993	103.129	19.743	8.691	0.516
708.000	438.297	80.006	19.994	103.128	19.740	8.867	0.521
708.500	438.562	80.005	19.994	103.128	19.743	8.709	0.518
709.000	438.805	80.005	19.992	103.128	19.743	8.661	0.512
709.500	439.055	80.005	19.994	103.128	19.745	8.561	0.500
710.000	439.328	80.004	19.993	103.130	19.743	8.680	0.508
710.500	439.604	80.005	19.994	103.134	19.744	8.626	0.536
711.000	439.841	80.005	19.994	103.134	19.742	8.713	0.531
711.500	440.110	80.004	19.995	103.135	19.744	8.617	0.510
712.000	440.360	80.005	19.994	103.135	19.744	8.619	0.512
712.500	440.621	80.005	19.994	103.133	19.742	8.752	0.515
713.000	440.858	80.004	19.994	103.129	19.741	8.804	0.505
713.500	441.119	80.005	19.994	103.131	19.744	8.578	0.498
714.000	441.366	80.005	19.993	103.132	19.744	8.615	0.503
714.500	441.641	80.004	19.994	103.132	19.743	8.698	0.515
715.000	441.872	80.004	19.994	103.132	19.747	8.431	0.514
715.500	442.111	80.006	19.994	103.132	19.748	8.312	0.488
716.000	442.380	80.006	19.994	103.132	19.746	8.433	0.489
716.500	442.647	80.005	19.994	103.131	19.746	8.460	0.522
717.000	442.881	80.005	19.993	103.133	19.749	8.282	0.519
717.500	443.157	80.006	19.995	103.134	19.750	8.180	0.505
718.000	443.412	80.007	19.993	103.135	19.748	8.295	0.520
718.500	443.678	80.004	19.994	103.134	19.749	8.284	0.526
719.000	443.922	80.007	19.994	103.135	19.749	8.245	0.515
719.500	444.180	80.005	19.995	103.133	19.748	8.307	0.506
720.000	444.418	80.007	19.993	103.131	19.750	8.169	0.499
720.500	444.692	80.006	19.994	103.131	19.751	8.144	0.504
721.000	444.911	80.006	19.994	103.132	19.751	8.132	0.502
721.500	445.201	80.007	19.995	103.130	19.751	8.090	0.501
722.000	445.448	80.006	19.993	103.134	19.753	7.951	0.523
722.500	445.684	80.005	19.994	103.134	19.754	7.910	0.510
723.000	445.933	80.007	19.994	103.135	19.756	7.793	0.484
723.500	446.188	80.006	19.994	103.134	19.761	7.443	0.494
724.000	446.442	80.007	19.994	103.134	19.756	7.786	0.506
724.500	446.712	80.006	19.994	103.131	19.758	7.661	0.517
725.000	446.963	80.007	19.994	103.131	19.756	7.743	0.523
725.500	447.206	80.006	19.994	103.130	19.757	7.734	0.507
726.000	447.478	80.006	19.995	103.130	19.759	7.537	0.504
726.500	447.747	80.005	19.993	103.128	19.762	7.370	0.528
727.000	447.971	80.006	19.995	103.127	19.759	7.585	0.518
727.500	448.254	80.005	19.995	103.126	19.758	7.647	0.500
728.000	448.479	80.007	19.994	103.126	19.759	7.563	0.507
728.500	448.748	80.005	19.993	103.125	19.759	7.567	0.501
729.000	448.987	80.005	19.994	103.125	19.760	7.470	0.502
729.500	449.246	80.005	19.996	103.127	19.760	7.500	0.503
730.000	449.520	80.006	19.995	103.127	19.759	7.576	0.515
730.500	449.766	80.004	19.995	103.127	19.757	7.684	0.526
731.000	450.038	80.004	19.995	103.127	19.756	7.739	0.519
731.500	450.287	80.004	19.994	103.127	19.759	7.552	0.520
732.000	450.520	80.003	19.995	103.126	19.760	7.463	0.501
732.500	450.777	80.002	19.995	103.126	19.761	7.420	0.486
733.000	451.040	80.003	19.995	103.127	19.762	7.352	0.505
733.500	451.301	80.003	19.995	103.128	19.761	7.433	0.522
734.000	451.516	80.004	19.994	103.128	19.761	7.418	0.500
734.500	451.813	80.003	19.995	103.128	19.763	7.281	0.494
735.000	452.065	80.004	19.995	103.128	19.763	7.253	0.530
735.500	452.329	80.003	19.994	103.127	19.764	7.239	0.532
736.000	452.590	80.004	19.995	103.126	19.765	7.129	0.520
736.500	452.862	80.005	19.995	103.126	19.766	7.096	0.529
737.000	453.089	80.003	19.992	103.126	19.765	7.116	0.516
737.500	453.386	80.003	19.997	103.126	19.764	7.218	0.511
738.000	453.641	80.003	19.995	103.126	19.766	7.053	0.538
738.500	453.918	80.005	19.996	103.126	19.771	6.757	0.542
739.000	454.151	80.005	19.995	103.126	19.770	6.797	0.521
739.500	454.378	80.004	19.996	103.126	19.770	6.777	0.485
740.000	454.623	80.004	19.996	103.126	19.771	6.734	0.467
740.500	454.932	80.005	19.994	103.126	19.769	6.890	0.513
741.000	455.145	80.005	19.995	103.126	19.770	6.788	0.538
741.500	455.454	80.004	19.996	103.126	19.770	6.810	0.522
742.000	455.664	80.004	19.995	103.126	19.771	6.720	0.521
742.500	455.922	80.005	19.995	103.126	19.768	6.955	0.494
743.000	456.193	80.004	19.994	103.126	19.768	6.909	0.499
743.500	456.427	80.004	19.994	103.125	19.769	6.838	0.517
744.000	456.653	80.004	19.994	103.125	19.771	6.745	0.482
744.500	456.962	80.004	19.995	103.125	19.770	6.821	0.497
745.000	457.159	80.001	19.996	103.126	19.770	6.816	0.520
745.500	457.402	80.002	19.995	103.126	19.771	6.718	0.473
746.001	457.688	80.005	19.995	103.126	19.770	6.784	0.485
746.500	457.938	80.004	19.994	103.126	19.769	6.868	0.532
747.000	458.232	80.004	19.994	103.128	19.769	6.855	0.540
747.500	458.481	80.003	19.995	103.129	19.771	6.699	0.543
748.000	458.720	80.004	19.995	103.129	19.772	6.632	0.515
748.500	458.994	80.004	19.994	103.129	19.771	6.743	0.500
749.000	459.230	80.005	19.995	103.130	19.772	6.660	0.512
749.500	459.519	80.004	19.995	103.128	19.772	6.651	0.518
750.000	459.760	80.005	19.995	103.126	19.775	6.441	0.527
750.500	460.030	80.004	19.994	103.127	19.774	6.534	0.520
751.000	460.297	80.005	19.995	103.128	19.774	6.545	0.524
751.500	460.527	80.004	19.994	103.127	19.776	6.352	0.517
752.000	460.764	80.006	19.994	103.127	19.779	6.137	0.482
752.500	461.044	80.003	19.995	103.127	19.779	6.187	0.492
753.000	461.297	80.004	19.995	103.128	19.775	6.473	0.525
753.500	461.574	80.005	19.994	103.127	19.777	6.319	0.531
754.000	461.799	80.004	19.995	103.126	19.779	6.193	0.516
754.500	462.066	80.006	19.996	103.127	19.780	6.078	0.497
755.000	462.335	80.004	19.996	103.127	19.781	6.000	0.514
755.500	462.598	80.004	19.995	103.125	19.781	6.047	0.534
756.000	462.834	80.004	19.995	103.125	19.780	6.106	0.515
756.500	463.093	80.003	19.995	103.126	19.780	6.087	0.497
757.000	463.303	80.002	19.995	103.126	19.781	6.008	0.482
757.500	463.605	80.003	19.996	103.126	19.781	6.006	0.490
758.000	463.797	80.004	19.996	103.126	19.778	6.221	0.503
758.500	464.099	80.003	19.997	103.126	19.781	6.015	0.494
759.000	464.297	80.003	19.996	103.126	19.780	6.071	0.496
759.500	464.582	80.003	19.997	103.125	19.781	6.008	0.491
760.000	464.816	80.003	19.996	103.125	19.782	5.952	0.501
760.500	465.106	80.003	19.994	103.124	19.783	5.863	0.522
761.000	465.351	80.003	19.995	103.124	19.785	5.770	0.529
761.500	465.595	80.003	19.996	103.125	19.785	5.748	0.512
762.000	465.871	80.003	19.996	103.126	19.781	6.045	0.505
762.500	466.147	80.002	19.996	103.127	19.784	5.837	0.536
763.000	466.364	80.003	19.995	103.127	19.783	5.872	0.522
763.500	466.671	80.003	19.996	103.127	19.784	5.841	0.509
764.000	466.900	80.002	19.994	103.127	19.783	5.909	0.530
764.501	467.191	80.002	19.995	103.127	19.785	5.735	0.528
765.000	467.429	80.002	19.996	103.128	19.788	5.548	0.524
765.500	467.699	80.003	19.996	103.129	19.788	5.564	0.518
766.000	467.946	80.003	19.996	103.129	19.784	5.789	0.513
766.500	468.205	80.005	19.995	103.129	19.787	5.633	0.512
767.000	468.464	80.003	19.994	103.130	19.787	5.598	0.512
767.500	468.713	80.002	19.997	103.129	19.788	5.524	0.513
768.000	468.972	80.002	19.995	103.129	19.788	5.555	0.508
768.500	469.217	80.003	19.995	103.128	19.787	5.594	0.505
769.000	469.479	80.003	19.994	103.128	19.786	5.657	0.505
769.500	469.748	80.003	19.995	103.129	19.787	5.618	0.519
770.000	470.002	80.004	19.994	103.129	19.788	5.546	0.527
770.500	470.247	80.003	19.995	103.128	19.787	5.622	0.511
771.000	470.498	80.003	19.994	103.127	19.784	5.789	0.498
771.500	470.743	80.004	19.995	103.127	19.791	5.357	0.496
772.000	470.990	80.004	19.993	103.127	19.789	5.444	0.494
772.500	471.274	80.004	19.995	103.127	19.790	5.412	0.511
773.000	471.532	80.004	19.995	103.129	19.790	5.425	0.536
773.500	471.784	80.003	19.994	103.130	19.790	5.392	0.525
774.000	472.050	80.003	19.995	103.130	19.789	5.464	0.514
774.501	472.270	80.004	19.993	103.130	19.789	5.468	0.503
775.000	472.572	80.004	19.993	103.130	19.791	5.322	0.504
775.500	472.785	80.004	19.995	103.130	19.793	5.160	0.518
776.000	473.042	80.004	19.995	103.130	19.787	5.581	0.492
776.500	473.327	80.005	19.994	103.130	19.791	5.316	0.506
777.000	473.596	80.006	19.995	103.129	19.794	5.153	0.548
777.500	473.846	80.006	19.994	103.129	19.791	5.316	0.537
778.000	474.122	80.004	19.994	103.129	19.793	5.192	0.522
778.500	474.399	80.004	19.993	103.129	19.791	5.336	0.539
779.000	474.652	80.005	19.994	103.129	19.792	5.294	0.541
779.500	474.887	80.006	19.993	103.130	19.794	5.149	0.509
780.000	475.190	80.007	19.993	103.129	19.792	5.273	0.513
780.500	475.393	80.005	19.994	103.129	19.791	5.349	0.522
781.000	475.677	80.005	19.993	103.129	19.793	5.179	0.497
781.500	475.944	80.006	19.994	103.129	19.792	5.273	0.520
782.000	476.212	80.005	19.993	103.129	19.795	5.080	0.543
782.500	476.452	80.005	19.995	103.130	19.792	5.256	0.521
783.000	476.725	80.005	19.995	103.130	19.792	5.232	0.510
783.500	476.944	80.005	19.995	103.130	19.795	5.025	0.503
784.000	477.223	80.005	19.994	103.130	19.792	5.245	0.495
784.500	477.499	80.006	19.995	103.130	19.797	4.926	0.527
785.000	477.757	80.004	19.995	103.131	19.796	4.956	0.545
785.500	478.039	80.004	19.994	103.130	19.793	5.194	0.537
786.000	478.303	80.005	19.994	103.130	19.797	4.917	0.543
786.500	478.545	80.005	19.995	103.130	19.794	5.127	0.526
787.000	478.831	80.005	19.994	103.130	19.794	5.129	0.517
787.500	479.087	80.005	19.994	103.130	19.795	5.079	0.535
788.000	479.349	80.004	19.994	103.131	19.796	5.005	0.530
788.500	479.613	80.004	19.996	103.130	19.798	4.828	0.522
789.000	479.855	80.005	19.994	103.131	19.793	5.177	0.516
789.500	480.135	80.005	19.995	103.130	19.795	5.023	0.514
790.000	480.375	80.005	19.995	103.130	19.798	4.852	0.521
790.500	480.617	80.003	19.995	103.129	19.797	4.913	0.501
791.000	480.843	80.004	19.995	103.130	19.796	4.958	0.475
791.500	481.154	80.005	19.994	103.130	19.797	4.906	0.502
792.000	481.378	80.003	19.994	103.129	19.798	4.826	0.536
792.500	481.680	80.005	19.994	103.127	19.798	4.858	0.531
793.000	481.895	80.005	19.994	103.126	19.797	4.906	0.521
793.500	482.182	80.005	19.994	103.123	19.798	4.821	0.509
794.000	482.436	80.005	19.995	103.122	19.799	4.784	0.521
794.500	482.708	80.004	19.995	103.122	19.798	4.878	0.534
795.000	482.928	80.006	19.995	103.124	19.796	4.989	0.509
795.500	483.179	80.005	19.995	103.125	19.798	4.841	0.481
796.000	483.441	80.005	19.993	103.128	19.798	4.871	0.492
796.500	483.752	80.005	19.995	103.128	19.795	5.073	0.543
797.000	483.965	80.005	19.993	103.128	19.795	5.049	0.548
797.500	484.259	80.007	19.995	103.127	19.799	4.800	0.515
798.000	484.502	80.006	19.994	103.130	19.798	4.823	0.522
798.500	484.775	80.006	19.995	103.129	19.798	4.847	0.527
799.000	485.064	80.007	19.995	103.130	19.797	4.882	0.539
799.500	485.280	80.006	19.995	103.130	19.798	4.835	0.533
800.000	485.565	80.006	19.994	103.130	19.799	4.796	0.503
800.500	485.824	80.006	19.994	103.126	19.797	4.904	0.522
801.000	486.080	80.007	19.994	103.127	19.802	4.535	0.530
801.500	486.313	80.005	19.994	103.126	19.798	4.874	0.502
802.000	486.589	80.007	19.994	103.126	19.798	4.848	0.499
802.500	486.847	80.008	19.995	103.127	19.800	4.722	0.521
803.000	487.092	80.008	19.994	103.127	19.799	4.745	0.519
803.500	487.358	80.007	19.995	103.127	19.800	4.693	0.507
804.000	487.598	80.008	19.993	103.127	19.799	4.800	0.508
804.500	487.886	80.008	19.994	103.125	19.802	4.582	0.517
805.000	488.181	80.009	19.993	103.124	19.797	4.882	0.555
805.500	488.391	80.006	19.995	103.124	19.800	4.680	0.544
806.000	488.688	80.006	19.994	103.123	19.801	4.668	0.506
806.500	488.931	80.008	19.994	103.123	19.800	4.709	0.524
807.000	489.203	80.006	19.992	103.124	19.803	4.529	0.527
807.500	489.458	80.006	19.993	103.125	19.799	4.756	0.521
808.000	489.731	80.007	19.994	103.125	19.802	4.593	0.527
808.500	489.978	80.008	19.994	103.126	19.800	4.674	0.524
809.000	490.191	80.006	19.993	103.126	19.802	4.539	0.491
809.500	490.469	80.008	19.993	103.124	19.799	4.797	0.476
810.000	490.757	80.005	19.994	103.123	19.803	4.526	0.529
810.500	491.004	80.005	19.994	103.122	19.802	4.537	0.550
811.000	491.210	80.007	19.993	103.122	19.802	4.552	0.494
811.500	491.494	80.006	19.993	103.122	19.800	4.732	0.471
812.000	491.753	80.006	19.993	103.121	19.803	4.472	0.516
812.500	492.006	80.006	19.994	103.121	19.803	4.507	0.528
813.000	492.300	80.004	19.995	103.122	19.802	4.565	0.530
813.500	492.519	80.004	19.994	103.123	19.804	4.452	0.530
814.000	492.798	80.004	19.995	103.123	19.803	4.476	0.506
814.500	493.057	80.005	19.995	103.126	19.803	4.517	0.518
815.000	493.335	80.003	19.994	103.126	19.803	4.506	0.537
815.500	493.580	80.004	19.995	103.126	19.803	4.507	0.530
816.000	493.840	80.003	19.995	103.123	19.803	4.483	0.514
816.500	494.096	80.003	19.995	103.120	19.804	4.394	0.511
817.000	494.406	80.004	19.993	103.118	19.806	4.276	0.541
817.500	494.676	80.004	19.995	103.118	19.801	4.609	0.573
818.000	494.927	80.005	19.993	103.118	19.804	4.435	0.550
818.500	495.179	80.003	19.995	103.121	19.802	4.567	0.512
819.000	495.449	80.003	19.994	103.122	19.803	4.467	0.513
819.500	495.707	80.003	19.996	103.124	19.803	4.500	0.525
820.000	495.942	80.002	19.995	103.125	19.807	4.252	0.511
820.500	496.193	80.003	19.994	103.125	19.804	4.444	0.489
821.000	496.486	80.004	19.994	103.126	19.804	4.435	0.515
821.500	496.710	80.004	19.995	103.126	19.804	4.394	0.531
822.000	497.009	80.004	19.995	103.126	19.805	4.354	0.520
822.500	497.249	80.003	19.995	103.126	19.803	4.498	0.531
823.000	497.544	80.004	19.995	103.125	19.804	4.409	0.537
823.500	497.759	80.003	19.995	103.124	19.806	4.272	0.522
824.000	498.062	80.004	19.995	103.124	19.807	4.250	0.514
824.500	498.291	80.004	19.995	103.124	19.808	4.155	0.525
825.000	498.564	80.003	19.995	103.123	19.809	4.101	0.517
825.500	498.823	80.001	19.996	103.125	19.806	4.298	0.517
826.000	499.055	80.004	19.995	103.126	19.805	4.326	0.511
826.500	499.354	80.003	19.995	103.126	19.805	4.342	0.511
827.000	499.601	80.003	19.995	103.127	19.807	4.229	0.539
827.500	499.824	80.003	19.995	103.128	19.809	4.083	0.508
828.000	500.107	80.003	19.995	103.126	19.809	4.081	0.488
828.500	500.347	80.002	19.995	103.126	19.805	4.355	0.514
829.000	500.613	80.004	19.994	103.126	19.808	4.161	0.515
829.500	500.895	80.003	19.995	103.126	19.806	4.307	0.528
830.000	501.154	80.002	19.994	103.126	19.809	4.070	0.545
830.500	501.404	80.004	19.995	103.127	19.805	4.324	0.525
831.000	501.659	80.001	19.994	103.128	19.810	4.036	0.507
831.500	501.918	80.003	19.995	103.128	19.810	4.031	0.510
832.000	502.193	80.005	19.995	103.129	19.809	4.051	0.524
832.500	502.444	80.004	19.995	103.129	19.809	4.099	0.530
833.000	502.699	80.005	19.996	103.129	19.807	4.231	0.516
833.500	502.929	80.004	19.995	103.128	19.809	4.085	0.495
834.000	503.183	80.003	19.995	103.129	19.806	4.253	0.484
834.500	503.458	80.005	19.995	103.129	19.805	4.337	0.507
835.000	503.723	80.003	19.994	103.129	19.808	4.179	0.535
835.500	503.966	80.005	19.995	103.128	19.808	4.142	0.524
836.000	504.213	80.005	19.994	103.129	19.811	3.957	0.499
836.500	504.491	80.005	19.995	103.127	19.805	4.341	0.508
837.001	504.714	80.004	19.994	103.127	19.808	4.140	0.512
837.500	505.004	80.003	19.995	103.127	19.811	3.964	0.507
838.000	505.263	80.005	19.995	103.127	19.808	4.177	0.531
838.500	505.551	80.003	19.994	103.127	19.809	4.071	0.548
839.000	505.789	80.005	19.994	103.126	19.807	4.188	0.536
839.500	506.043	80.003	19.995	103.125	19.811	3.956	0.509
840.000	506.295	80.004	19.995	103.124	19.811	3.956	0.499
840.500	506.536	80.003	19.995	103.123	19.809	4.062	0.500
841.000	506.807	80.004	19.996	103.121	19.810	4.042	0.502
841.500	507.038	80.004	19.995	103.122	19.810	3.996	0.507
842.000	507.338	80.005	19.995	103.124	19.807	4.198	0.517
842.500	507.544	80.002	19.994	103.123	19.807	4.200	0.519
843.000	507.858	80.003	19.995	103.122	19.811	3.934	0.513
843.500	508.121	80.003	19.995	103.123	19.808	4.150	0.548
844.000	508.371	80.004	19.995	103.124	19.807	4.185	0.544
844.500	508.600	80.002	19.995	103.123	19.808	4.148	0.496
845.000	508.831	80.004	19.996	103.124	19.811	3.968	0.470
845.500	509.120	80.002	19.995	103.125	19.810	4.014	0.490
846.000	509.370	80.003	19.995	103.128	19.810	4.007	0.529
846.500	509.624	80.001	19.993	103.127	19.809	4.105	0.522
847.000	509.868	80.002	19.995	103.128	19.809	4.072	0.501
847.500	510.132	80.003	19.996	103.129	19.809	4.059	0.503
848.000	510.343	80.003	19.994	103.128	19.809	4.085	0.491
848.500	510.608	80.002	19.995	103.128	19.808	4.157	0.475
849.000	510.869	80.003	19.995	103.124	19.812	3.851	0.501
849.500	511.101	80.002	19.996	103.119	19.806	4.292	0.510
850.000	511.370	80.002	19.995	103.112	19.813	3.806	0.497
850.500	511.585	80.002	19.995	103.111	19.808	4.127	0.492
851.000	511.865	80.002	19.995	103.111	19.808	4.123	0.489
851.500	512.061	80.002	19.995	103.115	19.807	4.196	0.485
852.000	512.322	80.002	19.996	103.121	19.808	4.129	0.467
852.500	512.583	80.003	19.995	103.126	19.810	3.982	0.490
853.000	512.837	80.003	19.996	103.127	19.814	3.732	0.519
853.500	513.067	80.002	19.996	103.126	19.809	4.086	0.499
854.000	513.368	80.003	19.995	103.125	19.811	3.932	0.507
854.500	513.592	80.003	19.995	103.124	19.810	4.030	0.528
855.000	513.830	80.003	19.996	103.124	19.813	3.813	0.493
855.500	514.060	80.004	19.996	103.124	19.808	4.136	0.465
856.000	514.294	80.002	19.996	103.124	19.808	4.123	0.466
856.500	514.590	80.004	19.995	103.123	19.810	3.978	0.497
857.000	514.818	80.003	19.995	103.123	19.812	3.891	0.527
857.500	515.090	80.004	19.996	103.123	19.813	3.828	0.512
858.000	515.306	80.003	19.996	103.124	19.808	4.123	0.494
858.500	515.540	80.005	19.995	103.124	19.810	4.034	0.469
859.000	515.860	80.005	19.995	103.124	19.813	3.797	0.502
859.500	516.080	80.005	19.995	103.124	19.811	3.910	0.547
860.000	516.326	80.005	19.995	103.124	19.812	3.836	0.502
860.500	516.578	80.005	19.995	103.124	19.808	4.154	0.482
861.000	516.839	80.005	19.995	103.123	19.810	4.021	0.506
861.500	517.081	80.006	19.995	103.122	19.815	3.641	0.508
862.000	517.325	80.005	19.995	103.120	19.813	3.773	0.494
862.500	517.573	80.006	19.994	103.117	19.813	3.814	0.489
863.001	517.822	80.005	19.994	103.114	19.812	3.866	0.495
863.501	518.051	80.005	19.994	103.115	19.812	3.899	0.488
864.001	518.328	80.006	19.993	103.114	19.810	4.031	0.492
864.500	518.556	80.005	19.993	103.111	19.812	3.871	0.505
865.000	518.812	80.006	19.994	103.113	19.813	3.819	0.494
865.500	519.027	80.004	19.994	103.113	19.814	3.712	0.478
866.000	519.302	80.005	19.995	103.109	19.813	3.805	0.480
866.500	519.587	80.004	19.993	103.109	19.810	3.996	0.525
867.000	519.804	80.005	19.994	103.110	19.810	4.018	0.531
867.500	520.077	80.006	19.994	103.110	19.811	3.942	0.496
868.000	520.308	80.005	19.993	103.112	19.811	3.971	0.497
868.500	520.550	80.005	19.995	103.114	19.809	4.044	0.489
869.000	520.838	80.005	19.994	103.113	19.809	4.081	0.502
869.500	521.049	80.004	19.994	103.115	19.808	4.164	0.514
870.000	521.296	80.004	19.994	103.116	19.812	3.888	0.479
870.500	521.548	80.004	19.994	103.111	19.810	4.027	0.479
871.000	521.785	80.004	19.994	103.107	19.809	4.107	0.494
871.500	522.059	80.003	19.994	103.109	19.809	4.046	0.500
872.000	522.304	80.004	19.995	103.109	19.807	4.185	0.515
872.500	522.542	80.005	19.994	103.108	19.808	4.148	0.501
873.000	522.794	80.005	19.993	103.112	19.809	4.046	0.487
873.500	523.027	80.005	19.993	103.116	19.807	4.211	0.488
874.000	523.285	80.004	19.994	103.118	19.808	4.140	0.488
874.500	523.512	80.005	19.994	103.117	19.806	4.255	0.488
875.000	523.770	80.006	19.995	103.119	19.809	4.107	0.485
875.500	524.043	80.005	19.995	103.120	19.808	4.168	0.508
876.000	524.298	80.005	19.995	103.120	19.809	4.103	0.530
876.500	524.513	80.007	19.994	103.122	19.809	4.073	0.499
877.000	524.791	80.006	19.994	103.123	19.808	4.133	0.481
877.500	525.039	80.005	19.995	103.124	19.808	4.129	0.510
878.000	525.286	80.005	19.995	103.124	19.811	3.970	0.510
878.500	525.554	80.006	19.995	103.123	19.810	4.022	0.504
879.000	525.772	80.005	19.994	103.123	19.808	4.122	0.501
879.500	526.033	80.006	19.994	103.122	19.809	4.099	0.482
880.000	526.323	80.006	19.994	103.121	19.807	4.188	0.515
880.500	526.530	80.006	19.995	103.121	19.808	4.148	0.524
881.000	526.763	80.006	19.994	103.123	19.808	4.149	0.469
881.500	527.032	80.006	19.995	103.122	19.808	4.161	0.471
882.000	527.279	80.007	19.994	103.123	19.807	4.209	0.509
882.500	527.533	80.006	19.994	103.123	19.808	4.142	0.509
883.000	527.804	80.006	19.995	103.123	19.809	4.087	0.513
883.500	528.069	80.006	19.994	103.124	19.807	4.192	0.530
884.000	528.308	80.008	19.993	103.125	19.806	4.257	0.519
884.500	528.593	80.005	19.995	103.125	19.806	4.307	0.514
885.000	528.816	80.006	19.994	103.125	19.808	4.131	0.516
885.500	529.110	80.008	19.994	103.125	19.806	4.317	0.512
886.000	529.337	80.006	19.994	103.123	19.807	4.202	0.519
886.500	529.574	80.008	19.994	103.123	19.807	4.200	0.493
887.000	529.853	80.007	19.994	103.122	19.809	4.103	0.490
887.500	530.082	80.008	19.994	103.122	19.808	4.144	0.512
888.000	530.349	80.008	19.994	103.122	19.809	4.055	0.501
888.500	530.614	80.007	19.994	103.124	19.808	4.166	0.514
889.000	530.885	80.007	19.995	103.124	19.805	4.343	0.534
889.500	531.128	80.008	19.993	103.125	19.808	4.131	0.525
890.000	531.375	80.007	19.994	103.124	19.806	4.285	0.502
890.500	531.666	80.007	19.993	103.123	19.807	4.185	0.514
891.000	531.907	80.006	19.993	103.123	19.806	4.287	0.535
891.500	532.186	80.008	19.994	103.123	19.805	4.374	0.526
892.000	532.476	80.006	19.993	103.123	19.806	4.276	0.545
892.500	532.682	80.006	19.994	103.125	19.807	4.207	0.533
893.000	532.966	80.006	19.994	103.126	19.805	4.368	0.493
893.500	533.261	80.006	19.994	103.126	19.805	4.380	0.534
894.000	533.483	80.007	19.994	103.126	19.807	4.192	0.549
894.500	533.773	80.004	19.994	103.127	19.809	4.055	0.515
895.000	534.050	80.004	19.995	103.127	19.805	4.333	0.539
895.500	534.273	80.007	19.993	103.128	19.805	4.378	0.533
896.000	534.556	80.004	19.993	103.128	19.806	4.313	0.503
896.500	534.841	80.005	19.993	103.127	19.807	4.218	0.537
897.001	535.071	80.004	19.995	103.127	19.806	4.320	0.541
897.500	535.366	80.005	19.993	103.127	19.805	4.378	0.520
898.000	535.650	80.004	19.994	103.127	19.807	4.248	0.552
898.500	535.884	80.004	19.993	103.128	19.805	4.337	0.549
899.000	536.166	80.004	19.994	103.129	19.806	4.309	0.517
899.500	536.395	80.004	19.993	103.130	19.805	4.339	0.514
900.000	536.677	80.003	19.993	103.129	19.805	4.348	0.511
900.500	536.953	80.005	19.995	103.130	19.806	4.259	0.534
901.000	537.201	80.003	19.994	103.130	19.804	4.407	0.541
901.500	537.492	80.004	19.995	103.129	19.805	4.374	0.532
902.000	537.754	80.005	19.993	103.129	19.807	4.201	0.546
902.500	538.007	80.004	19.993	103.129	19.806	4.275	0.534
903.000	538.265	80.004	19.994	103.128	19.804	4.439	0.513
903.500	538.534	80.004	19.993	103.128	19.806	4.303	0.519
904.000	538.795	80.003	19.994	103.128	19.807	4.224	0.529
904.500	539.090	80.004	19.994	103.128	19.805	4.339	0.544
905.000	539.370	80.003	19.994	103.128	19.804	4.433	0.566
905.500	539.542	80.004	19.995	103.128	19.803	4.508	0.513
906.000	539.874	80.004	19.994	103.127	19.805	4.387	0.478
906.500	540.108	80.005	19.994	103.128	19.804	4.444	0.535
907.000	540.388	80.003	19.993	103.127	19.808	4.163	0.540
907.500	540.630	80.003	19.994	103.127	19.807	4.213	0.518
908.000	540.889	80.004	19.994	103.128	19.804	4.443	0.512
908.501	541.151	80.004	19.993	103.129	19.806	4.317	0.511
909.000	541.418	80.004	19.995	103.128	19.809	4.070	0.525
909.500	541.675	80.003	19.993	103.130	19.809	4.113	0.527
910.000	541.919	80.004	19.993	103.128	19.807	4.220	0.512
910.500	542.194	80.004	19.994	103.128	19.808	4.131	0.510
911.000	542.470	80.004	19.995	103.127	19.807	4.216	0.535
911.500	542.765	80.003	19.994	103.124	19.806	4.300	0.561
912.000	543.019	80.004	19.994	103.119	19.807	4.222	0.560
912.500	543.251	80.004	19.994	103.117	19.806	4.276	0.518
913.000	543.539	80.002	19.995	103.117	19.806	4.288	0.503
913.500	543.795	80.003	19.995	103.116	19.805	4.362	0.532
914.000	544.049	80.003	19.994	103.119	19.807	4.242	0.528
914.500	544.281	80.004	19.995	103.125	19.805	4.325	0.498
915.000	544.563	80.004	19.994	103.127	19.804	4.433	0.500
915.500	544.836	80.005	19.995	103.128	19.804	4.416	0.534
916.000	545.075	80.003	19.995	103.128	19.804	4.414	0.534
916.500	545.357	80.005	19.995	103.128	19.807	4.225	0.517
917.000	545.602	80.002	19.994	103.128	19.806	4.320	0.524
917.500	545.847	80.004	19.996	103.129	19.808	4.170	0.509
918.000	546.153	80.004	19.994	103.129	19.805	4.372	0.520
918.500	546.403	80.005	19.995	103.129	19.806	4.294	0.553
919.000	546.630	80.004	19.995	103.129	19.807	4.248	0.517
919.500	546.884	80.004	19.995	103.129	19.807	4.214	0.480
920.000	547.174	80.005	19.995	103.129	19.806	4.294	0.512
920.500	547.397	80.004	19.996	103.128	19.804	4.392	0.528
921.000	547.697	80.004	19.996	103.128	19.801	4.607	0.518
921.500	548.000	80.004	19.995	103.127	19.805	4.390	0.563
922.000	548.202	80.004	19.995	103.127	19.805	4.329	0.554
922.500	548.488	80.004	19.996	103.126	19.809	4.066	0.497
923.000	548.732	80.003	19.994	103.123	19.811	3.908	0.509
923.500	548.995	80.003	19.995	103.123	19.807	4.188	0.518
924.000	549.275	80.005	19.995	103.120	19.807	4.203	0.525
924.500	549.513	80.004	19.993	103.115	19.806	4.268	0.531
925.000	549.769	80.005	19.994	103.110	19.803	4.481	0.506
925.500	550.028	80.004	19.994	103.109	19.806	4.275	0.504
926.000	550.279	80.005	19.994	103.109	19.807	4.188	0.513
926.500	550.581	80.004	19.995	103.112	19.807	4.236	0.531
927.000	550.806	80.004	19.995	103.117	19.807	4.192	0.540
927.500	551.095	80.003	19.995	103.123	19.808	4.144	0.521
928.000	551.337	80.004	19.994	103.124	19.807	4.240	0.522
928.500	551.588	80.004	19.995	103.123	19.805	4.377	0.512
929.000	551.829	80.003	19.995	103.123	19.805	4.389	0.492
929.501	552.097	80.005	19.995	103.123	19.806	4.292	0.500
930.000	552.331	80.004	19.994	103.123	19.806	4.316	0.506
930.500	552.610	80.004	19.994	103.124	19.807	4.223	0.508
931.000	552.882	80.003	19.995	103.126	19.805	4.323	0.532
931.500	553.126	80.003	19.994	103.124	19.802	4.540	0.533
932.000	553.399	80.003	19.995	103.123	19.805	4.369	0.517
932.500	553.649	80.004	19.995	103.122	19.804	4.457	0.520
933.000	553.940	80.004	19.995	103.122	19.805	4.342	0.532
933.500	554.160	80.004	19.994	103.121	19.806	4.283	0.526
934.001	554.472	80.003	19.996	103.121	19.804	4.457	0.521
934.501	554.670	80.003	19.994	103.118	19.803	4.494	0.521
935.000	554.912	80.005	19.995	103.117	19.802	4.542	0.475
935.500	555.174	80.004	19.995	103.116	19.803	4.468	0.472
936.000	555.417	80.005	19.994	103.116	19.807	4.217	0.505
936.500	555.740	80.005	19.995	103.118	19.804	4.404	0.536
937.000	555.978	80.004	19.995	103.121	19.805	4.384	0.563
937.500	556.242	80.005	19.995	103.120	19.806	4.315	0.531
938.000	556.459	80.004	19.995	103.121	19.807	4.206	0.491
938.500	556.729	80.005	19.995	103.122	19.805	4.323	0.484
939.000	557.006	80.005	19.995	103.121	19.806	4.292	0.517
939.500	557.238	80.005	19.995	103.121	19.804	4.453	0.529
940.000	557.503	80.005	19.995	103.123	19.805	4.323	0.503
940.500	557.787	80.006	19.996	103.119	19.806	4.275	0.523
941.000	557.983	80.005	19.994	103.115	19.807	4.234	0.514
941.500	558.251	80.005	19.995	103.113	19.808	4.173	0.472
942.000	558.501	80.006	19.996	103.113	19.805	4.338	0.491
942.500	558.745	80.005	19.995	103.107	19.804	4.414	0.506
943.000	558.988	80.006	19.996	103.107	19.804	4.433	0.491
943.500	559.213	80.006	19.994	103.109	19.805	4.357	0.478
944.000	559.516	80.004	19.995	103.111	19.805	4.335	0.498
944.500	559.751	80.005	19.994	103.112	19.804	4.435	0.533
945.000	560.013	80.005	19.995	103.117	19.805	4.375	0.517
945.500	560.205	80.007	19.996	103.118	19.805	4.353	0.476
946.000	560.486	80.005	19.995	103.112	19.806	4.314	0.464
946.500	560.748	80.005	19.995	103.107	19.805	4.366	0.508
947.000	560.966	80.006	19.996	103.102	19.805	4.366	0.512
947.500	561.249	80.006	19.996	103.097	19.804	4.437	0.491
948.000	561.486	80.006	19.996	103.097	19.808	4.147	0.510
948.500	561.754	80.004	19.996	103.102	19.807	4.214	0.512
949.000	561.998	80.005	19.995	103.107	19.807	4.223	0.509
949.500	562.206	80.005	19.995	103.108	19.805	4.359	0.482
950.000	562.517	80.004	19.994	103.111	19.810	4.001	0.485
950.500	562.746	80.006	19.994	103.113	19.806	4.257	0.530
951.000	563.004	80.005	19.995	103.113	19.808	4.136	0.513
951.500	563.236	80.005	19.994	103.112	19.807	4.238	0.488
952.000	563.495	80.004	19.994	103.115	19.808	4.165	0.490
952.500	563.741	80.004	19.994	103.119	19.808	4.167	0.498
953.000	563.998	80.005	19.994	103.118	19.808	4.115	0.504
953.500	564.269	80.004	19.995	103.117	19.808	4.134	0.515
954.000	564.467	80.005	19.994	103.117	19.807	4.189	0.499
954.500	564.727	80.005	19.995	103.117	19.807	4.201	0.464
955.000	565.044	80.004	19.994	103.116	19.813	3.828	0.517
955.500	565.199	80.007	19.994	103.118	19.809	4.058	0.524
956.000	565.493	80.005	19.994	103.114	19.808	4.151	0.461
956.500	565.751	80.005	19.994	103.113	19.807	4.200	0.501
957.000	566.008	80.005	19.994	103.114	19.812	3.892	0.533
957.500	566.231	80.006	19.994	103.114	19.812	3.883	0.497
958.000	566.519	80.005	19.994	103.111	19.808	4.174	0.496
958.500	566.702	80.005	19.995	103.116	19.809	4.057	0.491
959.000	567.031	80.005	19.994	103.118	19.809	4.070	0.491
959.500	567.246	80.005	19.993	103.119	19.808	4.125	0.528
960.000	567.486	80.005	19.993	103.117	19.807	4.229	0.499
960.500	567.726	80.005	19.993	103.116	19.808	4.171	0.468
961.000	568.031	80.006	19.994	103.117	19.812	3.903	0.513
961.500	568.238	80.006	19.994	103.116	19.809	4.092	0.528
962.000	568.504	80.005	19.993	103.111	19.809	4.105	0.493
962.500	568.783	80.006	19.994	103.109	19.809	4.079	0.510
963.000	568.996	80.007	19.994	103.107	19.804	4.426	0.519
963.500	569.273	80.006	19.994	103.103	19.806	4.279	0.491
964.001	569.503	80.007	19.994	103.101	19.809	4.049	0.499
964.500	569.768	80.007	19.994	103.101	19.806	4.279	0.501
965.000	570.002	80.007	19.993	103.102	19.807	4.194	0.496
965.500	570.323	80.007	19.993	103.107	19.810	3.990	0.527
966.000	570.502	80.007	19.994	103.111	19.804	4.437	0.528
966.500	570.804	80.007	19.994	103.114	19.807	4.188	0.490
967.000	571.034	80.007	19.994	103.119	19.808	4.151	0.506
967.500	571.240	80.006	19.994	103.123	19.808	4.164	0.484
968.000	571.541	80.006	19.994	103.124	19.806	4.257	0.471
968.500	571.764	80.006	19.994	103.124	19.806	4.283	0.516
969.000	572.036	80.007	19.993	103.124	19.808	4.142	0.510
969.500	572.264	80.008	19.994	103.124	19.806	4.294	0.497
970.000	572.522	80.007	19.994	103.124	19.803	4.489	0.492
970.500	572.763	80.005	19.993	103.121	19.804	4.417	0.492
971.000	573.068	80.006	19.993	103.116	19.802	4.582	0.522
971.500	573.364	80.008	19.993	103.117	19.810	4.042	0.574
972.000	573.585	80.005	19.993	103.116	19.809	4.061	0.559
972.500	573.859	80.006	19.994	103.114	19.795	5.025	0.506
973.000	574.020	80.005	19.994	103.116	19.809	4.075	0.465
973.500	574.378	80.005	19.994	103.120	19.806	4.318	0.477
974.000	574.532	80.007	19.994	103.119	19.799	4.761	0.515
974.500	574.869	80.005	19.995	103.118	19.807	4.216	0.502
975.000	575.127	80.006	19.994	103.120	19.810	3.979	0.543
975.500	575.401	80.005	19.994	103.121	19.799	4.783	0.563
976.001	575.619	80.004	19.995	103.123	19.798	4.856	0.512
976.500	575.922	80.004	19.993	103.124	19.795	5.087	0.507
977.000	576.100	80.002	19.992	103.126	19.796	4.995	0.501
977.500	576.406	80.004	19.994	103.125	19.807	4.183	0.483
978.000	576.678	80.003	19.996	103.126	19.808	4.144	0.531
978.500	576.811	80.003	19.995	103.126	19.807	4.238	0.491
979.001	577.140	80.004	19.995	103.126	19.809	4.071	0.433
979.500	577.496	80.004	19.996	103.126	19.802	4.561	0.573
980.000	577.541	80.004	19.994	103.127	19.810	4.023	0.544
980.500	577.870	80.004	19.994	103.127	19.809	4.073	0.388
981.001	578.200	80.004	19.996	103.126	19.805	4.352	0.516
981.500	578.479	80.004	19.994	103.126	19.807	4.224	0.634
982.000	578.641	80.004	19.995	103.125	19.808	4.137	0.526
982.500	578.790	80.005	19.993	103.125	19.803	4.504	0.376
983.000	579.323	80.005	19.994	103.126	19.810	4.025	0.496
983.500	579.351	80.004	19.995	103.126	19.803	4.475	0.621
984.000	579.720	80.003	19.995	103.125	19.806	4.303	0.479
984.500	579.896	80.004	19.994	103.125	19.808	4.151	0.471
985.000	579.945	80.006	19.994	103.123	19.806	4.262	0.385
985.500	580.969	80.005	19.995	103.121	19.807	4.221	0.650
986.000	580.502	80.004	19.994	103.120	19.809	4.047	0.815
986.500	580.462	80.006	19.994	103.120	19.804	4.416	0.024
987.000	581.677	80.005	19.995	103.117	19.805	4.378	0.334
987.500	581.125	80.004	19.996	103.117	19.811	3.934	0.919
988.000	581.745	80.005	19.994	103.118	19.804	4.420	0.366
988.500	582.385	80.003	19.995	103.117	19.806	4.318	0.664
989.000	582.769	80.004	19.994	103.117	19.807	4.234	1.142
989.500	582.465	80.005	19.994	103.119	19.807	4.183	0.552
990.000	582.267	80.006	19.994	103.120	19.809	4.082	-0.211
990.500	582.345	80.004	19.995	103.120	19.806	4.307	-0.311
991.000	582.709	80.006	19.995	103.121	19.808	4.173	0.161
991.500	583.246	80.003	19.993	103.122	19.807	4.247	0.672
992.000	584.106	80.005	19.994	103.124	19.804	4.408	1.149
992.500	583.722	80.005	19.994	103.124	19.809	4.073	0.936
993.000	584.692	80.005	19.994	103.124	19.808	4.160	0.532
993.500	584.160	80.005	19.994	103.121	19.807	4.229	0.512
994.000	584.948	80.005	19.994	103.115	19.806	4.301	0.347
994.500	584.961	80.005	19.995	103.111	19.805	4.334	0.528
995.000	585.260	80.004	19.994	103.106	19.806	4.279	0.556
995.500	585.441	80.005	19.993	103.104	19.804	4.456	0.396
996.000	585.950	80.005	19.994	103.106	19.808	4.132	0.585
996.500	585.990	80.004	19.994	103.112	19.807	4.208	0.619
997.000	586.396	80.006	19.994	103.118	19.803	4.508	0.497
997.500	586.493	80.005	19.993	103.123	19.802	4.547	0.475
998.000	586.786	80.005	19.994	103.125	19.808	4.139	0.447
998.500	587.162	80.005	19.993	103.123	19.804	4.427	0.529
999.000	587.278	80.003	19.994	103.121	19.807	4.240	0.580
999.500	587.587	80.004	19.994	103.118	19.804	4.418	0.459
1000.000	587.955	80.003	19.996	103.116	19.808	4.170	0.551
1000.500	588.065	80.005	19.994	103.115	19.808	4.164	0.577
1001.000	588.325	80.005	19.993	103.117	19.808	4.127	0.424
1001.500	588.698	80.003	19.993	103.114	19.810	4.013	0.502
1002.000	588.830	80.004	19.995	103.113	19.805	4.330	0.569
1002.500	589.079	80.004	19.993	103.112	19.805	4.384	0.442
1003.000	589.347	80.003	19.995	103.110	19.805	4.388	0.449
1003.500	589.639	80.004	19.995	103.108	19.803	4.466	0.539
1004.000	589.897	80.004	19.994	103.111	19.802	4.545	0.555
1004.500	590.212	80.005	19.994	103.112	19.803	4.492	0.562
1005.000	590.363	80.004	19.995	103.109	19.804	4.436	0.520
1005.500	590.653	80.004	19.995	103.107	19.805	4.343	0.453
1006.000	590.901	80.005	19.994	103.106	19.807	4.215	0.489
1006.500	591.216	80.004	19.994	103.103	19.807	4.243	0.551
1007.001	591.389	80.006	19.995	103.098	19.806	4.271	0.526
1007.501	591.650	80.004	19.995	103.097	19.807	4.188	0.460
1008.000	591.884	80.004	19.995	103.095	19.806	4.299	0.464
1008.500	592.106	80.004	19.994	103.091	19.808	4.147	0.476
1009.000	592.455	80.004	19.995	103.093	19.805	4.329	0.513
1009.500	592.630	80.004	19.994	103.099	19.806	4.305	0.548
1010.000	592.950	80.003	19.995	103.104	19.806	4.303	0.510
1010.500	593.161	80.004	19.995	103.109	19.806	4.264	0.513
1011.000	593.365	80.003	19.996	103.114	19.809	4.069	0.473
1011.500	593.607	80.004	19.996	103.113	19.808	4.136	0.431
1012.000	593.918	80.004	19.995	103.109	19.810	4.038	0.500
1012.500	594.205	80.004	19.995	103.105	19.808	4.169	0.576
1013.000	594.450	80.004	19.996	103.101	19.810	4.034	0.565
1013.500	594.652	80.004	19.995	103.100	19.808	4.175	0.489
1014.000	594.921	80.004	19.995	103.101	19.809	4.084	0.459
1014.500	595.241	80.004	19.995	103.102	19.808	4.125	0.530
1015.000	595.436	80.004	19.995	103.104	19.806	4.316	0.552
1015.500	595.714	80.003	19.995	103.108	19.806	4.260	0.494
1016.000	595.916	80.004	19.995	103.104	19.809	4.065	0.477
1016.500	596.186	80.005	19.995	103.102	19.808	4.134	0.476
1017.000	596.441	80.004	19.995	103.105	19.806	4.267	0.499
1017.500	596.719	80.004	19.995	103.104	19.810	4.034	0.529
1018.000	596.967	80.005	19.995	103.105	19.806	4.265	0.529
1018.500	597.176	80.005	19.994	103.110	19.806	4.289	0.491
1019.000	597.494	80.005	19.994	103.114	19.806	4.284	0.492
1019.500	597.653	80.005	19.995	103.114	19.807	4.208	0.502
1020.000	597.965	80.004	19.994	103.115	19.806	4.310	0.474
1020.500	598.180	80.006	19.994	103.115	19.804	4.457	0.498
1021.000	598.498	80.005	19.993	103.116	19.805	4.385	0.530
1021.501	598.738	80.006	19.994	103.115	19.804	4.422	0.546
1022.000	598.959	80.005	19.994	103.116	19.804	4.422	0.509
1022.500	599.199	80.005	19.993	103.115	19.805	4.331	0.461
1023.000	599.494	80.005	19.995	103.114	19.809	4.091	0.499
1023.500	599.723	80.005	19.994	103.112	19.804	4.425	0.530
1024.000	599.979	80.007	19.994	103.111	19.804	4.404	0.504
1024.500	600.245	80.007	19.995	103.111	19.807	4.237	0.503
1025.000	600.429	80.007	19.995	103.112	19.806	4.304	0.486
1025.500	600.738	80.007	19.994	103.113	19.807	4.219	0.471
1026.000	600.992	80.006	19.996	103.112	19.807	4.193	0.528
1026.501	601.219	80.007	19.994	103.111	19.805	4.388	0.523
1027.001	601.513	80.005	19.994	103.109	19.809	4.082	0.501
1027.500	601.709	80.006	19.994	103.108	19.808	4.153	0.505
1028.000	601.960	80.006	19.993	103.105	19.807	4.229	0.468
1028.500	602.257	80.005	19.996	103.104	19.805	4.383	0.498
1029.000	602.437	80.006	19.994	103.102	19.804	4.413	0.513
1029.500	602.717	80.004	19.995	103.100	19.807	4.224	0.468
1030.001	602.936	80.005	19.994	103.101	19.808	4.125	0.480
1030.501	603.211	80.006	19.994	103.102	19.807	4.238	0.496
1031.001	603.463	80.006	19.995	103.106	19.809	4.099	0.510
1031.501	603.706	80.005	19.994	103.112	19.808	4.129	0.511
1032.000	603.980	80.004	19.994	103.116	19.808	4.162	0.506
1032.500	604.213	80.006	19.995	103.119	19.805	4.362	0.512
1033.001	604.458	80.006	19.995	103.117	19.807	4.190	0.493
1033.501	604.736	80.005	19.995	103.111	19.806	4.271	0.500
1034.000	604.960	80.005	19.994	103.105	19.807	4.217	0.512
1034.500	605.218	80.003	19.995	103.099	19.804	4.414	0.492
1035.000	605.453	80.004	19.995	103.095	19.810	3.995	0.488
1035.500	605.700	80.004	19.994	103.093	19.810	4.010	0.488
1036.000	605.930	80.004	19.996	103.098	19.806	4.306	0.480
1036.501	606.225	80.003	19.995	103.104	19.807	4.223	0.501
1037.001	606.495	80.003	19.995	103.108	19.808	4.156	0.545
1037.500	606.715	80.005	19.995	103.110	19.807	4.206	0.527
1038.000	607.002	80.004	19.996	103.117	19.807	4.182	0.499
1038.501	607.214	80.004	19.997	103.119	19.810	4.036	0.503
1039.001	607.470	80.003	19.995	103.120	19.810	4.039	0.483
1039.500	607.708	80.004	19.996	103.123	19.811	3.926	0.481
1040.000	607.965	80.004	19.997	103.128	19.811	3.971	0.495
1040.500	608.240	80.004	19.996	103.125	19.812	3.845	0.513
1041.001	608.525	80.004	19.996	103.120	19.809	4.096	0.545
1041.501	608.751	80.004	19.995	103.118	19.809	4.064	0.535
1042.000	608.993	80.003	19.996	103.114	19.809	4.064	0.490
1042.500	609.248	80.005	19.994	103.112	19.810	4.017	0.483
1043.001	609.529	80.004	19.995	103.109	19.808	4.136	0.517
1043.501	609.763	80.005	19.994	103.109	19.811	3.925	0.526
1044.001	610.024	80.005	19.995	103.108	19.810	4.041	0.504
1044.500	610.304	80.005	19.996	103.106	19.809	4.067	0.517
1045.000	610.499	80.005	19.995	103.104	19.809	4.045	0.508
1045.500	610.811	80.006	19.995	103.103	19.810	4.029	0.491
1046.001	611.017	80.005	19.995	103.103	19.808	4.175	0.513
1046.501	611.296	80.005	19.995	103.101	19.810	4.004	0.502
1047.001	611.511	80.007	19.994	103.103	19.810	3.993	0.489
1047.500	611.778	80.006	19.995	103.102	19.810	4.041	0.488
1048.000	612.039	80.006	19.994	103.107	19.810	4.030	0.505
1048.500	612.285	80.008	19.994	103.108	19.808	4.163	0.518
1049.001	612.526	80.007	19.993	103.109	19.808	4.167	0.497
1049.501	612.832	80.008	19.993	103.108	19.810	4.004	0.516
1050.001	613.042	80.008	19.994	103.108	19.806	4.316	0.531
1050.500	613.318	80.007	19.995	103.108	19.804	4.414	0.501
1051.001	613.589	80.007	19.994	103.111	19.804	4.420	0.517
1051.501	613.831	80.005	19.994	103.116	19.806	4.262	0.530
1052.000	614.078	80.006	19.994	103.119	19.803	4.466	0.501
1052.501	614.374	80.007	19.994	103.122	19.802	4.553	0.516
1053.001	614.599	80.005	19.994	103.119	19.801	4.605	0.532
1053.501	614.873	80.008	19.993	103.115	19.804	4.410	0.510
1054.000	615.135	80.007	19.993	103.109	19.806	4.295	0.518
1054.500	615.388	80.007	19.994	103.109	19.806	4.312	0.525
1055.000	615.635	80.008	19.993	103.107	19.806	4.291	0.507
1055.500	615.885	80.008	19.993	103.107	19.806	4.295	0.499
1056.000	616.164	80.006	19.994	103.108	19.805	4.328	0.513
1056.500	616.452	80.006	19.994	103.112	19.807	4.239	0.548
1057.000	616.697	80.006	19.994	103.111	19.801	4.614	0.550
1057.500	616.928	80.005	19.993	103.110	19.805	4.359	0.504
1058.000	617.195	80.005	19.994	103.107	19.803	4.496	0.487
1058.500	617.458	80.006	19.994	103.104	19.804	4.442	0.514
1059.000	617.700	80.005	19.993	103.100	19.805	4.381	0.517
1059.500	617.963	80.005	19.995	103.099	19.804	4.396	0.505
1060.001	618.255	80.004	19.993	103.100	19.807	4.248	0.530
1060.501	618.499	80.005	19.993	103.105	19.804	4.394	0.545
1061.000	618.735	80.003	19.993	103.108	19.809	4.103	0.508
1061.500	619.018	80.003	19.993	103.108	19.803	4.517	0.499
1062.001	619.245	80.005	19.994	103.110	19.806	4.255	0.515
1062.501	619.540	80.006	19.994	103.111	19.808	4.142	0.516
1063.000	619.797	80.004	19.996	103.110	19.807	4.235	0.536
1063.501	620.035	80.005	19.995	103.108	19.806	4.279	0.523
1064.001	620.271	80.004	19.994	103.110	19.806	4.262	0.485
1064.501	620.540	80.004	19.995	103.109	19.806	4.301	0.490
1065.000	620.810	80.004	19.994	103.110	19.806	4.254	0.522
1065.500	621.015	80.005	19.993	103.106	19.809	4.084	0.507
1066.000	621.335	80.005	19.994	103.104	19.808	4.136	0.500
1066.500	621.559	80.004	19.994	103.101	19.807	4.223	0.535
1067.000	621.804	80.004	19.994	103.100	19.809	4.079	0.507
1067.500	622.083	80.004	19.994	103.102	19.807	4.251	0.496
1068.001	622.329	80.005	19.994	103.107	19.806	4.295	0.524
1068.501	622.613	80.005	19.995	103.112	19.809	4.110	0.528
1069.001	622.883	80.005	19.993	103.116	19.806	4.282	0.542
1069.500	623.118	80.005	19.994	103.118	19.806	4.291	0.529
1070.000	623.389	80.004	19.994	103.118	19.809	4.071	0.506
1070.500	623.676	80.005	19.994	103.118	19.808	4.175	0.532
1071.000	623.932	80.005	19.995	103.120	19.803	4.466	0.550
1071.500	624.161	80.004	19.994	103.120	19.807	4.247	0.514
1072.001	624.458	80.005	19.995	103.121	19.806	4.319	0.506
1072.501	624.707	80.004	19.994	103.122	19.806	4.310	0.537
1073.001	624.961	80.006	19.994	103.123	19.808	4.163	0.524
1073.501	625.212	80.005	19.993	103.121	19.805	4.345	0.504
1074.001	625.473	80.005	19.994	103.118	19.805	4.334	0.508
1074.501	625.751	80.005	19.994	103.115	19.804	4.391	0.525
1075.000	626.018	80.005	19.995	103.112	19.807	4.214	0.542
1075.500	626.269	80.005	19.995	103.106	19.805	4.338	0.532
1076.000	626.532	80.006	19.994	103.106	19.805	4.329	0.516
1076.500	626.808	80.005	19.994	103.107	19.806	4.297	0.526
1077.000	627.072	80.004	19.994	103.105	19.805	4.375	0.540
1077.500	627.320	80.005	19.994	103.105	19.805	4.334	0.526
1078.000	627.616	80.006	19.994	103.111	19.805	4.347	0.528
1078.500	627.850	80.005	19.996	103.108	19.806	4.266	0.537
1079.000	628.129	80.005	19.995	103.105	19.807	4.208	0.521
1079.500	628.389	80.005	19.994	103.105	19.803	4.509	0.526
1080.000	628.637	80.004	19.994	103.105	19.804	4.407	0.523
1080.500	628.918	80.006	19.995	103.102	19.804	4.410	0.519
1081.001	629.176	80.006	19.994	103.101	19.805	4.379	0.534
1081.501	629.422	80.005	19.993	103.102	19.806	4.299	0.521
1082.000	629.688	80.005	19.994	103.103	19.804	4.403	0.508
1082.500	629.952	80.006	19.994	103.099	19.806	4.316	0.521
1083.000	630.179	80.006	19.993	103.097	19.805	4.336	0.510
1083.500	630.488	80.005	19.994	103.097	19.801	4.659	0.513
1084.000	630.742	80.006	19.994	103.100	19.802	4.562	0.550
1084.500	630.982	80.004	19.992	103.100	19.802	4.590	0.528
1085.001	631.230	80.005	19.994	103.102	19.801	4.609	0.490
1085.501	631.476	80.005	19.993	103.103	19.806	4.312	0.491
1086.001	631.792	80.004	19.993	103.103	19.803	4.512	0.529
1086.501	632.051	80.005	19.995	103.103	19.806	4.312	0.569
1087.001	632.306	80.004	19.993	103.107	19.803	4.507	0.544
1087.501	632.582	80.004	19.994	103.108	19.803	4.466	0.523
1088.001	632.822	80.004	19.993	103.111	19.803	4.475	0.524
1088.501	633.096	80.004	19.993	103.113	19.802	4.591	0.515
1089.000	633.343	80.005	19.994	103.113	19.803	4.492	0.517
1089.500	633.589	80.004	19.994	103.112	19.801	4.641	0.507
1090.000	633.898	80.004	19.993	103.110	19.800	4.679	0.524
1090.501	634.163	80.005	19.993	103.108	19.804	4.455	0.564
1091.001	634.446	80.005	19.994	103.109	19.804	4.427	0.561
1091.500	634.671	80.004	19.994	103.113	19.804	4.445	0.528
1092.000	634.978	80.005	19.994	103.113	19.801	4.649	0.520
1092.500	635.237	80.003	19.994	103.116	19.801	4.605	0.549
1093.000	635.514	80.003	19.993	103.114	19.803	4.491	0.551
1093.500	635.764	80.003	19.994	103.114	19.803	4.503	0.531
1094.000	636.029	80.004	19.994	103.112	19.801	4.661	0.521
1094.500	636.305	80.002	19.993	103.108	19.804	4.429	0.528
1095.001	636.564	80.005	19.993	103.105	19.803	4.479	0.538
1095.501	636.832	80.004	19.994	103.105	19.805	4.345	0.531
1096.000	637.076	80.005	19.994	103.108	19.803	4.462	0.520
1096.501	637.325	80.005	19.995	103.108	19.806	4.301	0.503
1097.001	637.590	80.005	19.994	103.109	19.803	4.520	0.504
1097.501	637.825	80.005	19.995	103.110	19.807	4.223	0.507
1098.001	638.089	80.003	19.995	103.113	19.805	4.321	0.499
1098.501	638.363	80.004	19.995	103.114	19.804	4.414	0.518
1099.000	638.603	80.004	19.995	103.116	19.803	4.464	0.526
1099.501	638.887	80.004	19.994	103.118	19.805	4.321	0.519
1100.001	639.162	80.004	19.995	103.120	19.803	4.477	0.541
1100.500	639.401	80.005	19.994	103.118	19.805	4.321	0.537
1101.001	639.716	80.004	19.995	103.116	19.805	4.340	0.534
1101.501	639.921	80.006	19.993	103.114	19.804	4.399	0.537
1102.000	640.196	80.005	19.995	103.110	19.805	4.342	0.500
1102.500	640.439	80.005	19.994	103.106	19.805	4.355	0.500
1103.000	640.712	80.005	19.994	103.105	19.808	4.171	0.518
1103.501	640.991	80.006	19.995	103.102	19.804	4.419	0.534
1104.001	641.236	80.005	19.994	103.100	19.802	4.544	0.538
1104.501	641.481	80.005	19.994	103.103	19.803	4.525	0.507
1105.001	641.794	80.006	19.994	103.108	19.803	4.527	0.524
1105.500	642.012	80.006	19.995	103.109	19.801	4.653	0.545
1106.000	642.266	80.006	19.995	103.110	19.803	4.480	0.502
1106.500	642.556	80.005	19.994	103.110	19.802	4.545	0.508
1107.000	642.805	80.004	19.994	103.111	19.804	4.445	0.541
1107.500	643.063	80.005	19.994	103.110	19.804	4.417	0.523
1108.000	643.321	80.004	19.995	103.109	19.806	4.286	0.512
1108.500	643.589	80.005	19.994	103.108	19.804	4.449	0.521
1109.001	643.815	80.005	19.994	103.108	19.803	4.512	0.510
1109.501	644.121	80.006	19.993	103.106	19.803	4.501	0.513
1110.000	644.378	80.006	19.995	103.105	19.801	4.600	0.547
1110.500	644.632	80.006	19.995	103.104	19.804	4.434	0.537
1111.000	644.920	80.006	19.994	103.104	19.804	4.455	0.526
1111.500	645.148	80.006	19.995	103.103	19.804	4.391	0.529
1112.000	645.458	80.006	19.993	103.106	19.804	4.414	0.527
1112.501	645.685	80.005	19.995	103.105	19.804	4.438	0.538
1113.001	645.958	80.006	19.994	103.106	19.804	4.428	0.518
1113.500	646.194	80.006	19.994	103.106	19.804	4.439	0.504
1114.000	646.482	80.005	19.995	103.105	19.806	4.308	0.516
1114.501	646.721	80.004	19.994	103.102	19.803	4.480	0.526
1115.001	646.987	80.005	19.994	103.105	19.801	4.608	0.516
1115.501	647.259	80.006	19.995	103.107	19.803	4.471	0.521
1116.001	647.504	80.005	19.996	103.105	19.803	4.501	0.528
1116.500	647.795	80.005	19.995	103.104	19.803	4.462	0.527
1117.000	648.049	80.005	19.994	103.102	19.806	4.297	0.540
1117.501	648.293	80.005	19.995	103.099	19.805	4.360	0.521
1118.001	648.549	80.005	19.995	103.094	19.807	4.191	0.499
1118.500	648.814	80.006	19.994	103.098	19.806	4.284	0.511
1119.000	649.065	80.005	19.995	103.099	19.809	4.076	0.519
1119.500	649.353	80.005	19.995	103.097	19.806	4.264	0.527
1120.000	649.576	80.006	19.995	103.096	19.809	4.088	0.525
1120.500	649.828	80.005	19.994	103.095	19.805	4.386	0.493
1121.000	650.106	80.004	19.996	103.092	19.807	4.186	0.503
1121.500	650.373	80.005	19.994	103.096	19.808	4.134	0.537
1122.000	650.642	80.005	19.995	103.103	19.808	4.134	0.540
1122.500	650.869	80.005	19.993	103.102	19.808	4.152	0.516
1123.001	651.154	80.003	19.995	103.104	19.808	4.123	0.504
1123.501	651.411	80.007	19.995	103.104	19.809	4.073	0.527
1124.001	651.672	80.005	19.994	103.100	19.810	4.041	0.530
1124.501	651.931	80.005	19.995	103.097	19.810	4.011	0.519
1125.000	652.172	80.005	19.994	103.096	19.808	4.171	0.510
1125.500	652.458	80.006	19.996	103.096	19.810	4.037	0.513
1126.001	652.704	80.005	19.995	103.096	19.808	4.180	0.530
1126.501	652.975	80.006	19.995	103.098	19.807	4.213	0.525
1127.000	653.217	80.006	19.995	103.095	19.808	4.145	0.514
1127.501	653.482	80.006	19.996	103.097	19.806	4.289	0.510
1128.001	653.736	80.006	19.995	103.097	19.806	4.307	0.514
1128.500	653.941	80.005	19.995	103.099	19.807	4.194	0.489
1129.001	654.234	80.007	19.994	103.100	19.808	4.155	0.478
1129.501	654.477	80.006	19.994	103.101	19.806	4.309	0.517
1130.000	654.779	80.007	19.994	103.106	19.810	3.983	0.541
1130.500	655.030	80.006	19.996	103.107	19.807	4.199	0.549
1131.000	655.305	80.006	19.995	103.105	19.807	4.240	0.539
1131.501	655.534	80.006	19.995	103.102	19.809	4.082	0.515
1132.001	655.796	80.007	19.994	103.104	19.809	4.081	0.498
1132.500	656.075	80.007	19.995	103.104	19.809	4.055	0.516
1133.000	656.358	80.008	19.995	103.106	19.810	4.004	0.551
1133.500	656.564	80.007	19.994	103.106	19.816	3.620	0.525
1134.000	656.834	80.008	19.995	103.110	19.809	4.112	0.483
1134.501	657.082	80.007	19.995	103.107	19.809	4.060	0.497
1135.001	657.385	80.007	19.995	103.104	19.807	4.250	0.534
1135.501	657.603	80.007	19.995	103.099	19.806	4.314	0.536
1136.001	657.850	80.006	19.995	103.102	19.812	3.867	0.493
1136.501	658.142	80.007	19.994	103.097	19.811	3.926	0.502
1137.001	658.354	80.007	19.995	103.095	19.809	4.104	0.521
1137.500	658.645	80.005	19.994	103.093	19.807	4.204	0.504
1138.000	658.893	80.007	19.994	103.092	19.808	4.150	0.521
1138.500	659.160	80.005	19.994	103.088	19.808	4.148	0.527
1139.000	659.382	80.006	19.994	103.087	19.808	4.124	0.502
1139.500	659.651	80.005	19.993	103.086	19.808	4.154	0.490
1140.000	659.867	80.004	19.994	103.086	19.809	4.085	0.488
1140.500	660.151	80.004	19.995	103.090	19.807	4.219	0.493
1141.000	660.350	80.004	19.994	103.095	19.806	4.291	0.492
1141.501	660.630	80.005	19.994	103.098	19.805	4.375	0.481
1142.001	660.956	80.004	19.995	103.105	19.807	4.246	0.542
1142.500	661.157	80.004	19.996	103.113	19.807	4.230	0.566
1143.000	661.403	80.005	19.995	103.116	19.804	4.437	0.487
1143.500	661.657	80.004	19.994	103.114	19.806	4.278	0.473
1144.001	661.984	80.004	19.994	103.113	19.808	4.135	0.541
1144.501	662.136	80.004	19.995	103.107	19.810	4.037	0.530
1145.001	662.471	80.005	19.993	103.102	19.808	4.126	0.483
1145.500	662.665	80.005	19.994	103.099	19.807	4.189	0.508
1146.000	662.954	80.002	19.994	103.100	19.808	4.174	0.506
1146.500	663.178	80.004	19.994	103.100	19.808	4.176	0.498
1147.000	663.690	80.003	19.994	103.104	19.805	4.356	0.624
1147.500	664.476	80.005	19.995	103.104	19.808	4.165	1.017
1148.001	663.787	80.003	19.994	103.101	19.807	4.243	0.697
1148.501	664.352	80.005	19.994	103.100	19.808	4.150	-0.014
1149.000	664.452	80.004	19.994	103.097	19.806	4.289	0.271
1149.500	664.475	80.004	19.994	103.094	19.807	4.226	0.394
1150.001	665.006	80.004	19.994	103.095	19.806	4.312	0.339
1150.501	665.298	80.004	19.994	103.099	19.806	4.261	0.688
1151.001	665.486	80.003	19.994	103.100	19.808	4.139	0.651
1151.501	665.707	80.005	19.994	103.099	19.808	4.124	0.444
1152.000	666.018	80.004	19.994	103.099	19.807	4.195	0.470
1152.500	666.196	80.004	19.994	103.097	19.811	3.970	0.511
1153.000	666.427	80.005	19.994	103.092	19.807	4.210	0.449
1153.500	666.764	80.003	19.993	103.091	19.808	4.124	0.489
1154.000	666.945	80.004	19.994	103.091	19.808	4.150	0.543
1154.500	667.228	80.004	19.995	103.090	19.807	4.239	0.491
1155.001	667.505	80.004	19.994	103.091	19.809	4.063	0.512
1155.501	667.716	80.004	19.994	103.092	19.808	4.154	0.524
1156.000	667.993	80.006	19.993	103.094	19.808	4.172	0.488
1156.500	668.194	80.005	19.994	103.093	19.805	4.350	0.483
1157.001	668.427	80.003	19.993	103.094	19.806	4.304	0.456
1157.501	668.683	80.004	19.994	103.093	19.804	4.421	0.462
1158.001	668.970	80.004	19.995	103.093	19.809	4.095	0.516
1158.500	669.195	80.005	19.996	103.091	19.806	4.317	0.527
1159.000	669.489	80.003	19.995	103.092	19.807	4.182	0.515
1159.500	669.740	80.004	19.994	103.093	19.806	4.254	0.532
1160.000	670.019	80.006	19.995	103.094	19.805	4.367	0.537
1160.500	670.224	80.004	19.995	103.094	19.805	4.386	0.507
1161.000	670.446	80.004	19.995	103.097	19.806	4.260	0.456
1161.500	670.755	80.004	19.994	103.097	19.806	4.284	0.479
1162.000	671.007	80.003	19.993	103.096	19.808	4.132	0.546
1162.500	671.218	80.005	19.994	103.096	19.808	4.158	0.512
1163.000	671.505	80.004	19.994	103.099	19.807	4.221	0.480
1163.501	671.675	80.004	19.995	103.095	19.808	4.135	0.477
1164.001	671.960	80.002	19.995	103.097	19.808	4.128	0.456
1164.500	672.206	80.004	19.994	103.098	19.806	4.306	0.493
1165.000	672.463	80.005	19.995	103.098	19.808	4.176	0.518
1165.500	672.738	80.004	19.995	103.096	19.808	4.145	0.518
1166.000	673.011	80.003	19.995	103.096	19.808	4.169	0.540
1166.501	673.238	80.005	19.994	103.094	19.806	4.297	0.524
1167.001	673.503	80.004	19.994	103.095	19.807	4.197	0.496
1167.500	673.744	80.005	19.995	103.096	19.807	4.215	0.499
1168.000	673.986	80.003	19.995	103.094	19.805	4.369	0.494
1168.500	674.253	80.004	19.994	103.095	19.811	3.956	0.496
1169.000	674.507	80.004	19.993	103.096	19.800	4.699	0.515
1169.500	674.777	80.005	19.994	103.093	19.808	4.161	0.522
1170.000	675.023	80.003	19.995	103.093	19.809	4.044	0.520
1170.501	675.239	80.003	19.994	103.094	19.806	4.254	0.489
1171.001	675.511	80.003	19.994	103.093	19.805	4.371	0.475
1171.501	675.752	80.004	19.995	103.093	19.805	4.374	0.500
1172.001	676.012	80.004	19.994	103.094	19.804	4.432	0.507
1172.501	676.270	80.004	19.994	103.093	19.803	4.511	0.510
1173.001	676.503	80.005	19.994	103.094	19.803	4.473	0.505
1173.501	676.789	80.005	19.994	103.094	19.803	4.508	0.505
1174.001	676.984	80.005	19.994	103.094	19.807	4.235	0.500
1174.501	677.226	80.004	19.995	103.094	19.808	4.150	0.459
1175.000	677.527	80.004	19.994	103.094	19.810	3.989	0.490
1175.500	677.771	80.004	19.993	103.094	19.806	4.300	0.544
1176.000	677.975	80.005	19.994	103.094	19.803	4.496	0.497
1176.500	678.250	80.005	19.995	103.094	19.806	4.278	0.463
1177.000	678.510	80.006	19.995	103.095	19.803	4.495	0.507
1177.501	678.791	80.004	19.995	103.095	19.805	4.358	0.538
1178.001	678.994	80.004	19.994	103.098	19.806	4.304	0.513
1178.500	679.270	80.005	19.994	103.100	19.804	4.430	0.482
1179.001	679.509	80.004	19.994	103.101	19.805	4.387	0.497
1179.501	679.786	80.004	19.994	103.100	19.806	4.263	0.515
1180.000	680.020	80.004	19.993	103.098	19.806	4.273	0.513
1180.500	680.262	80.004	19.994	103.095	19.804	4.425	0.494
1181.000	680.525	80.005	19.994	103.092	19.805	4.356	0.491
1181.500	680.773	80.004	19.994	103.090	19.804	4.439	0.508
1182.001	681.006	80.003	19.994	103.090	19.805	4.328	0.495
1182.501	681.119	80.004	19.994	103.090	19.805	4.346	0.414
1183.000	681.022	80.005	19.993	103.090	19.806	4.315	0.181
1183.500	681.703	80.006	19.993	103.091	19.806	4.315	0.300
1184.000	682.108	80.005	19.993	103.091	19.802	4.593	0.835
1184.500	682.207	80.007	19.995	103.091	19.805	4.359	0.795
1185.001	682.484	80.006	19.994	103.091	19.806	4.313	0.440
1185.501	682.703	80.005	19.993	103.091	19.803	4.517	0.436
1186.000	682.974	80.005	19.994	103.089	19.806	4.283	0.493
1186.500	683.187	80.005	19.994	103.089	19.805	4.371	0.486
1187.000	683.458	80.005	19.994	103.088	19.804	4.447	0.484
1187.500	683.699	80.005	19.995	103.087	19.803	4.489	0.498
1188.000	683.977	80.006	19.994	103.087	19.806	4.272	0.516
1188.500	684.209	80.006	19.995	103.088	19.808	4.174	0.514
1189.000	684.482	80.007	19.994	103.090	19.808	4.159	0.508
1189.500	684.698	80.008	19.995	103.093	19.807	4.232	0.497
1190.000	684.934	80.006	19.995	103.095	19.805	4.378	0.471
1190.501	685.183	80.006	19.994	103.094	19.805	4.371	0.468
1191.001	685.454	80.006	19.994	103.095	19.806	4.293	0.502
1191.500	685.706	80.006	19.994	103.095	19.804	4.437	0.522
1192.000	685.951	80.006	19.995	103.093	19.806	4.293	0.510
1192.501	686.211	80.004	19.994	103.092	19.807	4.202	0.501
1193.001	686.417	80.005	19.995	103.092	19.806	4.270	0.485
1193.501	686.702	80.005	19.995	103.091	19.807	4.248	0.478
1194.000	686.944	80.006	19.995	103.090	19.805	4.389	0.509
1194.500	687.209	80.004	19.994	103.088	19.809	4.072	0.517
1195.000	687.420	80.007	19.995	103.088	19.808	4.141	0.492
1195.500	687.686	80.004	19.995	103.088	19.808	4.135	0.477
1196.000	687.943	80.006	19.995	103.088	19.805	4.356	0.500
1196.500	688.169	80.006	19.994	103.088	19.807	4.206	0.503
1197.000	688.450	80.006	19.995	103.089	19.807	4.204	0.495
1197.500	688.660	80.006	19.995	103.089	19.807	4.183	0.499
1198.000	688.911	80.005	19.994	103.090	19.806	4.311	0.476
1198.500	689.156	80.005	19.995	103.089	19.806	4.283	0.478
1199.000	689.465	80.006	19.995	103.089	19.807	4.222	0.525
1199.500	689.797	80.006	19.994	103.089	19.809	4.109	0.598
1200.000	689.954	80.004	19.994	103.089	19.807	4.246	0.565
1200.500	690.187	80.004	19.994	103.090	19.808	4.133	0.439
1201.000	690.452	80.006	19.995	103.089	19.807	4.187	0.444
1201.501	690.721	80.004	19.994	103.089	19.810	4.041	0.515
1202.001	690.985	80.006	19.994	103.088	19.808	4.118	0.534
1202.500	691.225	80.005	19.995	103.089	19.806	4.252	0.519
1203.000	691.492	80.006	19.996	103.087	19.807	4.226	0.506
1203.500	691.760	80.005	19.996	103.088	19.808	4.113	0.520
1204.000	691.988	80.005	19.996	103.088	19.811	3.931	0.515
1204.501	692.232	80.006	19.994	103.090	19.810	4.011	0.484
1205.001	692.493	80.005	19.995	103.090	19.809	4.081	0.488
1205.500	692.761	80.006	19.995	103.091	19.808	4.163	0.517
1206.000	693.018	80.005	19.994	103.092	19.810	4.039	0.527
1206.501	693.262	80.005	19.995	103.094	19.809	4.109	0.513
1207.001	693.520	80.005	19.994	103.092	19.808	4.167	0.501
1207.501	693.810	80.006	19.994	103.090	19.808	4.113	0.525
1208.001	694.044	80.006	19.994	103.089	19.806	4.290	0.536
1208.500	694.318	80.006	19.994	103.088	19.806	4.304	0.516
1209.000	694.552	80.007	19.994	103.087	19.806	4.278	0.508
1209.500	694.825	80.007	19.995	103.088	19.811	3.909	0.508
1210.000	695.080	80.007	19.995	103.089	19.809	4.078	0.518
1210.500	695.348	80.006	19.994	103.089	19.804	4.430	0.525
1211.000	695.589	80.007	19.995	103.089	19.808	4.121	0.516
1211.500	695.853	80.007	19.993	103.089	19.806	4.289	0.507
1212.000	696.101	80.007	19.995	103.089	19.805	4.362	0.509
1212.500	696.360	80.006	19.994	103.088	19.806	4.280	0.510
1213.000	696.631	80.006	19.993	103.090	19.805	4.347	0.518
1213.500	696.864	80.006	19.994	103.090	19.805	4.369	0.517
1214.000	697.150	80.005	19.994	103.090	19.804	4.421	0.512
1214.500	697.395	80.006	19.994	103.090	19.804	4.406	0.526
1215.000	697.689	80.006	19.995	103.090	19.807	4.202	0.535
1215.500	697.956	80.007	19.995	103.089	19.806	4.298	0.550
1216.000	698.160	80.006	19.994	103.089	19.808	4.128	0.515
1216.500	698.445	80.007	19.994	103.089	19.804	4.428	0.480
1217.000	698.696	80.007	19.993	103.091	19.808	4.154	0.513
1217.500	698.951	80.004	19.996	103.095	19.806	4.298	0.521
1218.000	699.214	80.005	19.995	103.102	19.808	4.180	0.512
1218.500	699.484	80.005	19.993	103.103	19.805	4.330	0.525
1219.000	699.745	80.005	19.995	103.103	19.805	4.334	0.532
1219.500	699.976	80.005	19.995	103.101	19.806	4.259	0.512
1220.001	700.204	80.005	19.995	103.098	19.805	4.352	0.475
1220.501	700.493	80.004	19.996	103.093	19.806	4.269	0.488
1221.000	700.716	80.004	19.995	103.095	19.807	4.250	0.515
1221.500	700.977	80.004	19.994	103.099	19.806	4.299	0.498
1222.001	701.222	80.004	19.995	103.101	19.805	4.323	0.495
1222.501	701.488	80.004	19.995	103.101	19.807	4.219	0.509
1223.001	701.696	80.004	19.996	103.099	19.809	4.082	0.493
1223.500	702.005	80.003	19.995	103.099	19.806	4.308	0.496
1224.000	702.253	80.004	19.995	103.096	19.810	3.980	0.537
1224.500	702.480	80.004	19.995	103.095	19.809	4.107	0.516
1225.000	702.751	80.002	19.995	103.094	19.806	4.271	0.486
1225.500	703.004	80.004	19.995	103.094	19.808	4.124	0.511
1226.000	703.260	80.003	19.996	103.092	19.805	4.354	0.517
1226.500	703.516	80.004	19.995	103.090	19.805	4.389	0.511
1227.000	703.768	80.003	19.995	103.089	19.804	4.404	0.510
1227.500	704.009	80.003	19.996	103.090	19.805	4.358	0.500
1228.000	704.227	80.004	19.994	103.090	19.805	4.384	0.475
1228.500	704.523	80.003	19.995	103.090	19.807	4.226	0.487
1229.000	704.789	80.003	19.996	103.091	19.806	4.256	0.538
1229.500	705.023	80.002	19.995	103.092	19.803	4.528	0.531
1230.000	705.298	80.003	19.995	103.093	19.804	4.443	0.505
1230.500	705.536	80.003	19.996	103.094	19.805	4.343	0.511
1231.000	705.802	80.003	19.995	103.097	19.801	4.606	0.509
1231.500	706.038	80.003	19.996	103.098	19.806	4.306	0.503
1232.000	706.290	80.003	19.995	103.098	19.805	4.358	0.495
1232.500	706.578	80.004	19.994	103.098	19.804	4.426	0.514
1233.000	706.802	80.004	19.995	103.098	19.806	4.283	0.525
1233.500	707.062	80.003	19.996	103.095	19.805	4.365	0.498
1234.001	707.365	80.004	19.995	103.093	19.803	4.472	0.524
1234.501	707.596	80.003	19.993	103.093	19.806	4.272	0.549
1235.000	707.834	80.005	19.994	103.092	19.804	4.435	0.502
1235.500	708.114	80.005	19.994	103.091	19.806	4.317	0.493
1236.000	708.376	80.004	19.995	103.091	19.802	4.558	0.529
1236.501	708.604	80.004	19.995	103.092	19.803	4.500	0.516
1237.001	708.865	80.005	19.993	103.091	19.805	4.380	0.490
1237.501	709.101	80.004	19.994	103.091	19.804	4.450	0.493
1238.000	709.375	80.003	19.994	103.092	19.804	4.437	0.504
1238.500	709.610	80.005	19.994	103.092	19.806	4.309	0.510
1239.000	709.841	80.004	19.994	103.092	19.806	4.285	0.488
1239.500	710.114	80.004	19.993	103.091	19.808	4.146	0.485
1240.000	710.377	80.005	19.993	103.091	19.806	4.307	0.520
1240.500	710.598	80.004	19.995	103.090	19.804	4.437	0.510
1241.000	710.860	80.004	19.993	103.090	19.804	4.443	0.483
1241.500	711.092	80.003	19.994	103.089	19.803	4.508	0.489
1242.000	711.328	80.004	19.994	103.089	19.804	4.402	0.481
1242.500	711.581	80.003	19.995	103.088	19.801	4.658	0.478
1243.001	711.854	80.005	19.994	103.088	19.805	4.326	0.507
1243.501	712.084	80.004	19.994	103.088	19.802	4.539	0.515
1244.001	712.337	80.005	19.995	103.089	19.801	4.611	0.493
1244.501	712.590	80.004	19.995	103.088	19.797	4.895	0.494
1245.000	712.824	80.005	19.994	103.087	19.802	4.537	0.496
1245.501	713.081	80.005	19.995	103.087	19.800	4.695	0.489
1246.001	713.329	80.004	19.995	103.087	19.801	4.665	0.498
1246.500	713.587	80.005	19.995	103.086	19.801	4.602	0.505
1247.000	713.872	80.004	19.995	103.086	19.805	4.357	0.524
1247.500	714.070	80.004	19.995	103.087	19.803	4.496	0.513
1248.001	714.312	80.005	19.994	103.087	19.802	4.547	0.461
1248.501	714.557	80.004	19.995	103.088	19.801	4.641	0.463
1249.001	714.830	80.005	19.995	103.089	19.804	4.435	0.502
1249.501	715.095	80.005	19.995	103.089	19.804	4.393	0.528
1250.001	715.345	80.004	19.996	103.089	19.805	4.376	0.526
1250.501	715.552	80.004	19.995	103.088	19.804	4.419	0.486
1251.000	715.827	80.004	19.994	103.089	19.806	4.315	0.470
1251.500	716.098	80.005	19.995	103.089	19.802	4.586	0.514
1252.000	716.342	80.003	19.994	103.089	19.804	4.432	0.530
1252.500	716.570	80.004	19.994	103.089	19.804	4.432	0.493
1253.000	716.826	80.005	19.994	103.089	19.805	4.374	0.478
1253.500	717.054	80.003	19.994	103.087	19.799	4.773	0.484
1254.001	717.336	80.005	19.994	103.087	19.803	4.526	0.497
1254.501	717.555	80.004	19.995	103.087	19.807	4.246	0.505
1255.000	717.786	80.005	19.994	103.088	19.800	4.734	0.475
1255.501	718.054	80.004	19.994	103.088	19.801	4.617	0.475
1256.001	718.306	80.004	19.994	103.088	19.804	4.437	0.509
1256.500	718.498	80.004	19.994	103.087	19.804	4.398	0.482
1257.000	718.793	80.004	19.994	103.087	19.802	4.532	0.466
1257.500	719.046	80.004	19.994	103.087	19.802	4.582	0.517
1258.000	719.254	80.005	19.994	103.087	19.802	4.552	0.504
1258.500	719.516	80.004	19.994	103.087	19.799	4.739	0.466
1259.000	719.772	80.004	19.993	103.088	19.800	4.691	0.494
1259.500	719.990	80.003	19.994	103.088	19.802	4.563	0.496
1260.000	720.258	80.005	19.995	103.088	19.804	4.408	0.480
1260.500	720.478	80.004	19.995	103.088	19.801	4.610	0.487
1261.000	720.791	80.006	19.994	103.088	19.800	4.726	0.510
1261.500	721.001	80.005	19.993	103.088	19.803	4.487	0.528
1262.000	721.261	80.004	19.994	103.091	19.802	4.547	0.496
1262.500	721.512	80.005	19.995	103.090	19.800	4.732	0.491
1263.000	721.773	80.005	19.994	103.091	19.802	4.539	0.512
1263.501	722.016	80.005	19.996	103.092	19.803	4.495	0.508
1264.001	722.266	80.005	19.994	103.093	19.802	4.569	0.498
1264.501	722.511	80.007	19.995	103.092	19.802	4.534	0.494
1265.000	722.723	80.006	19.995	103.093	19.802	4.572	0.476
1265.500	722.990	80.006	19.994	103.093	19.800	4.687	0.468
1266.000	723.233	80.006	19.995	103.091	19.804	4.445	0.494
1266.500	723.506	80.006	19.995	103.090	19.802	4.569	0.513
1267.000	723.784	80.005	19.994	103.089	19.801	4.637	0.534
1267.500	723.960	80.006	19.993	103.089	19.802	4.599	0.503
1268.001	724.170	80.006	19.995	103.088	19.801	4.638	0.420
1268.501	724.500	80.007	19.994	103.088	19.801	4.638	0.463
1269.001	724.731	80.006	19.994	103.088	19.799	4.762	0.550
1269.501	724.993	80.006	19.995	103.088	19.801	4.610	0.527
1270.001	725.237	80.006	19.994	103.088	19.805	4.384	0.500
1270.501	725.441	80.008	19.994	103.088	19.803	4.480	0.477
1271.001	725.721	80.006	19.994	103.089	19.804	4.450	0.466
1271.501	725.986	80.006	19.993	103.088	19.803	4.521	0.515
1272.001	726.205	80.009	19.994	103.089	19.804	4.419	0.515
1272.500	726.473	80.006	19.993	103.088	19.803	4.513	0.486
1273.000	726.694	80.007	19.994	103.088	19.803	4.484	0.488
1273.500	726.941	80.006	19.994	103.088	19.802	4.558	0.478
1274.000	727.178	80.006	19.993	103.089	19.802	4.530	0.476
1274.500	727.447	80.005	19.994	103.088	19.803	4.487	0.495
1275.001	727.679	80.006	19.994	103.088	19.805	4.367	0.504
1275.501	727.941	80.006	19.994	103.088	19.801	4.630	0.498
1276.000	728.193	80.006	19.995	103.088	19.801	4.623	0.504
1276.500	728.455	80.006	19.995	103.088	19.803	4.508	0.514
1277.000	728.690	80.006	19.994	103.088	19.801	4.639	0.506
1277.501	728.938	80.006	19.996	103.089	19.803	4.482	0.490
1278.001	729.210	80.006	19.996	103.089	19.801	4.608	0.501
1278.500	729.457	80.005	19.994	103.090	19.801	4.614	0.520
1279.000	729.694	80.005	19.994	103.091	19.800	4.699	0.502
1279.500	729.934	80.005	19.994	103.092	19.801	4.605	0.480
1280.000	730.192	80.005	19.995	103.091	19.804	4.427	0.488
1280.500	730.479	80.004	19.994	103.091	19.804	4.414	0.522
1281.000	730.703	80.006	19.994	103.091	19.802	4.532	0.527
1281.500	730.943	80.006	19.995	103.090	19.801	4.652	0.487
1282.001	731.202	80.005	19.994	103.090	19.802	4.573	0.482
1282.501	731.454	80.005	19.994	103.091	19.803	4.478	0.505
1283.000	731.720	80.005	19.994	103.091	19.803	4.489	0.514
1283.500	731.970	80.005	19.994	103.090	19.805	4.332	0.517
1284.000	732.199	80.006	19.994	103.090	19.802	4.598	0.497
1284.500	732.484	80.005	19.994	103.090	19.805	4.389	0.496
1285.001	732.704	80.005	19.995	103.089	19.801	4.611	0.510
1285.501	732.969	80.006	19.994	103.089	19.803	4.478	0.496
1286.001	733.248	80.006	19.995	103.089	19.804	4.424	0.514
1286.500	733.490	80.006	19.995	103.090	19.803	4.500	0.532
1287.000	733.725	80.005	19.995	103.091	19.804	4.448	0.499
1287.500	733.999	80.005	19.995	103.091	19.802	4.532	0.493
1288.000	734.253	80.005	19.995	103.091	19.804	4.437	0.518
1288.500	734.500	80.006	19.994	103.093	19.804	4.395	0.514
1289.000	734.741	80.005	19.995	103.096	19.805	4.367	0.494
1289.500	734.987	80.006	19.995	103.098	19.803	4.498	0.488
1290.001	735.232	80.006	19.995	103.102	19.806	4.280	0.489
1290.501	735.506	80.006	19.995	103.103	19.806	4.261	0.505
1291.000	735.725	80.005	19.994	103.102	19.805	4.350	0.506
1291.500	735.958	80.006	19.995	103.098	19.804	4.422	0.472
1292.000	736.230	80.005	19.994	103.096	19.806	4.319	0.478
1292.500	736.455	80.006	19.994	103.092	19.803	4.491	0.501
1293.000	736.724	80.006	19.994	103.091	19.805	4.350	0.496
1293.500	736.953	80.006	19.994	103.090	19.804	4.432	0.496
1294.001	737.214	80.006	19.994	103.089	19.804	4.393	0.494
1294.501	737.463	80.007	19.994	103.089	19.803	4.502	0.500
1295.001	737.709	80.006	19.993	103.089	19.804	4.404	0.502
1295.501	737.996	80.007	19.994	103.089	19.802	4.571	0.514
1296.000	738.241	80.006	19.994	103.089	19.802	4.587	0.533
1296.500	738.492	80.007	19.994	103.089	19.802	4.548	0.514
1297.000	738.758	80.006	19.994	103.090	19.802	4.593	0.506
1297.500	738.978	80.007	19.994	103.092	19.802	4.561	0.501
1298.000	739.267	80.007	19.995	103.092	19.801	4.606	0.498
1298.500	739.480	80.006	19.994	103.092	19.800	4.700	0.506
1299.000	739.733	80.008	19.995	103.092	19.800	4.673	0.484
1299.500	739.978	80.005	19.994	103.091	19.801	4.647	0.482
1300.001	740.286	80.006	19.994	103.090	19.802	4.595	0.526
1300.501	740.514	80.005	19.994	103.090	19.799	4.776	0.544
1301.001	740.725	80.005	19.994	103.091	19.800	4.684	0.487
1301.501	741.016	80.004	19.995	103.090	19.802	4.567	0.471
1302.000	741.282	80.005	19.994	103.090	19.799	4.762	0.529
1302.501	741.541	80.004	19.993	103.090	19.800	4.684	0.541
1303.001	741.804	80.005	19.994	103.090	19.803	4.471	0.524
1303.500	742.034	80.003	19.995	103.089	19.802	4.585	0.507
1304.000	742.288	80.005	19.995	103.090	19.802	4.539	0.488
1304.500	742.565	80.004	19.995	103.090	19.804	4.428	0.508
1305.000	742.839	80.004	19.995	103.090	19.802	4.586	0.542
1305.500	743.039	80.004	19.994	103.090	19.803	4.513	0.512
1306.000	743.320	80.005	19.994	103.090	19.799	4.801	0.477
