Sample ID:	C:\MCC\MCC Cal\Test\PUF_82C_MCC_30K_min_220308_R2.txt
Sample Weight (mg):	4.28
Heating Rate (C/s):	0.5
Combustor Temp (C):	900
N2 Flow Rate (cc/min):	80
O2 Flow Rate (cc/min):	20
Calibration File:	C:\MCC\MCC Cal\Coeff1 JN10440_30_210304.txt.txt
T Correction Coefficients:	0	1.024463	0
Time Shift (s):	14
*
Time (s)	Temperature (C)	N2 flow rate (cc/min)	O2 flow rate (cc/min)	Flow Rate (cc/min)	Oxygen (%)	HRR (W/g)	Heating rate (C/s)
0.000	107.370	80.004	19.995	103.669	19.869	0.121	0.031
0.500	107.326	80.005	19.995	103.670	19.869	0.142	0.026
1.000	107.308	80.005	19.996	103.671	19.866	0.368	-0.034
1.500	107.312	80.006	19.994	103.674	19.873	-0.148	-0.038
2.000	107.237	80.006	19.994	103.676	19.868	0.255	-0.043
2.500	107.310	80.006	19.992	103.676	19.869	0.156	-0.036
3.000	107.330	80.006	19.994	103.675	19.869	0.162	0.046
3.500	107.286	80.005	19.994	103.675	19.868	0.218	0.034
4.000	107.371	80.005	19.994	103.676	19.866	0.382	0.008
4.500	107.344	80.005	19.994	103.678	19.866	0.368	0.049
5.001	107.328	80.006	19.994	103.678	19.868	0.249	0.008
5.500	107.324	80.007	19.994	103.681	19.867	0.288	-0.031
6.000	107.334	80.005	19.994	103.685	19.860	0.816	-0.007
6.500	107.322	80.006	19.993	103.691	19.864	0.549	0.002
7.000	107.346	80.007	19.995	103.696	19.861	0.767	0.005
7.500	107.306	80.006	19.995	103.703	19.860	0.793	-0.002
8.000	107.366	80.006	19.994	103.708	19.861	0.771	0.002
8.500	107.343	80.008	19.994	103.711	19.861	0.726	0.029
9.000	107.335	80.007	19.993	103.712	19.860	0.808	0.003
9.500	107.389	80.006	19.994	103.714	19.855	1.187	0.007
10.000	107.379	80.007	19.994	103.713	19.857	1.024	0.045
10.500	107.391	80.007	19.993	103.713	19.856	1.125	0.023
11.000	107.382	80.007	19.994	103.717	19.856	1.133	0.003
11.500	107.371	80.006	19.994	103.719	19.856	1.162	-0.009
12.000	107.375	80.007	19.994	103.719	19.854	1.253	-0.014
12.500	107.394	80.006	19.994	103.723	19.854	1.317	0.008
13.001	107.396	80.007	19.994	103.729	19.855	1.224	0.022
13.501	107.403	80.007	19.993	103.735	19.853	1.327	0.015
14.001	107.407	80.006	19.993	103.743	19.852	1.403	0.010
14.501	107.435	80.006	19.994	103.753	19.850	1.609	0.021
15.001	107.464	80.006	19.994	103.764	19.850	1.621	0.044
15.501	107.463	80.007	19.994	103.776	19.848	1.767	0.042
16.000	107.520	80.008	19.993	103.780	19.848	1.743	0.042
16.500	107.494	80.006	19.994	103.778	19.845	1.950	0.044
17.000	107.566	80.007	19.993	103.778	19.841	2.302	0.039
17.500	107.577	80.007	19.993	103.776	19.842	2.191	0.064
18.000	107.588	80.008	19.994	103.777	19.842	2.224	0.052
18.500	107.646	80.007	19.993	103.786	19.838	2.477	0.045
19.000	107.684	80.006	19.994	103.806	19.835	2.757	0.082
19.500	107.650	80.006	19.993	103.826	19.837	2.541	0.051
20.000	107.710	80.006	19.993	103.839	19.834	2.759	0.015
20.501	107.732	80.006	19.994	103.846	19.834	2.790	0.054
21.000	107.759	80.006	19.994	103.852	19.835	2.749	0.066
21.500	107.754	80.006	19.994	103.855	19.833	2.851	0.036
22.000	107.829	80.006	19.992	103.856	19.832	2.932	0.046
22.500	107.873	80.007	19.995	103.860	19.833	2.907	0.094
23.000	107.936	80.005	19.995	103.867	19.833	2.901	0.113
23.500	107.994	80.007	19.995	103.870	19.832	2.922	0.114
24.000	108.002	80.007	19.993	103.870	19.832	2.971	0.093
24.500	108.078	80.007	19.995	103.870	19.832	2.982	0.075
25.000	108.099	80.006	19.994	103.870	19.833	2.871	0.091
25.500	108.183	80.007	19.994	103.870	19.832	2.978	0.101
26.000	108.247	80.007	19.995	103.867	19.833	2.896	0.127
26.500	108.300	80.007	19.995	103.867	19.830	3.132	0.133
27.000	108.381	80.006	19.994	103.867	19.831	3.013	0.126
27.500	108.418	80.007	19.993	103.867	19.832	2.965	0.126
28.000	108.497	80.008	19.994	103.867	19.829	3.197	0.117
28.500	108.593	80.006	19.994	103.867	19.827	3.354	0.145
29.000	108.654	80.007	19.994	103.866	19.828	3.286	0.166
29.500	108.695	80.005	19.995	103.865	19.828	3.255	0.130
30.000	108.800	80.009	19.993	103.866	19.831	3.033	0.124
30.500	108.882	80.008	19.994	103.866	19.829	3.186	0.167
31.000	108.905	80.008	19.994	103.866	19.831	3.005	0.146
31.500	109.038	80.007	19.994	103.867	19.827	3.295	0.130
32.001	109.074	80.007	19.994	103.866	19.826	3.406	0.163
32.501	109.171	80.007	19.994	103.866	19.827	3.357	0.151
33.000	109.228	80.007	19.994	103.867	19.828	3.248	0.143
33.500	109.312	80.007	19.993	103.869	19.828	3.276	0.147
34.000	109.385	80.007	19.992	103.873	19.828	3.256	0.149
34.500	109.512	80.008	19.993	103.880	19.824	3.589	0.178
35.000	109.569	80.008	19.994	103.887	19.820	3.836	0.192
35.500	109.667	80.008	19.993	103.894	19.825	3.453	0.170
36.000	109.782	80.007	19.994	103.900	19.823	3.608	0.184
36.500	109.888	80.008	19.994	103.904	19.827	3.363	0.217
37.000	109.972	80.008	19.994	103.904	19.825	3.503	0.206
37.500	110.072	80.007	19.994	103.901	19.825	3.476	0.188
38.000	110.164	80.009	19.994	103.896	19.821	3.771	0.188
38.500	110.243	80.009	19.994	103.890	19.824	3.586	0.181
39.000	110.379	80.009	19.993	103.882	19.820	3.862	0.192
39.500	110.491	80.007	19.994	103.877	19.822	3.687	0.231
40.001	110.617	80.010	19.994	103.877	19.824	3.580	0.243
40.501	110.713	80.009	19.994	103.881	19.820	3.888	0.230
41.000	110.822	80.009	19.994	103.886	19.821	3.794	0.213
41.500	110.915	80.007	19.994	103.894	19.821	3.806	0.204
42.000	111.047	80.008	19.995	103.898	19.823	3.635	0.214
42.500	111.121	80.008	19.994	103.901	19.820	3.858	0.216
43.000	111.240	80.007	19.994	103.902	19.822	3.701	0.200
43.500	111.384	80.007	19.995	103.903	19.820	3.889	0.228
44.000	111.496	80.007	19.995	103.903	19.818	3.987	0.259
44.500	111.612	80.007	19.994	103.904	19.818	4.006	0.242
45.000	111.748	80.005	19.994	103.904	19.818	3.997	0.240
45.500	111.834	80.006	19.994	103.905	19.823	3.629	0.237
46.000	112.010	80.008	19.994	103.905	19.818	4.008	0.241
46.500	112.081	80.007	19.994	103.905	19.816	4.177	0.254
47.000	112.249	80.009	19.993	103.906	19.819	3.915	0.243
47.500	112.376	80.007	19.994	103.910	19.818	4.012	0.267
48.000	112.510	80.008	19.993	103.911	19.819	3.964	0.278
48.501	112.639	80.007	19.992	103.916	19.820	3.878	0.262
49.001	112.720	80.006	19.993	103.922	19.818	4.026	0.237
49.500	112.903	80.007	19.995	103.924	19.817	4.051	0.238
50.000	113.030	80.008	19.994	103.922	19.815	4.267	0.288
50.500	113.198	80.008	19.994	103.925	19.818	3.975	0.303
51.000	113.352	80.007	19.993	103.924	19.818	3.993	0.308
51.500	113.441	80.004	19.994	103.925	19.817	4.109	0.282
52.000	113.570	80.005	19.993	103.930	19.819	3.946	0.230
52.500	113.749	80.007	19.993	103.932	19.816	4.183	0.263
53.000	113.943	80.006	19.994	103.933	19.814	4.334	0.340
53.500	114.030	80.006	19.994	103.935	19.821	3.753	0.327
54.000	114.190	80.006	19.993	103.935	19.815	4.247	0.264
54.500	114.337	80.007	19.994	103.930	19.814	4.299	0.277
55.000	114.525	80.005	19.993	103.927	19.812	4.445	0.321
55.500	114.593	80.006	19.993	103.924	19.813	4.371	0.296
56.000	114.770	80.004	19.994	103.924	19.814	4.315	0.250
56.500	114.931	80.006	19.993	103.925	19.813	4.399	0.291
57.000	115.090	80.007	19.993	103.924	19.815	4.255	0.329
57.501	115.258	80.005	19.994	103.924	19.817	4.094	0.324
58.001	115.394	80.006	19.993	103.924	19.812	4.453	0.316
58.500	115.588	80.006	19.993	103.925	19.820	3.887	0.317
59.000	115.731	80.006	19.993	103.922	19.814	4.278	0.333
59.501	115.879	80.005	19.993	103.922	19.813	4.358	0.314
60.001	116.050	80.006	19.993	103.922	19.812	4.490	0.305
60.500	116.222	80.006	19.994	103.924	19.813	4.369	0.331
61.000	116.372	80.005	19.993	103.923	19.812	4.480	0.332
61.500	116.556	80.008	19.993	103.922	19.812	4.468	0.327
62.000	116.713	80.007	19.993	103.926	19.815	4.274	0.337
62.500	116.896	80.006	19.993	103.930	19.811	4.567	0.341
63.000	117.066	80.007	19.994	103.933	19.814	4.289	0.347
63.501	117.190	80.006	19.994	103.936	19.815	4.260	0.323
64.001	117.371	80.005	19.994	103.938	19.815	4.215	0.299
64.500	117.561	80.006	19.993	103.940	19.814	4.311	0.338
65.000	117.731	80.006	19.993	103.943	19.813	4.390	0.366
65.500	117.914	80.006	19.993	103.945	19.811	4.536	0.357
66.000	118.094	80.007	19.993	103.944	19.814	4.299	0.358
66.500	118.263	80.004	19.993	103.945	19.812	4.427	0.356
67.001	118.469	80.005	19.992	103.941	19.816	4.138	0.362
67.501	118.624	80.006	19.993	103.934	19.815	4.241	0.368
68.001	118.822	80.006	19.993	103.929	19.813	4.383	0.357
68.500	118.971	80.006	19.995	103.929	19.810	4.599	0.350
69.000	119.125	80.004	19.993	103.928	19.809	4.692	0.325
69.500	119.321	80.006	19.993	103.931	19.811	4.517	0.327
70.000	119.490	80.005	19.994	103.937	19.812	4.499	0.357
70.500	119.683	80.005	19.994	103.941	19.810	4.647	0.363
71.000	119.856	80.004	19.993	103.943	19.809	4.703	0.364
71.501	120.038	80.005	19.993	103.945	19.809	4.661	0.361
72.001	120.227	80.006	19.993	103.946	19.811	4.552	0.363
72.501	120.442	80.005	19.993	103.947	19.812	4.435	0.387
73.001	120.636	80.006	19.993	103.947	19.811	4.509	0.406
73.501	120.829	80.005	19.993	103.947	19.811	4.532	0.398
74.000	121.044	80.005	19.994	103.947	19.812	4.447	0.398
74.500	121.193	80.005	19.993	103.948	19.809	4.723	0.386
75.000	121.389	80.004	19.992	103.947	19.811	4.503	0.355
75.500	121.610	80.006	19.993	103.948	19.814	4.307	0.381
76.000	121.801	80.004	19.994	103.948	19.812	4.433	0.414
76.500	121.989	80.005	19.994	103.948	19.812	4.435	0.396
77.000	122.159	80.005	19.993	103.949	19.807	4.820	0.369
77.500	122.408	80.006	19.993	103.949	19.809	4.657	0.388
78.000	122.574	80.006	19.993	103.943	19.810	4.603	0.417
78.500	122.794	80.005	19.993	103.940	19.814	4.348	0.401
79.000	122.981	80.005	19.993	103.939	19.811	4.566	0.396
79.501	123.229	80.004	19.993	103.939	19.809	4.725	0.421
80.001	123.401	80.005	19.993	103.940	19.812	4.451	0.428
80.500	123.587	80.006	19.993	103.946	19.808	4.772	0.390
81.000	123.812	80.006	19.994	103.948	19.812	4.478	0.385
81.500	123.988	80.006	19.993	103.949	19.812	4.490	0.406
82.001	124.216	80.004	19.992	103.949	19.811	4.525	0.403
82.501	124.380	80.004	19.994	103.948	19.814	4.334	0.398
83.001	124.578	80.006	19.994	103.948	19.813	4.377	0.376
83.500	124.815	80.004	19.995	103.949	19.812	4.441	0.398
84.000	125.014	80.005	19.993	103.949	19.812	4.451	0.436
84.500	125.208	80.008	19.993	103.949	19.812	4.445	0.415
85.000	125.453	80.004	19.993	103.948	19.813	4.385	0.416
85.500	125.673	80.007	19.993	103.948	19.815	4.237	0.452
86.000	125.878	80.006	19.993	103.947	19.815	4.264	0.445
86.500	126.091	80.007	19.994	103.946	19.814	4.303	0.421
87.000	126.311	80.006	19.993	103.943	19.813	4.420	0.425
87.500	126.505	80.008	19.992	103.942	19.811	4.548	0.424
88.000	126.738	80.006	19.993	103.941	19.811	4.541	0.421
88.501	126.940	80.007	19.993	103.942	19.811	4.572	0.430
89.001	127.135	80.007	19.992	103.941	19.812	4.484	0.416
89.500	127.351	80.006	19.993	103.943	19.813	4.414	0.404
90.000	127.578	80.007	19.993	103.944	19.814	4.299	0.427
90.501	127.786	80.007	19.993	103.945	19.810	4.647	0.439
91.001	128.011	80.007	19.993	103.945	19.812	4.501	0.434
91.501	128.238	80.007	19.993	103.946	19.808	4.737	0.442
92.001	128.455	80.007	19.993	103.946	19.811	4.542	0.448
92.501	128.722	80.007	19.993	103.946	19.811	4.538	0.464
93.001	128.901	80.007	19.993	103.945	19.812	4.496	0.465
93.501	129.123	80.008	19.993	103.945	19.809	4.657	0.423
94.000	129.364	80.007	19.994	103.945	19.811	4.527	0.432
94.501	129.596	80.006	19.994	103.944	19.814	4.311	0.468
95.001	129.827	80.007	19.992	103.943	19.812	4.428	0.468
95.500	130.057	80.009	19.993	103.943	19.815	4.222	0.462
96.000	130.299	80.007	19.994	103.944	19.813	4.377	0.467
96.500	130.533	80.008	19.994	103.943	19.812	4.461	0.474
97.000	130.720	80.006	19.994	103.942	19.814	4.334	0.448
97.500	130.917	80.007	19.994	103.941	19.811	4.505	0.403
98.001	131.159	80.007	19.994	103.941	19.816	4.148	0.411
98.501	131.394	80.006	19.994	103.940	19.814	4.286	0.458
99.000	131.634	80.007	19.995	103.937	19.810	4.608	0.477
99.500	131.873	80.007	19.994	103.939	19.813	4.418	0.477
100.000	132.054	80.007	19.994	103.941	19.811	4.540	0.449
100.500	132.323	80.006	19.994	103.940	19.814	4.295	0.435
101.000	132.518	80.006	19.994	103.941	19.814	4.305	0.457
101.500	132.767	80.006	19.994	103.944	19.812	4.480	0.454
102.000	133.045	80.007	19.995	103.944	19.814	4.311	0.486
102.500	133.212	80.007	19.993	103.942	19.808	4.770	0.487
103.001	133.538	80.006	19.994	103.942	19.811	4.544	0.469
103.501	133.744	80.006	19.994	103.942	19.811	4.571	0.512
104.001	133.981	80.005	19.994	103.942	19.813	4.352	0.487
104.500	134.153	80.008	19.995	103.941	19.813	4.404	0.426
105.000	134.369	80.006	19.994	103.942	19.808	4.760	0.399
105.500	134.659	80.007	19.994	103.942	19.812	4.437	0.447
106.001	134.851	80.006	19.994	103.940	19.811	4.529	0.494
106.501	135.110	80.007	19.993	103.940	19.812	4.486	0.466
107.000	135.323	80.008	19.994	103.940	19.809	4.698	0.462
107.500	135.563	80.006	19.994	103.940	19.811	4.550	0.462
108.000	135.803	80.006	19.993	103.940	19.807	4.852	0.466
108.500	136.041	80.007	19.994	103.943	19.819	3.947	0.479
109.000	136.277	80.008	19.993	103.944	19.813	4.408	0.476
109.500	136.519	80.007	19.994	103.943	19.816	4.136	0.476
110.000	136.775	80.007	19.994	103.943	19.809	4.661	0.488
110.500	137.011	80.008	19.993	103.943	19.817	4.105	0.495
111.000	137.213	80.006	19.994	103.943	19.814	4.292	0.465
111.500	137.486	80.009	19.992	103.942	19.811	4.521	0.456
112.000	137.740	80.008	19.995	103.943	19.812	4.440	0.501
112.500	137.985	80.007	19.994	103.943	19.810	4.620	0.513
113.001	138.191	80.007	19.994	103.943	19.812	4.438	0.475
113.501	138.485	80.008	19.994	103.943	19.813	4.366	0.475
114.000	138.712	80.009	19.993	103.944	19.815	4.204	0.511
114.500	138.968	80.009	19.993	103.944	19.813	4.412	0.502
115.000	139.187	80.008	19.993	103.944	19.812	4.451	0.479
115.500	139.417	80.009	19.993	103.944	19.814	4.290	0.462
116.000	139.685	80.008	19.993	103.943	19.811	4.504	0.473
116.501	139.916	80.009	19.994	103.944	19.811	4.521	0.498
117.001	140.149	80.010	19.994	103.944	19.813	4.406	0.482
117.500	140.412	80.010	19.993	103.943	19.813	4.393	0.480
118.001	140.673	80.009	19.993	103.942	19.815	4.268	0.510
118.501	140.926	80.008	19.993	103.942	19.813	4.369	0.519
119.000	141.172	80.008	19.993	103.940	19.812	4.428	0.506
119.500	141.441	80.007	19.993	103.940	19.815	4.224	0.507
120.000	141.685	80.008	19.993	103.937	19.810	4.638	0.514
120.500	141.875	80.009	19.992	103.936	19.817	4.115	0.474
121.001	142.154	80.007	19.993	103.936	19.818	4.039	0.452
121.501	142.371	80.009	19.993	103.935	19.815	4.210	0.483
122.001	142.603	80.008	19.994	103.933	19.815	4.255	0.472
122.501	142.868	80.007	19.993	103.933	19.814	4.350	0.473
123.001	143.132	80.007	19.993	103.933	19.813	4.382	0.513
123.501	143.391	80.008	19.993	103.934	19.816	4.166	0.526
124.000	143.602	80.007	19.993	103.934	19.811	4.549	0.496
124.500	143.928	80.007	19.993	103.934	19.814	4.329	0.503
125.000	144.136	80.007	19.993	103.932	19.815	4.230	0.536
125.500	144.372	80.004	19.994	103.933	19.814	4.341	0.489
126.000	144.645	80.004	19.993	103.929	19.811	4.514	0.476
126.500	144.915	80.005	19.994	103.929	19.815	4.263	0.526
127.000	145.133	80.005	19.994	103.931	19.817	4.084	0.516
127.500	145.428	80.005	19.994	103.936	19.814	4.293	0.500
128.000	145.643	80.005	19.994	103.935	19.814	4.312	0.511
128.500	145.926	80.004	19.994	103.940	19.817	4.098	0.504
129.000	146.149	80.005	19.994	103.940	19.812	4.466	0.502
129.500	146.419	80.005	19.994	103.938	19.813	4.403	0.499
130.000	146.673	80.004	19.994	103.934	19.814	4.287	0.508
130.500	146.871	80.005	19.994	103.931	19.815	4.267	0.488
131.000	147.139	80.004	19.994	103.930	19.813	4.399	0.459
131.500	147.375	80.004	19.994	103.932	19.816	4.185	0.485
132.000	147.615	80.005	19.994	103.929	19.812	4.442	0.490
132.500	147.914	80.004	19.995	103.928	19.812	4.430	0.508
133.000	148.161	80.006	19.994	103.930	19.814	4.335	0.542
133.500	148.416	80.006	19.995	103.927	19.814	4.306	0.524
134.000	148.657	80.005	19.995	103.922	19.811	4.512	0.499
134.500	148.946	80.005	19.994	103.924	19.817	4.071	0.513
135.000	149.209	80.006	19.995	103.926	19.815	4.219	0.541
135.500	149.463	80.005	19.994	103.923	19.818	3.991	0.534
136.000	149.696	80.005	19.994	103.924	19.818	4.034	0.503
136.501	149.934	80.007	19.994	103.924	19.815	4.246	0.479
137.001	150.165	80.005	19.995	103.921	19.815	4.217	0.469
137.500	150.462	80.006	19.994	103.917	19.819	3.896	0.498
138.000	150.709	80.007	19.994	103.915	19.818	4.044	0.536
138.501	150.964	80.006	19.993	103.914	19.817	4.059	0.523
139.000	151.183	80.007	19.993	103.913	19.817	4.075	0.488
139.500	151.431	80.006	19.993	103.912	19.817	4.112	0.471
140.000	151.719	80.007	19.994	103.913	19.816	4.153	0.501
140.500	151.991	80.007	19.993	103.915	19.819	3.954	0.548
141.000	152.272	80.007	19.992	103.916	19.818	3.991	0.557
141.500	152.468	80.006	19.994	103.922	19.819	3.962	0.515
142.001	152.714	80.006	19.991	103.925	19.818	4.007	0.460
142.500	153.001	80.007	19.994	103.927	19.818	4.017	0.487
143.000	153.246	80.007	19.994	103.929	19.819	3.929	0.532
143.500	153.491	80.007	19.993	103.933	19.814	4.349	0.511
144.000	153.711	80.008	19.993	103.931	19.814	4.316	0.478
144.500	154.051	80.008	19.993	103.928	19.816	4.153	0.512
145.000	154.216	80.006	19.994	103.925	19.818	4.024	0.532
145.500	154.512	80.005	19.992	103.922	19.819	3.925	0.483
146.000	154.747	80.007	19.993	103.916	19.816	4.176	0.496
146.500	155.016	80.007	19.993	103.913	19.821	3.772	0.517
147.000	155.338	80.007	19.993	103.911	19.821	3.809	0.547
147.500	155.500	80.007	19.993	103.912	19.817	4.081	0.538
148.000	155.758	80.007	19.994	103.911	19.819	3.896	0.452
148.500	156.057	80.007	19.993	103.913	19.818	4.007	0.488
149.000	156.257	80.009	19.993	103.914	19.818	3.982	0.528
149.500	156.559	80.007	19.994	103.913	19.817	4.096	0.500
150.000	156.794	80.008	19.993	103.912	19.819	3.904	0.520
150.500	157.046	80.007	19.993	103.911	19.818	4.019	0.512
151.000	157.275	80.007	19.992	103.910	19.819	3.904	0.484
151.500	157.529	80.007	19.993	103.911	19.817	4.077	0.482
152.000	157.827	80.007	19.994	103.911	19.817	4.108	0.517
152.500	158.040	80.007	19.993	103.910	19.819	3.916	0.531
153.000	158.306	80.006	19.993	103.910	19.820	3.865	0.495
153.500	158.526	80.007	19.993	103.909	19.816	4.147	0.483
154.000	158.829	80.008	19.993	103.907	19.817	4.075	0.505
154.500	159.075	80.008	19.993	103.906	19.820	3.826	0.536
155.000	159.310	80.007	19.994	103.907	19.819	3.919	0.515
155.500	159.574	80.007	19.993	103.907	19.821	3.752	0.490
156.000	159.808	80.006	19.993	103.906	19.823	3.657	0.498
156.500	160.081	80.007	19.993	103.906	19.821	3.766	0.502
157.000	160.320	80.007	19.993	103.906	19.830	3.103	0.509
157.500	160.574	80.007	19.993	103.906	19.822	3.704	0.503
158.000	160.823	80.006	19.993	103.906	19.821	3.762	0.498
158.500	161.106	80.006	19.993	103.906	19.824	3.517	0.518
159.000	161.315	80.005	19.993	103.905	19.819	3.939	0.512
159.500	161.588	80.005	19.994	103.906	19.818	4.042	0.487
160.000	161.843	80.005	19.994	103.905	19.821	3.815	0.505
160.500	162.096	80.007	19.993	103.906	19.820	3.881	0.518
161.000	162.353	80.006	19.993	103.906	19.820	3.856	0.509
161.500	162.617	80.005	19.993	103.907	19.819	3.937	0.515
162.000	162.869	80.005	19.993	103.907	19.817	4.097	0.519
162.500	163.123	80.006	19.993	103.907	19.818	4.010	0.511
163.000	163.355	80.005	19.993	103.906	19.821	3.764	0.496
163.500	163.595	80.007	19.992	103.906	19.818	3.996	0.479
164.000	163.925	80.006	19.993	103.906	19.820	3.840	0.521
164.500	164.108	80.006	19.994	103.906	19.821	3.807	0.541
165.000	164.396	80.006	19.994	103.906	19.823	3.657	0.492
165.500	164.625	80.005	19.993	103.906	19.822	3.723	0.494
166.000	164.890	80.007	19.994	103.906	19.822	3.679	0.505
166.500	165.189	80.005	19.992	103.906	19.818	3.978	0.529
167.000	165.452	80.007	19.993	103.905	19.824	3.570	0.563
167.500	165.705	80.007	19.994	103.904	19.823	3.646	0.539
168.000	165.925	80.006	19.993	103.903	19.819	3.937	0.494
168.500	166.188	80.007	19.993	103.901	19.822	3.677	0.478
169.000	166.431	80.005	19.993	103.900	19.819	3.928	0.494
169.500	166.711	80.008	19.993	103.899	19.820	3.867	0.515
170.000	166.987	80.008	19.993	103.896	19.821	3.797	0.540
170.500	167.171	80.008	19.994	103.894	19.824	3.521	0.508
171.000	167.467	80.008	19.993	103.895	19.820	3.846	0.470
171.500	167.692	80.008	19.993	103.892	19.821	3.751	0.501
172.000	167.920	80.007	19.993	103.891	19.821	3.797	0.487
172.500	168.214	80.009	19.993	103.892	19.823	3.616	0.487
173.000	168.430	80.008	19.993	103.890	19.828	3.261	0.516
173.500	168.675	80.007	19.994	103.888	19.820	3.844	0.486
174.000	168.931	80.009	19.992	103.890	19.822	3.716	0.481
174.500	169.186	80.007	19.993	103.893	19.825	3.469	0.506
175.000	169.443	80.007	19.993	103.895	19.821	3.803	0.511
175.500	169.676	80.009	19.993	103.899	19.819	3.955	0.501
176.000	169.912	80.008	19.993	103.899	19.817	4.081	0.479
176.500	170.164	80.010	19.993	103.896	19.821	3.772	0.478
177.000	170.428	80.008	19.994	103.894	19.820	3.823	0.502
177.500	170.629	80.010	19.992	103.894	19.817	4.076	0.491
178.000	170.925	80.008	19.993	103.894	19.822	3.725	0.481
178.500	171.189	80.008	19.993	103.890	19.820	3.887	0.528
179.000	171.444	80.008	19.993	103.894	19.822	3.696	0.539
179.500	171.645	80.009	19.994	103.895	19.815	4.227	0.488
180.000	171.988	80.007	19.992	103.893	19.823	3.632	0.500
180.500	172.201	80.008	19.993	103.893	19.819	3.938	0.550
181.000	172.440	80.008	19.993	103.899	19.816	4.126	0.504
181.500	172.617	80.007	19.993	103.900	19.822	3.708	0.433
182.000	172.896	80.007	19.993	103.899	19.819	3.901	0.436
182.500	173.162	80.007	19.993	103.896	19.819	3.926	0.501
183.000	173.369	80.007	19.993	103.895	19.820	3.860	0.509
183.500	173.664	80.006	19.993	103.892	19.823	3.622	0.488
184.000	173.924	80.007	19.993	103.888	19.819	3.937	0.529
184.501	174.187	80.006	19.993	103.887	19.820	3.832	0.539
185.000	174.407	80.007	19.993	103.891	19.822	3.737	0.503
185.500	174.666	80.006	19.993	103.894	19.820	3.891	0.481
186.000	174.876	80.007	19.993	103.898	19.820	3.893	0.475
186.500	175.181	80.007	19.992	103.899	19.819	3.918	0.492
187.000	175.457	80.007	19.993	103.902	19.816	4.123	0.548
187.500	175.725	80.008	19.993	103.898	19.824	3.558	0.562
188.000	175.894	80.008	19.993	103.894	19.816	4.171	0.490
188.500	176.109	80.008	19.993	103.890	19.820	3.893	0.410
189.000	176.423	80.007	19.992	103.890	19.818	4.022	0.456
189.500	176.612	80.008	19.993	103.890	19.819	3.926	0.516
190.000	176.933	80.007	19.994	103.892	19.819	3.913	0.507
190.500	177.125	80.007	19.993	103.892	19.817	4.053	0.512
191.000	177.356	80.007	19.992	103.891	19.817	4.094	0.468
191.500	177.575	80.007	19.993	103.889	19.821	3.815	0.436
192.000	177.887	80.006	19.994	103.887	19.818	3.992	0.490
192.500	178.131	80.007	19.993	103.883	19.820	3.858	0.544
193.000	178.354	80.007	19.994	103.883	19.818	3.974	0.512
193.500	178.577	80.007	19.993	103.889	19.819	3.898	0.457
194.000	178.901	80.007	19.993	103.894	19.819	3.904	0.496
194.500	179.168	80.007	19.994	103.895	19.822	3.688	0.569
195.000	179.380	80.008	19.993	103.901	19.817	4.047	0.535
195.500	179.663	80.009	19.993	103.899	19.824	3.578	0.487
196.000	179.776	80.008	19.994	103.893	19.823	3.642	0.446
196.500	180.033	80.008	19.992	103.886	19.822	3.683	0.383
197.000	180.290	80.008	19.994	103.884	19.826	3.428	0.442
197.500	180.575	80.008	19.994	103.880	19.822	3.741	0.528
198.000	180.845	80.010	19.994	103.881	19.822	3.722	0.548
198.500	181.050	80.008	19.994	103.881	19.819	3.922	0.515
199.000	181.275	80.008	19.994	103.881	19.822	3.706	0.453
199.500	181.557	80.009	19.993	103.877	19.822	3.689	0.468
200.000	181.811	80.009	19.993	103.877	19.822	3.722	0.521
200.500	182.060	80.007	19.993	103.874	19.819	3.955	0.520
201.000	182.258	80.009	19.993	103.875	19.821	3.770	0.475
201.500	182.595	80.008	19.993	103.876	19.823	3.617	0.492
202.000	182.731	80.007	19.992	103.879	19.822	3.679	0.505
202.500	183.034	80.008	19.994	103.878	19.819	3.969	0.456
203.000	183.250	80.009	19.995	103.884	19.822	3.689	0.479
203.500	183.528	80.009	19.993	103.890	19.818	3.995	0.506
204.000	183.767	80.007	19.993	103.896	19.827	3.314	0.505
204.500	184.009	80.008	19.993	103.895	19.823	3.648	0.499
205.000	184.253	80.008	19.993	103.894	19.824	3.522	0.484
205.500	184.479	80.009	19.994	103.891	19.818	3.977	0.478
206.000	184.757	80.007	19.993	103.885	19.819	3.917	0.487
206.500	184.984	80.007	19.993	103.879	19.820	3.893	0.504
207.001	185.233	80.008	19.994	103.880	19.820	3.841	0.491
207.500	185.502	80.007	19.994	103.882	19.821	3.798	0.497
208.000	185.725	80.007	19.992	103.880	19.818	3.971	0.505
208.500	186.011	80.006	19.993	103.878	19.817	4.100	0.500
209.000	186.273	80.007	19.993	103.878	19.818	4.032	0.528
209.500	186.539	80.006	19.993	103.879	19.819	3.936	0.538
210.000	186.794	80.007	19.993	103.878	19.816	4.133	0.525
210.500	187.055	80.006	19.994	103.881	19.816	4.137	0.518
211.000	187.270	80.006	19.993	103.885	19.813	4.355	0.496
211.500	187.514	80.005	19.994	103.887	19.816	4.160	0.467
212.000	187.768	80.007	19.993	103.885	19.815	4.207	0.479
212.501	188.014	80.005	19.993	103.882	19.817	4.063	0.499
213.000	188.226	80.006	19.994	103.879	19.813	4.349	0.479
213.500	188.482	80.005	19.993	103.876	19.818	4.039	0.463
214.000	188.748	80.006	19.994	103.873	19.814	4.285	0.495
214.500	189.028	80.006	19.994	103.872	19.812	4.462	0.534
215.000	189.218	80.007	19.994	103.872	19.815	4.254	0.508
215.500	189.504	80.007	19.994	103.870	19.817	4.088	0.473
216.000	189.719	80.007	19.994	103.871	19.816	4.121	0.488
216.500	189.979	80.004	19.994	103.871	19.817	4.119	0.488
217.000	190.191	80.006	19.994	103.872	19.815	4.244	0.474
217.500	190.469	80.007	19.993	103.872	19.816	4.135	0.482
218.000	190.674	80.006	19.994	103.873	19.816	4.195	0.487
218.500	190.910	80.005	19.995	103.872	19.817	4.045	0.462
219.000	191.221	80.006	19.993	103.872	19.819	3.967	0.494
219.500	191.425	80.006	19.994	103.870	19.818	3.987	0.531
220.000	191.633	80.006	19.994	103.870	19.813	4.409	0.464
220.500	191.917	80.005	19.994	103.869	19.815	4.236	0.452
221.000	192.185	80.005	19.994	103.868	19.816	4.187	0.521
221.500	192.424	80.006	19.995	103.868	19.819	3.946	0.529
222.000	192.630	80.005	19.994	103.869	19.816	4.144	0.477
222.500	192.897	80.006	19.994	103.868	19.815	4.220	0.459
223.000	193.136	80.006	19.993	103.870	19.819	3.952	0.489
223.500	193.357	80.005	19.994	103.872	19.816	4.172	0.483
224.000	193.629	80.004	19.994	103.872	19.817	4.119	0.477
224.500	193.803	80.006	19.994	103.870	19.817	4.100	0.469
225.000	194.087	80.007	19.994	103.870	19.816	4.131	0.452
225.500	194.348	80.005	19.994	103.869	19.816	4.131	0.502
226.000	194.598	80.006	19.994	103.867	19.816	4.133	0.529
226.500	194.824	80.005	19.994	103.869	19.815	4.271	0.494
227.000	195.069	80.005	19.994	103.869	19.815	4.271	0.473
227.500	195.305	80.006	19.995	103.869	19.812	4.450	0.476
228.000	195.524	80.006	19.994	103.869	19.814	4.343	0.468
228.500	195.781	80.005	19.994	103.871	19.814	4.335	0.466
229.000	196.049	80.006	19.993	103.870	19.814	4.306	0.501
229.500	196.293	80.007	19.994	103.869	19.815	4.265	0.518
230.000	196.553	80.006	19.994	103.870	19.814	4.333	0.507
230.500	196.812	80.006	19.994	103.869	19.813	4.399	0.511
231.000	197.018	80.007	19.993	103.867	19.814	4.347	0.492
231.500	197.256	80.006	19.994	103.869	19.816	4.176	0.455
232.000	197.529	80.007	19.993	103.872	19.816	4.123	0.478
232.500	197.770	80.006	19.994	103.871	19.817	4.096	0.513
233.000	198.014	80.007	19.994	103.870	19.817	4.049	0.500
233.500	198.288	80.007	19.994	103.870	19.818	4.026	0.501
234.000	198.528	80.006	19.994	103.870	19.816	4.176	0.516
234.500	198.764	80.006	19.994	103.870	19.817	4.104	0.495
235.000	199.005	80.007	19.993	103.871	19.819	3.964	0.477
235.500	199.270	80.007	19.994	103.872	19.818	3.983	0.492
236.000	199.571	80.007	19.994	103.872	19.815	4.255	0.536
236.500	199.764	80.007	19.994	103.871	19.815	4.265	0.530
237.000	199.990	80.005	19.993	103.867	19.817	4.047	0.457
237.500	200.243	80.007	19.993	103.869	19.817	4.067	0.449
238.000	200.483	80.006	19.993	103.869	19.816	4.172	0.486
238.500	200.725	80.007	19.995	103.869	19.816	4.172	0.488
239.000	200.996	80.006	19.993	103.871	19.813	4.417	0.498
239.500	201.248	80.007	19.993	103.872	19.817	4.073	0.517
240.000	201.485	80.006	19.992	103.871	19.818	4.043	0.506
240.500	201.724	80.006	19.992	103.871	19.813	4.366	0.483
241.000	201.979	80.005	19.992	103.871	19.816	4.133	0.485
241.500	202.200	80.005	19.993	103.871	19.816	4.158	0.485
242.000	202.495	80.005	19.993	103.870	19.816	4.123	0.496
242.500	202.713	80.007	19.992	103.870	19.815	4.242	0.514
243.000	202.975	80.005	19.992	103.870	19.817	4.072	0.497
243.500	203.199	80.004	19.993	103.872	19.816	4.178	0.483
244.000	203.488	80.005	19.993	103.870	19.815	4.222	0.500
244.500	203.760	80.005	19.993	103.871	19.814	4.341	0.537
245.000	203.988	80.004	19.993	103.870	19.819	3.940	0.530
245.500	204.269	80.005	19.993	103.870	19.818	4.010	0.505
246.000	204.491	80.005	19.993	103.869	19.817	4.055	0.506
246.500	204.738	80.005	19.993	103.869	19.820	3.878	0.486
247.000	205.009	80.007	19.994	103.869	19.818	3.981	0.493
247.500	205.213	80.006	19.992	103.871	19.823	3.596	0.497
248.000	205.460	80.006	19.993	103.871	19.815	4.197	0.463
248.500	205.738	80.007	19.992	103.870	19.820	3.876	0.488
249.000	205.988	80.006	19.994	103.870	19.818	3.995	0.527
249.500	206.198	80.005	19.993	103.869	19.817	4.045	0.494
250.000	206.502	80.006	19.993	103.868	19.822	3.697	0.487
250.500	206.739	80.004	19.993	103.868	19.815	4.201	0.527
251.000	206.990	80.006	19.992	103.870	19.820	3.874	0.514
251.500	207.225	80.004	19.993	103.870	19.823	3.594	0.487
252.000	207.477	80.006	19.993	103.871	19.821	3.810	0.486
252.500	207.727	80.006	19.993	103.871	19.818	4.006	0.495
253.000	207.972	80.006	19.994	103.871	19.825	3.493	0.499
253.500	208.218	80.006	19.993	103.871	19.825	3.452	0.493
254.000	208.490	80.007	19.993	103.871	19.824	3.530	0.505
254.500	208.683	80.006	19.993	103.870	19.822	3.701	0.491
255.000	208.987	80.006	19.993	103.870	19.826	3.364	0.481
255.500	209.236	80.007	19.993	103.871	19.823	3.604	0.525
256.000	209.477	80.007	19.993	103.871	19.823	3.660	0.521
256.500	209.723	80.007	19.993	103.870	19.823	3.619	0.488
257.000	209.989	80.007	19.992	103.870	19.819	3.934	0.500
257.500	210.243	80.007	19.993	103.869	19.821	3.788	0.516
258.000	210.503	80.006	19.993	103.869	19.824	3.572	0.517
258.500	210.746	80.006	19.993	103.869	19.824	3.522	0.508
259.000	210.987	80.007	19.993	103.868	19.827	3.302	0.493
259.500	211.215	80.006	19.994	103.868	19.822	3.734	0.477
260.000	211.464	80.008	19.993	103.869	19.821	3.800	0.474
260.500	211.691	80.007	19.992	103.869	19.819	3.952	0.476
261.000	211.962	80.007	19.993	103.869	19.818	3.987	0.487
261.500	212.248	80.007	19.993	103.869	19.820	3.868	0.527
262.000	212.491	80.007	19.991	103.870	19.824	3.532	0.543
262.500	212.738	80.006	19.993	103.870	19.819	3.952	0.510
263.000	212.958	80.006	19.994	103.870	19.821	3.746	0.478
263.500	213.195	80.006	19.994	103.870	19.821	3.812	0.462
264.000	213.540	80.007	19.994	103.869	19.821	3.798	0.520
264.500	213.780	80.006	19.992	103.869	19.822	3.666	0.584
265.000	214.039	80.007	19.993	103.869	19.819	3.954	0.542
265.500	214.230	80.007	19.993	103.869	19.822	3.738	0.474
266.000	214.542	80.007	19.993	103.869	19.822	3.726	0.477
266.500	214.755	80.007	19.993	103.870	19.823	3.615	0.514
267.000	215.065	80.007	19.993	103.869	19.820	3.870	0.524
267.500	215.233	80.007	19.993	103.869	19.822	3.732	0.500
268.000	215.493	80.006	19.993	103.868	19.819	3.938	0.453
268.500	215.797	80.006	19.993	103.868	19.822	3.730	0.496
269.001	216.051	80.006	19.992	103.869	19.823	3.635	0.561
269.500	216.196	80.006	19.993	103.869	19.822	3.728	0.479
270.000	216.513	80.007	19.993	103.870	19.819	3.919	0.431
270.500	216.733	80.007	19.993	103.871	19.821	3.773	0.499
271.000	216.962	80.008	19.993	103.872	19.822	3.717	0.493
271.500	217.300	80.007	19.993	103.871	19.819	3.937	0.508
272.000	217.458	80.007	19.993	103.870	19.821	3.812	0.532
272.500	217.730	80.007	19.993	103.870	19.819	3.927	0.463
273.000	217.954	80.007	19.993	103.869	19.820	3.842	0.463
273.500	218.213	80.006	19.993	103.868	19.819	3.917	0.490
274.000	218.458	80.007	19.993	103.867	19.818	3.970	0.494
274.500	218.743	80.007	19.993	103.867	19.818	4.043	0.517
275.000	218.960	80.007	19.994	103.867	19.817	4.119	0.516
275.500	219.213	80.008	19.993	103.867	19.818	3.981	0.486
276.000	219.450	80.007	19.992	103.868	19.819	3.897	0.480
276.500	219.699	80.008	19.994	103.870	19.819	3.944	0.488
277.000	219.970	80.008	19.992	103.870	19.821	3.785	0.503
277.500	220.238	80.008	19.992	103.871	19.817	4.048	0.529
278.000	220.437	80.006	19.992	103.868	19.821	3.742	0.503
278.500	220.737	80.008	19.993	103.867	19.820	3.845	0.483
279.000	220.981	80.009	19.993	103.866	19.820	3.822	0.522
279.500	221.221	80.008	19.992	103.865	19.820	3.878	0.514
280.000	221.485	80.010	19.994	103.864	19.822	3.705	0.494
280.500	221.740	80.007	19.992	103.863	19.819	3.958	0.511
281.000	222.002	80.008	19.993	103.862	19.818	3.983	0.518
281.500	222.256	80.010	19.992	103.863	19.821	3.785	0.517
282.000	222.496	80.009	19.993	103.863	19.819	3.950	0.505
282.500	222.783	80.010	19.992	103.859	19.822	3.740	0.510
283.000	222.979	80.008	19.992	103.851	19.821	3.800	0.506
283.500	223.186	80.009	19.994	103.850	19.819	3.927	0.443
284.000	223.462	80.009	19.992	103.852	19.821	3.800	0.443
284.500	223.701	80.009	19.993	103.853	19.819	3.937	0.498
285.000	223.964	80.009	19.992	103.859	19.818	4.009	0.508
285.500	224.209	80.008	19.992	103.877	19.819	3.910	0.505
286.000	224.472	80.007	19.992	103.875	19.819	3.962	0.508
286.500	224.727	80.009	19.992	103.872	19.817	4.075	0.513
287.000	224.955	80.008	19.994	103.870	19.820	3.892	0.500
287.500	225.214	80.007	19.993	103.867	19.817	4.059	0.485
288.000	225.456	80.007	19.993	103.856	19.819	3.910	0.494
288.500	225.714	80.008	19.993	103.857	19.819	3.956	0.500
289.000	225.925	80.007	19.993	103.856	19.819	3.908	0.485
289.500	226.205	80.007	19.993	103.854	19.817	4.094	0.481
290.000	226.491	80.007	19.993	103.854	19.819	3.956	0.529
290.500	226.740	80.007	19.993	103.857	19.818	4.034	0.550
291.000	226.987	80.006	19.993	103.859	19.817	4.082	0.515
291.500	227.215	80.005	19.994	103.859	19.818	3.977	0.485
292.000	227.505	80.007	19.993	103.861	19.816	4.123	0.497
292.500	227.765	80.005	19.993	103.861	19.819	3.933	0.534
293.000	228.021	80.005	19.993	103.862	19.815	4.271	0.533
293.500	228.258	80.005	19.994	103.863	19.818	4.042	0.505
294.000	228.511	80.006	19.993	103.863	19.817	4.047	0.492
294.500	228.798	80.008	19.993	103.862	19.816	4.174	0.515
295.000	229.045	80.005	19.994	103.863	19.817	4.059	0.537
295.500	229.320	80.006	19.994	103.861	19.818	3.991	0.528
296.000	229.542	80.007	19.994	103.857	19.815	4.240	0.510
296.500	229.835	80.005	19.994	103.855	19.816	4.125	0.507
297.000	230.035	80.005	19.994	103.857	19.816	4.155	0.504
297.500	230.284	80.006	19.993	103.855	19.816	4.184	0.471
298.000	230.546	80.006	19.994	103.854	19.816	4.153	0.480
298.500	230.788	80.006	19.994	103.856	19.817	4.057	0.507
299.000	231.062	80.006	19.995	103.855	19.820	3.886	0.510
299.500	231.325	80.006	19.994	103.856	19.819	3.964	0.527
300.000	231.593	80.007	19.994	103.858	19.816	4.135	0.534
300.500	231.826	80.006	19.994	103.860	19.819	3.902	0.515
301.000	232.023	80.006	19.993	103.863	19.817	4.091	0.465
301.500	232.311	80.005	19.993	103.867	19.819	3.957	0.458
302.000	232.560	80.006	19.993	103.866	19.819	3.947	0.512
302.500	232.840	80.006	19.994	103.864	19.818	4.023	0.533
303.000	233.049	80.006	19.993	103.863	19.821	3.780	0.509
303.500	233.287	80.005	19.993	103.862	19.820	3.890	0.467
304.000	233.546	80.006	19.994	103.861	19.818	3.995	0.472
304.500	233.838	80.005	19.994	103.861	19.822	3.733	0.524
305.000	234.091	80.006	19.993	103.862	19.820	3.859	0.548
305.500	234.299	80.006	19.993	103.860	19.821	3.797	0.503
306.000	234.582	80.006	19.993	103.860	19.820	3.846	0.476
306.500	234.865	80.007	19.994	103.860	19.819	3.968	0.529
307.000	235.082	80.007	19.993	103.860	19.818	3.970	0.533
307.500	235.334	80.007	19.994	103.859	19.818	3.990	0.484
308.000	235.595	80.008	19.994	103.860	19.819	3.950	0.490
308.500	235.857	80.006	19.994	103.860	19.818	3.989	0.518
309.000	236.107	80.007	19.993	103.861	19.819	3.962	0.518
309.500	236.333	80.006	19.993	103.858	19.820	3.875	0.494
310.000	236.564	80.007	19.995	103.856	19.819	3.939	0.467
310.500	236.837	80.007	19.995	103.854	19.820	3.848	0.480
311.000	237.149	80.008	19.993	103.852	19.820	3.836	0.544
311.500	237.396	80.006	19.994	103.850	19.822	3.708	0.572
312.000	237.632	80.006	19.994	103.848	19.821	3.791	0.521
312.500	237.892	80.005	19.994	103.845	19.819	3.931	0.489
313.000	238.139	80.006	19.993	103.843	19.821	3.799	0.502
313.500	238.418	80.007	19.994	103.842	19.821	3.764	0.517
314.000	238.648	80.006	19.994	103.842	19.822	3.694	0.517
314.500	238.907	80.006	19.994	103.847	19.819	3.923	0.499
315.000	239.163	80.007	19.994	103.849	19.823	3.600	0.502
315.500	239.428	80.005	19.993	103.848	19.823	3.598	0.518
316.000	239.649	80.005	19.994	103.847	19.820	3.840	0.503
316.500	239.907	80.005	19.995	103.841	19.821	3.746	0.482
317.000	240.221	80.006	19.994	103.836	19.820	3.869	0.526
317.500	240.411	80.006	19.994	103.841	19.818	4.036	0.538
318.000	240.672	80.006	19.994	103.844	19.821	3.766	0.477
318.500	240.895	80.005	19.994	103.850	19.821	3.787	0.467
319.000	241.160	80.006	19.994	103.856	19.820	3.828	0.486
319.500	241.415	80.005	19.994	103.857	19.817	4.048	0.504
320.000	241.658	80.005	19.994	103.854	19.818	3.994	0.509
320.500	241.902	80.004	19.994	103.851	19.818	4.027	0.492
321.000	242.168	80.005	19.994	103.844	19.820	3.869	0.499
321.500	242.403	80.004	19.994	103.840	19.819	3.941	0.506
322.000	242.677	80.003	19.992	103.839	19.818	3.990	0.505
322.500	242.909	80.005	19.994	103.838	19.817	4.066	0.507
323.000	243.160	80.005	19.995	103.843	19.822	3.717	0.495
323.500	243.464	80.005	19.994	103.849	19.820	3.850	0.519
324.000	243.679	80.004	19.995	103.850	19.823	3.614	0.537
324.500	243.926	80.005	19.995	103.849	19.820	3.846	0.491
325.000	244.186	80.004	19.993	103.853	19.823	3.655	0.484
325.500	244.412	80.004	19.994	103.850	19.822	3.729	0.496
326.000	244.681	80.005	19.994	103.848	19.821	3.772	0.491
326.500	244.925	80.005	19.994	103.848	19.818	3.980	0.504
327.000	245.185	80.005	19.994	103.849	19.821	3.786	0.508
327.500	245.406	80.006	19.995	103.846	19.821	3.815	0.493
328.000	245.683	80.004	19.994	103.846	19.818	3.980	0.489
328.500	245.936	80.006	19.994	103.846	19.822	3.702	0.513
329.000	246.191	80.005	19.994	103.844	19.821	3.807	0.519
329.500	246.413	80.006	19.993	103.842	19.822	3.704	0.493
330.000	246.650	80.005	19.995	103.841	19.819	3.949	0.469
330.500	246.918	80.005	19.993	103.841	19.821	3.790	0.482
331.000	247.135	80.006	19.994	103.840	19.822	3.723	0.495
331.500	247.399	80.005	19.993	103.841	19.821	3.786	0.483
332.000	247.642	80.007	19.993	103.842	19.822	3.737	0.494
332.500	247.870	80.006	19.992	103.840	19.824	3.554	0.489
333.000	248.123	80.007	19.994	103.837	19.821	3.743	0.476
333.500	248.333	80.006	19.992	103.838	19.825	3.511	0.472
334.000	248.598	80.006	19.992	103.839	19.821	3.784	0.469
334.500	248.846	80.007	19.991	103.838	19.823	3.646	0.494
335.000	249.133	80.007	19.992	103.838	19.822	3.669	0.524
335.500	249.369	80.007	19.993	103.838	19.820	3.891	0.529
336.000	249.624	80.005	19.994	103.834	19.823	3.609	0.507
336.500	249.906	80.006	19.992	103.833	19.822	3.683	0.514
337.000	250.138	80.007	19.993	103.833	19.820	3.889	0.526
337.500	250.395	80.007	19.993	103.835	19.821	3.757	0.501
338.000	250.660	80.007	19.993	103.836	19.821	3.766	0.505
338.500	250.875	80.007	19.993	103.838	19.820	3.862	0.500
339.000	251.120	80.006	19.993	103.838	19.820	3.834	0.470
339.501	251.388	80.007	19.992	103.840	19.819	3.895	0.487
340.000	251.639	80.008	19.992	103.838	19.821	3.762	0.516
340.500	251.851	80.006	19.993	103.839	19.823	3.636	0.491
341.000	252.131	80.007	19.993	103.837	19.824	3.566	0.478
341.500	252.328	80.007	19.992	103.835	19.824	3.523	0.484
342.000	252.586	80.007	19.992	103.834	19.823	3.655	0.466
342.500	252.834	80.008	19.992	103.834	19.823	3.593	0.481
343.000	253.105	80.007	19.993	103.833	19.821	3.751	0.512
343.500	253.336	80.008	19.993	103.832	19.821	3.741	0.510
344.000	253.586	80.008	19.993	103.832	19.821	3.756	0.492
344.500	253.811	80.008	19.992	103.833	19.823	3.638	0.478
345.000	254.092	80.007	19.994	103.832	19.823	3.657	0.490
345.500	254.338	80.007	19.993	103.832	19.823	3.636	0.516
346.000	254.569	80.008	19.992	103.832	19.824	3.568	0.502
346.500	254.853	80.007	19.993	103.832	19.823	3.609	0.496
347.000	255.075	80.007	19.992	103.832	19.824	3.568	0.510
347.500	255.312	80.007	19.993	103.831	19.826	3.379	0.483
348.000	255.575	80.006	19.994	103.830	19.823	3.652	0.480
348.500	255.825	80.006	19.994	103.830	19.824	3.572	0.506
349.000	256.028	80.007	19.992	103.832	19.822	3.700	0.482
349.500	256.278	80.008	19.993	103.831	19.825	3.513	0.453
350.000	256.513	80.008	19.993	103.832	19.820	3.817	0.469
350.500	256.755	80.007	19.993	103.836	19.822	3.704	0.481
351.000	256.976	80.007	19.993	103.840	19.824	3.574	0.470
351.500	257.257	80.007	19.993	103.840	19.820	3.881	0.483
352.000	257.498	80.006	19.993	103.839	19.826	3.426	0.512
352.500	257.735	80.007	19.994	103.838	19.825	3.508	0.500
353.000	257.967	80.007	19.993	103.834	19.825	3.484	0.473
353.500	258.239	80.007	19.995	103.832	19.824	3.562	0.487
354.000	258.493	80.007	19.994	103.836	19.826	3.432	0.515
354.500	258.744	80.007	19.994	103.838	19.823	3.663	0.515
355.000	258.985	80.006	19.994	103.839	19.824	3.562	0.499
355.500	259.229	80.008	19.993	103.840	19.821	3.757	0.489
356.000	259.491	80.007	19.993	103.838	19.824	3.576	0.495
356.500	259.730	80.006	19.993	103.833	19.824	3.533	0.504
357.000	259.954	80.007	19.994	103.831	19.824	3.548	0.482
357.500	260.216	80.007	19.992	103.830	19.822	3.692	0.475
358.000	260.464	80.008	19.993	103.829	19.822	3.684	0.498
358.500	260.700	80.008	19.993	103.830	19.826	3.383	0.497
359.000	260.932	80.008	19.993	103.830	19.827	3.342	0.475
359.500	261.167	80.007	19.993	103.831	19.822	3.692	0.467
360.000	261.446	80.009	19.992	103.831	19.822	3.704	0.491
360.500	261.672	80.007	19.993	103.832	19.821	3.790	0.510
361.000	261.951	80.009	19.992	103.832	19.821	3.762	0.505
361.500	262.204	80.008	19.992	103.833	19.821	3.809	0.518
362.000	262.395	80.009	19.993	103.833	19.823	3.634	0.488
362.500	262.665	80.009	19.992	103.832	19.821	3.747	0.452
363.000	262.906	80.009	19.992	103.831	19.820	3.858	0.486
363.500	263.186	80.009	19.992	103.830	19.823	3.607	0.517
364.000	263.384	80.009	19.993	103.828	19.819	3.910	0.499
364.500	263.654	80.010	19.992	103.829	19.823	3.603	0.473
365.000	263.880	80.008	19.992	103.829	19.822	3.690	0.482
365.500	264.154	80.009	19.992	103.830	19.819	3.895	0.498
366.000	264.396	80.010	19.993	103.833	19.822	3.710	0.508
366.500	264.628	80.009	19.993	103.834	19.822	3.717	0.495
367.000	264.861	80.007	19.993	103.833	19.822	3.678	0.470
367.500	265.124	80.009	19.992	103.833	19.823	3.624	0.480
368.000	265.381	80.008	19.993	103.835	19.826	3.406	0.507
368.500	265.632	80.009	19.993	103.837	19.822	3.717	0.514
369.000	265.821	80.008	19.992	103.837	19.822	3.673	0.474
369.500	266.076	80.009	19.993	103.837	19.823	3.653	0.442
370.000	266.332	80.008	19.992	103.838	19.821	3.764	0.478
370.500	266.631	80.009	19.995	103.836	19.823	3.624	0.533
371.000	266.830	80.007	19.991	103.834	19.821	3.755	0.526
371.500	267.096	80.007	19.993	103.835	19.822	3.725	0.481
372.000	267.346	80.007	19.992	103.838	19.824	3.571	0.491
372.500	267.600	80.006	19.994	103.837	19.823	3.626	0.510
373.000	267.837	80.007	19.994	103.836	19.821	3.746	0.498
373.500	268.077	80.007	19.992	103.835	19.823	3.641	0.484
374.000	268.306	80.005	19.992	103.834	19.823	3.662	0.473
374.500	268.586	80.006	19.994	103.832	19.822	3.738	0.489
375.000	268.796	80.006	19.992	103.835	19.822	3.703	0.500
375.500	269.062	80.007	19.992	103.836	19.822	3.721	0.483
376.000	269.306	80.007	19.993	103.835	19.822	3.682	0.493
376.500	269.546	80.007	19.994	103.835	19.822	3.674	0.497
377.000	269.803	80.006	19.994	103.840	19.822	3.673	0.491
377.500	270.049	80.006	19.992	103.840	19.822	3.684	0.500
378.000	270.291	80.005	19.993	103.846	19.820	3.881	0.495
378.501	270.558	80.006	19.992	103.850	19.823	3.609	0.499
379.000	270.814	80.005	19.992	103.850	19.823	3.655	0.516
379.500	271.045	80.007	19.992	103.845	19.823	3.618	0.505
380.000	271.340	80.005	19.993	103.842	19.823	3.622	0.506
380.500	271.594	80.005	19.993	103.836	19.824	3.550	0.537
381.000	271.807	80.004	19.994	103.831	19.825	3.502	0.508
381.500	272.061	80.005	19.994	103.832	19.821	3.772	0.467
382.000	272.347	80.004	19.993	103.833	19.823	3.650	0.503
382.500	272.599	80.005	19.994	103.835	19.824	3.552	0.539
383.000	272.829	80.005	19.994	103.841	19.822	3.673	0.510
383.500	273.086	80.005	19.993	103.848	19.823	3.652	0.485
384.000	273.350	80.005	19.995	103.851	19.824	3.552	0.505
384.500	273.579	80.005	19.994	103.856	19.827	3.350	0.507
385.000	273.818	80.007	19.995	103.861	19.824	3.576	0.480
385.500	274.098	80.005	19.994	103.861	19.824	3.541	0.494
386.000	274.346	80.006	19.994	103.859	19.824	3.531	0.524
386.500	274.616	80.005	19.993	103.858	19.823	3.640	0.523
387.000	274.815	80.006	19.994	103.853	19.822	3.708	0.494
387.500	275.091	80.006	19.994	103.846	19.826	3.402	0.472
388.001	275.290	80.005	19.994	103.840	19.823	3.642	0.475
388.501	275.570	80.007	19.993	103.836	19.824	3.568	0.476
389.000	275.828	80.005	19.993	103.832	19.822	3.712	0.508
389.500	276.072	80.006	19.995	103.832	19.822	3.669	0.521
390.000	276.358	80.005	19.994	103.832	19.825	3.490	0.516
390.500	276.610	80.005	19.993	103.832	19.824	3.580	0.534
391.000	276.838	80.006	19.994	103.832	19.824	3.587	0.509
391.500	277.100	80.005	19.995	103.832	19.826	3.404	0.485
392.000	277.339	80.006	19.993	103.830	19.824	3.525	0.495
392.500	277.602	80.006	19.995	103.830	19.824	3.550	0.502
393.000	277.827	80.005	19.994	103.829	19.825	3.488	0.495
393.500	278.078	80.005	19.992	103.830	19.825	3.470	0.482
394.001	278.371	80.006	19.993	103.830	19.826	3.430	0.510
394.501	278.624	80.005	19.993	103.830	19.825	3.490	0.545
395.000	278.839	80.007	19.993	103.830	19.824	3.581	0.507
395.500	279.105	80.006	19.993	103.830	19.823	3.601	0.474
396.000	279.379	80.006	19.994	103.831	19.823	3.605	0.510
396.500	279.617	80.006	19.993	103.832	19.820	3.831	0.526
397.000	279.812	80.005	19.993	103.833	19.822	3.692	0.473
397.500	280.145	80.006	19.994	103.834	19.825	3.502	0.481
398.000	280.356	80.007	19.993	103.835	19.826	3.428	0.536
398.500	280.634	80.006	19.993	103.834	19.824	3.517	0.517
399.000	280.894	80.007	19.994	103.833	19.827	3.325	0.514
399.500	281.127	80.007	19.993	103.832	19.825	3.474	0.516
400.000	281.375	80.006	19.993	103.831	19.826	3.434	0.487
400.501	281.624	80.005	19.994	103.830	19.823	3.638	0.488
401.000	281.863	80.007	19.993	103.831	19.823	3.642	0.493
401.500	282.114	80.006	19.993	103.831	19.823	3.617	0.489
402.000	282.398	80.005	19.994	103.831	19.824	3.556	0.512
402.500	282.625	80.005	19.993	103.831	19.826	3.428	0.523
403.000	282.878	80.005	19.993	103.831	19.825	3.439	0.495
403.500	283.145	80.005	19.994	103.831	19.824	3.564	0.500
404.000	283.420	80.006	19.994	103.832	19.824	3.580	0.531
404.500	283.649	80.005	19.993	103.833	19.824	3.535	0.523
405.000	283.910	80.005	19.994	103.833	19.821	3.811	0.497
405.500	284.193	80.004	19.993	103.833	19.822	3.685	0.517
406.000	284.433	80.005	19.993	103.832	19.823	3.591	0.534
406.500	284.665	80.005	19.993	103.831	19.823	3.601	0.497
407.000	284.907	80.005	19.994	103.831	19.820	3.823	0.473
407.500	285.149	80.005	19.995	103.831	19.824	3.515	0.479
408.000	285.401	80.004	19.993	103.831	19.822	3.667	0.489
408.500	285.682	80.004	19.993	103.830	19.822	3.700	0.514
409.001	285.881	80.004	19.993	103.831	19.823	3.630	0.506
409.501	286.164	80.004	19.995	103.830	19.822	3.714	0.481
410.001	286.418	80.004	19.994	103.831	19.820	3.844	0.510
410.500	286.657	80.005	19.994	103.830	19.823	3.650	0.515
411.000	286.936	80.005	19.994	103.830	19.825	3.498	0.505
411.500	287.196	80.005	19.995	103.829	19.822	3.720	0.528
412.000	287.429	80.005	19.994	103.829	19.822	3.679	0.516
412.500	287.709	80.005	19.995	103.829	19.824	3.564	0.503
413.000	287.935	80.005	19.995	103.829	19.824	3.568	0.510
413.500	288.192	80.005	19.994	103.829	19.822	3.689	0.495
414.000	288.418	80.006	19.996	103.829	19.824	3.566	0.483
414.500	288.681	80.005	19.994	103.828	19.826	3.422	0.486
415.000	288.938	80.005	19.995	103.828	19.827	3.307	0.505
415.500	289.205	80.006	19.995	103.827	19.823	3.632	0.522
416.000	289.444	80.006	19.994	103.826	19.821	3.788	0.515
416.500	289.679	80.006	19.994	103.825	19.825	3.510	0.490
417.000	289.965	80.006	19.996	103.826	19.821	3.763	0.498
417.500	290.246	80.006	19.994	103.826	19.824	3.558	0.544
418.000	290.467	80.007	19.994	103.827	19.822	3.726	0.534
418.500	290.728	80.007	19.994	103.827	19.822	3.698	0.492
419.000	290.970	80.005	19.994	103.828	19.824	3.582	0.492
419.500	291.195	80.007	19.995	103.827	19.821	3.741	0.485
420.000	291.435	80.005	19.994	103.827	19.823	3.619	0.466
420.500	291.726	80.007	19.994	103.827	19.823	3.632	0.498
421.000	291.996	80.006	19.994	103.827	19.824	3.533	0.546
421.500	292.226	80.007	19.994	103.827	19.824	3.543	0.531
422.000	292.454	80.008	19.994	103.827	19.824	3.564	0.479
422.500	292.749	80.007	19.994	103.827	19.823	3.624	0.491
423.000	292.996	80.006	19.994	103.827	19.825	3.443	0.532
423.500	293.246	80.007	19.994	103.827	19.826	3.393	0.519
424.000	293.513	80.007	19.993	103.826	19.823	3.634	0.507
424.500	293.729	80.006	19.993	103.826	19.823	3.595	0.501
425.000	294.022	80.006	19.994	103.826	19.824	3.566	0.496
425.500	294.287	80.007	19.994	103.826	19.825	3.490	0.533
426.000	294.488	80.006	19.992	103.826	19.827	3.329	0.512
426.500	294.776	80.008	19.992	103.826	19.826	3.395	0.478
427.000	295.042	80.006	19.993	103.825	19.826	3.397	0.521
427.500	295.297	80.008	19.993	103.825	19.828	3.212	0.537
428.000	295.505	80.007	19.993	103.825	19.825	3.455	0.492
428.500	295.779	80.007	19.993	103.825	19.825	3.443	0.472
429.000	296.028	80.006	19.993	103.825	19.825	3.486	0.503
429.500	296.281	80.007	19.994	103.826	19.823	3.591	0.513
430.000	296.521	80.006	19.993	103.826	19.827	3.360	0.498
430.500	296.798	80.007	19.992	103.826	19.827	3.350	0.505
431.000	297.039	80.007	19.993	103.827	19.824	3.568	0.518
431.500	297.300	80.007	19.993	103.827	19.826	3.385	0.510
432.000	297.528	80.007	19.993	103.827	19.824	3.589	0.496
432.500	297.790	80.006	19.994	103.827	19.825	3.480	0.489
433.000	298.099	80.007	19.993	103.827	19.825	3.498	0.530
433.500	298.319	80.007	19.994	103.828	19.826	3.416	0.550
434.000	298.562	80.007	19.994	103.828	19.824	3.525	0.496
434.500	298.818	80.007	19.993	103.828	19.826	3.401	0.481
435.000	299.066	80.007	19.993	103.828	19.828	3.284	0.502
435.500	299.337	80.007	19.993	103.828	19.824	3.572	0.511
436.000	299.589	80.007	19.993	103.827	19.824	3.552	0.521
436.500	299.847	80.007	19.993	103.827	19.824	3.543	0.517
437.000	300.085	80.007	19.993	103.826	19.825	3.492	0.503
437.500	300.321	80.007	19.993	103.826	19.824	3.527	0.485
438.000	300.614	80.007	19.993	103.826	19.826	3.362	0.502
438.500	300.864	80.007	19.994	103.826	19.826	3.426	0.536
439.000	301.092	80.008	19.993	103.826	19.828	3.278	0.511
439.500	301.372	80.007	19.993	103.826	19.826	3.364	0.493
440.000	301.613	80.005	19.994	103.826	19.828	3.251	0.514
440.500	301.886	80.009	19.992	103.826	19.825	3.500	0.517
441.001	302.127	80.008	19.993	103.827	19.826	3.420	0.514
441.500	302.372	80.007	19.993	103.827	19.825	3.510	0.500
442.000	302.647	80.008	19.991	103.827	19.825	3.455	0.504
442.500	302.882	80.008	19.993	103.827	19.826	3.373	0.515
443.000	303.150	80.009	19.994	103.826	19.826	3.395	0.507
443.500	303.386	80.008	19.993	103.826	19.828	3.225	0.503
444.001	303.646	80.009	19.994	103.826	19.831	3.029	0.500
444.500	303.910	80.008	19.994	103.827	19.830	3.070	0.510
445.000	304.159	80.009	19.993	103.827	19.829	3.146	0.519
445.500	304.387	80.009	19.994	103.828	19.829	3.165	0.494
446.000	304.612	80.009	19.993	103.827	19.829	3.148	0.465
446.500	304.900	80.008	19.994	103.827	19.830	3.087	0.483
447.000	305.155	80.009	19.993	103.827	19.831	3.039	0.529
447.500	305.419	80.009	19.994	103.826	19.828	3.280	0.531
448.000	305.664	80.008	19.993	103.826	19.828	3.214	0.514
448.500	305.932	80.008	19.992	103.827	19.829	3.188	0.511
449.000	306.153	80.008	19.994	103.827	19.828	3.274	0.501
449.500	306.438	80.008	19.993	103.827	19.827	3.334	0.498
450.000	306.664	80.009	19.992	103.828	19.827	3.342	0.508
450.500	306.877	80.009	19.993	103.827	19.826	3.432	0.474
451.000	307.217	80.008	19.992	103.828	19.828	3.237	0.496
451.500	307.426	80.009	19.992	103.827	19.829	3.181	0.551
452.000	307.668	80.006	19.993	103.827	19.826	3.364	0.500
452.500	307.909	80.010	19.993	103.825	19.827	3.342	0.467
453.000	308.220	80.008	19.994	103.826	19.827	3.336	0.517
453.500	308.438	80.008	19.993	103.825	19.826	3.379	0.540
454.000	308.711	80.008	19.993	103.826	19.829	3.192	0.510
454.500	308.943	80.007	19.993	103.827	19.827	3.344	0.498
455.000	309.177	80.008	19.993	103.828	19.830	3.122	0.486
455.500	309.462	80.007	19.993	103.827	19.830	3.062	0.493
456.000	309.671	80.007	19.993	103.824	19.828	3.247	0.507
456.500	309.924	80.007	19.993	103.824	19.830	3.093	0.478
457.000	310.237	80.007	19.993	103.823	19.829	3.177	0.514
457.500	310.484	80.006	19.993	103.823	19.830	3.124	0.563
458.000	310.715	80.006	19.993	103.825	19.830	3.105	0.519
458.500	311.023	80.006	19.993	103.828	19.832	2.939	0.508
459.000	311.256	80.006	19.994	103.829	19.829	3.155	0.540
459.500	311.522	80.007	19.994	103.830	19.829	3.177	0.520
460.000	311.795	80.006	19.992	103.831	19.831	3.009	0.519
460.500	312.000	80.006	19.993	103.831	19.831	3.019	0.509
461.000	312.279	80.006	19.993	103.831	19.829	3.140	0.481
461.500	312.494	80.007	19.993	103.830	19.830	3.101	0.489
462.000	312.793	80.006	19.993	103.826	19.831	3.005	0.504
462.500	313.039	80.007	19.994	103.824	19.828	3.264	0.529
463.000	313.262	80.006	19.993	103.823	19.827	3.360	0.507
463.500	313.493	80.005	19.994	103.823	19.827	3.335	0.461
464.000	313.776	80.007	19.994	103.824	19.831	3.023	0.484
464.500	314.025	80.006	19.993	103.828	19.829	3.138	0.523
465.000	314.282	80.006	19.993	103.829	19.828	3.218	0.519
465.500	314.545	80.006	19.993	103.828	19.828	3.237	0.513
466.000	314.779	80.006	19.992	103.825	19.830	3.087	0.509
466.500	315.049	80.006	19.993	103.825	19.829	3.177	0.501
467.000	315.309	80.006	19.992	103.825	19.828	3.247	0.517
467.500	315.562	80.007	19.992	103.823	19.829	3.167	0.521
468.000	315.787	80.006	19.993	103.822	19.826	3.372	0.495
468.500	316.011	80.006	19.992	103.823	19.829	3.175	0.463
469.001	316.296	80.005	19.993	103.823	19.826	3.370	0.479
469.501	316.544	80.005	19.992	103.823	19.826	3.401	0.521
470.000	316.795	80.005	19.993	103.824	19.826	3.389	0.516
470.500	317.072	80.006	19.993	103.827	19.827	3.311	0.514
471.000	317.340	80.006	19.992	103.829	19.828	3.220	0.536
471.500	317.541	80.006	19.993	103.830	19.830	3.097	0.506
472.000	317.836	80.006	19.995	103.830	19.829	3.142	0.483
472.500	318.100	80.007	19.994	103.829	19.828	3.216	0.528
473.000	318.334	80.007	19.993	103.826	19.828	3.255	0.528
473.500	318.555	80.006	19.994	103.824	19.828	3.220	0.476
474.000	318.822	80.007	19.993	103.823	19.831	3.031	0.472
474.500	319.063	80.007	19.993	103.822	19.830	3.116	0.498
475.000	319.340	80.006	19.993	103.823	19.828	3.229	0.513
475.500	319.572	80.007	19.994	103.826	19.829	3.171	0.513
476.000	319.826	80.006	19.992	103.827	19.830	3.134	0.497
476.500	320.052	80.007	19.993	103.828	19.829	3.194	0.483
477.000	320.353	80.007	19.994	103.828	19.826	3.377	0.503
477.500	320.565	80.007	19.993	103.828	19.831	3.015	0.520
478.000	320.846	80.007	19.993	103.825	19.826	3.410	0.503
478.500	321.067	80.006	19.993	103.822	19.828	3.241	0.497
479.001	321.343	80.006	19.994	103.818	19.829	3.142	0.499
479.500	321.587	80.007	19.994	103.818	19.826	3.415	0.508
480.000	321.818	80.006	19.994	103.816	19.828	3.222	0.498
480.500	322.107	80.005	19.994	103.814	19.827	3.352	0.498
481.000	322.337	80.006	19.994	103.815	19.829	3.204	0.520
481.500	322.580	80.006	19.995	103.816	19.827	3.360	0.496
482.000	322.839	80.006	19.994	103.812	19.827	3.315	0.487
482.500	323.076	80.007	19.995	103.810	19.826	3.371	0.499
483.000	323.295	80.007	19.994	103.815	19.829	3.189	0.476
483.500	323.596	80.006	19.994	103.816	19.830	3.072	0.488
484.000	323.823	80.005	19.994	103.818	19.826	3.436	0.524
484.500	324.068	80.006	19.994	103.822	19.825	3.451	0.500
485.000	324.348	80.007	19.996	103.824	19.823	3.634	0.499
485.500	324.563	80.006	19.995	103.824	19.825	3.465	0.510
486.001	324.842	80.006	19.994	103.825	19.824	3.587	0.494
486.500	325.111	80.006	19.995	103.826	19.826	3.434	0.521
487.000	325.331	80.006	19.995	103.826	19.826	3.371	0.519
487.500	325.571	80.007	19.994	103.825	19.824	3.525	0.475
488.000	325.815	80.006	19.995	103.825	19.826	3.387	0.472
488.500	326.083	80.006	19.994	103.825	19.825	3.455	0.498
489.000	326.328	80.005	19.994	103.824	19.827	3.311	0.513
489.500	326.609	80.005	19.994	103.823	19.825	3.504	0.520
490.000	326.828	80.005	19.994	103.821	19.826	3.399	0.513
490.500	327.064	80.006	19.994	103.816	19.826	3.381	0.477
491.000	327.308	80.006	19.993	103.816	19.827	3.338	0.468
491.500	327.608	80.005	19.995	103.816	19.828	3.259	0.512
492.000	327.823	80.005	19.995	103.819	19.825	3.457	0.529
492.500	328.090	80.005	19.994	103.821	19.827	3.298	0.498
493.000	328.338	80.006	19.994	103.825	19.826	3.366	0.499
493.500	328.575	80.005	19.995	103.825	19.827	3.352	0.500
494.000	328.824	80.007	19.993	103.821	19.829	3.189	0.485
494.500	329.061	80.006	19.994	103.818	19.826	3.401	0.486
495.000	329.344	80.006	19.995	103.818	19.828	3.271	0.502
495.500	329.611	80.006	19.995	103.818	19.826	3.362	0.535
496.000	329.837	80.006	19.994	103.818	19.826	3.393	0.522
496.501	330.082	80.006	19.994	103.823	19.824	3.530	0.482
497.001	330.348	80.006	19.994	103.826	19.827	3.335	0.491
497.501	330.582	80.005	19.994	103.828	19.828	3.267	0.506
498.001	330.848	80.006	19.994	103.826	19.828	3.241	0.500
498.500	331.100	80.007	19.993	103.825	19.828	3.249	0.509
499.000	331.325	80.006	19.995	103.824	19.827	3.288	0.498
499.500	331.574	80.008	19.995	103.824	19.825	3.504	0.475
500.000	331.832	80.007	19.994	103.824	19.824	3.565	0.490
500.500	332.104	80.007	19.993	103.826	19.826	3.386	0.518
501.000	332.322	80.008	19.994	103.827	19.827	3.319	0.510
501.500	332.596	80.008	19.994	103.826	19.827	3.360	0.491
502.000	332.874	80.006	19.992	103.823	19.827	3.314	0.522
502.500	333.111	80.007	19.995	103.816	19.828	3.265	0.533
503.000	333.398	80.007	19.994	103.814	19.827	3.356	0.520
503.500	333.596	80.007	19.995	103.814	19.829	3.148	0.505
504.000	333.872	80.007	19.995	103.814	19.826	3.370	0.479
504.500	334.132	80.008	19.995	103.813	19.824	3.534	0.505
505.000	334.383	80.008	19.995	103.815	19.824	3.528	0.524
505.500	334.642	80.007	19.995	103.815	19.826	3.399	0.510
506.000	334.917	80.008	19.995	103.808	19.825	3.457	0.522
506.500	335.124	80.007	19.994	103.805	19.827	3.346	0.508
507.000	335.424	80.008	19.996	103.806	19.824	3.580	0.495
507.500	335.642	80.007	19.997	103.810	19.824	3.549	0.512
508.000	335.860	80.008	19.996	103.811	19.826	3.413	0.477
508.500	336.153	80.008	19.995	103.816	19.824	3.560	0.474
509.000	336.398	80.006	19.995	103.820	19.826	3.375	0.525
509.500	336.631	80.007	19.994	103.820	19.827	3.340	0.508
510.000	336.893	80.007	19.997	103.815	19.829	3.148	0.487
510.500	337.143	80.006	19.996	103.812	19.828	3.230	0.503
511.000	337.374	80.006	19.994	103.812	19.829	3.154	0.496
511.500	337.648	80.006	19.995	103.808	19.830	3.072	0.493
512.000	337.885	80.006	19.994	103.806	19.826	3.419	0.509
512.500	338.122	80.006	19.995	103.806	19.830	3.123	0.493
513.000	338.393	80.005	19.994	103.807	19.820	3.826	0.491
513.500	338.632	80.007	19.995	103.806	19.825	3.512	0.509
514.000	338.871	80.006	19.993	103.808	19.823	3.590	0.494
514.500	339.103	80.006	19.994	103.808	19.823	3.617	0.475
515.000	339.380	80.006	19.995	103.809	19.825	3.446	0.490
515.500	339.604	80.005	19.995	103.808	19.821	3.769	0.505
516.000	339.871	80.005	19.994	103.812	19.822	3.687	0.496
516.500	340.132	80.007	19.994	103.813	19.822	3.685	0.510
517.000	340.335	80.005	19.994	103.815	19.826	3.412	0.496
517.500	340.620	80.006	19.994	103.815	19.826	3.420	0.476
518.000	340.874	80.006	19.994	103.817	19.824	3.582	0.514
518.500	341.077	80.006	19.995	103.816	19.822	3.664	0.498
519.000	341.350	80.006	19.994	103.816	19.825	3.469	0.467
519.500	341.612	80.006	19.994	103.820	19.823	3.592	0.506
520.000	341.802	80.007	19.994	103.823	19.821	3.740	0.493
520.500	342.150	80.006	19.993	103.821	19.826	3.395	0.495
521.000	342.403	80.007	19.995	103.815	19.822	3.677	0.569
521.500	342.662	80.007	19.994	103.809	19.821	3.780	0.556
522.000	342.853	80.008	19.994	103.802	19.825	3.444	0.481
522.500	343.149	80.008	19.994	103.798	19.823	3.635	0.469
523.000	343.430	80.009	19.994	103.797	19.828	3.278	0.533
523.500	343.570	80.008	19.993	103.801	19.823	3.642	0.499
524.000	343.810	80.009	19.993	103.807	19.823	3.648	0.401
524.500	344.055	80.007	19.993	103.809	19.821	3.808	0.433
525.000	344.388	80.007	19.993	103.810	19.827	3.303	0.531
525.500	344.632	80.009	19.992	103.813	19.822	3.726	0.577
526.000	344.855	80.006	19.993	103.812	19.825	3.496	0.522
526.500	345.141	80.009	19.994	103.811	19.823	3.603	0.488
527.000	345.274	80.008	19.993	103.816	19.822	3.677	0.464
527.500	345.548	80.008	19.993	103.818	19.821	3.790	0.413
528.000	345.824	80.007	19.993	103.821	19.824	3.572	0.478
528.500	346.099	80.008	19.992	103.821	19.822	3.706	0.551
529.000	346.358	80.009	19.993	103.819	19.821	3.753	0.543
529.500	346.598	80.007	19.993	103.816	19.823	3.591	0.516
530.000	346.843	80.008	19.992	103.817	19.824	3.564	0.492
530.500	347.108	80.008	19.992	103.815	19.821	3.753	0.497
531.000	347.322	80.008	19.992	103.818	19.824	3.543	0.495
531.500	347.618	80.009	19.993	103.820	19.824	3.516	0.495
532.000	347.869	80.008	19.992	103.822	19.824	3.559	0.529
532.500	348.123	80.009	19.992	103.819	19.825	3.442	0.526
533.000	348.357	80.008	19.994	103.817	19.828	3.265	0.496
533.500	348.618	80.008	19.993	103.815	19.827	3.344	0.491
534.000	348.861	80.008	19.992	103.816	19.823	3.626	0.499
534.500	349.106	80.007	19.993	103.817	19.825	3.453	0.496
535.000	349.395	80.006	19.993	103.819	19.826	3.414	0.512
535.500	349.630	80.007	19.994	103.821	19.824	3.539	0.529
536.000	349.868	80.006	19.993	103.823	19.825	3.510	0.498
536.500	350.163	80.008	19.994	103.824	19.822	3.718	0.503
537.000	350.401	80.007	19.993	103.822	19.822	3.675	0.533
537.500	350.684	80.007	19.993	103.823	19.823	3.656	0.527
538.000	350.924	80.006	19.995	103.827	19.823	3.590	0.522
538.500	351.135	80.005	19.993	103.825	19.825	3.504	0.487
539.000	351.393	80.006	19.994	103.825	19.823	3.632	0.461
539.500	351.662	80.007	19.993	103.827	19.820	3.823	0.498
540.000	351.946	80.007	19.993	103.826	19.824	3.539	0.540
540.500	352.191	80.007	19.994	103.826	19.824	3.537	0.541
541.000	352.432	80.007	19.994	103.827	19.821	3.747	0.508
541.500	352.716	80.006	19.993	103.827	19.825	3.504	0.506
542.000	352.963	80.008	19.993	103.824	19.821	3.744	0.528
542.501	353.239	80.008	19.995	103.820	19.819	3.966	0.527
543.000	353.487	80.007	19.993	103.818	19.822	3.699	0.523
543.500	353.760	80.007	19.992	103.818	19.820	3.818	0.523
544.000	354.001	80.006	19.994	103.819	19.825	3.494	0.518
544.500	354.267	80.006	19.993	103.822	19.822	3.730	0.510
545.000	354.519	80.007	19.994	103.826	19.823	3.597	0.512
545.500	354.811	80.006	19.993	103.828	19.823	3.627	0.531
546.000	355.021	80.006	19.993	103.827	19.820	3.864	0.523
546.500	355.273	80.005	19.994	103.820	19.818	3.971	0.482
547.000	355.589	80.006	19.994	103.817	19.823	3.648	0.515
547.500	355.821	80.006	19.994	103.817	19.820	3.882	0.558
548.000	356.036	80.005	19.994	103.816	19.820	3.825	0.497
548.500	356.294	80.005	19.995	103.817	19.824	3.555	0.460
549.000	356.564	80.007	19.993	103.822	19.820	3.848	0.501
549.500	356.809	80.007	19.993	103.824	19.821	3.784	0.521
550.000	357.073	80.006	19.993	103.823	19.822	3.679	0.512
550.500	357.325	80.005	19.993	103.824	19.824	3.582	0.513
551.000	357.557	80.007	19.995	103.824	19.823	3.601	0.500
551.500	357.883	80.006	19.992	103.821	19.819	3.930	0.521
552.000	358.119	80.007	19.993	103.819	19.818	3.971	0.560
552.500	358.327	80.007	19.994	103.818	19.818	4.031	0.503
553.000	358.615	80.006	19.993	103.812	19.818	4.026	0.470
553.500	358.790	80.006	19.992	103.809	19.819	3.905	0.480
554.000	359.097	80.006	19.994	103.808	19.817	4.043	0.473
554.500	359.368	80.006	19.994	103.811	19.817	4.078	0.530
555.000	359.597	80.007	19.993	103.813	19.818	4.008	0.539
555.500	359.811	80.007	19.993	103.816	19.817	4.063	0.471
556.000	360.071	80.006	19.992	103.819	19.819	3.903	0.458
556.500	360.326	80.007	19.993	103.822	19.817	4.080	0.495
557.000	360.590	80.007	19.994	103.818	19.820	3.846	0.517
557.500	360.819	80.007	19.993	103.812	19.813	4.405	0.506
558.000	361.096	80.006	19.993	103.814	19.816	4.138	0.500
558.500	361.345	80.007	19.993	103.814	19.816	4.189	0.516
559.000	361.610	80.007	19.994	103.815	19.824	3.576	0.519
559.500	361.872	80.006	19.993	103.818	19.819	3.928	0.520
560.000	362.057	80.007	19.994	103.823	19.815	4.206	0.487
560.500	362.325	80.006	19.992	103.820	19.818	4.035	0.450
561.000	362.615	80.007	19.994	103.815	19.817	4.082	0.505
561.500	362.850	80.006	19.992	103.816	19.816	4.177	0.541
562.000	363.131	80.007	19.991	103.817	19.822	3.681	0.521
562.500	363.389	80.006	19.992	103.818	19.819	3.926	0.527
563.000	363.629	80.007	19.994	103.821	19.817	4.117	0.519
563.500	363.894	80.008	19.993	103.825	19.814	4.321	0.502
564.000	364.111	80.007	19.994	103.822	19.813	4.385	0.494
564.500	364.409	80.008	19.993	103.821	19.813	4.415	0.498
565.000	364.646	80.008	19.995	103.817	19.814	4.292	0.525
565.500	364.872	80.008	19.991	103.816	19.813	4.380	0.500
566.000	365.132	80.007	19.993	103.818	19.812	4.450	0.475
566.500	365.406	80.008	19.993	103.821	19.812	4.487	0.510
567.000	365.635	80.006	19.993	103.821	19.810	4.604	0.519
567.500	365.905	80.006	19.993	103.825	19.807	4.808	0.501
568.000	366.154	80.005	19.993	103.824	19.810	4.627	0.509
568.500	366.431	80.006	19.993	103.824	19.809	4.721	0.522
569.000	366.674	80.006	19.995	103.824	19.810	4.647	0.523
569.500	366.942	80.006	19.994	103.826	19.808	4.752	0.515
570.000	367.180	80.005	19.994	103.826	19.810	4.621	0.509
570.500	367.441	80.006	19.994	103.828	19.805	4.995	0.503
571.000	367.706	80.006	19.994	103.827	19.810	4.644	0.512
571.500	367.947	80.006	19.993	103.823	19.808	4.742	0.516
572.000	368.220	80.006	19.994	103.821	19.803	5.145	0.510
572.500	368.482	80.005	19.993	103.821	19.805	4.971	0.525
573.000	368.738	80.005	19.994	103.822	19.805	5.012	0.527
573.501	368.950	80.005	19.994	103.824	19.802	5.219	0.493
574.000	369.279	80.006	19.993	103.828	19.803	5.145	0.504
574.500	369.542	80.006	19.994	103.830	19.801	5.277	0.567
575.000	369.758	80.005	19.993	103.830	19.801	5.308	0.536
575.500	370.038	80.006	19.993	103.829	19.799	5.454	0.488
576.000	370.284	80.005	19.994	103.829	19.799	5.423	0.511
576.500	370.518	80.005	19.994	103.827	19.798	5.540	0.503
577.000	370.797	80.005	19.994	103.823	19.798	5.520	0.496
577.500	371.033	80.005	19.994	103.821	19.797	5.610	0.514
578.000	371.325	80.005	19.995	103.820	19.796	5.656	0.522
578.500	371.545	80.006	19.994	103.818	19.799	5.481	0.520
579.000	371.836	80.006	19.994	103.819	19.794	5.843	0.511
579.500	372.089	80.006	19.994	103.821	19.794	5.795	0.528
580.000	372.370	80.006	19.993	103.821	19.793	5.919	0.539
580.500	372.542	80.007	19.994	103.823	19.790	6.102	0.494
581.000	372.853	80.007	19.994	103.824	19.790	6.102	0.468
581.500	373.080	80.007	19.994	103.825	19.789	6.170	0.510
582.000	373.365	80.007	19.993	103.827	19.785	6.513	0.525
582.500	373.614	80.008	19.993	103.829	19.786	6.400	0.524
583.000	373.860	80.006	19.993	103.830	19.784	6.562	0.514
583.500	374.131	80.008	19.994	103.830	19.786	6.429	0.506
584.000	374.363	80.007	19.995	103.829	19.784	6.591	0.510
584.500	374.668	80.008	19.993	103.828	19.780	6.904	0.520
585.000	374.931	80.008	19.993	103.827	19.780	6.898	0.552
585.500	375.150	80.009	19.993	103.827	19.780	6.916	0.525
586.000	375.366	80.009	19.993	103.827	19.780	6.879	0.458
586.500	375.649	80.009	19.995	103.828	19.777	7.118	0.467
587.000	375.918	80.008	19.995	103.828	19.774	7.342	0.526
587.501	376.161	80.008	19.994	103.829	19.776	7.204	0.533
588.001	376.401	80.007	19.994	103.829	19.772	7.507	0.498
588.500	376.681	80.008	19.993	103.830	19.771	7.581	0.501
589.000	376.922	80.009	19.995	103.830	19.773	7.428	0.520
589.500	377.173	80.009	19.993	103.830	19.771	7.572	0.506
590.000	377.464	80.008	19.994	103.830	19.771	7.574	0.518
590.500	377.685	80.008	19.993	103.830	19.767	7.895	0.527
591.000	377.964	80.008	19.994	103.829	19.765	8.041	0.506
591.500	378.170	80.008	19.993	103.829	19.765	7.982	0.492
592.000	378.427	80.007	19.994	103.829	19.762	8.278	0.474
592.500	378.688	80.008	19.993	103.829	19.761	8.319	0.491
593.000	378.931	80.007	19.995	103.829	19.760	8.403	0.511
593.500	379.176	80.007	19.996	103.830	19.756	8.716	0.496
594.000	379.447	80.007	19.995	103.830	19.757	8.612	0.502
594.500	379.693	80.006	19.995	103.831	19.757	8.639	0.516
595.000	379.944	80.007	19.995	103.831	19.751	9.106	0.507
595.500	380.200	80.006	19.993	103.832	19.751	9.065	0.502
596.000	380.476	80.007	19.994	103.832	19.749	9.258	0.519
596.500	380.712	80.006	19.994	103.833	19.750	9.152	0.522
597.000	381.010	80.008	19.994	103.832	19.752	8.996	0.523
597.500	381.231	80.006	19.994	103.832	19.750	9.138	0.527
598.000	381.449	80.006	19.994	103.832	19.746	9.483	0.479
598.500	381.716	80.006	19.993	103.832	19.745	9.497	0.462
599.000	381.973	80.008	19.993	103.832	19.743	9.662	0.504
599.500	382.213	80.006	19.994	103.832	19.742	9.769	0.511
600.000	382.491	80.005	19.994	103.831	19.744	9.607	0.507
600.500	382.759	80.007	19.994	103.831	19.740	9.924	0.531
601.000	383.008	80.006	19.995	103.831	19.737	10.128	0.531
601.500	383.275	80.006	19.994	103.831	19.736	10.192	0.517
602.000	383.497	80.007	19.993	103.831	19.730	10.665	0.502
602.500	383.741	80.007	19.993	103.831	19.729	10.749	0.477
603.000	384.031	80.006	19.994	103.830	19.729	10.752	0.500
603.500	384.288	80.007	19.994	103.830	19.726	10.933	0.541
604.000	384.550	80.006	19.994	103.834	19.727	10.893	0.533
604.500	384.794	80.007	19.995	103.839	19.724	11.116	0.512
605.000	385.042	80.007	19.994	103.842	19.718	11.589	0.500
605.500	385.311	80.008	19.994	103.847	19.719	11.520	0.505
606.000	385.557	80.009	19.995	103.847	19.717	11.621	0.516
606.500	385.799	80.006	19.995	103.845	19.718	11.541	0.502
607.000	386.089	80.007	19.994	103.841	19.715	11.782	0.510
607.500	386.313	80.007	19.996	103.838	19.713	11.928	0.523
608.000	386.589	80.008	19.994	103.835	19.709	12.267	0.507
608.500	386.822	80.008	19.994	103.833	19.709	12.257	0.504
609.000	387.042	80.007	19.994	103.830	19.708	12.356	0.481
609.500	387.311	80.007	19.995	103.829	19.704	12.605	0.471
610.000	387.626	80.008	19.993	103.829	19.703	12.687	0.537
610.500	387.894	80.009	19.994	103.831	19.702	12.819	0.583
611.000	388.169	80.009	19.994	103.835	19.695	13.348	0.563
611.500	388.376	80.008	19.994	103.837	19.696	13.212	0.513
612.000	388.606	80.008	19.993	103.841	19.695	13.301	0.460
612.500	388.872	80.008	19.994	103.847	19.697	13.149	0.466
613.000	389.149	80.009	19.994	103.849	19.691	13.623	0.520
613.500	389.433	80.010	19.994	103.848	19.690	13.703	0.552
614.000	389.673	80.011	19.993	103.850	19.685	14.079	0.542
614.500	389.946	80.009	19.992	103.850	19.686	13.984	0.518
615.000	390.115	80.009	19.994	103.846	19.678	14.639	0.478
615.500	390.372	80.010	19.994	103.849	19.679	14.518	0.435
616.000	390.633	80.008	19.993	103.852	19.676	14.740	0.472
616.500	390.898	80.008	19.995	103.856	19.674	14.917	0.522
617.000	391.162	80.008	19.993	103.858	19.668	15.364	0.527
617.500	391.399	80.009	19.993	103.864	19.665	15.601	0.515
618.000	391.634	80.009	19.993	103.864	19.666	15.506	0.487
618.500	391.883	80.008	19.993	103.864	19.665	15.615	0.478
619.000	392.154	80.008	19.993	103.865	19.658	16.097	0.502
619.500	392.396	80.008	19.994	103.865	19.657	16.226	0.517
620.000	392.699	80.007	19.993	103.866	19.651	16.650	0.530
620.500	392.923	80.006	19.994	103.865	19.653	16.540	0.536
621.000	393.189	80.008	19.993	103.865	19.648	16.911	0.508
621.500	393.460	80.007	19.993	103.867	19.642	17.321	0.513
622.000	393.739	80.006	19.991	103.868	19.640	17.479	0.543
622.500	393.985	80.007	19.995	103.868	19.638	17.629	0.537
623.000	394.229	80.007	19.994	103.872	19.638	17.678	0.508
623.500	394.430	80.007	19.995	103.877	19.631	18.170	0.468
624.000	394.738	80.008	19.994	103.878	19.628	18.421	0.478
624.500	395.035	80.006	19.993	103.880	19.624	18.738	0.557
625.000	395.261	80.006	19.993	103.886	19.622	18.877	0.564
625.500	395.598	80.007	19.994	103.889	19.617	19.233	0.543
626.000	395.748	80.007	19.993	103.890	19.616	19.322	0.525
626.500	396.073	80.007	19.993	103.891	19.611	19.678	0.481
627.000	396.327	80.007	19.993	103.894	19.610	19.798	0.527
627.500	396.676	80.006	19.993	103.896	19.606	20.101	0.591
628.000	396.824	80.005	19.994	103.896	19.600	20.513	0.550
628.500	397.118	80.007	19.993	103.895	19.598	20.665	0.470
629.000	397.371	80.007	19.993	103.893	19.593	21.061	0.494
629.500	397.562	80.008	19.993	103.893	19.589	21.318	0.496
630.000	397.911	80.008	19.993	103.886	19.586	21.593	0.492
630.500	398.141	80.007	19.993	103.880	19.580	22.014	0.560
631.000	398.354	80.007	19.994	103.883	19.576	22.305	0.511
631.500	398.640	80.008	19.993	103.889	19.572	22.642	0.471
632.000	398.909	80.006	19.993	103.890	19.569	22.858	0.527
632.500	399.186	80.007	19.994	103.896	19.565	23.166	0.550
633.000	399.407	80.008	19.992	103.903	19.559	23.621	0.522
633.500	399.729	80.007	19.993	103.904	19.560	23.572	0.521
634.000	399.953	80.006	19.992	103.904	19.556	23.862	0.544
634.500	400.188	80.006	19.993	103.903	19.554	24.026	0.502
635.000	400.468	80.007	19.994	103.904	19.547	24.545	0.487
635.500	400.701	80.007	19.993	103.902	19.545	24.654	0.514
636.000	400.984	80.006	19.994	103.899	19.539	25.149	0.514
636.500	401.221	80.007	19.993	103.898	19.536	25.355	0.518
637.000	401.496	80.007	19.993	103.898	19.533	25.573	0.516
637.500	401.760	80.007	19.992	103.899	19.526	26.156	0.526
638.000	402.058	80.007	19.994	103.900	19.525	26.221	0.550
638.500	402.291	80.007	19.994	103.905	19.518	26.729	0.546
639.000	402.614	80.007	19.995	103.906	19.513	27.113	0.544
639.500	402.839	80.007	19.994	103.906	19.511	27.274	0.552
640.000	403.106	80.007	19.993	103.908	19.506	27.683	0.520
640.500	403.366	80.007	19.993	103.910	19.503	27.894	0.510
641.000	403.606	80.007	19.995	103.915	19.498	28.267	0.513
641.500	403.875	80.007	19.994	103.920	19.497	28.305	0.504
642.000	404.113	80.007	19.993	103.922	19.493	28.660	0.508
642.500	404.407	80.008	19.992	103.921	19.490	28.883	0.519
643.000	404.666	80.005	19.993	103.920	19.485	29.268	0.543
643.500	404.888	80.008	19.992	103.915	19.482	29.485	0.518
644.000	405.164	80.006	19.993	103.911	19.478	29.803	0.489
644.500	405.445	80.006	19.992	103.910	19.473	30.131	0.527
645.000	405.642	80.006	19.995	103.910	19.470	30.393	0.517
645.500	405.916	80.007	19.993	103.913	19.465	30.772	0.475
646.000	406.189	80.006	19.993	103.918	19.460	31.123	0.510
646.500	406.416	80.006	19.994	103.927	19.454	31.626	0.523
647.000	406.697	80.006	19.994	103.936	19.448	32.063	0.503
647.500	406.986	80.007	19.993	103.947	19.444	32.374	0.539
648.000	407.213	80.007	19.993	103.953	19.437	32.930	0.543
648.500	407.458	80.006	19.993	103.957	19.434	33.139	0.494
649.000	407.707	80.005	19.993	103.960	19.428	33.605	0.483
649.500	407.981	80.007	19.993	103.965	19.421	34.074	0.508
650.000	408.227	80.006	19.993	103.968	19.415	34.520	0.521
650.500	408.470	80.006	19.993	103.971	19.410	34.909	0.504
651.000	408.734	80.005	19.992	103.977	19.401	35.640	0.498
651.500	408.970	80.006	19.993	103.980	19.393	36.238	0.504
652.000	409.239	80.006	19.992	103.982	19.385	36.825	0.503
652.500	409.462	80.006	19.994	103.984	19.376	37.544	0.499
653.000	409.746	80.008	19.993	103.986	19.366	38.265	0.499
653.500	409.971	80.006	19.993	103.987	19.358	38.880	0.508
654.000	410.212	80.007	19.992	103.987	19.346	39.804	0.488
654.500	410.484	80.005	19.992	103.991	19.334	40.689	0.490
655.000	410.745	80.007	19.993	103.993	19.323	41.575	0.522
655.500	411.001	80.006	19.993	103.994	19.314	42.276	0.525
656.000	411.286	80.006	19.992	104.001	19.308	42.750	0.529
656.500	411.511	80.006	19.992	104.004	19.297	43.584	0.526
657.000	411.766	80.007	19.992	104.000	19.287	44.309	0.495
657.500	412.038	80.005	19.993	103.999	19.279	44.912	0.503
658.000	412.284	80.006	19.993	104.000	19.272	45.425	0.523
658.500	412.555	80.006	19.992	103.993	19.265	46.015	0.518
659.000	412.806	80.006	19.994	103.988	19.258	46.502	0.519
659.500	413.074	80.006	19.993	103.982	19.253	46.883	0.520
660.000	413.311	80.006	19.992	103.973	19.245	47.522	0.512
660.500	413.555	80.006	19.993	103.965	19.238	47.990	0.493
661.000	413.814	80.006	19.994	103.963	19.232	48.460	0.492
661.500	414.024	80.006	19.991	103.961	19.224	49.060	0.486
662.000	414.316	80.007	19.994	103.968	19.215	49.766	0.486
662.500	414.553	80.006	19.993	103.975	19.210	50.174	0.516
663.000	414.819	80.008	19.992	103.983	19.201	50.802	0.516
663.500	415.062	80.007	19.993	103.988	19.193	51.445	0.506
664.000	415.318	80.006	19.993	103.999	19.185	52.020	0.504
664.500	415.561	80.008	19.993	104.013	19.178	52.596	0.499
665.000	415.825	80.007	19.994	104.027	19.167	53.393	0.503
665.500	416.034	80.007	19.993	104.046	19.161	53.903	0.490
666.000	416.287	80.007	19.994	104.065	19.152	54.571	0.468
666.500	416.558	80.007	19.993	104.080	19.143	55.203	0.493
667.000	416.809	80.005	19.994	104.090	19.131	56.165	0.523
667.500	417.049	80.007	19.993	104.098	19.121	56.882	0.506
668.000	417.278	80.007	19.994	104.103	19.109	57.820	0.480
668.500	417.539	80.008	19.993	104.103	19.101	58.462	0.480
669.000	417.805	80.008	19.993	104.103	19.089	59.383	0.509
669.500	418.041	80.008	19.993	104.104	19.077	60.300	0.514
670.000	418.296	80.007	19.994	104.100	19.060	61.549	0.496
670.500	418.566	80.007	19.994	104.095	19.048	62.504	0.508
671.000	418.780	80.007	19.992	104.094	19.035	63.457	0.505
671.500	419.068	80.007	19.994	104.094	19.024	64.354	0.493
672.000	419.351	80.007	19.994	104.093	19.013	65.133	0.536
672.500	419.570	80.009	19.993	104.101	19.004	65.836	0.536
673.000	419.804	80.007	19.994	104.108	18.992	66.770	0.477
673.500	420.054	80.007	19.994	104.107	18.980	67.712	0.469
674.000	420.312	80.006	19.993	104.106	18.970	68.432	0.497
674.500	420.603	80.006	19.993	104.106	18.959	69.267	0.529
675.000	420.860	80.006	19.993	104.100	18.948	70.113	0.549
675.501	421.078	80.005	19.993	104.098	18.938	70.901	0.511
676.001	421.379	80.007	19.994	104.096	18.925	71.883	0.497
676.500	421.618	80.006	19.995	104.090	18.915	72.697	0.529
677.000	421.858	80.007	19.994	104.085	18.906	73.361	0.509
677.500	422.126	80.007	19.993	104.087	18.893	74.359	0.493
678.000	422.331	80.005	19.992	104.094	18.886	74.890	0.491
678.500	422.591	80.007	19.994	104.105	18.875	75.772	0.469
679.000	422.844	80.007	19.995	104.118	18.864	76.671	0.489
679.500	423.091	80.006	19.993	104.131	18.853	77.494	0.507
680.000	423.329	80.007	19.994	104.140	18.840	78.435	0.493
680.500	423.550	80.006	19.992	104.148	18.832	79.040	0.472
681.000	423.852	80.007	19.995	104.158	18.821	79.891	0.491
681.500	424.070	80.006	19.993	104.171	18.811	80.592	0.521
682.000	424.346	80.006	19.991	104.185	18.799	81.458	0.507
682.500	424.574	80.006	19.996	104.194	18.787	82.396	0.499
683.000	424.809	80.007	19.995	104.202	18.773	83.429	0.484
683.500	425.067	80.008	19.995	104.214	18.760	84.367	0.478
684.000	425.330	80.006	19.994	104.220	18.747	85.370	0.507
684.500	425.554	80.009	19.993	104.225	18.732	86.525	0.503
685.000	425.758	80.007	19.994	104.234	18.718	87.523	0.457
685.500	426.011	80.007	19.994	104.242	18.699	89.030	0.443
686.000	426.288	80.008	19.993	104.244	18.677	90.692	0.493
686.500	426.564	80.008	19.994	104.255	18.651	92.739	0.542
687.000	426.751	80.009	19.993	104.268	18.621	95.061	0.509
687.500	427.017	80.007	19.994	104.284	18.584	97.872	0.458
688.000	427.252	80.008	19.992	104.300	18.549	100.627	0.477
688.500	427.533	80.008	19.993	104.315	18.512	103.482	0.508
689.000	427.820	80.008	19.993	104.332	18.481	105.874	0.542
689.500	428.046	80.008	19.994	104.383	18.454	107.960	0.540
690.000	428.301	80.007	19.994	104.407	18.429	109.895	0.497
690.500	428.537	80.008	19.993	104.404	18.405	111.663	0.486
691.000	428.778	80.007	19.994	104.399	18.387	113.049	0.485
691.500	429.063	80.008	19.994	104.387	18.370	114.260	0.502
692.000	429.310	80.010	19.994	104.337	18.356	115.343	0.528
692.500	429.558	80.008	19.994	104.303	18.344	116.202	0.513
693.000	429.793	80.009	19.994	104.282	18.332	117.104	0.489
693.500	430.084	80.008	19.993	104.264	18.320	118.082	0.504
694.000	430.342	80.009	19.994	104.239	18.307	119.116	0.538
694.500	430.558	80.009	19.994	104.213	18.283	120.956	0.512
695.000	430.796	80.009	19.993	104.194	18.262	122.634	0.464
695.500	431.054	80.008	19.995	104.184	18.241	124.380	0.475
696.000	431.315	80.009	19.993	104.168	18.218	126.293	0.507
696.500	431.557	80.008	19.993	104.178	18.200	127.727	0.511
697.000	431.828	80.008	19.994	104.215	18.182	129.146	0.508
697.500	432.105	80.008	19.993	104.247	18.163	130.588	0.530
698.000	432.318	80.007	19.992	104.294	18.149	131.665	0.519
698.500	432.599	80.007	19.993	104.365	18.135	132.662	0.492
699.000	432.835	80.008	19.994	104.427	18.120	133.744	0.505
699.500	433.119	80.007	19.995	104.461	18.110	134.501	0.518
700.000	433.356	80.007	19.995	104.498	18.100	135.131	0.521
700.500	433.624	80.006	19.993	104.524	18.097	135.283	0.513
701.000	433.879	80.006	19.993	104.518	18.089	135.735	0.514
701.500	434.097	80.006	19.995	104.494	18.081	136.273	0.498
702.000	434.397	80.006	19.995	104.477	18.070	137.025	0.496
702.501	434.620	80.006	19.994	104.460	18.055	138.083	0.520
703.000	434.856	80.004	19.995	104.436	18.037	139.389	0.491
703.500	435.101	80.005	19.994	104.418	18.007	141.592	0.470
704.000	435.380	80.006	19.995	104.411	17.975	144.045	0.503
704.500	435.632	80.006	19.994	104.422	17.928	147.645	0.528
705.000	435.891	80.005	19.996	104.452	17.873	152.027	0.521
705.500	436.120	80.006	19.992	104.508	17.818	156.375	0.499
706.000	436.371	80.004	19.996	104.582	17.756	161.256	0.484
706.500	436.660	80.005	19.994	104.675	17.698	165.777	0.510
707.000	436.883	80.005	19.995	104.794	17.648	169.723	0.526
707.500	437.103	80.005	19.994	104.862	17.597	173.634	0.477
708.000	437.422	80.006	19.995	104.891	17.554	176.956	0.491
708.500	437.664	80.006	19.994	104.908	17.518	179.734	0.550
709.000	437.897	80.005	19.994	104.902	17.482	182.489	0.518
709.500	438.166	80.006	19.994	104.844	17.456	184.483	0.489
710.000	438.400	80.004	19.993	104.800	17.427	186.677	0.502
710.500	438.673	80.006	19.994	104.751	17.402	188.519	0.505
711.000	438.944	80.005	19.994	104.683	17.387	189.733	0.525
711.501	439.183	80.007	19.993	104.597	17.367	191.249	0.527
712.001	439.427	80.006	19.993	104.509	17.357	192.004	0.497
712.500	439.680	80.005	19.993	104.428	17.347	192.757	0.490
713.000	439.928	80.006	19.993	104.359	17.333	193.769	0.499
713.500	440.226	80.005	19.993	104.295	17.329	194.118	0.524
714.000	440.453	80.005	19.993	104.239	17.321	194.691	0.535
714.500	440.720	80.004	19.993	104.210	17.318	194.962	0.510
715.000	440.979	80.006	19.994	104.220	17.311	195.459	0.510
715.500	441.228	80.007	19.992	104.272	17.307	195.766	0.517
716.000	441.496	80.007	19.993	104.363	17.304	196.023	0.512
716.500	441.727	80.006	19.993	104.477	17.304	195.988	0.508
717.000	441.965	80.006	19.993	104.585	17.307	195.793	0.484
717.500	442.236	80.006	19.993	104.671	17.302	196.124	0.489
718.000	442.490	80.005	19.993	104.732	17.306	195.815	0.517
718.500	442.736	80.007	19.994	104.769	17.307	195.743	0.512
719.000	443.024	80.007	19.994	104.785	17.309	195.611	0.517
719.500	443.289	80.007	19.992	104.789	17.312	195.345	0.544
720.000	443.506	80.006	19.993	104.784	17.315	195.127	0.518
720.500	443.781	80.006	19.994	104.776	17.316	194.975	0.487
721.000	444.047	80.007	19.993	104.767	17.322	194.520	0.516
721.500	444.282	80.006	19.994	104.765	17.324	194.398	0.520
722.000	444.546	80.007	19.993	104.764	17.327	194.163	0.500
722.500	444.803	80.006	19.994	104.760	17.329	193.955	0.510
723.000	445.097	80.006	19.995	104.754	17.336	193.414	0.536
723.500	445.313	80.006	19.993	104.750	17.334	193.553	0.531
724.000	445.582	80.007	19.993	104.748	17.336	193.389	0.498
724.500	445.815	80.005	19.993	104.744	17.341	192.986	0.494
725.000	446.101	80.007	19.994	104.745	17.344	192.762	0.510
725.500	446.330	80.005	19.993	104.746	17.348	192.441	0.517
726.000	446.597	80.006	19.992	104.748	17.352	192.117	0.505
726.500	446.884	80.005	19.993	104.748	17.352	192.114	0.524
727.000	447.156	80.007	19.992	104.748	17.358	191.662	0.556
727.500	447.401	80.007	19.992	104.744	17.363	191.285	0.538
728.000	447.673	80.005	19.992	104.741	17.366	191.020	0.517
728.500	447.951	80.008	19.992	104.740	17.372	190.612	0.534
729.000	448.176	80.007	19.994	104.734	17.378	190.132	0.526
729.500	448.452	80.006	19.994	104.731	17.383	189.700	0.502
730.000	448.701	80.005	19.994	104.726	17.389	189.270	0.513
730.500	448.983	80.007	19.992	104.718	17.394	188.848	0.528
731.000	449.224	80.005	19.993	104.709	17.406	187.944	0.527
731.500	449.484	80.005	19.994	104.702	17.411	187.583	0.512
732.000	449.778	80.006	19.993	104.695	17.418	186.971	0.527
732.500	450.014	80.005	19.993	104.692	17.428	186.202	0.541
733.000	450.298	80.006	19.993	104.689	17.438	185.490	0.525
733.500	450.553	80.005	19.993	104.682	17.445	184.913	0.530
734.000	450.789	80.008	19.993	104.673	17.458	183.940	0.515
734.500	451.046	80.006	19.992	104.665	17.469	183.046	0.492
735.000	451.307	80.005	19.994	104.657	17.482	182.063	0.506
735.500	451.578	80.006	19.992	104.651	17.490	181.402	0.525
736.000	451.836	80.006	19.993	104.650	17.506	180.230	0.530
736.500	452.090	80.006	19.992	104.648	17.524	178.843	0.521
737.000	452.344	80.007	19.993	104.645	17.534	178.054	0.511
737.500	452.594	80.006	19.994	104.645	17.548	176.960	0.506
738.000	452.861	80.005	19.993	104.641	17.564	175.750	0.510
738.500	453.120	80.004	19.994	104.635	17.583	174.265	0.521
739.000	453.376	80.006	19.993	104.629	17.595	173.296	0.521
739.500	453.634	80.008	19.994	104.623	17.612	172.012	0.514
740.000	453.889	80.006	19.993	104.616	17.628	170.774	0.514
740.501	454.131	80.005	19.993	104.611	17.649	169.189	0.506
741.000	454.399	80.006	19.994	104.609	17.668	167.739	0.503
741.500	454.658	80.007	19.994	104.604	17.685	166.412	0.518
742.000	454.904	80.005	19.993	104.598	17.705	164.904	0.516
742.500	455.182	80.006	19.994	104.590	17.726	163.281	0.514
743.001	455.435	80.007	19.996	104.584	17.744	161.846	0.527
743.500	455.722	80.006	19.994	104.577	17.766	160.181	0.536
744.000	455.944	80.006	19.993	104.573	17.785	158.721	0.525
744.500	456.214	80.006	19.993	104.570	17.806	157.148	0.500
745.000	456.487	80.006	19.993	104.564	17.829	155.355	0.518
745.500	456.751	80.005	19.993	104.555	17.852	153.572	0.540
746.000	457.006	80.006	19.994	104.547	17.877	151.688	0.528
746.500	457.228	80.008	19.994	104.538	17.899	149.975	0.498
747.000	457.500	80.007	19.994	104.527	17.924	148.053	0.486
747.500	457.746	80.006	19.992	104.519	17.944	146.509	0.506
748.000	458.002	80.007	19.993	104.512	17.971	144.456	0.510
748.500	458.271	80.007	19.993	104.504	17.997	142.472	0.514
749.000	458.575	80.008	19.994	104.494	18.020	140.710	0.549
749.500	458.763	80.009	19.993	104.484	18.045	138.774	0.532
750.000	459.052	80.008	19.993	104.476	18.067	137.162	0.485
750.500	459.313	80.009	19.993	104.468	18.095	135.000	0.513
751.000	459.567	80.008	19.992	104.459	18.118	133.257	0.532
751.500	459.843	80.008	19.994	104.450	18.148	130.943	0.522
752.000	460.066	80.007	19.993	104.442	18.171	129.143	0.515
752.500	460.329	80.009	19.993	104.433	18.196	127.225	0.493
753.000	460.597	80.008	19.993	104.425	18.221	125.374	0.508
753.500	460.843	80.007	19.993	104.419	18.249	123.173	0.523
754.000	461.115	80.008	19.992	104.411	18.273	121.418	0.517
754.500	461.320	80.008	19.992	104.401	18.297	119.588	0.498
755.000	461.593	80.009	19.993	104.393	18.326	117.375	0.477
755.500	461.881	80.009	19.993	104.384	18.351	115.413	0.519
756.000	462.174	80.009	19.992	104.374	18.375	113.601	0.571
756.500	462.388	80.007	19.994	104.364	18.400	111.705	0.544
757.000	462.673	80.009	19.993	104.357	18.430	109.432	0.503
757.500	462.916	80.008	19.994	104.348	18.455	107.520	0.513
758.000	463.153	80.008	19.993	104.335	18.484	105.329	0.504
758.500	463.425	80.007	19.994	104.322	18.512	103.172	0.495
759.000	463.677	80.008	19.994	104.314	18.543	100.856	0.516
759.500	463.920	80.008	19.993	104.306	18.567	98.997	0.510
760.000	464.166	80.008	19.993	104.297	18.599	96.567	0.492
760.500	464.449	80.007	19.994	104.288	18.624	94.642	0.509
761.000	464.699	80.008	19.993	104.280	18.649	92.765	0.531
761.500	464.906	80.007	19.994	104.271	18.678	90.535	0.495
762.000	465.199	80.008	19.994	104.260	18.707	88.335	0.479
762.500	465.445	80.007	19.994	104.247	18.736	86.119	0.519
763.000	465.719	80.007	19.994	104.238	18.763	84.063	0.529
763.500	465.967	80.007	19.994	104.229	18.789	82.085	0.521
764.000	466.186	80.007	19.995	104.220	18.816	80.007	0.495
764.500	466.453	80.008	19.994	104.211	18.845	77.830	0.477
765.000	466.720	80.006	19.995	104.205	18.869	76.002	0.510
765.500	467.004	80.007	19.994	104.198	18.893	74.200	0.542
766.000	467.229	80.007	19.995	104.191	18.920	72.107	0.530
766.500	467.507	80.007	19.993	104.186	18.947	70.050	0.506
767.000	467.774	80.009	19.994	104.182	18.971	68.207	0.524
767.500	467.989	80.008	19.994	104.178	18.997	66.244	0.514
768.000	468.261	80.007	19.994	104.177	19.017	64.780	0.485
768.500	468.501	80.008	19.994	104.174	19.039	63.075	0.500
769.000	468.799	80.008	19.996	104.166	19.061	61.398	0.525
769.500	469.036	80.009	19.994	104.159	19.083	59.731	0.536
770.000	469.266	80.006	19.994	104.151	19.104	58.173	0.501
770.500	469.562	80.008	19.993	104.144	19.120	56.888	0.497
771.000	469.827	80.008	19.995	104.135	19.143	55.194	0.543
771.500	470.061	80.008	19.993	104.128	19.161	53.789	0.530
772.000	470.323	80.009	19.993	104.120	19.181	52.307	0.498
772.500	470.595	80.009	19.993	104.112	19.199	50.913	0.515
773.000	470.839	80.009	19.994	104.102	19.214	49.762	0.525
773.500	471.141	80.008	19.993	104.091	19.231	48.533	0.531
774.000	471.345	80.008	19.994	104.086	19.248	47.233	0.526
774.500	471.638	80.008	19.993	104.079	19.266	45.832	0.501
775.000	471.866	80.008	19.994	104.071	19.283	44.546	0.509
775.500	472.090	80.009	19.993	104.063	19.299	43.304	0.487
776.000	472.396	80.009	19.994	104.057	19.313	42.276	0.491
776.500	472.618	80.009	19.992	104.049	19.324	41.440	0.528
777.000	472.917	80.009	19.994	104.041	19.335	40.600	0.524
777.500	473.137	80.009	19.992	104.034	19.352	39.292	0.520
778.000	473.447	80.008	19.993	104.029	19.362	38.562	0.525
778.500	473.707	80.008	19.994	104.027	19.374	37.638	0.550
779.000	473.976	80.008	19.993	104.023	19.387	36.663	0.550
779.500	474.204	80.009	19.993	104.016	19.398	35.833	0.513
780.000	474.471	80.007	19.993	104.009	19.408	35.088	0.496
780.500	474.740	80.008	19.993	104.002	19.421	34.116	0.516
781.000	475.036	80.008	19.993	103.994	19.432	33.230	0.550
781.500	475.290	80.009	19.993	103.988	19.442	32.495	0.557
782.000	475.533	80.008	19.993	103.986	19.448	32.007	0.524
782.500	475.793	80.008	19.993	103.984	19.458	31.270	0.500
783.000	476.023	80.007	19.993	103.982	19.468	30.524	0.497
783.500	476.289	80.006	19.994	103.978	19.476	29.942	0.493
784.000	476.568	80.006	19.995	103.970	19.487	29.100	0.520
784.500	476.809	80.004	19.993	103.963	19.496	28.433	0.532
785.000	477.041	80.006	19.994	103.957	19.502	27.947	0.497
785.500	477.298	80.005	19.993	103.951	19.513	27.099	0.481
786.000	477.572	80.006	19.994	103.947	19.519	26.619	0.509
786.500	477.837	80.005	19.993	103.946	19.525	26.203	0.535
787.000	478.067	80.005	19.994	103.945	19.537	25.257	0.517
787.500	478.340	80.006	19.994	103.945	19.544	24.742	0.499
788.000	478.557	80.005	19.993	103.945	19.550	24.292	0.496
788.500	478.844	80.005	19.993	103.942	19.555	23.914	0.497
789.000	479.136	80.006	19.994	103.939	19.564	23.236	0.542
789.500	479.393	80.005	19.995	103.936	19.569	22.865	0.564
790.000	479.619	80.006	19.995	103.931	19.576	22.303	0.516
790.500	479.890	80.004	19.995	103.924	19.587	21.532	0.490
791.000	480.163	80.005	19.994	103.920	19.591	21.185	0.520
791.500	480.396	80.005	19.993	103.918	19.598	20.659	0.525
792.000	480.677	80.006	19.993	103.914	19.601	20.421	0.510
792.500	480.916	80.003	19.995	103.912	19.606	20.038	0.517
793.000	481.159	80.005	19.994	103.911	19.611	19.649	0.501
793.500	481.462	80.005	19.994	103.912	19.612	19.582	0.514
794.000	481.694	80.005	19.994	103.910	19.618	19.151	0.540
794.500	481.986	80.005	19.995	103.910	19.628	18.386	0.529
795.000	482.229	80.006	19.994	103.910	19.631	18.147	0.530
795.500	482.471	80.005	19.995	103.910	19.633	17.976	0.510
796.000	482.723	80.005	19.994	103.910	19.643	17.293	0.490
796.500	482.959	80.006	19.993	103.908	19.644	17.180	0.491
797.000	483.225	80.005	19.995	103.907	19.648	16.900	0.495
797.500	483.491	80.006	19.993	103.906	19.650	16.699	0.517
798.000	483.745	80.005	19.994	103.901	19.656	16.275	0.526
798.500	483.978	80.006	19.994	103.897	19.659	16.056	0.504
799.000	484.278	80.005	19.994	103.892	19.659	16.042	0.510
799.500	484.538	80.007	19.993	103.887	19.669	15.323	0.546
800.000	484.772	80.004	19.994	103.881	19.669	15.254	0.527
800.500	485.039	80.007	19.994	103.879	19.675	14.864	0.498
801.000	485.335	80.006	19.994	103.877	19.679	14.547	0.532
801.500	485.596	80.006	19.996	103.879	19.680	14.415	0.560
802.000	485.847	80.006	19.992	103.881	19.683	14.205	0.534
802.500	486.099	80.005	19.995	103.885	19.687	13.951	0.507
803.000	486.347	80.007	19.995	103.888	19.688	13.813	0.502
803.500	486.629	80.007	19.995	103.890	19.692	13.525	0.515
804.000	486.881	80.007	19.994	103.886	19.696	13.230	0.532
804.500	487.148	80.007	19.994	103.880	19.700	12.958	0.527
805.000	487.416	80.008	19.993	103.875	19.703	12.676	0.527
805.500	487.662	80.008	19.994	103.869	19.706	12.456	0.524
806.000	487.923	80.006	19.994	103.866	19.707	12.413	0.510
806.500	488.174	80.007	19.994	103.866	19.710	12.181	0.509
807.000	488.437	80.007	19.993	103.865	19.713	11.981	0.513
807.500	488.685	80.006	19.994	103.865	19.716	11.747	0.513
808.000	488.951	80.005	19.994	103.865	19.716	11.697	0.513
808.500	489.173	80.008	19.993	103.864	19.722	11.245	0.501
809.000	489.465	80.007	19.994	103.863	19.723	11.227	0.501
809.500	489.720	80.006	19.992	103.862	19.723	11.190	0.530
810.000	489.992	80.007	19.993	103.859	19.725	11.021	0.537
810.500	490.256	80.007	19.994	103.853	19.728	10.850	0.532
811.000	490.532	80.006	19.994	103.847	19.731	10.585	0.538
811.500	490.757	80.006	19.993	103.842	19.735	10.311	0.520
812.000	491.035	80.007	19.993	103.836	19.734	10.326	0.502
812.500	491.313	80.006	19.994	103.833	19.739	9.980	0.529
813.000	491.533	80.006	19.994	103.835	19.740	9.941	0.527
813.500	491.819	80.005	19.994	103.837	19.743	9.686	0.502
814.001	492.066	80.007	19.993	103.835	19.740	9.873	0.520
814.500	492.343	80.006	19.994	103.834	19.743	9.667	0.528
815.000	492.583	80.007	19.992	103.832	19.744	9.601	0.520
815.500	492.847	80.008	19.992	103.830	19.745	9.519	0.510
816.000	493.120	80.006	19.994	103.828	19.749	9.192	0.521
816.500	493.420	80.006	19.994	103.828	19.750	9.167	0.555
817.000	493.664	80.007	19.993	103.828	19.749	9.214	0.558
817.500	493.898	80.005	19.993	103.828	19.752	9.018	0.511
818.000	494.180	80.007	19.993	103.828	19.756	8.708	0.497
818.500	494.454	80.006	19.993	103.828	19.758	8.535	0.536
819.000	494.688	80.005	19.994	103.827	19.756	8.666	0.533
819.500	494.950	80.007	19.994	103.828	19.762	8.253	0.502
820.000	495.210	80.006	19.993	103.828	19.765	8.015	0.509
820.500	495.466	80.005	19.994	103.828	19.760	8.358	0.519
821.000	495.755	80.006	19.993	103.828	19.763	8.200	0.531
821.500	496.016	80.006	19.993	103.828	19.766	7.918	0.547
822.000	496.304	80.006	19.995	103.828	19.769	7.724	0.549
822.500	496.565	80.007	19.994	103.828	19.769	7.718	0.549
823.000	496.793	80.006	19.994	103.828	19.770	7.618	0.519
823.500	497.088	80.007	19.995	103.827	19.770	7.620	0.506
824.000	497.317	80.006	19.994	103.825	19.770	7.644	0.524
824.500	497.606	80.007	19.993	103.822	19.772	7.492	0.521
825.001	497.862	80.005	19.993	103.822	19.776	7.191	0.531
825.500	498.144	80.007	19.993	103.821	19.776	7.208	0.541
826.000	498.377	80.006	19.994	103.821	19.778	7.041	0.527
826.500	498.654	80.007	19.994	103.820	19.777	7.115	0.513
827.000	498.915	80.007	19.993	103.822	19.776	7.212	0.524
827.500	499.167	80.005	19.994	103.822	19.777	7.068	0.526
828.000	499.396	80.008	19.993	103.817	19.779	6.965	0.497
828.500	499.649	80.008	19.992	103.812	19.780	6.857	0.481
829.000	499.943	80.008	19.993	103.810	19.782	6.737	0.515
829.500	500.183	80.007	19.993	103.809	19.781	6.815	0.541
830.000	500.504	80.007	19.993	103.807	19.782	6.735	0.548
830.500	500.737	80.008	19.992	103.807	19.785	6.509	0.558
831.000	500.987	80.006	19.995	103.807	19.782	6.712	0.518
831.500	501.211	80.008	19.993	103.805	19.785	6.482	0.478
832.000	501.507	80.008	19.993	103.804	19.784	6.599	0.497
832.500	501.764	80.009	19.993	103.803	19.783	6.669	0.536
833.000	502.030	80.008	19.994	103.801	19.787	6.342	0.538
833.500	502.272	80.007	19.993	103.804	19.788	6.299	0.515
834.000	502.526	80.008	19.992	103.807	19.787	6.326	0.502
834.500	502.819	80.007	19.994	103.802	19.788	6.299	0.522
835.001	503.046	80.009	19.992	103.800	19.787	6.363	0.534
835.500	503.328	80.007	19.992	103.800	19.789	6.190	0.515
836.000	503.564	80.008	19.993	103.795	19.787	6.328	0.513
836.500	503.835	80.008	19.991	103.791	19.789	6.184	0.513
837.000	504.110	80.007	19.993	103.791	19.789	6.221	0.527
837.500	504.346	80.007	19.994	103.793	19.788	6.268	0.528
838.000	504.620	80.008	19.992	103.793	19.790	6.126	0.511
838.500	504.879	80.006	19.992	103.793	19.792	5.982	0.522
839.000	505.156	80.009	19.993	103.796	19.788	6.243	0.534
839.500	505.401	80.008	19.993	103.799	19.789	6.196	0.529
840.000	505.631	80.008	19.992	103.798	19.792	5.982	0.498
840.501	505.907	80.009	19.993	103.798	19.790	6.093	0.491
841.001	506.134	80.007	19.993	103.798	19.790	6.099	0.505
841.500	506.431	80.007	19.994	103.795	19.794	5.824	0.514
842.000	506.700	80.008	19.994	103.793	19.792	5.980	0.545
842.500	506.890	80.006	19.992	103.793	19.793	5.910	0.512
843.000	507.189	80.008	19.992	103.793	19.796	5.694	0.473
843.500	507.427	80.009	19.992	103.795	19.794	5.826	0.513
844.000	507.674	80.007	19.994	103.795	19.791	6.021	0.511
844.500	507.960	80.007	19.993	103.794	19.793	5.865	0.509
845.000	508.236	80.007	19.994	103.795	19.794	5.844	0.548
845.500	508.442	80.007	19.992	103.794	19.794	5.799	0.522
846.000	508.716	80.007	19.993	103.793	19.796	5.692	0.481
846.500	508.971	80.008	19.992	103.792	19.798	5.548	0.505
847.000	509.220	80.007	19.992	103.793	19.797	5.596	0.517
847.500	509.473	80.007	19.992	103.793	19.800	5.341	0.503
848.000	509.747	80.007	19.994	103.793	19.801	5.308	0.515
848.500	509.997	80.007	19.994	103.792	19.799	5.409	0.525
849.000	510.227	80.007	19.991	103.793	19.798	5.528	0.502
849.500	510.500	80.007	19.993	103.791	19.802	5.244	0.492
850.000	510.715	80.008	19.993	103.791	19.798	5.528	0.495
850.500	511.009	80.006	19.992	103.791	19.801	5.294	0.498
851.000	511.220	80.008	19.993	103.791	19.800	5.388	0.507
851.500	511.502	80.008	19.993	103.790	19.801	5.277	0.499
852.000	511.768	80.007	19.993	103.791	19.801	5.279	0.520
852.500	511.996	80.006	19.993	103.790	19.802	5.189	0.521
853.000	512.274	80.006	19.992	103.790	19.800	5.351	0.500
853.500	512.479	80.008	19.993	103.790	19.804	5.086	0.494
854.000	512.756	80.007	19.994	103.790	19.804	5.098	0.482
854.500	512.993	80.007	19.992	103.789	19.801	5.267	0.498
855.000	513.262	80.006	19.994	103.789	19.803	5.117	0.510
855.500	513.499	80.009	19.993	103.789	19.801	5.312	0.506
856.000	513.780	80.007	19.992	103.789	19.803	5.158	0.512
856.500	514.052	80.009	19.993	103.790	19.803	5.168	0.536
857.000	514.326	80.009	19.992	103.790	19.803	5.135	0.549
857.500	514.520	80.009	19.995	103.790	19.802	5.232	0.507
858.000	514.832	80.007	19.994	103.790	19.802	5.231	0.487
858.500	515.068	80.009	19.992	103.788	19.803	5.141	0.527
859.000	515.333	80.007	19.991	103.787	19.802	5.207	0.525
859.500	515.570	80.007	19.993	103.787	19.801	5.316	0.502
860.000	515.835	80.007	19.992	103.787	19.800	5.377	0.502
860.500	516.098	80.008	19.994	103.787	19.803	5.162	0.515
861.000	516.401	80.009	19.992	103.789	19.800	5.347	0.547
861.500	516.643	80.009	19.993	103.789	19.800	5.349	0.555
862.000	516.885	80.008	19.992	103.790	19.801	5.324	0.514
862.500	517.152	80.007	19.993	103.789	19.802	5.244	0.496
863.000	517.416	80.007	19.996	103.790	19.802	5.215	0.520
863.500	517.629	80.008	19.992	103.789	19.802	5.176	0.504
864.000	517.872	80.007	19.995	103.789	19.805	5.018	0.467
864.500	518.130	80.009	19.992	103.789	19.802	5.185	0.479
865.000	518.342	80.006	19.994	103.788	19.803	5.154	0.485
865.500	518.659	80.007	19.993	103.788	19.801	5.306	0.499
866.000	518.875	80.007	19.994	103.787	19.804	5.090	0.531
866.500	519.142	80.006	19.993	103.787	19.806	4.940	0.508
867.000	519.416	80.005	19.994	103.786	19.804	5.071	0.513
867.500	519.626	80.007	19.993	103.782	19.804	5.065	0.512
868.000	519.940	80.007	19.993	103.782	19.803	5.125	0.503
868.500	520.095	80.007	19.994	103.782	19.807	4.872	0.496
869.000	520.396	80.006	19.994	103.781	19.806	4.919	0.463
869.500	520.640	80.006	19.993	103.781	19.806	4.941	0.500
870.001	520.914	80.007	19.993	103.782	19.801	5.279	0.531
870.501	521.175	80.007	19.993	103.782	19.805	4.989	0.527
871.000	521.349	80.007	19.993	103.781	19.803	5.116	0.485
871.500	521.613	80.007	19.994	103.780	19.806	4.886	0.437
872.000	521.933	80.007	19.993	103.782	19.804	5.059	0.512
872.500	522.084	80.005	19.993	103.784	19.805	4.962	0.528
873.000	522.354	80.007	19.993	103.783	19.805	4.958	0.446
873.501	522.625	80.007	19.992	103.784	19.803	5.123	0.481
874.000	522.841	80.007	19.993	103.787	19.803	5.125	0.514
874.500	523.131	80.006	19.993	103.787	19.805	4.979	0.496
875.000	523.406	80.007	19.994	103.788	19.802	5.221	0.535
875.500	523.591	80.007	19.993	103.788	19.804	5.081	0.512
876.000	523.924	80.006	19.994	103.788	19.805	5.016	0.489
876.500	524.101	80.007	19.992	103.788	19.807	4.849	0.514
877.000	524.377	80.006	19.994	103.788	19.804	5.092	0.482
877.500	524.584	80.007	19.994	103.788	19.809	4.703	0.468
878.000	524.911	80.007	19.992	103.788	19.800	5.330	0.509
878.500	525.119	80.007	19.994	103.788	19.811	4.537	0.535
879.000	525.387	80.007	19.993	103.786	19.811	4.510	0.505
879.500	525.568	80.007	19.994	103.781	19.800	5.349	0.462
880.000	525.913	80.006	19.993	103.778	19.799	5.429	0.487
880.500	526.115	80.007	19.994	103.778	19.804	5.040	0.537
881.000	526.369	80.006	19.993	103.778	19.797	5.560	0.502
881.500	526.613	80.007	19.994	103.779	19.814	4.331	0.477
882.000	526.860	80.007	19.995	103.783	19.804	5.069	0.494
882.500	527.126	80.006	19.994	103.785	19.804	5.026	0.502
883.000	527.433	80.007	19.993	103.785	19.799	5.449	0.543
883.500	527.621	80.006	19.993	103.785	19.805	4.991	0.534
884.000	527.847	80.004	19.995	103.785	19.801	5.307	0.454
884.501	528.189	80.006	19.994	103.784	19.803	5.170	0.492
885.001	528.376	80.005	19.994	103.785	19.803	5.116	0.549
885.500	528.681	80.007	19.993	103.784	19.806	4.927	0.510
886.000	528.915	80.007	19.995	103.779	19.805	4.950	0.515
886.500	529.124	80.005	19.995	103.779	19.805	4.991	0.491
887.000	529.422	80.007	19.994	103.781	19.803	5.112	0.475
887.500	529.680	80.007	19.994	103.782	19.801	5.279	0.531
888.000	529.842	80.007	19.994	103.782	19.806	4.936	0.488
888.500	530.127	80.007	19.995	103.786	19.804	5.071	0.434
889.000	530.318	80.007	19.994	103.786	19.802	5.192	0.462
889.500	530.674	80.006	19.993	103.785	19.806	4.890	0.511
890.000	530.923	80.007	19.994	103.784	19.807	4.843	0.575
890.500	531.127	80.006	19.994	103.782	19.807	4.851	0.529
891.000	531.359	80.008	19.996	103.780	19.804	5.057	0.444
891.500	531.795	80.006	19.996	103.781	19.803	5.143	0.552
892.000	531.799	80.006	19.994	103.782	19.802	5.227	0.554
892.500	532.667	80.007	19.995	103.783	19.802	5.213	0.657
893.000	532.876	80.007	19.993	103.783	19.806	4.884	0.975
893.500	532.820	80.006	19.994	103.784	19.803	5.102	0.615
894.000	532.492	80.006	19.994	103.783	19.803	5.106	-0.116
894.500	533.159	80.005	19.994	103.780	19.804	5.050	-0.023
895.000	532.793	80.006	19.994	103.778	19.804	5.095	0.320
895.500	533.648	80.005	19.994	103.778	19.807	4.816	0.395
896.000	534.268	80.006	19.995	103.777	19.805	4.974	0.982
896.500	534.017	80.006	19.995	103.774	19.807	4.802	0.921
897.000	534.281	80.007	19.994	103.776	19.803	5.119	0.191
897.500	534.646	80.005	19.995	103.778	19.806	4.921	0.321
898.000	534.648	80.007	19.995	103.779	19.806	4.939	0.498
898.500	535.054	80.006	19.994	103.783	19.807	4.845	0.387
899.000	535.350	80.007	19.996	103.784	19.805	4.991	0.555
899.500	535.533	80.006	19.994	103.781	19.804	5.026	0.590
900.000	535.879	80.006	19.995	103.779	19.805	5.003	0.504
900.500	536.170	80.005	19.993	103.779	19.804	5.065	0.583
901.000	536.323	80.005	19.994	103.778	19.807	4.872	0.541
901.500	536.386	80.005	19.993	103.779	19.805	4.989	0.330
902.000	536.826	80.005	19.993	103.782	19.802	5.205	0.359
902.500	537.141	80.006	19.993	103.781	19.804	5.069	0.629
903.000	537.131	80.005	19.993	103.777	19.808	4.744	0.530
903.500	537.624	80.005	19.993	103.774	19.805	5.013	0.394
904.000	537.677	80.006	19.993	103.772	19.805	4.991	0.515
904.500	538.088	80.006	19.994	103.772	19.807	4.869	0.505
905.000	538.346	80.005	19.993	103.772	19.806	4.929	0.567
905.501	538.378	80.005	19.993	103.770	19.808	4.761	0.479
906.000	538.682	80.006	19.994	103.771	19.806	4.876	0.313
906.500	538.972	80.007	19.993	103.773	19.807	4.847	0.465
907.000	539.306	80.006	19.993	103.774	19.807	4.802	0.609
907.500	539.347	80.006	19.993	103.778	19.806	4.876	0.499
908.000	539.813	80.006	19.995	103.784	19.807	4.860	0.441
908.500	539.947	80.005	19.995	103.782	19.808	4.741	0.554
909.000	540.118	80.008	19.994	103.779	19.810	4.619	0.452
909.500	540.501	80.008	19.993	103.777	19.806	4.942	0.429
910.001	540.618	80.008	19.993	103.776	19.805	4.966	0.527
910.500	540.913	80.008	19.994	103.775	19.808	4.769	0.456
911.000	541.146	80.008	19.994	103.778	19.805	5.009	0.470
911.500	541.405	80.007	19.993	103.781	19.804	5.096	0.510
912.000	541.668	80.007	19.993	103.784	19.804	5.030	0.507
912.500	541.885	80.008	19.993	103.785	19.807	4.832	0.501
913.000	542.067	80.007	19.993	103.786	19.804	5.042	0.440
913.500	542.370	80.008	19.994	103.783	19.804	5.046	0.442
914.000	542.646	80.007	19.994	103.781	19.805	4.997	0.532
914.500	542.818	80.010	19.992	103.776	19.804	5.063	0.513
915.000	543.116	80.009	19.993	103.773	19.804	5.065	0.459
915.500	543.269	80.008	19.993	103.771	19.803	5.106	0.461
916.000	543.606	80.008	19.993	103.774	19.806	4.909	0.471
916.500	543.806	80.008	19.993	103.777	19.805	5.012	0.514
917.000	544.083	80.008	19.992	103.780	19.807	4.866	0.507
917.500	544.288	80.008	19.994	103.784	19.804	5.028	0.479
918.000	544.532	80.008	19.993	103.786	19.806	4.940	0.465
918.500	544.756	80.008	19.993	103.788	19.803	5.156	0.459
919.000	545.032	80.008	19.994	103.789	19.803	5.119	0.484
919.500	545.300	80.008	19.993	103.789	19.805	4.981	0.522
920.000	545.535	80.008	19.993	103.784	19.804	5.057	0.523
920.500	545.773	80.007	19.993	103.780	19.805	5.009	0.488
921.000	546.036	80.009	19.992	103.779	19.801	5.274	0.487
921.500	546.228	80.008	19.992	103.778	19.803	5.169	0.478
922.000	546.530	80.007	19.993	103.777	19.801	5.285	0.474
922.500	546.805	80.008	19.992	103.776	19.802	5.233	0.535
923.000	547.018	80.007	19.994	103.776	19.802	5.229	0.532
923.500	547.249	80.008	19.993	103.775	19.801	5.254	0.466
924.000	547.529	80.007	19.994	103.774	19.800	5.375	0.478
924.500	547.730	80.007	19.993	103.773	19.804	5.044	0.496
925.000	548.051	80.007	19.993	103.777	19.801	5.288	0.502
925.500	548.227	80.007	19.994	103.780	19.804	5.042	0.509
926.000	548.496	80.007	19.994	103.780	19.803	5.106	0.470
926.500	548.689	80.007	19.993	103.782	19.804	5.028	0.453
927.000	548.999	80.007	19.992	103.785	19.806	4.878	0.482
927.500	549.261	80.007	19.994	103.787	19.805	5.012	0.538
928.000	549.499	80.007	19.993	103.789	19.807	4.798	0.536
928.500	549.764	80.007	19.993	103.790	19.804	5.054	0.502
929.000	550.024	80.007	19.993	103.789	19.802	5.190	0.514
929.500	550.237	80.006	19.995	103.785	19.802	5.244	0.499
930.000	550.472	80.008	19.993	103.783	19.803	5.102	0.461
930.500	550.721	80.008	19.993	103.779	19.801	5.260	0.466
931.000	550.997	80.008	19.993	103.777	19.803	5.104	0.505
931.500	551.234	80.007	19.993	103.774	19.804	5.057	0.519
932.000	551.474	80.008	19.992	103.774	19.801	5.277	0.495
932.500	551.730	80.009	19.993	103.774	19.803	5.149	0.487
933.000	551.994	80.009	19.993	103.778	19.805	4.966	0.508
933.500	552.251	80.008	19.993	103.775	19.805	5.003	0.520
934.000	552.495	80.008	19.993	103.773	19.803	5.170	0.510
934.500	552.747	80.009	19.992	103.771	19.807	4.868	0.499
935.000	552.971	80.008	19.992	103.768	19.804	5.061	0.486
935.500	553.217	80.008	19.993	103.766	19.802	5.209	0.473
936.000	553.474	80.008	19.992	103.770	19.803	5.143	0.486
936.500	553.753	80.007	19.993	103.775	19.805	5.018	0.520
937.001	554.005	80.009	19.993	103.779	19.807	4.843	0.534
937.500	554.224	80.010	19.993	103.784	19.806	4.903	0.500
938.000	554.507	80.009	19.993	103.786	19.805	4.987	0.486
938.500	554.788	80.010	19.992	103.783	19.805	4.962	0.534
939.000	555.019	80.010	19.992	103.778	19.804	5.059	0.538
939.500	555.308	80.009	19.992	103.777	19.802	5.191	0.516
940.000	555.571	80.009	19.992	103.776	19.803	5.102	0.536
940.500	555.831	80.011	19.992	103.776	19.802	5.211	0.537
941.000	556.038	80.011	19.992	103.780	19.806	4.938	0.495
941.500	556.306	80.010	19.993	103.785	19.807	4.855	0.471
942.000	556.572	80.009	19.995	103.787	19.804	5.092	0.504
942.500	556.829	80.010	19.994	103.787	19.808	4.769	0.529
943.000	557.058	80.010	19.993	103.785	19.806	4.899	0.505
943.500	557.319	80.010	19.994	103.783	19.807	4.845	0.488
944.000	557.546	80.010	19.993	103.784	19.805	4.991	0.489
944.500	557.832	80.011	19.992	103.781	19.809	4.648	0.501
945.000	558.025	80.009	19.992	103.781	19.807	4.800	0.496
945.500	558.352	80.009	19.992	103.783	19.808	4.792	0.499
946.000	558.607	80.008	19.993	103.784	19.806	4.880	0.551
946.500	558.835	80.009	19.994	103.783	19.807	4.859	0.532
947.000	559.136	80.009	19.992	103.784	19.806	4.921	0.506
947.500	559.361	80.007	19.993	103.784	19.807	4.859	0.528
948.000	559.599	80.008	19.994	103.784	19.806	4.876	0.495
948.500	559.833	80.008	19.993	103.785	19.803	5.145	0.468
949.000	560.113	80.006	19.993	103.785	19.803	5.139	0.493
949.500	560.376	80.007	19.992	103.786	19.805	5.014	0.528
950.000	560.587	80.008	19.993	103.788	19.805	5.008	0.508
950.500	560.841	80.008	19.993	103.786	19.805	4.960	0.470
951.000	561.126	80.007	19.993	103.783	19.804	5.063	0.502
951.500	561.414	80.008	19.993	103.782	19.803	5.110	0.556
952.000	561.679	80.006	19.994	103.782	19.803	5.121	0.563
952.500	561.908	80.008	19.993	103.782	19.805	4.991	0.524
953.000	562.175	80.006	19.993	103.783	19.803	5.151	0.495
953.500	562.422	80.008	19.993	103.785	19.804	5.048	0.505
954.000	562.649	80.007	19.995	103.783	19.801	5.305	0.494
954.500	562.958	80.006	19.995	103.783	19.800	5.346	0.505
955.000	563.185	80.006	19.993	103.783	19.799	5.420	0.536
955.500	563.450	80.006	19.993	103.783	19.800	5.398	0.514
956.001	563.703	80.007	19.996	103.781	19.800	5.376	0.504
956.500	563.953	80.007	19.995	103.784	19.802	5.219	0.511
957.000	564.264	80.008	19.994	103.782	19.803	5.149	0.533
957.500	564.467	80.007	19.994	103.781	19.804	5.071	0.537
958.000	564.751	80.008	19.994	103.781	19.801	5.297	0.500
958.500	564.952	80.007	19.995	103.783	19.800	5.350	0.486
959.000	565.232	80.006	19.994	103.782	19.800	5.369	0.483
959.500	565.503	80.008	19.993	103.783	19.798	5.499	0.516
960.000	565.768	80.007	19.994	103.784	19.799	5.456	0.544
960.500	566.045	80.008	19.994	103.785	19.801	5.326	0.539
961.000	566.295	80.006	19.994	103.785	19.800	5.351	0.535
961.500	566.586	80.008	19.994	103.785	19.798	5.515	0.534
962.000	566.838	80.008	19.994	103.786	19.802	5.198	0.542
962.500	567.083	80.008	19.994	103.783	19.799	5.406	0.520
963.000	567.379	80.007	19.994	103.782	19.801	5.326	0.519
963.500	567.594	80.007	19.995	103.780	19.804	5.087	0.526
964.000	567.857	80.009	19.995	103.772	19.800	5.348	0.494
964.500	568.151	80.008	19.994	103.768	19.802	5.210	0.517
965.000	568.412	80.008	19.994	103.771	19.801	5.264	0.556
965.500	568.702	80.006	19.994	103.773	19.802	5.204	0.553
966.000	568.939	80.008	19.994	103.777	19.803	5.159	0.539
966.500	569.212	80.008	19.993	103.784	19.800	5.367	0.519
967.000	569.501	80.007	19.993	103.791	19.801	5.281	0.536
967.500	569.753	80.007	19.994	103.784	19.799	5.410	0.552
968.000	570.012	80.008	19.992	103.776	19.802	5.194	0.526
968.500	570.207	80.007	19.993	103.771	19.803	5.141	0.482
969.000	570.517	80.008	19.993	103.769	19.800	5.353	0.479
969.500	570.746	80.008	19.993	103.766	19.804	5.053	0.522
970.000	571.070	80.008	19.994	103.771	19.803	5.153	0.547
970.500	571.315	80.008	19.994	103.777	19.805	5.022	0.561
971.000	571.555	80.007	19.994	103.781	19.801	5.262	0.527
971.500	571.893	80.007	19.994	103.783	19.805	4.994	0.531
972.000	572.105	80.007	19.993	103.782	19.803	5.101	0.564
972.500	572.359	80.008	19.993	103.783	19.803	5.118	0.508
973.000	572.676	80.007	19.993	103.779	19.802	5.243	0.518
973.500	572.930	80.007	19.994	103.778	19.805	4.962	0.572
974.000	573.224	80.007	19.994	103.776	19.804	5.088	0.560
974.500	573.460	80.008	19.993	103.774	19.799	5.419	0.539
975.000	573.761	80.008	19.993	103.770	19.804	5.040	0.534
975.500	573.980	80.006	19.994	103.771	19.803	5.166	0.529
976.000	574.301	80.007	19.993	103.769	19.803	5.174	0.530
976.500	574.572	80.007	19.993	103.769	19.802	5.219	0.566
977.000	574.859	80.007	19.994	103.768	19.803	5.174	0.575
977.500	575.136	80.007	19.993	103.772	19.804	5.042	0.560
978.000	575.415	80.006	19.994	103.775	19.801	5.273	0.560
978.500	575.673	80.007	19.993	103.775	19.803	5.147	0.547
979.000	576.000	80.006	19.995	103.776	19.802	5.215	0.561
979.500	576.224	80.006	19.994	103.780	19.800	5.328	0.568
980.000	576.507	80.006	19.994	103.781	19.805	5.001	0.530
980.500	576.765	80.007	19.993	103.782	19.801	5.293	0.524
981.000	577.027	80.007	19.994	103.779	19.806	4.931	0.531
981.500	577.314	80.006	19.993	103.778	19.803	5.110	0.535
982.000	577.538	80.005	19.994	103.773	19.806	4.919	0.530
982.500	577.835	80.006	19.996	103.768	19.803	5.139	0.516
983.000	578.107	80.004	19.995	103.769	19.805	5.023	0.545
983.500	578.390	80.007	19.995	103.775	19.801	5.288	0.562
984.000	578.678	80.005	19.994	103.775	19.803	5.130	0.563
984.500	578.959	80.005	19.995	103.781	19.804	5.083	0.570
985.000	579.207	80.006	19.995	103.786	19.804	5.069	0.549
985.500	579.460	80.006	19.993	103.785	19.806	4.947	0.515
986.000	579.748	80.006	19.994	103.785	19.805	4.978	0.521
986.500	580.020	80.005	19.994	103.785	19.803	5.102	0.551
987.000	580.288	80.005	19.995	103.780	19.799	5.416	0.550
987.500	580.565	80.005	19.996	103.781	19.802	5.233	0.543
988.000	580.835	80.006	19.993	103.781	19.802	5.194	0.546
988.500	581.092	80.006	19.994	103.779	19.801	5.289	0.537
989.000	581.337	80.006	19.994	103.780	19.802	5.219	0.515
989.500	581.617	80.006	19.994	103.783	19.802	5.241	0.514
990.001	581.906	80.008	19.993	103.782	19.804	5.083	0.547
990.500	582.157	80.005	19.994	103.779	19.802	5.192	0.554
991.000	582.415	80.008	19.993	103.779	19.805	4.961	0.524
991.500	582.698	80.006	19.994	103.778	19.803	5.142	0.525
992.000	582.970	80.007	19.994	103.778	19.801	5.308	0.548
992.500	583.262	80.007	19.994	103.777	19.799	5.415	0.559
993.000	583.510	80.007	19.995	103.776	19.802	5.224	0.552
993.500	583.768	80.007	19.994	103.773	19.806	4.916	0.524
994.000	584.019	80.009	19.993	103.770	19.801	5.273	0.508
994.500	584.305	80.007	19.993	103.769	19.804	5.047	0.523
995.000	584.599	80.008	19.994	103.769	19.802	5.224	0.559
995.500	584.856	80.008	19.993	103.773	19.802	5.216	0.565
996.000	585.093	80.008	19.992	103.775	19.800	5.370	0.522
996.500	585.360	80.008	19.993	103.774	19.800	5.329	0.499
997.000	585.631	80.008	19.993	103.773	19.800	5.339	0.521
997.500	585.934	80.008	19.994	103.772	19.801	5.316	0.556
998.000	586.186	80.009	19.993	103.772	19.801	5.310	0.564
998.500	586.487	80.009	19.993	103.774	19.801	5.325	0.554
999.000	586.709	80.010	19.993	103.777	19.801	5.253	0.538
999.500	586.980	80.008	19.993	103.779	19.801	5.311	0.508
1000.000	587.258	80.009	19.992	103.778	19.801	5.268	0.521
1000.500	587.483	80.009	19.993	103.772	19.799	5.426	0.526
1001.000	587.738	80.009	19.993	103.768	19.798	5.525	0.492
1001.500	587.989	80.009	19.993	103.764	19.798	5.537	0.493
1002.000	588.265	80.009	19.992	103.762	19.796	5.648	0.517
1002.500	588.536	80.008	19.993	103.760	19.799	5.403	0.537
1003.000	588.780	80.008	19.994	103.760	19.799	5.438	0.531
1003.500	589.031	80.008	19.993	103.759	19.800	5.383	0.505
1004.000	589.337	80.008	19.993	103.760	19.803	5.167	0.526
1004.500	589.632	80.009	19.993	103.756	19.798	5.521	0.579
1005.000	589.840	80.009	19.993	103.756	19.799	5.421	0.552
1005.500	590.107	80.008	19.993	103.759	19.799	5.462	0.489
1006.000	590.357	80.009	19.993	103.760	19.800	5.388	0.496
1006.500	590.591	80.009	19.993	103.759	19.797	5.566	0.500
1007.000	590.883	80.009	19.993	103.758	19.799	5.455	0.505
1007.500	591.138	80.009	19.992	103.758	19.799	5.445	0.537
1008.000	591.381	80.008	19.993	103.753	19.798	5.484	0.523
1008.500	591.646	80.008	19.993	103.751	19.796	5.650	0.503
1009.000	591.868	80.009	19.993	103.753	19.797	5.593	0.498
1009.500	592.150	80.009	19.993	103.758	19.797	5.587	0.495
1010.001	592.393	80.009	19.993	103.760	19.800	5.344	0.514
1010.500	592.676	80.007	19.994	103.764	19.798	5.503	0.526
1011.000	592.898	80.009	19.992	103.766	19.798	5.490	0.516
1011.500	593.168	80.009	19.993	103.768	19.803	5.153	0.498
1012.000	593.446	80.008	19.993	103.766	19.799	5.426	0.520
1012.500	593.681	80.007	19.993	103.769	19.798	5.547	0.531
1013.000	593.946	80.008	19.993	103.766	19.799	5.467	0.507
1013.500	594.192	80.008	19.994	103.767	19.797	5.576	0.506
1014.000	594.486	80.008	19.993	103.769	19.799	5.426	0.525
1014.500	594.712	80.009	19.993	103.773	19.798	5.516	0.530
1015.000	594.934	80.008	19.994	103.774	19.799	5.477	0.484
1015.500	595.198	80.008	19.993	103.780	19.799	5.451	0.467
1016.000	595.467	80.008	19.994	103.782	19.795	5.708	0.510
1016.500	595.716	80.009	19.993	103.781	19.799	5.455	0.526
1017.000	595.967	80.008	19.993	103.778	19.796	5.704	0.509
1017.500	596.249	80.009	19.995	103.774	19.797	5.628	0.517
1018.000	596.490	80.010	19.993	103.771	19.800	5.367	0.529
1018.500	596.715	80.008	19.993	103.770	19.796	5.660	0.494
1019.000	597.035	80.009	19.994	103.768	19.800	5.379	0.505
1019.500	597.264	80.010	19.992	103.769	19.797	5.582	0.547
1020.000	597.515	80.009	19.993	103.772	19.798	5.545	0.515
1020.500	597.780	80.010	19.993	103.774	19.799	5.455	0.498
1021.000	597.983	80.009	19.993	103.775	19.800	5.342	0.492
1021.500	598.269	80.011	19.993	103.777	19.798	5.531	0.478
1022.000	598.517	80.009	19.993	103.776	19.797	5.611	0.512
1022.500	598.806	80.010	19.993	103.773	19.796	5.659	0.536
1023.000	599.038	80.010	19.994	103.771	19.796	5.684	0.529
1023.500	599.293	80.009	19.994	103.770	19.798	5.542	0.504
1024.000	599.518	80.009	19.993	103.766	19.796	5.669	0.484
1024.500	599.767	80.010	19.993	103.764	19.796	5.673	0.477
1025.000	600.055	80.011	19.994	103.761	19.795	5.741	0.505
1025.500	600.321	80.011	19.993	103.762	19.798	5.548	0.546
1026.001	600.575	80.010	19.993	103.764	19.796	5.655	0.537
1026.501	600.824	80.009	19.994	103.770	19.798	5.540	0.512
1027.000	601.074	80.008	19.993	103.773	19.796	5.692	0.501
1027.500	601.296	80.009	19.993	103.779	19.799	5.469	0.485
1028.000	601.580	80.010	19.993	103.779	19.796	5.673	0.489
1028.500	601.845	80.010	19.993	103.779	19.797	5.597	0.527
1029.000	602.063	80.009	19.992	103.775	19.798	5.506	0.516
1029.500	602.321	80.008	19.993	103.769	19.796	5.693	0.480
1030.000	602.571	80.008	19.992	103.765	19.798	5.531	0.492
1030.501	602.853	80.008	19.993	103.761	19.795	5.757	0.520
1031.001	603.074	80.007	19.994	103.761	19.797	5.590	0.518
1031.500	603.341	80.007	19.993	103.764	19.795	5.742	0.496
1032.001	603.590	80.008	19.992	103.768	19.798	5.526	0.501
1032.501	603.861	80.006	19.993	103.772	19.794	5.812	0.518
1033.000	604.107	80.007	19.992	103.775	19.796	5.639	0.519
1033.500	604.382	80.006	19.994	103.778	19.795	5.748	0.519
1034.000	604.601	80.008	19.994	103.781	19.796	5.691	0.507
1034.500	604.864	80.007	19.993	103.782	19.796	5.636	0.488
1035.000	605.133	80.008	19.993	103.781	19.794	5.839	0.507
1035.500	605.397	80.007	19.993	103.781	19.798	5.506	0.533
1036.000	605.639	80.007	19.993	103.780	19.796	5.679	0.520
1036.500	605.903	80.007	19.993	103.777	19.799	5.443	0.506
1037.000	606.140	80.007	19.993	103.775	19.800	5.401	0.503
1037.501	606.420	80.007	19.993	103.777	19.794	5.802	0.509
1038.001	606.664	80.007	19.993	103.775	19.795	5.734	0.520
1038.500	606.879	80.008	19.993	103.772	19.797	5.625	0.491
1039.001	607.148	80.008	19.993	103.772	19.797	5.561	0.472
1039.501	607.399	80.007	19.993	103.774	19.799	5.473	0.502
1040.001	607.646	80.006	19.993	103.772	19.799	5.434	0.510
1040.501	607.939	80.005	19.994	103.772	19.796	5.639	0.519
1041.000	608.171	80.007	19.993	103.773	19.796	5.633	0.532
1041.500	608.455	80.006	19.994	103.770	19.793	5.857	0.520
1042.000	608.699	80.005	19.992	103.765	19.795	5.756	0.522
1042.500	608.941	80.006	19.994	103.761	19.794	5.818	0.507
1043.001	609.207	80.008	19.994	103.760	19.796	5.656	0.497
1043.501	609.427	80.008	19.995	103.759	19.796	5.674	0.497
1044.000	609.696	80.007	19.994	103.760	19.798	5.532	0.488
1044.500	609.952	80.006	19.993	103.762	19.800	5.331	0.508
1045.000	610.165	80.007	19.993	103.766	19.799	5.415	0.497
1045.500	610.442	80.006	19.994	103.768	19.800	5.386	0.479
1046.000	610.664	80.005	19.994	103.769	19.797	5.577	0.494
1046.500	610.938	80.007	19.992	103.770	19.795	5.719	0.497
1047.000	611.189	80.006	19.993	103.771	19.798	5.525	0.511
1047.500	611.449	80.007	19.994	103.768	19.798	5.502	0.518
1048.000	611.686	80.005	19.994	103.764	19.797	5.593	0.504
1048.500	611.950	80.006	19.993	103.761	19.798	5.515	0.499
1049.000	612.164	80.007	19.992	103.758	19.799	5.467	0.490
1049.500	612.441	80.007	19.994	103.755	19.799	5.422	0.485
1050.000	612.705	80.007	19.994	103.752	19.801	5.268	0.516
1050.500	612.928	80.006	19.994	103.753	19.796	5.681	0.514
1051.000	613.193	80.006	19.993	103.753	19.800	5.387	0.488
1051.500	613.414	80.007	19.994	103.753	19.798	5.518	0.487
1052.000	613.666	80.007	19.995	103.753	19.799	5.427	0.479
1052.500	613.912	80.006	19.993	103.754	19.794	5.801	0.485
1053.000	614.159	80.006	19.994	103.754	19.797	5.590	0.496
1053.500	614.420	80.006	19.994	103.754	19.799	5.419	0.500
1054.000	614.638	80.006	19.994	103.755	19.799	5.413	0.493
1054.500	614.927	80.006	19.994	103.755	19.800	5.339	0.493
1055.000	615.148	80.006	19.994	103.755	19.797	5.590	0.509
1055.500	615.386	80.006	19.993	103.755	19.801	5.299	0.485
1056.001	615.613	80.006	19.994	103.754	19.800	5.385	0.462
1056.501	615.895	80.006	19.994	103.754	19.799	5.426	0.487
1057.000	616.156	80.005	19.993	103.755	19.800	5.393	0.527
1057.500	616.431	80.005	19.993	103.758	19.798	5.488	0.539
1058.000	616.688	80.006	19.994	103.764	19.798	5.500	0.534
1058.500	616.933	80.006	19.993	103.770	19.796	5.675	0.517
1059.000	617.203	80.007	19.993	103.773	19.798	5.508	0.509
1059.500	617.400	80.006	19.994	103.773	19.799	5.403	0.491
1060.000	617.640	80.006	19.994	103.772	19.801	5.309	0.452
1060.500	617.913	80.006	19.993	103.771	19.797	5.594	0.475
1061.000	618.188	80.006	19.994	103.766	19.796	5.637	0.531
1061.500	618.413	80.006	19.993	103.766	19.798	5.520	0.524
1062.000	618.648	80.006	19.993	103.763	19.795	5.707	0.480
1062.500	618.872	80.006	19.994	103.761	19.797	5.574	0.460
1063.000	619.184	80.007	19.994	103.755	19.797	5.603	0.497
1063.500	619.448	80.007	19.994	103.753	19.795	5.768	0.556
1064.000	619.674	80.006	19.994	103.752	19.795	5.774	0.533
1064.500	619.898	80.007	19.994	103.755	19.796	5.667	0.470
1065.000	620.181	80.006	19.993	103.758	19.795	5.706	0.479
1065.500	620.431	80.006	19.994	103.761	19.797	5.555	0.520
1066.000	620.677	80.005	19.994	103.764	19.798	5.502	0.514
1066.500	620.935	80.006	19.995	103.767	19.796	5.672	0.500
1067.000	621.189	80.005	19.994	103.768	19.795	5.713	0.508
1067.500	621.445	80.006	19.994	103.768	19.796	5.672	0.511
1068.001	621.724	80.005	19.993	103.768	19.794	5.783	0.523
1068.501	621.974	80.005	19.994	103.770	19.796	5.641	0.532
1069.001	622.238	80.007	19.995	103.772	19.795	5.775	0.522
1069.501	622.500	80.007	19.993	103.771	19.793	5.866	0.520
1070.001	622.741	80.007	19.994	103.769	19.796	5.689	0.515
1070.500	622.942	80.007	19.994	103.766	19.796	5.685	0.472
1071.000	623.240	80.006	19.995	103.762	19.796	5.633	0.470
1071.500	623.514	80.006	19.995	103.757	19.794	5.836	0.536
1072.000	623.790	80.007	19.994	103.754	19.794	5.840	0.561
1072.500	624.032	80.006	19.994	103.755	19.795	5.742	0.534
1073.000	624.296	80.007	19.994	103.758	19.793	5.879	0.512
1073.500	624.531	80.007	19.994	103.763	19.797	5.606	0.502
1074.000	624.818	80.006	19.994	103.767	19.796	5.645	0.510
1074.500	625.066	80.007	19.995	103.773	19.796	5.645	0.529
1075.000	625.296	80.006	19.995	103.776	19.796	5.631	0.507
1075.500	625.577	80.007	19.995	103.775	19.796	5.649	0.495
1076.000	625.795	80.008	19.994	103.770	19.797	5.602	0.505
1076.500	626.072	80.007	19.996	103.766	19.799	5.458	0.497
1077.000	626.335	80.006	19.994	103.760	19.799	5.440	0.517
1077.500	626.607	80.006	19.995	103.754	19.799	5.415	0.537
1078.000	626.877	80.006	19.995	103.755	19.800	5.394	0.538
1078.500	627.116	80.008	19.995	103.755	19.799	5.442	0.526
1079.000	627.430	80.007	19.994	103.758	19.800	5.339	0.531
1079.500	627.654	80.008	19.995	103.761	19.799	5.442	0.546
1080.000	627.930	80.009	19.994	103.763	19.797	5.567	0.519
1080.500	628.199	80.008	19.995	103.763	19.799	5.446	0.523
1081.000	628.450	80.007	19.995	103.762	19.799	5.444	0.533
1081.500	628.700	80.007	19.995	103.759	19.800	5.385	0.510
1082.000	628.989	80.007	19.995	103.756	19.799	5.469	0.519
1082.500	629.227	80.008	19.994	103.753	19.798	5.499	0.533
1083.000	629.461	80.007	19.995	103.753	19.799	5.473	0.500
1083.500	629.763	80.008	19.995	103.752	19.796	5.631	0.504
1084.000	630.042	80.009	19.995	103.752	19.799	5.466	0.559
1084.500	630.285	80.008	19.995	103.752	19.798	5.524	0.551
1085.000	630.539	80.007	19.994	103.752	19.797	5.559	0.509
1085.500	630.827	80.008	19.994	103.750	19.799	5.450	0.519
1086.000	631.063	80.007	19.995	103.750	19.798	5.493	0.533
1086.500	631.362	80.007	19.995	103.752	19.800	5.360	0.530
1087.000	631.632	80.006	19.995	103.752	19.799	5.454	0.552
1087.500	631.853	80.007	19.994	103.751	19.801	5.298	0.531
1088.000	632.145	80.008	19.994	103.752	19.799	5.417	0.502
1088.500	632.401	80.007	19.993	103.754	19.800	5.327	0.530
1089.000	632.662	80.007	19.994	103.753	19.799	5.460	0.533
1089.500	632.948	80.008	19.994	103.754	19.802	5.214	0.532
1090.000	633.221	80.007	19.994	103.756	19.798	5.508	0.553
1090.500	633.504	80.007	19.994	103.759	19.798	5.530	0.557
1091.000	633.780	80.007	19.994	103.757	19.798	5.518	0.557
1091.500	634.025	80.008	19.993	103.757	19.799	5.434	0.539
1092.000	634.306	80.007	19.995	103.757	19.799	5.459	0.524
1092.500	634.574	80.007	19.994	103.759	19.797	5.586	0.538
1093.000	634.858	80.006	19.993	103.757	19.801	5.302	0.550
1093.501	635.089	80.008	19.994	103.757	19.799	5.422	0.534
1094.001	635.375	80.007	19.994	103.758	19.799	5.440	0.516
1094.501	635.645	80.008	19.994	103.757	19.801	5.308	0.537
1095.000	635.889	80.008	19.994	103.754	19.802	5.226	0.535
1095.500	636.190	80.008	19.993	103.754	19.802	5.203	0.529
1096.000	636.444	80.008	19.993	103.757	19.801	5.314	0.550
1096.500	636.706	80.008	19.993	103.757	19.800	5.396	0.536
1097.001	636.982	80.007	19.993	103.757	19.800	5.380	0.527
1097.501	637.205	80.008	19.993	103.758	19.803	5.138	0.518
1098.000	637.475	80.009	19.993	103.757	19.803	5.121	0.496
1098.500	637.724	80.007	19.993	103.755	19.802	5.203	0.506
1099.000	637.977	80.008	19.993	103.753	19.805	4.986	0.510
1099.500	638.252	80.008	19.994	103.753	19.802	5.189	0.515
1100.000	638.530	80.008	19.993	103.753	19.800	5.364	0.541
1100.500	638.821	80.008	19.993	103.753	19.802	5.245	0.562
1101.000	639.076	80.009	19.994	103.753	19.805	4.959	0.558
1101.500	639.313	80.009	19.992	103.754	19.802	5.200	0.519
1102.000	639.615	80.007	19.991	103.755	19.804	5.035	0.515
1102.500	639.851	80.009	19.994	103.757	19.804	5.062	0.539
1103.000	640.108	80.008	19.995	103.760	19.804	5.093	0.515
1103.500	640.377	80.009	19.994	103.762	19.805	4.961	0.509
1104.000	640.589	80.009	19.995	103.762	19.805	4.996	0.504
1104.500	640.880	80.009	19.993	103.759	19.803	5.142	0.492
1105.000	641.083	80.009	19.992	103.758	19.804	5.058	0.498
1105.500	641.359	80.009	19.994	103.755	19.800	5.327	0.487
1106.000	641.619	80.008	19.992	103.753	19.802	5.175	0.508
1106.501	641.896	80.009	19.992	103.752	19.803	5.119	0.537
1107.001	642.179	80.010	19.992	103.752	19.805	4.990	0.549
1107.500	642.433	80.009	19.992	103.752	19.802	5.218	0.548
1108.000	642.715	80.009	19.993	103.752	19.805	4.990	0.536
1108.501	642.963	80.008	19.993	103.752	19.805	4.949	0.533
1109.001	643.219	80.008	19.993	103.752	19.803	5.129	0.517
1109.501	643.485	80.007	19.992	103.752	19.805	4.979	0.513
1110.001	643.749	80.007	19.993	103.756	19.805	4.965	0.526
1110.501	643.985	80.008	19.993	103.761	19.804	5.053	0.514
1111.000	644.233	80.007	19.993	103.763	19.805	4.965	0.492
1111.500	644.492	80.008	19.994	103.763	19.807	4.862	0.496
1112.000	644.771	80.007	19.993	103.764	19.804	5.095	0.523
1112.501	645.004	80.007	19.993	103.759	19.805	5.000	0.526
1113.001	645.276	80.006	19.993	103.756	19.806	4.928	0.509
1113.500	645.533	80.007	19.993	103.755	19.804	5.093	0.517
1114.000	645.795	80.005	19.993	103.757	19.804	5.072	0.524
1114.500	646.018	80.006	19.993	103.763	19.803	5.115	0.502
1115.000	646.281	80.005	19.993	103.765	19.804	5.072	0.486
1115.500	646.563	80.006	19.993	103.766	19.803	5.117	0.515
1116.000	646.810	80.007	19.993	103.765	19.805	5.012	0.537
1116.500	647.081	80.005	19.993	103.763	19.804	5.047	0.523
1117.000	647.332	80.007	19.993	103.756	19.803	5.101	0.520
1117.501	647.588	80.005	19.994	103.755	19.804	5.058	0.514
1118.001	647.848	80.006	19.994	103.754	19.805	5.023	0.512
1118.500	648.084	80.006	19.992	103.754	19.805	4.955	0.507
1119.000	648.340	80.006	19.994	103.754	19.804	5.027	0.494
1119.500	648.610	80.006	19.993	103.754	19.803	5.148	0.509
1120.001	648.892	80.005	19.993	103.754	19.803	5.100	0.538
1120.501	649.109	80.005	19.993	103.754	19.805	4.992	0.526
1121.001	649.353	80.006	19.993	103.754	19.805	5.010	0.481
1121.500	649.645	80.006	19.993	103.754	19.807	4.852	0.498
1122.000	649.898	80.005	19.994	103.754	19.806	4.913	0.540
1122.500	650.158	80.006	19.993	103.754	19.803	5.113	0.529
1123.000	650.433	80.005	19.993	103.754	19.804	5.061	0.524
1123.500	650.659	80.005	19.993	103.754	19.804	5.078	0.518
1124.000	650.905	80.006	19.994	103.756	19.807	4.860	0.486
1124.500	651.182	80.007	19.993	103.756	19.806	4.918	0.497
1125.000	651.428	80.005	19.994	103.756	19.803	5.105	0.523
1125.500	651.710	80.007	19.993	103.757	19.805	4.967	0.526
1126.001	651.937	80.008	19.994	103.757	19.805	4.994	0.519
1126.501	652.150	80.007	19.994	103.757	19.803	5.111	0.475
1127.001	652.419	80.007	19.993	103.757	19.803	5.140	0.461
1127.501	652.721	80.007	19.994	103.759	19.807	4.870	0.526
1128.001	652.975	80.007	19.993	103.758	19.809	4.685	0.563
1128.501	653.216	80.008	19.992	103.757	19.806	4.885	0.525
1129.000	653.457	80.007	19.993	103.756	19.807	4.860	0.489
1129.500	653.713	80.007	19.992	103.755	19.807	4.870	0.490
1130.000	653.974	80.007	19.994	103.752	19.805	5.012	0.507
1130.500	654.264	80.007	19.994	103.752	19.804	5.033	0.533
1131.000	654.509	80.007	19.993	103.750	19.806	4.883	0.543
1131.500	654.748	80.007	19.993	103.750	19.804	5.072	0.510
1132.000	654.987	80.008	19.994	103.751	19.810	4.622	0.481
1132.500	655.250	80.009	19.993	103.751	19.808	4.728	0.490
1133.000	655.506	80.008	19.993	103.751	19.808	4.745	0.511
1133.500	655.728	80.007	19.992	103.752	19.805	4.951	0.498
1134.000	656.003	80.007	19.993	103.752	19.807	4.864	0.487
1134.500	656.243	80.008	19.993	103.752	19.808	4.768	0.506
1135.000	656.505	80.007	19.993	103.752	19.810	4.589	0.509
1135.500	656.778	80.008	19.993	103.751	19.807	4.809	0.519
1136.000	656.998	80.008	19.993	103.751	19.809	4.708	0.514
1136.500	657.271	80.007	19.994	103.751	19.808	4.735	0.493
1137.000	657.507	80.007	19.993	103.751	19.809	4.714	0.502
1137.500	657.748	80.007	19.994	103.751	19.809	4.691	0.493
1138.001	658.026	80.007	19.993	103.751	19.809	4.689	0.497
1138.501	658.293	80.008	19.993	103.751	19.807	4.798	0.531
1139.001	658.488	80.006	19.994	103.752	19.807	4.815	0.504
1139.500	658.760	80.008	19.993	103.752	19.809	4.663	0.465
1140.000	659.012	80.006	19.993	103.751	19.806	4.899	0.495
1140.500	659.306	80.007	19.993	103.751	19.807	4.835	0.535
1141.000	659.532	80.007	19.993	103.749	19.807	4.850	0.533
1141.500	659.785	80.007	19.993	103.748	19.807	4.811	0.500
1142.000	660.021	80.007	19.994	103.748	19.808	4.753	0.484
1142.500	660.283	80.007	19.994	103.748	19.816	4.159	0.493
1143.001	660.505	80.006	19.993	103.748	19.814	4.291	0.491
1143.501	660.780	80.007	19.994	103.750	19.808	4.770	0.491
1144.000	661.029	80.009	19.995	103.752	19.803	5.127	0.511
1144.500	661.231	80.006	19.993	103.752	19.813	4.391	0.487
1145.000	661.489	80.006	19.994	103.753	19.818	4.003	0.455
1145.500	661.733	80.007	19.994	103.753	19.808	4.735	0.481
1146.000	661.998	80.006	19.994	103.753	19.811	4.529	0.505
1146.500	662.260	80.006	19.994	103.751	19.807	4.815	0.518
1147.000	662.487	80.007	19.995	103.751	19.805	5.020	0.508
1147.500	662.729	80.006	19.994	103.749	19.808	4.761	0.479
1148.000	662.982	80.007	19.994	103.748	19.811	4.539	0.482
1148.500	663.211	80.006	19.994	103.748	19.810	4.644	0.489
1149.000	663.487	80.007	19.994	103.748	19.814	4.274	0.493
1149.500	663.711	80.006	19.994	103.748	19.811	4.535	0.502
1150.001	663.944	80.007	19.995	103.749	19.809	4.687	0.478
1150.501	664.192	80.008	19.995	103.749	19.810	4.626	0.469
1151.001	664.456	80.006	19.994	103.749	19.810	4.628	0.497
1151.500	664.708	80.007	19.995	103.749	19.810	4.624	0.514
1152.001	664.939	80.007	19.994	103.749	19.815	4.244	0.499
1152.501	665.247	80.007	19.994	103.750	19.809	4.659	0.511
1153.000	665.433	80.007	19.994	103.750	19.812	4.423	0.516
1153.500	665.685	80.007	19.994	103.750	19.812	4.454	0.466
1154.000	665.917	80.007	19.994	103.750	19.807	4.824	0.462
1154.500	666.247	80.007	19.995	103.750	19.799	5.434	0.523
1155.000	666.396	80.008	19.994	103.750	19.814	4.273	0.520
1155.500	666.682	80.008	19.994	103.750	19.810	4.618	0.457
1156.000	666.736	80.007	19.994	103.750	19.807	4.831	0.387
1156.500	667.428	80.007	19.994	103.750	19.812	4.441	0.543
1157.000	667.862	80.007	19.995	103.751	19.811	4.501	0.936
1157.500	667.670	80.008	19.995	103.751	19.811	4.542	0.684
1158.000	667.754	80.008	19.993	103.751	19.811	4.529	0.067
1158.500	668.427	80.009	19.994	103.751	19.812	4.490	0.325
1159.000	669.073	80.010	19.993	103.751	19.814	4.314	1.038
1159.500	668.524	80.008	19.993	103.750	19.811	4.568	0.708
1160.000	668.932	80.007	19.993	103.750	19.811	4.525	-0.022
1160.500	669.104	80.009	19.994	103.750	19.808	4.739	0.220
1161.001	669.313	80.009	19.994	103.750	19.809	4.663	0.481
1161.501	669.627	80.009	19.994	103.751	19.812	4.457	0.452
1162.001	670.030	80.007	19.993	103.752	19.812	4.453	0.620
1162.501	670.239	80.008	19.994	103.755	19.809	4.665	0.664
1163.001	670.528	80.009	19.995	103.760	19.809	4.653	0.555
1163.501	670.754	80.008	19.995	103.765	19.810	4.572	0.506
1164.001	671.039	80.007	19.993	103.769	19.810	4.605	0.513
1164.500	671.178	80.008	19.994	103.769	19.811	4.558	0.468
1165.000	671.489	80.006	19.994	103.768	19.810	4.622	0.437
1165.500	671.741	80.008	19.993	103.763	19.811	4.548	0.506
1166.000	672.091	80.007	19.994	103.758	19.811	4.523	0.583
1166.500	672.169	80.008	19.994	103.755	19.812	4.453	0.515
1167.001	672.634	80.009	19.994	103.754	19.811	4.515	0.485
1167.501	672.703	80.007	19.993	103.753	19.812	4.463	0.539
1168.000	672.925	80.007	19.994	103.754	19.813	4.385	0.413
1168.500	672.905	80.007	19.993	103.754	19.813	4.365	0.247
1169.000	673.605	80.008	19.993	103.754	19.811	4.558	0.441
1169.500	673.723	80.008	19.994	103.755	19.808	4.733	0.749
1170.000	674.041	80.007	19.995	103.754	19.808	4.780	0.627
1170.500	674.335	80.006	19.994	103.754	19.810	4.611	0.524
1171.000	674.698	80.009	19.994	103.754	19.810	4.583	0.634
1171.500	674.765	80.006	19.995	103.754	19.812	4.490	0.543
1172.000	675.144	80.007	19.994	103.752	19.809	4.702	0.438
1172.500	675.461	80.008	19.994	103.752	19.812	4.455	0.571
1173.001	675.623	80.007	19.994	103.752	19.812	4.490	0.588
1173.501	675.881	80.008	19.994	103.752	19.807	4.809	0.449
1174.001	676.155	80.007	19.995	103.752	19.809	4.659	0.476
1174.501	676.383	80.007	19.994	103.751	19.810	4.587	0.517
1175.000	676.657	80.006	19.994	103.753	19.813	4.404	0.502
1175.500	676.949	80.006	19.994	103.752	19.809	4.714	0.534
1176.000	677.205	80.006	19.994	103.753	19.806	4.940	0.557
1176.500	677.472	80.006	19.994	103.752	19.808	4.745	0.535
1177.000	677.748	80.006	19.994	103.752	19.810	4.617	0.533
1177.500	677.973	80.006	19.994	103.751	19.810	4.591	0.523
1178.000	678.194	80.007	19.995	103.751	19.809	4.712	0.474
1178.500	678.514	80.007	19.994	103.751	19.811	4.537	0.494
1179.000	678.737	80.007	19.995	103.751	19.809	4.696	0.542
1179.500	679.018	80.008	19.995	103.751	19.810	4.630	0.523
1180.000	679.312	80.008	19.994	103.751	19.809	4.702	0.540
1180.501	679.520	80.008	19.994	103.751	19.810	4.620	0.538
1181.001	679.843	80.008	19.994	103.750	19.811	4.535	0.516
1181.501	680.101	80.009	19.994	103.750	19.812	4.424	0.556
1182.001	680.317	80.008	19.994	103.750	19.809	4.654	0.528
1182.500	680.623	80.008	19.994	103.749	19.812	4.457	0.498
1183.001	680.856	80.008	19.994	103.750	19.811	4.502	0.530
1183.501	681.101	80.010	19.994	103.752	19.811	4.494	0.509
1184.000	681.344	80.008	19.994	103.752	19.813	4.414	0.483
1184.500	681.612	80.009	19.994	103.752	19.811	4.515	0.500
1185.000	681.921	80.009	19.993	103.751	19.812	4.484	0.544
1185.500	682.136	80.009	19.993	103.747	19.811	4.546	0.550
1186.000	682.402	80.011	19.993	103.744	19.809	4.669	0.502
1186.501	682.674	80.009	19.994	103.744	19.812	4.437	0.510
1187.001	682.922	80.009	19.993	103.745	19.811	4.494	0.529
1187.500	683.148	80.009	19.993	103.746	19.813	4.352	0.497
1188.000	683.425	80.009	19.994	103.749	19.806	4.909	0.488
1188.500	683.678	80.010	19.992	103.750	19.809	4.648	0.516
1189.000	683.955	80.010	19.993	103.750	19.811	4.527	0.530
1189.500	684.221	80.010	19.993	103.750	19.809	4.685	0.537
1190.000	684.418	80.010	19.993	103.750	19.811	4.507	0.503
1190.500	684.727	80.010	19.992	103.751	19.811	4.511	0.485
1191.001	684.988	80.009	19.993	103.750	19.807	4.804	0.538
1191.501	685.231	80.009	19.993	103.751	19.810	4.626	0.537
1192.001	685.479	80.009	19.993	103.751	19.809	4.712	0.498
1192.501	685.724	80.009	19.992	103.750	19.810	4.572	0.492
1193.000	686.004	80.008	19.994	103.749	19.808	4.745	0.509
1193.500	686.242	80.009	19.994	103.750	19.811	4.515	0.522
1194.000	686.517	80.008	19.994	103.749	19.813	4.350	0.515
1194.500	686.763	80.008	19.993	103.749	19.808	4.777	0.517
1195.000	687.043	80.008	19.993	103.749	19.810	4.609	0.524
1195.500	687.287	80.008	19.994	103.749	19.809	4.667	0.525
1196.000	687.538	80.007	19.993	103.748	19.808	4.769	0.509
1196.500	687.820	80.006	19.993	103.748	19.809	4.677	0.514
1197.000	688.020	80.006	19.993	103.748	19.812	4.478	0.507
1197.500	688.311	80.007	19.993	103.748	19.808	4.735	0.486
1198.000	688.542	80.007	19.994	103.748	19.809	4.689	0.507
1198.500	688.794	80.008	19.994	103.749	19.809	4.663	0.503
1199.000	689.098	80.007	19.994	103.749	19.809	4.671	0.519
1199.500	689.325	80.007	19.994	103.749	19.811	4.556	0.543
1200.001	689.600	80.007	19.993	103.749	19.811	4.527	0.517
1200.501	689.788	80.007	19.995	103.749	19.810	4.574	0.483
1201.000	690.082	80.007	19.993	103.749	19.811	4.533	0.472
1201.500	690.320	80.008	19.994	103.749	19.813	4.387	0.507
1202.000	690.561	80.007	19.993	103.749	19.809	4.656	0.505
1202.500	690.803	80.007	19.994	103.749	19.811	4.529	0.481
1203.000	691.091	80.008	19.994	103.748	19.809	4.654	0.507
1203.500	691.348	80.006	19.994	103.747	19.807	4.848	0.538
1204.000	691.578	80.007	19.993	103.746	19.809	4.671	0.516
1204.500	691.835	80.006	19.994	103.745	19.811	4.562	0.487
1205.000	692.072	80.007	19.993	103.743	19.814	4.274	0.490
1205.500	692.361	80.007	19.994	103.743	19.813	4.397	0.510
1206.000	692.590	80.006	19.994	103.745	19.809	4.660	0.521
1206.500	692.829	80.006	19.994	103.745	19.814	4.278	0.493
1207.000	693.105	80.006	19.993	103.746	19.812	4.490	0.492
1207.500	693.335	80.007	19.993	103.748	19.813	4.387	0.510
1208.000	693.580	80.007	19.994	103.747	19.812	4.422	0.491
1208.500	693.870	80.007	19.994	103.747	19.811	4.529	0.505
1209.000	694.093	80.006	19.994	103.747	19.812	4.441	0.524
1209.500	694.368	80.005	19.994	103.748	19.812	4.488	0.505
1210.000	694.654	80.006	19.993	103.748	19.811	4.496	0.530
1210.500	694.863	80.006	19.994	103.747	19.813	4.389	0.528
1211.000	695.116	80.007	19.993	103.746	19.810	4.611	0.478
1211.500	695.371	80.006	19.993	103.747	19.812	4.422	0.485
1212.000	695.611	80.006	19.994	103.746	19.809	4.681	0.502
1212.500	695.855	80.006	19.994	103.746	19.808	4.759	0.489
1213.000	696.142	80.008	19.994	103.748	19.811	4.529	0.507
1213.500	696.371	80.007	19.994	103.748	19.811	4.507	0.524
1214.000	696.616	80.007	19.992	103.748	19.814	4.301	0.495
1214.500	696.876	80.007	19.993	103.748	19.812	4.474	0.490
1215.000	697.139	80.006	19.994	103.747	19.809	4.673	0.514
1215.500	697.402	80.006	19.994	103.747	19.808	4.747	0.525
1216.000	697.665	80.006	19.994	103.746	19.809	4.646	0.526
1216.500	697.908	80.007	19.993	103.743	19.812	4.422	0.516
1217.000	698.143	80.006	19.994	103.743	19.814	4.309	0.492
1217.500	698.395	80.007	19.993	103.743	19.810	4.603	0.483
1218.000	698.663	80.008	19.994	103.743	19.813	4.406	0.504
1218.500	698.870	80.006	19.994	103.744	19.812	4.447	0.498
1219.000	699.167	80.007	19.993	103.747	19.812	4.447	0.489
1219.500	699.411	80.006	19.993	103.748	19.810	4.616	0.522
1220.000	699.683	80.007	19.993	103.748	19.812	4.470	0.529
1220.500	699.914	80.006	19.994	103.747	19.811	4.519	0.509
1221.000	700.172	80.007	19.993	103.746	19.815	4.198	0.496
1221.500	700.400	80.007	19.994	103.746	19.811	4.513	0.488
1222.000	700.652	80.007	19.992	103.745	19.815	4.194	0.483
1222.501	700.921	80.007	19.994	103.745	19.814	4.338	0.500
1223.001	701.192	80.007	19.995	103.750	19.811	4.503	0.531
1223.500	701.457	80.008	19.995	103.750	19.810	4.599	0.539
1224.000	701.680	80.006	19.994	103.750	19.813	4.390	0.512
1224.500	701.945	80.007	19.993	103.751	19.813	4.365	0.488
1225.000	702.175	80.006	19.993	103.751	19.811	4.503	0.491
1225.500	702.432	80.006	19.994	103.749	19.815	4.248	0.491
1226.000	702.642	80.006	19.993	103.749	19.818	4.036	0.478
1226.500	702.902	80.006	19.993	103.749	19.812	4.429	0.469
1227.000	703.201	80.005	19.993	103.750	19.812	4.449	0.515
1227.500	703.444	80.007	19.992	103.750	19.812	4.469	0.550
1228.000	703.735	80.006	19.993	103.750	19.815	4.221	0.538
1228.500	703.964	80.006	19.993	103.750	19.814	4.337	0.527
1229.000	704.243	80.007	19.993	103.751	19.814	4.337	0.514
1229.501	704.435	80.005	19.993	103.751	19.814	4.298	0.489
1230.001	704.671	80.006	19.993	103.751	19.813	4.379	0.450
1230.500	704.959	80.006	19.992	103.751	19.815	4.223	0.476
1231.000	705.228	80.005	19.993	103.752	19.815	4.258	0.540
1231.500	705.463	80.008	19.993	103.752	19.813	4.361	0.530
1232.000	705.713	80.006	19.995	103.752	19.813	4.416	0.494
1232.500	705.981	80.006	19.993	103.752	19.815	4.260	0.502
1233.000	706.209	80.005	19.992	103.753	19.814	4.338	0.508
1233.500	706.470	80.007	19.993	103.753	19.816	4.172	0.492
1234.000	706.726	80.006	19.993	103.753	19.818	4.017	0.503
1234.500	706.993	80.007	19.994	103.753	19.815	4.194	0.520
1235.000	707.269	80.007	19.993	103.753	19.816	4.116	0.534
1235.500	707.481	80.006	19.993	103.753	19.813	4.367	0.515
1236.000	707.729	80.006	19.995	103.753	19.817	4.098	0.474
1236.500	707.977	80.006	19.993	103.753	19.815	4.258	0.478
1237.000	708.210	80.006	19.993	103.753	19.814	4.307	0.489
1237.500	708.451	80.007	19.994	103.753	19.815	4.256	0.478
1238.000	708.690	80.009	19.994	103.750	19.813	4.348	0.477
1238.500	708.950	80.008	19.994	103.745	19.814	4.311	0.489
1239.000	709.195	80.008	19.993	103.740	19.811	4.529	0.502
1239.500	709.508	80.006	19.995	103.736	19.811	4.542	0.532
1240.000	709.771	80.006	19.994	103.735	19.813	4.346	0.567
1240.500	709.977	80.008	19.994	103.736	19.813	4.359	0.523
1241.000	710.229	80.007	19.994	103.740	19.811	4.501	0.464
1241.500	710.460	80.007	19.994	103.745	19.812	4.427	0.471
1242.000	710.759	80.008	19.995	103.748	19.811	4.509	0.507
1242.501	710.980	80.007	19.994	103.750	19.813	4.404	0.525
1243.001	711.212	80.007	19.993	103.751	19.812	4.480	0.486
1243.500	711.500	80.009	19.995	103.751	19.810	4.579	0.487
1244.000	711.739	80.007	19.994	103.751	19.812	4.488	0.523
1244.500	711.987	80.009	19.993	103.751	19.814	4.295	0.507
1245.000	712.267	80.009	19.994	103.750	19.809	4.673	0.508
1245.500	712.526	80.008	19.994	103.751	19.814	4.279	0.534
1246.000	712.755	80.007	19.993	103.751	19.814	4.330	0.513
1246.500	713.014	80.008	19.993	103.751	19.813	4.392	0.488
1247.000	713.262	80.009	19.995	103.751	19.810	4.603	0.498
1247.500	713.518	80.008	19.994	103.752	19.810	4.626	0.506
1248.000	713.769	80.008	19.994	103.752	19.809	4.683	0.506
1248.500	714.037	80.007	19.993	103.752	19.811	4.540	0.513
1249.000	714.301	80.008	19.993	103.751	19.812	4.492	0.525
1249.500	714.539	80.008	19.994	103.751	19.813	4.400	0.517
1250.000	714.746	80.008	19.993	103.751	19.810	4.581	0.473
1250.500	715.019	80.008	19.994	103.751	19.812	4.445	0.462
1251.000	715.289	80.009	19.993	103.751	19.809	4.702	0.512
1251.501	715.552	80.008	19.993	103.752	19.811	4.550	0.538
1252.001	715.785	80.008	19.993	103.753	19.810	4.611	0.515
1252.500	716.066	80.006	19.993	103.753	19.811	4.498	0.505
1253.001	716.316	80.007	19.993	103.754	19.809	4.669	0.522
1253.501	716.593	80.008	19.993	103.755	19.813	4.363	0.529
1254.001	716.858	80.007	19.994	103.755	19.814	4.274	0.534
1254.500	717.094	80.008	19.993	103.755	19.813	4.387	0.521
1255.000	717.332	80.007	19.993	103.755	19.813	4.387	0.488
1255.500	717.614	80.007	19.993	103.754	19.810	4.587	0.497
1256.000	717.849	80.008	19.993	103.754	19.812	4.484	0.519
1256.500	718.092	80.008	19.993	103.753	19.811	4.513	0.498
1257.000	718.367	80.008	19.994	103.753	19.810	4.595	0.498
1257.500	718.592	80.008	19.993	103.753	19.810	4.642	0.508
1258.000	718.879	80.008	19.993	103.753	19.810	4.580	0.506
1258.500	719.082	80.007	19.994	103.752	19.812	4.467	0.501
1259.001	719.371	80.008	19.993	103.752	19.810	4.590	0.491
1259.501	719.653	80.007	19.992	103.752	19.812	4.459	0.531
1260.000	719.897	80.008	19.994	103.751	19.811	4.564	0.548
1260.500	720.128	80.008	19.994	103.751	19.812	4.449	0.501
1261.000	720.370	80.007	19.994	103.751	19.812	4.447	0.474
1261.501	720.582	80.009	19.994	103.750	19.811	4.521	0.464
1262.001	720.848	80.008	19.994	103.750	19.815	4.260	0.466
1262.500	721.131	80.008	19.995	103.750	19.810	4.574	0.513
1263.000	721.421	80.007	19.994	103.749	19.813	4.358	0.561
1263.500	721.645	80.008	19.994	103.749	19.812	4.420	0.544
1264.001	721.864	80.007	19.994	103.748	19.813	4.375	0.479
1264.501	722.155	80.009	19.995	103.748	19.811	4.552	0.476
1265.000	722.392	80.008	19.993	103.748	19.813	4.385	0.519
1265.500	722.636	80.007	19.994	103.748	19.811	4.498	0.505
1266.000	722.870	80.008	19.994	103.747	19.812	4.443	0.480
1266.500	723.112	80.009	19.995	103.747	19.816	4.147	0.477
1267.000	723.399	80.008	19.994	103.747	19.811	4.504	0.503
1267.500	723.640	80.009	19.994	103.746	19.812	4.451	0.528
1268.000	723.933	80.008	19.994	103.745	19.812	4.430	0.531
1268.501	724.166	80.009	19.994	103.742	19.813	4.399	0.530
1269.001	724.450	80.010	19.993	103.741	19.808	4.749	0.521
1269.500	724.671	80.008	19.994	103.741	19.810	4.593	0.511
1270.000	724.931	80.009	19.995	103.739	19.810	4.583	0.493
1270.500	725.160	80.008	19.995	103.739	19.808	4.761	0.485
1271.000	725.384	80.009	19.994	103.741	19.810	4.613	0.471
1271.501	725.645	80.008	19.994	103.743	19.811	4.564	0.469
1272.001	725.891	80.007	19.994	103.743	19.812	4.433	0.496
1272.500	726.182	80.008	19.995	103.745	19.811	4.531	0.522
1273.000	726.444	80.008	19.995	103.745	19.809	4.669	0.545
1273.500	726.673	80.008	19.994	103.745	19.808	4.751	0.521
1274.000	726.924	80.007	19.993	103.744	19.812	4.441	0.485
1274.500	727.198	80.008	19.995	103.744	19.809	4.648	0.503
1275.000	727.457	80.008	19.994	103.745	19.813	4.385	0.529
1275.500	727.675	80.007	19.995	103.746	19.808	4.761	0.505
1276.000	727.897	80.008	19.994	103.745	19.812	4.490	0.459
1276.500	728.176	80.006	19.994	103.746	19.812	4.426	0.470
1277.000	728.441	80.007	19.994	103.746	19.811	4.507	0.522
1277.500	728.704	80.006	19.994	103.744	19.810	4.595	0.536
1278.000	728.969	80.008	19.994	103.743	19.809	4.681	0.528
1278.500	729.204	80.005	19.995	103.743	19.808	4.765	0.514
1279.000	729.461	80.006	19.994	103.744	19.811	4.537	0.496
1279.500	729.725	80.005	19.994	103.744	19.812	4.432	0.507
1280.000	729.922	80.007	19.994	103.746	19.811	4.535	0.491
1280.500	730.201	80.006	19.993	103.747	19.810	4.615	0.468
1281.000	730.485	80.006	19.994	103.748	19.811	4.564	0.520
1281.501	730.706	80.007	19.994	103.748	19.811	4.523	0.534
1282.001	730.947	80.005	19.992	103.748	19.813	4.408	0.483
1282.500	731.235	80.007	19.993	103.749	19.814	4.332	0.496
1283.000	731.434	80.007	19.994	103.749	19.810	4.593	0.508
1283.500	731.723	80.007	19.994	103.751	19.812	4.424	0.488
1284.000	731.949	80.006	19.993	103.752	19.810	4.609	0.501
1284.500	732.221	80.006	19.994	103.752	19.807	4.825	0.506
1285.000	732.460	80.007	19.994	103.752	19.811	4.560	0.504
1285.500	732.743	80.007	19.993	103.752	19.808	4.735	0.516
1286.000	732.971	80.006	19.995	103.749	19.808	4.732	0.516
1286.500	733.221	80.005	19.994	103.749	19.811	4.558	0.495
1287.000	733.499	80.006	19.994	103.749	19.811	4.546	0.503
1287.501	733.758	80.008	19.993	103.749	19.811	4.494	0.532
1288.002	734.020	80.007	19.994	103.749	19.809	4.718	0.529
1288.502	734.265	80.008	19.993	103.749	19.809	4.677	0.514
1289.001	734.548	80.008	19.994	103.749	19.810	4.591	0.518
1289.501	734.752	80.007	19.994	103.748	19.810	4.601	0.508
1290.001	735.046	80.006	19.994	103.745	19.808	4.784	0.492
1290.500	735.309	80.007	19.994	103.744	19.809	4.654	0.527
1291.000	735.549	80.006	19.993	103.745	19.811	4.510	0.530
1291.500	735.818	80.007	19.993	103.745	19.813	4.346	0.506
1292.000	736.098	80.007	19.993	103.745	19.812	4.451	0.529
1292.500	736.319	80.006	19.993	103.748	19.809	4.648	0.525
1293.001	736.573	80.006	19.992	103.748	19.808	4.743	0.488
1293.501	736.815	80.007	19.993	103.749	19.811	4.560	0.485
1294.000	737.101	80.007	19.992	103.749	19.807	4.864	0.512
1294.500	737.368	80.006	19.993	103.750	19.808	4.755	0.541
1295.000	737.629	80.007	19.993	103.748	19.812	4.482	0.541
1295.500	737.883	80.005	19.993	103.748	19.805	4.971	0.522
1296.000	738.164	80.006	19.994	103.747	19.809	4.716	0.525
1296.500	738.386	80.007	19.993	103.747	19.809	4.667	0.519
1297.000	738.645	80.006	19.994	103.747	19.806	4.942	0.492
1297.500	738.938	80.006	19.993	103.747	19.809	4.712	0.517
1298.000	739.171	80.006	19.994	103.749	19.808	4.751	0.540
1298.501	739.427	80.007	19.994	103.749	19.808	4.751	0.507
1299.001	739.671	80.007	19.993	103.750	19.811	4.560	0.494
1299.500	739.929	80.006	19.994	103.749	19.810	4.626	0.501
1300.000	740.209	80.007	19.993	103.751	19.810	4.595	0.520
1300.500	740.451	80.007	19.992	103.748	19.808	4.788	0.529
1301.000	740.711	80.007	19.994	103.748	19.809	4.675	0.512
1301.500	740.973	80.006	19.993	103.746	19.809	4.687	0.512
1302.001	741.248	80.006	19.994	103.746	19.808	4.739	0.530
1302.501	741.516	80.007	19.993	103.745	19.809	4.706	0.540
1303.000	741.737	80.007	19.993	103.747	19.810	4.578	0.516
1303.500	742.028	80.006	19.993	103.745	19.807	4.866	0.501
1304.000	742.274	80.006	19.992	103.747	19.809	4.646	0.524
1304.500	742.528	80.006	19.993	103.747	19.809	4.648	0.518
1305.000	742.813	80.006	19.994	103.747	19.809	4.679	0.520
1305.500	743.096	80.007	19.993	103.747	19.809	4.675	0.553
1306.001	743.321	80.007	19.993	103.748	19.810	4.584	0.538
