Sample ID:	C:\MCC\MCC Cal\Test\Shield_MCC_30K_min_220207_R2.txt
Sample Weight (mg):	4.72
Heating Rate (C/s):	0.5
Combustor Temp (C):	900
N2 Flow Rate (cc/min):	80
O2 Flow Rate (cc/min):	20
Calibration File:	C:\MCC\MCC Cal\Coeff1 JN10440_30_210304.txt.txt
T Correction Coefficients:	0	1.024463	0
Time Shift (s):	14
*
Time (s)	Temperature (C)	N2 flow rate (cc/min)	O2 flow rate (cc/min)	Flow Rate (cc/min)	Oxygen (%)	HRR (W/g)	Heating rate (C/s)
0.000	112.043	80.006	19.994	103.713	19.991	0.265	0.019
0.500	112.041	80.003	19.994	103.713	19.990	0.297	-0.029
1.000	112.081	80.004	19.994	103.713	19.993	0.118	-0.007
1.500	112.049	80.006	19.993	103.713	19.991	0.265	0.023
2.000	112.052	80.006	19.994	103.711	19.991	0.222	-0.011
2.500	112.057	80.004	19.994	103.710	19.991	0.241	-0.011
3.000	112.049	80.006	19.994	103.709	19.994	0.060	0.002
3.500	112.027	80.003	19.993	103.710	19.992	0.194	-0.017
4.000	112.038	80.005	19.995	103.709	19.988	0.419	-0.021
4.500	112.054	80.005	19.994	103.711	19.991	0.278	0.008
5.000	112.035	80.005	19.995	103.709	19.986	0.602	0.012
5.500	112.022	80.006	19.994	103.709	19.991	0.216	-0.017
6.000	112.030	80.005	19.995	103.709	19.992	0.181	-0.018
6.500	112.020	80.004	19.994	103.710	19.989	0.350	-0.003
7.000	112.013	80.006	19.994	103.709	19.991	0.246	-0.010
7.500	111.986	80.005	19.994	103.712	19.990	0.327	-0.026
8.000	111.978	80.006	19.993	103.712	19.988	0.448	-0.035
8.500	111.997	80.005	19.995	103.712	19.988	0.467	-0.012
9.000	112.035	80.006	19.994	103.711	19.992	0.169	0.034
9.500	112.008	80.005	19.995	103.711	19.991	0.235	0.034
10.000	111.998	80.007	19.993	103.711	19.987	0.503	-0.013
10.500	111.994	80.004	19.994	103.714	19.987	0.525	-0.025
11.000	112.010	80.006	19.994	103.719	19.989	0.392	-0.001
11.500	112.005	80.003	19.994	103.727	19.987	0.491	0.011
12.000	112.012	80.006	19.994	103.733	19.988	0.465	0.006
12.500	112.036	80.005	19.994	103.739	19.988	0.478	0.017
13.000	112.023	80.006	19.995	103.744	19.984	0.713	0.021
13.500	112.015	80.007	19.994	103.748	19.986	0.621	-0.005
14.000	112.041	80.006	19.993	103.748	19.986	0.578	-0.001
14.500	112.042	80.006	19.994	103.749	19.988	0.482	0.023
15.000	112.035	80.007	19.993	103.752	19.985	0.649	0.011
15.500	112.028	80.006	19.994	103.755	19.982	0.832	-0.010
16.000	112.025	80.005	19.993	103.760	19.985	0.685	-0.012
16.500	112.042	80.007	19.994	103.768	19.984	0.738	0.002
17.000	112.075	80.006	19.994	103.777	19.980	0.996	0.032
17.500	112.053	80.006	19.994	103.784	19.981	0.968	0.031
18.000	112.074	80.008	19.993	103.790	19.982	0.845	0.005
18.500	112.086	80.006	19.992	103.795	19.980	1.007	0.016
19.000	112.090	80.006	19.993	103.804	19.976	1.299	0.024
19.500	112.144	80.007	19.994	103.812	19.977	1.222	0.037
20.000	112.122	80.006	19.994	103.820	19.975	1.372	0.045
20.500	112.150	80.008	19.994	103.828	19.975	1.342	0.019
21.000	112.181	80.008	19.994	103.833	19.972	1.534	0.032
21.500	112.232	80.008	19.994	103.838	19.970	1.677	0.070
22.000	112.240	80.006	19.993	103.845	19.975	1.367	0.071
22.500	112.249	80.006	19.993	103.846	19.971	1.634	0.038
23.000	112.283	80.006	19.994	103.847	19.971	1.589	0.030
23.500	112.311	80.006	19.993	103.852	19.969	1.768	0.053
24.000	112.341	80.006	19.994	103.853	19.966	1.971	0.060
24.500	112.394	80.006	19.994	103.852	19.968	1.836	0.070
25.000	112.413	80.006	19.994	103.854	19.967	1.892	0.077
25.500	112.453	80.006	19.994	103.853	19.968	1.826	0.066
26.000	112.515	80.004	19.993	103.846	19.970	1.685	0.081
26.500	112.546	80.005	19.994	103.844	19.965	2.034	0.098
27.000	112.550	80.006	19.994	103.840	19.966	1.949	0.064
27.500	112.592	80.005	19.995	103.842	19.967	1.902	0.040
28.000	112.656	80.003	19.995	103.846	19.966	1.946	0.076
28.500	112.715	80.008	19.994	103.851	19.966	1.961	0.115
29.000	112.742	80.006	19.995	103.851	19.967	1.915	0.104
29.500	112.764	80.004	19.994	103.851	19.966	1.938	0.067
30.000	112.800	80.006	19.995	103.847	19.966	1.998	0.053
30.500	112.849	80.005	19.995	103.845	19.968	1.814	0.071
31.000	112.932	80.004	19.995	103.841	19.966	1.959	0.108
31.500	113.001	80.005	19.995	103.838	19.967	1.872	0.142
32.000	113.054	80.005	19.996	103.836	19.966	1.998	0.137
32.500	113.112	80.006	19.994	103.843	19.969	1.739	0.116
33.000	113.149	80.006	19.994	103.849	19.966	1.985	0.103
33.500	113.170	80.007	19.994	103.856	19.964	2.104	0.077
34.000	113.267	80.006	19.994	103.862	19.964	2.114	0.088
34.500	113.304	80.004	19.994	103.868	19.962	2.229	0.126
35.000	113.340	80.005	19.994	103.869	19.961	2.285	0.104
35.500	113.423	80.003	19.995	103.868	19.966	1.999	0.096
36.000	113.478	80.005	19.994	103.868	19.963	2.179	0.128
36.500	113.505	80.006	19.994	103.869	19.962	2.268	0.110
37.001	113.583	80.005	19.995	103.877	19.962	2.228	0.094
37.501	113.654	80.004	19.996	103.884	19.960	2.381	0.127
38.000	113.752	80.004	19.995	103.893	19.957	2.549	0.159
38.500	113.822	80.006	19.994	103.901	19.959	2.479	0.168
39.000	113.883	80.006	19.995	103.905	19.957	2.564	0.149
39.500	113.953	80.004	19.994	103.905	19.955	2.717	0.131
40.000	114.005	80.005	19.995	103.906	19.952	2.954	0.127
40.500	114.092	80.005	19.995	103.906	19.953	2.888	0.131
41.000	114.181	80.006	19.993	103.906	19.954	2.805	0.157
41.500	114.268	80.006	19.994	103.908	19.956	2.662	0.176
42.000	114.327	80.005	19.995	103.910	19.955	2.751	0.161
42.500	114.393	80.007	19.994	103.910	19.953	2.851	0.135
43.000	114.543	80.007	19.993	103.911	19.951	2.964	0.171
43.500	114.627	80.007	19.995	103.916	19.951	2.971	0.226
44.000	114.680	80.008	19.994	103.923	19.952	2.930	0.186
44.500	114.770	80.008	19.995	103.928	19.951	3.013	0.140
45.000	114.874	80.008	19.994	103.932	19.951	2.975	0.169
45.500	114.972	80.007	19.994	103.937	19.951	2.973	0.198
46.000	115.065	80.008	19.993	103.933	19.951	3.022	0.196
46.500	115.150	80.007	19.994	103.925	19.948	3.199	0.184
47.000	115.234	80.009	19.993	103.920	19.948	3.214	0.174
47.500	115.319	80.008	19.993	103.918	19.950	3.032	0.169
48.000	115.451	80.008	19.993	103.920	19.948	3.211	0.193
48.500	115.557	80.006	19.993	103.925	19.952	2.949	0.228
49.001	115.634	80.007	19.993	103.931	19.948	3.235	0.210
49.501	115.730	80.007	19.993	103.938	19.952	2.905	0.178
50.001	115.871	80.005	19.993	103.941	19.948	3.171	0.205
50.501	115.952	80.007	19.993	103.942	19.946	3.320	0.230
51.000	116.090	80.008	19.993	103.944	19.944	3.467	0.221
51.500	116.186	80.006	19.994	103.946	19.946	3.373	0.227
52.000	116.290	80.006	19.994	103.946	19.945	3.439	0.217
52.500	116.364	80.005	19.992	103.945	19.947	3.256	0.189
53.000	116.502	80.004	19.994	103.945	19.944	3.447	0.195
53.500	116.592	80.006	19.993	103.944	19.943	3.573	0.220
54.000	116.684	80.003	19.994	103.944	19.942	3.583	0.205
54.500	116.818	80.006	19.994	103.945	19.946	3.364	0.204
55.000	116.947	80.005	19.994	103.947	19.944	3.490	0.244
55.500	117.077	80.006	19.994	103.947	19.945	3.405	0.261
56.000	117.197	80.005	19.994	103.948	19.943	3.577	0.255
56.501	117.342	80.005	19.993	103.947	19.943	3.516	0.258
57.001	117.476	80.004	19.995	103.947	19.942	3.597	0.272
57.500	117.624	80.005	19.995	103.945	19.942	3.607	0.280
58.000	117.756	80.005	19.994	103.944	19.942	3.583	0.281
58.500	117.859	80.005	19.994	103.946	19.940	3.775	0.258
59.000	118.018	80.005	19.993	103.948	19.938	3.920	0.249
59.500	118.142	80.006	19.994	103.949	19.939	3.838	0.273
60.000	118.277	80.005	19.993	103.949	19.941	3.691	0.271
60.500	118.401	80.005	19.993	103.950	19.939	3.850	0.259
61.000	118.525	80.007	19.994	103.948	19.937	3.946	0.253
61.500	118.673	80.004	19.994	103.946	19.940	3.756	0.260
62.000	118.806	80.007	19.994	103.946	19.937	3.931	0.277
62.500	118.962	80.005	19.994	103.948	19.935	4.080	0.284
63.000	119.094	80.006	19.994	103.954	19.937	3.927	0.288
63.500	119.241	80.005	19.994	103.961	19.938	3.888	0.284
64.000	119.407	80.005	19.994	103.965	19.938	3.878	0.296
64.500	119.525	80.006	19.994	103.971	19.937	3.985	0.298
65.000	119.661	80.005	19.994	103.974	19.940	3.755	0.269
65.500	119.824	80.005	19.994	103.970	19.936	4.057	0.277
66.000	119.960	80.006	19.994	103.967	19.938	3.891	0.299
66.500	120.134	80.005	19.995	103.964	19.938	3.914	0.305
67.001	120.294	80.005	19.993	103.962	19.938	3.922	0.322
67.501	120.451	80.004	19.995	103.962	19.936	4.024	0.325
68.000	120.595	80.005	19.995	103.966	19.936	4.050	0.309
68.500	120.762	80.006	19.994	103.969	19.936	4.040	0.306
69.000	120.933	80.005	19.994	103.971	19.938	3.902	0.324
69.500	121.078	80.005	19.993	103.971	19.934	4.155	0.327
70.000	121.221	80.005	19.994	103.967	19.936	4.027	0.302
70.500	121.397	80.008	19.994	103.960	19.935	4.083	0.303
71.000	121.581	80.006	19.995	103.954	19.936	4.059	0.339
71.500	121.736	80.008	19.994	103.954	19.933	4.254	0.349
72.000	121.885	80.007	19.994	103.958	19.932	4.292	0.322
72.500	122.053	80.007	19.994	103.963	19.934	4.171	0.311
73.000	122.209	80.007	19.993	103.965	19.934	4.162	0.320
73.500	122.399	80.004	19.994	103.969	19.936	4.039	0.335
74.000	122.590	80.006	19.993	103.966	19.934	4.197	0.364
74.500	122.720	80.006	19.994	103.961	19.931	4.346	0.351
75.000	122.914	80.006	19.994	103.956	19.930	4.448	0.323
75.500	123.102	80.005	19.994	103.957	19.932	4.301	0.353
76.000	123.272	80.007	19.992	103.955	19.933	4.214	0.370
76.500	123.410	80.006	19.993	103.961	19.933	4.207	0.333
77.000	123.628	80.007	19.994	103.967	19.932	4.272	0.332
77.501	123.798	80.006	19.993	103.973	19.935	4.088	0.372
78.001	123.995	80.005	19.993	103.975	19.931	4.342	0.377
78.501	124.179	80.006	19.994	103.976	19.934	4.140	0.374
79.001	124.296	80.006	19.994	103.973	19.932	4.293	0.341
79.501	124.526	80.006	19.993	103.965	19.932	4.274	0.324
80.001	124.659	80.006	19.994	103.958	19.934	4.174	0.355
80.501	124.922	80.005	19.992	103.956	19.934	4.137	0.379
81.001	125.035	80.006	19.993	103.956	19.930	4.412	0.386
81.500	125.263	80.004	19.991	103.961	19.936	4.001	0.358
82.000	125.422	80.006	19.995	103.969	19.933	4.249	0.365
82.501	125.630	80.005	19.994	103.978	19.934	4.155	0.377
83.001	125.775	80.006	19.994	103.984	19.934	4.165	0.360
83.500	126.009	80.005	19.994	103.983	19.932	4.325	0.366
84.000	126.204	80.006	19.993	103.982	19.935	4.067	0.404
84.500	126.405	80.004	19.992	103.979	19.934	4.195	0.413
85.001	126.553	80.003	19.994	103.976	19.932	4.297	0.373
85.501	126.742	80.004	19.992	103.975	19.934	4.160	0.343
86.000	126.953	80.005	19.993	103.976	19.936	4.026	0.368
86.500	127.131	80.006	19.994	103.973	19.936	4.031	0.394
87.001	127.335	80.004	19.994	103.975	19.937	3.984	0.386
87.501	127.534	80.004	19.993	103.977	19.935	4.102	0.392
88.000	127.738	80.005	19.993	103.974	19.935	4.086	0.403
88.500	127.915	80.006	19.993	103.969	19.935	4.072	0.392
89.000	128.081	80.004	19.993	103.967	19.934	4.151	0.362
89.501	128.282	80.005	19.992	103.966	19.933	4.219	0.355
90.001	128.521	80.005	19.993	103.960	19.933	4.227	0.403
90.500	128.701	80.004	19.993	103.965	19.933	4.230	0.429
91.000	128.923	80.005	19.993	103.971	19.934	4.179	0.411
91.500	129.147	80.006	19.994	103.970	19.936	3.995	0.424
92.000	129.303	80.005	19.993	103.968	19.931	4.357	0.413
92.500	129.527	80.005	19.994	103.968	19.933	4.249	0.380
93.000	129.726	80.005	19.993	103.964	19.936	4.052	0.402
93.500	129.918	80.005	19.992	103.960	19.932	4.299	0.407
94.000	130.168	80.006	19.993	103.963	19.936	4.014	0.416
94.500	130.347	80.007	19.993	103.966	19.935	4.128	0.435
95.000	130.531	80.007	19.994	103.971	19.935	4.073	0.396
95.501	130.753	80.006	19.994	103.975	19.937	3.954	0.384
96.001	130.984	80.005	19.993	103.980	19.937	3.954	0.430
96.500	131.143	80.008	19.994	103.983	19.938	3.912	0.422
97.000	131.390	80.006	19.992	103.980	19.936	4.020	0.398
97.500	131.564	80.006	19.994	103.975	19.938	3.903	0.413
98.001	131.781	80.007	19.993	103.967	19.936	4.033	0.406
98.501	131.975	80.005	19.993	103.963	19.935	4.118	0.401
99.000	132.224	80.008	19.993	103.964	19.934	4.143	0.427
99.501	132.426	80.006	19.993	103.964	19.934	4.147	0.447
100.001	132.639	80.007	19.994	103.961	19.937	3.982	0.433
100.500	132.850	80.006	19.993	103.962	19.934	4.146	0.419
101.001	133.025	80.006	19.994	103.960	19.933	4.238	0.405
101.501	133.280	80.006	19.993	103.953	19.934	4.186	0.408
102.000	133.488	80.005	19.993	103.956	19.936	4.057	0.446
102.501	133.740	80.006	19.994	103.960	19.934	4.196	0.461
103.001	133.896	80.004	19.993	103.962	19.932	4.310	0.434
103.501	134.097	80.007	19.994	103.964	19.934	4.178	0.382
104.001	134.354	80.005	19.995	103.971	19.934	4.185	0.408
104.500	134.542	80.005	19.994	103.974	19.932	4.297	0.451
105.000	134.791	80.005	19.995	103.979	19.932	4.331	0.440
105.500	135.006	80.007	19.996	103.984	19.935	4.065	0.451
106.000	135.254	80.007	19.996	103.986	19.933	4.240	0.464
106.500	135.428	80.007	19.994	103.980	19.936	4.046	0.442
107.000	135.647	80.005	19.994	103.975	19.934	4.146	0.408
107.500	135.877	80.006	19.994	103.973	19.933	4.221	0.421
108.000	136.104	80.005	19.994	103.974	19.933	4.229	0.453
108.501	136.341	80.007	19.994	103.976	19.938	3.906	0.460
109.001	136.560	80.005	19.994	103.982	19.935	4.117	0.460
109.501	136.792	80.006	19.994	103.986	19.935	4.115	0.454
110.001	137.031	80.005	19.993	103.983	19.938	3.863	0.461
110.500	137.247	80.005	19.992	103.982	19.935	4.066	0.463
111.000	137.466	80.006	19.993	103.981	19.935	4.127	0.445
111.501	137.704	80.005	19.994	103.977	19.935	4.119	0.446
112.001	137.956	80.006	19.993	103.970	19.932	4.298	0.473
112.500	138.136	80.006	19.992	103.968	19.935	4.071	0.461
113.000	138.345	80.006	19.992	103.963	19.934	4.191	0.411
113.500	138.582	80.006	19.994	103.960	19.933	4.201	0.417
114.000	138.811	80.006	19.994	103.961	19.936	4.025	0.456
114.500	139.057	80.006	19.993	103.962	19.933	4.212	0.471
115.000	139.265	80.007	19.993	103.962	19.933	4.204	0.464
115.500	139.502	80.005	19.994	103.965	19.931	4.343	0.449
116.000	139.716	80.006	19.994	103.969	19.934	4.172	0.448
116.500	139.938	80.006	19.993	103.966	19.931	4.338	0.443
117.000	140.178	80.006	19.993	103.966	19.934	4.178	0.449
117.500	140.446	80.007	19.993	103.968	19.934	4.144	0.485
118.000	140.643	80.005	19.993	103.963	19.935	4.082	0.486
118.500	140.879	80.005	19.993	103.959	19.936	4.040	0.448
119.000	141.068	80.006	19.993	103.960	19.934	4.196	0.429
119.500	141.320	80.006	19.993	103.957	19.935	4.063	0.433
120.000	141.544	80.007	19.993	103.953	19.935	4.092	0.459
120.501	141.781	80.006	19.994	103.953	19.934	4.158	0.468
121.001	141.984	80.007	19.994	103.953	19.933	4.256	0.450
121.500	142.279	80.006	19.993	103.951	19.933	4.213	0.469
122.001	142.510	80.008	19.994	103.953	19.934	4.196	0.512
122.501	142.711	80.008	19.994	103.959	19.936	4.040	0.479
123.000	142.975	80.008	19.994	103.965	19.934	4.180	0.448
123.500	143.216	80.007	19.994	103.970	19.934	4.187	0.485
124.000	143.493	80.006	19.994	103.975	19.934	4.197	0.512
124.500	143.691	80.007	19.994	103.974	19.933	4.251	0.496
125.000	143.910	80.007	19.994	103.968	19.934	4.185	0.446
125.500	144.130	80.007	19.993	103.960	19.933	4.228	0.428
126.000	144.382	80.007	19.994	103.954	19.934	4.174	0.455
126.500	144.596	80.006	19.994	103.950	19.934	4.164	0.469
127.000	144.874	80.008	19.994	103.951	19.933	4.217	0.479
127.500	145.068	80.006	19.994	103.954	19.934	4.149	0.482
128.000	145.339	80.006	19.994	103.957	19.934	4.144	0.469
128.500	145.505	80.007	19.995	103.960	19.934	4.149	0.451
129.000	145.776	80.007	19.994	103.960	19.936	4.008	0.437
129.500	146.040	80.007	19.994	103.960	19.932	4.279	0.486
130.000	146.270	80.006	19.993	103.957	19.930	4.468	0.514
130.500	146.507	80.008	19.993	103.955	19.933	4.257	0.480
131.000	146.744	80.007	19.993	103.951	19.933	4.263	0.471
131.500	146.991	80.005	19.994	103.947	19.935	4.108	0.479
132.000	147.210	80.006	19.994	103.948	19.934	4.198	0.475
132.500	147.453	80.005	19.994	103.954	19.934	4.181	0.464
133.000	147.700	80.008	19.993	103.959	19.935	4.095	0.475
133.500	147.931	80.005	19.995	103.965	19.934	4.134	0.484
134.000	148.188	80.007	19.994	103.967	19.934	4.153	0.483
134.500	148.399	80.006	19.993	103.966	19.936	4.028	0.478
135.000	148.617	80.006	19.996	103.963	19.932	4.330	0.448
135.500	148.873	80.005	19.995	103.963	19.934	4.136	0.451
136.000	149.110	80.006	19.995	103.959	19.934	4.168	0.484
136.500	149.339	80.005	19.994	103.959	19.936	4.032	0.480
137.000	149.601	80.005	19.996	103.959	19.934	4.140	0.478
137.500	149.837	80.005	19.993	103.959	19.934	4.155	0.494
138.000	150.106	80.005	19.994	103.953	19.934	4.179	0.502
138.500	150.342	80.005	19.992	103.952	19.935	4.102	0.505
139.000	150.587	80.005	19.995	103.955	19.936	4.029	0.493
139.500	150.830	80.006	19.993	103.959	19.935	4.077	0.484
140.000	151.075	80.005	19.994	103.960	19.937	3.974	0.488
140.500	151.314	80.005	19.993	103.961	19.934	4.160	0.486
141.000	151.552	80.005	19.994	103.967	19.939	3.834	0.481
141.500	151.764	80.006	19.992	103.966	19.934	4.172	0.464
142.000	152.030	80.006	19.993	103.962	19.937	3.968	0.464
142.500	152.284	80.007	19.993	103.960	19.935	4.083	0.499
143.000	152.518	80.006	19.993	103.962	19.936	4.043	0.504
143.500	152.764	80.004	19.993	103.959	19.934	4.198	0.484
144.000	152.974	80.006	19.992	103.956	19.935	4.083	0.467
144.500	153.244	80.005	19.992	103.956	19.935	4.126	0.468
145.000	153.503	80.005	19.992	103.953	19.935	4.113	0.505
145.500	153.749	80.005	19.993	103.950	19.935	4.062	0.517
146.000	153.987	80.006	19.994	103.950	19.936	4.055	0.494
146.500	154.219	80.005	19.993	103.953	19.935	4.113	0.477
147.000	154.482	80.006	19.992	103.955	19.933	4.228	0.483
147.500	154.716	80.004	19.993	103.958	19.932	4.305	0.495
148.000	154.924	80.005	19.994	103.961	19.934	4.151	0.469
148.500	155.217	80.005	19.993	103.960	19.934	4.145	0.472
149.000	155.437	80.005	19.993	103.955	19.936	4.059	0.507
149.500	155.686	80.006	19.992	103.955	19.936	4.049	0.491
150.000	155.937	80.005	19.992	103.956	19.933	4.226	0.485
150.500	156.160	80.005	19.992	103.952	19.935	4.124	0.487
151.000	156.422	80.003	19.993	103.953	19.934	4.153	0.479
151.500	156.689	80.005	19.993	103.953	19.933	4.230	0.507
152.000	156.896	80.004	19.993	103.951	19.935	4.093	0.501
152.500	157.182	80.005	19.992	103.948	19.932	4.277	0.484
153.000	157.419	80.005	19.993	103.948	19.932	4.272	0.508
153.500	157.676	80.005	19.993	103.947	19.935	4.126	0.509
154.000	157.936	80.005	19.993	103.948	19.933	4.222	0.505
154.500	158.175	80.005	19.993	103.948	19.932	4.315	0.508
155.000	158.393	80.006	19.993	103.948	19.933	4.206	0.478
155.500	158.687	80.005	19.993	103.949	19.932	4.315	0.485
156.000	158.913	80.006	19.993	103.949	19.931	4.345	0.516
156.500	159.158	80.004	19.992	103.948	19.931	4.388	0.495
157.000	159.398	80.006	19.993	103.950	19.934	4.177	0.478
157.500	159.652	80.005	19.993	103.950	19.932	4.300	0.489
158.000	159.904	80.006	19.993	103.950	19.934	4.130	0.500
158.500	160.113	80.005	19.994	103.950	19.933	4.215	0.484
159.000	160.407	80.006	19.993	103.952	19.931	4.353	0.482
159.500	160.617	80.006	19.994	103.951	19.931	4.351	0.503
160.000	160.895	80.004	19.993	103.951	19.932	4.317	0.496
160.500	161.159	80.004	19.992	103.949	19.930	4.435	0.515
161.000	161.396	80.005	19.993	103.950	19.932	4.294	0.522
161.500	161.660	80.005	19.993	103.947	19.930	4.443	0.501
162.000	161.874	80.005	19.993	103.952	19.931	4.366	0.490
162.500	162.136	80.005	19.991	103.952	19.931	4.375	0.477
163.000	162.391	80.005	19.993	103.952	19.927	4.647	0.496
163.500	162.651	80.004	19.994	103.952	19.930	4.430	0.516
164.000	162.854	80.006	19.995	103.952	19.930	4.456	0.489
164.500	163.102	80.005	19.994	103.948	19.930	4.405	0.457
165.000	163.401	80.004	19.994	103.950	19.930	4.407	0.499
165.500	163.622	80.005	19.993	103.951	19.929	4.488	0.533
166.000	163.865	80.005	19.994	103.952	19.931	4.394	0.492
166.500	164.118	80.005	19.994	103.953	19.933	4.247	0.480
167.000	164.404	80.004	19.994	103.952	19.931	4.362	0.518
167.500	164.600	80.004	19.993	103.951	19.932	4.270	0.510
168.000	164.871	80.003	19.993	103.950	19.927	4.620	0.474
168.500	165.117	80.003	19.993	103.950	19.932	4.309	0.492
169.000	165.398	80.006	19.992	103.950	19.933	4.222	0.522
169.500	165.626	80.005	19.992	103.951	19.929	4.520	0.518
170.000	165.892	80.005	19.993	103.951	19.928	4.558	0.501
170.500	166.142	80.005	19.993	103.952	19.932	4.275	0.505
171.000	166.416	80.003	19.993	103.952	19.929	4.484	0.520
171.500	166.644	80.005	19.993	103.951	19.928	4.608	0.513
172.000	166.889	80.003	19.992	103.951	19.932	4.298	0.487
172.500	167.152	80.004	19.992	103.950	19.933	4.250	0.490
173.000	167.386	80.003	19.994	103.950	19.932	4.271	0.503
173.500	167.613	80.005	19.993	103.951	19.931	4.365	0.479
174.000	167.843	80.003	19.994	103.952	19.931	4.394	0.459
174.500	168.117	80.006	19.993	103.953	19.931	4.369	0.481
175.000	168.350	80.003	19.993	103.954	19.931	4.354	0.506
175.500	168.617	80.005	19.993	103.953	19.929	4.494	0.503
176.000	168.851	80.004	19.994	103.952	19.931	4.381	0.500
176.500	169.098	80.005	19.993	103.951	19.930	4.428	0.491
177.000	169.335	80.006	19.992	103.950	19.930	4.431	0.483
177.500	169.607	80.006	19.992	103.949	19.930	4.471	0.496
178.000	169.852	80.005	19.992	103.948	19.931	4.380	0.513
178.500	170.098	80.007	19.992	103.948	19.935	4.124	0.504
179.000	170.380	80.007	19.993	103.948	19.933	4.218	0.510
179.500	170.603	80.007	19.993	103.948	19.934	4.197	0.517
180.000	170.846	80.007	19.993	103.948	19.934	4.175	0.485
180.500	171.106	80.007	19.992	103.947	19.933	4.256	0.484
181.000	171.352	80.006	19.992	103.946	19.934	4.168	0.505
181.500	171.614	80.006	19.994	103.946	19.934	4.173	0.507
182.000	171.877	80.007	19.993	103.945	19.934	4.184	0.517
182.500	172.107	80.007	19.993	103.944	19.932	4.295	0.510
183.000	172.342	80.006	19.993	103.943	19.935	4.098	0.479
183.500	172.639	80.006	19.993	103.942	19.934	4.167	0.498
184.000	172.888	80.007	19.992	103.942	19.932	4.290	0.539
184.500	173.094	80.007	19.992	103.941	19.933	4.229	0.501
185.000	173.372	80.007	19.993	103.941	19.934	4.166	0.470
185.500	173.630	80.008	19.993	103.942	19.937	3.941	0.510
186.000	173.860	80.008	19.993	103.943	19.935	4.111	0.512
186.500	174.161	80.008	19.993	103.943	19.934	4.175	0.510
187.000	174.401	80.007	19.993	103.945	19.935	4.113	0.536
187.500	174.654	80.008	19.993	103.945	19.930	4.450	0.517
188.000	174.899	80.006	19.993	103.945	19.932	4.309	0.496
188.500	175.174	80.007	19.993	103.943	19.932	4.296	0.509
189.000	175.385	80.006	19.993	103.938	19.934	4.149	0.503
189.500	175.611	80.008	19.992	103.937	19.935	4.079	0.462
190.000	175.883	80.007	19.994	103.937	19.936	4.028	0.468
190.500	176.143	80.006	19.992	103.937	19.937	3.932	0.515
191.000	176.372	80.008	19.993	103.939	19.937	3.966	0.510
191.500	176.633	80.007	19.993	103.943	19.936	3.998	0.490
192.000	176.870	80.007	19.994	103.943	19.935	4.097	0.494
192.500	177.148	80.006	19.993	103.943	19.941	3.677	0.507
193.000	177.413	80.006	19.993	103.942	19.937	3.939	0.529
193.500	177.647	80.006	19.993	103.938	19.939	3.837	0.521
194.000	177.932	80.006	19.994	103.936	19.939	3.815	0.509
194.500	178.153	80.005	19.994	103.935	19.938	3.902	0.513
195.000	178.394	80.007	19.994	103.936	19.936	3.992	0.484
195.500	178.653	80.007	19.993	103.936	19.939	3.849	0.481
196.000	178.901	80.006	19.995	103.940	19.936	4.041	0.504
196.500	179.127	80.005	19.994	103.942	19.934	4.148	0.491
197.000	179.388	80.007	19.994	103.943	19.935	4.090	0.481
197.500	179.608	80.005	19.994	103.943	19.937	3.958	0.484
198.000	179.892	80.005	19.994	103.943	19.937	3.962	0.492
198.500	180.131	80.007	19.993	103.941	19.937	3.962	0.514
199.000	180.415	80.005	19.994	103.941	19.938	3.877	0.523
199.500	180.662	80.007	19.994	103.940	19.936	3.991	0.527
200.000	180.874	80.007	19.995	103.941	19.938	3.888	0.495
200.500	181.161	80.007	19.995	103.940	19.937	3.972	0.479
201.000	181.415	80.007	19.994	103.939	19.937	3.986	0.520
201.500	181.638	80.006	19.994	103.936	19.935	4.105	0.509
202.000	181.865	80.007	19.995	103.932	19.939	3.850	0.463
202.500	182.122	80.006	19.993	103.930	19.936	4.052	0.467
203.000	182.388	80.007	19.994	103.926	19.941	3.658	0.504
203.500	182.631	80.007	19.994	103.925	19.935	4.084	0.516
204.000	182.911	80.007	19.994	103.929	19.938	3.912	0.516
204.500	183.165	80.007	19.995	103.931	19.938	3.896	0.528
205.000	183.391	80.007	19.993	103.931	19.935	4.091	0.507
205.500	183.694	80.007	19.993	103.933	19.937	3.977	0.505
206.000	183.893	80.007	19.994	103.933	19.937	3.961	0.515
206.500	184.175	80.008	19.993	103.930	19.932	4.297	0.491
207.000	184.424	80.007	19.994	103.931	19.936	4.039	0.506
207.500	184.656	80.008	19.993	103.929	19.937	3.956	0.506
208.000	184.939	80.006	19.993	103.930	19.938	3.890	0.498
208.500	185.199	80.008	19.994	103.932	19.936	4.005	0.529
209.000	185.363	80.007	19.993	103.931	19.935	4.116	0.484
209.500	185.670	80.008	19.993	103.925	19.934	4.169	0.447
210.000	185.905	80.007	19.993	103.922	19.937	3.951	0.506
210.500	186.174	80.008	19.993	103.917	19.938	3.881	0.523
211.000	186.419	80.007	19.994	103.914	19.935	4.098	0.509
211.500	186.692	80.008	19.992	103.916	19.935	4.127	0.516
212.000	186.926	80.008	19.992	103.920	19.938	3.858	0.513
212.500	187.171	80.007	19.992	103.922	19.934	4.140	0.493
213.000	187.424	80.008	19.993	103.920	19.933	4.199	0.488
213.500	187.648	80.006	19.993	103.918	19.938	3.879	0.488
214.000	187.914	80.008	19.993	103.920	19.934	4.163	0.484
214.500	188.165	80.008	19.992	103.918	19.938	3.918	0.504
215.000	188.425	80.007	19.993	103.921	19.937	3.975	0.513
215.500	188.652	80.006	19.993	103.923	19.934	4.141	0.499
216.000	188.894	80.007	19.993	103.924	19.936	4.014	0.478
216.500	189.127	80.006	19.993	103.924	19.936	4.049	0.472
217.000	189.395	80.005	19.993	103.924	19.935	4.103	0.488
217.500	189.637	80.006	19.993	103.920	19.936	4.016	0.506
218.000	189.908	80.005	19.994	103.923	19.939	3.800	0.511
218.500	190.156	80.005	19.993	103.926	19.937	3.964	0.516
219.000	190.356	80.005	19.994	103.928	19.936	4.003	0.484
219.500	190.575	80.005	19.994	103.932	19.939	3.809	0.434
220.000	190.872	80.004	19.993	103.937	19.940	3.781	0.468
220.500	191.096	80.005	19.994	103.942	19.940	3.779	0.519
221.000	191.358	80.003	19.993	103.941	19.939	3.822	0.503
221.500	191.608	80.005	19.994	103.937	19.939	3.818	0.499
222.000	191.871	80.004	19.995	103.934	19.939	3.833	0.513
222.500	192.121	80.004	19.994	103.928	19.939	3.799	0.513
223.000	192.331	80.004	19.994	103.923	19.938	3.882	0.486
223.500	192.617	80.003	19.994	103.921	19.937	3.958	0.478
224.000	192.871	80.003	19.995	103.921	19.938	3.907	0.518
224.500	193.069	80.003	19.995	103.925	19.937	3.937	0.496
225.000	193.340	80.005	19.994	103.927	19.940	3.762	0.461
225.500	193.585	80.004	19.995	103.928	19.941	3.690	0.493
226.000	193.823	80.004	19.996	103.931	19.939	3.823	0.499
226.500	194.053	80.004	19.995	103.931	19.939	3.827	0.476
227.000	194.297	80.004	19.995	103.930	19.936	3.995	0.471
227.500	194.528	80.004	19.994	103.934	19.937	3.982	0.475
228.000	194.772	80.003	19.995	103.933	19.941	3.694	0.475
228.500	195.055	80.003	19.994	103.931	19.936	4.014	0.501
229.000	195.292	80.003	19.995	103.933	19.939	3.833	0.523
229.500	195.503	80.004	19.995	103.931	19.939	3.852	0.484
230.000	195.767	80.004	19.995	103.927	19.938	3.920	0.461
230.500	196.015	80.004	19.994	103.926	19.941	3.707	0.494
231.000	196.238	80.004	19.996	103.923	19.938	3.875	0.492
231.500	196.546	80.004	19.995	103.918	19.938	3.863	0.501
232.000	196.737	80.004	19.994	103.917	19.940	3.765	0.515
232.500	196.994	80.005	19.994	103.917	19.937	3.965	0.474
233.000	197.246	80.004	19.994	103.917	19.936	4.008	0.478
233.500	197.519	80.005	19.995	103.924	19.936	4.012	0.517
234.000	197.721	80.005	19.995	103.927	19.935	4.076	0.500
234.500	198.009	80.004	19.994	103.928	19.939	3.803	0.483
235.000	198.251	80.004	19.994	103.925	19.939	3.844	0.510
235.500	198.494	80.005	19.994	103.925	19.940	3.726	0.507
236.000	198.766	80.006	19.993	103.917	19.940	3.729	0.500
236.500	198.999	80.005	19.992	103.915	19.939	3.803	0.510
237.000	199.230	80.005	19.993	103.911	19.937	3.935	0.484
237.500	199.478	80.003	19.993	103.913	19.939	3.844	0.471
238.000	199.765	80.005	19.993	103.916	19.939	3.808	0.507
238.500	199.966	80.004	19.993	103.916	19.941	3.714	0.512
239.000	200.208	80.005	19.993	103.917	19.935	4.061	0.466
239.500	200.494	80.004	19.993	103.916	19.938	3.910	0.485
240.000	200.679	80.004	19.994	103.916	19.936	4.048	0.499
240.500	200.960	80.005	19.993	103.913	19.940	3.720	0.469
241.000	201.175	80.005	19.993	103.916	19.940	3.784	0.481
241.500	201.437	80.005	19.992	103.917	19.933	4.247	0.486
242.000	201.704	80.005	19.992	103.919	19.935	4.110	0.503
242.500	201.931	80.005	19.993	103.918	19.937	3.982	0.511
243.000	202.189	80.005	19.993	103.918	19.935	4.063	0.489
243.500	202.446	80.005	19.993	103.914	19.935	4.074	0.500
244.000	202.699	80.005	19.994	103.912	19.936	4.046	0.513
244.500	202.903	80.006	19.993	103.912	19.935	4.093	0.483
245.000	203.212	80.004	19.994	103.912	19.936	4.046	0.485
245.500	203.424	80.006	19.995	103.911	19.936	4.021	0.517
246.000	203.688	80.006	19.993	103.913	19.934	4.151	0.498
246.500	203.880	80.005	19.993	103.913	19.937	3.944	0.466
247.000	204.156	80.005	19.993	103.912	19.935	4.089	0.462
247.500	204.420	80.005	19.993	103.910	19.937	3.982	0.504
248.000	204.633	80.005	19.993	103.910	19.935	4.108	0.509
248.500	204.907	80.005	19.993	103.908	19.937	3.936	0.482
249.000	205.163	80.004	19.994	103.909	19.937	3.985	0.508
249.500	205.382	80.003	19.993	103.911	19.939	3.822	0.502
250.000	205.634	80.004	19.993	103.913	19.935	4.063	0.473
250.500	205.891	80.006	19.993	103.914	19.937	3.927	0.490
251.000	206.138	80.004	19.994	103.916	19.938	3.869	0.506
251.500	206.411	80.005	19.993	103.915	19.935	4.093	0.512
252.000	206.678	80.005	19.994	103.914	19.935	4.127	0.530
252.500	206.924	80.004	19.994	103.914	19.936	3.991	0.527
253.000	207.170	80.004	19.993	103.913	19.937	3.925	0.503
253.500	207.405	80.005	19.993	103.913	19.937	3.987	0.487
254.000	207.653	80.005	19.994	103.913	19.937	3.944	0.482
254.501	207.924	80.004	19.992	103.912	19.933	4.264	0.501
255.001	208.144	80.005	19.994	103.911	19.934	4.194	0.505
255.500	208.355	80.006	19.994	103.912	19.935	4.100	0.461
256.000	208.603	80.005	19.993	103.910	19.937	3.931	0.446
256.500	208.847	80.005	19.993	103.909	19.934	4.134	0.476
257.000	209.083	80.005	19.995	103.909	19.935	4.089	0.486
257.500	209.373	80.005	19.993	103.908	19.933	4.234	0.503
258.000	209.614	80.006	19.994	103.907	19.935	4.119	0.528
258.500	209.864	80.005	19.994	103.907	19.936	4.044	0.511
259.000	210.142	80.005	19.993	103.909	19.935	4.087	0.509
259.500	210.378	80.004	19.993	103.909	19.934	4.177	0.521
260.000	210.614	80.007	19.992	103.910	19.936	4.059	0.493
260.500	210.857	80.005	19.993	103.909	19.934	4.138	0.476
261.000	211.094	80.007	19.994	103.908	19.936	4.034	0.480
261.500	211.367	80.005	19.994	103.907	19.935	4.108	0.495
262.000	211.611	80.008	19.993	103.906	19.936	3.998	0.513
262.500	211.885	80.006	19.994	103.906	19.938	3.910	0.517
263.000	212.108	80.006	19.994	103.906	19.935	4.087	0.508
263.500	212.366	80.005	19.994	103.906	19.937	3.968	0.489
264.000	212.599	80.009	19.994	103.906	19.937	3.957	0.486
264.500	212.875	80.006	19.994	103.906	19.937	3.980	0.500
265.000	213.136	80.007	19.995	103.905	19.936	4.057	0.523
265.500	213.351	80.007	19.994	103.905	19.935	4.072	0.506
266.000	213.615	80.006	19.995	103.906	19.937	3.987	0.477
266.500	213.846	80.007	19.993	103.907	19.934	4.181	0.487
267.000	214.118	80.008	19.994	103.911	19.936	4.051	0.500
267.500	214.370	80.007	19.994	103.911	19.936	4.036	0.514
268.000	214.583	80.008	19.993	103.912	19.931	4.349	0.494
268.500	214.833	80.008	19.993	103.911	19.935	4.115	0.464
269.000	215.098	80.007	19.993	103.909	19.935	4.117	0.489
269.500	215.310	80.009	19.993	103.906	19.937	3.948	0.496
270.000	215.571	80.008	19.993	103.906	19.937	3.959	0.475
270.500	215.828	80.008	19.994	103.906	19.934	4.155	0.496
271.000	216.056	80.009	19.993	103.907	19.934	4.178	0.502
271.500	216.344	80.009	19.993	103.907	19.935	4.093	0.500
272.000	216.560	80.007	19.994	103.907	19.937	3.980	0.510
272.500	216.838	80.007	19.993	103.907	19.938	3.921	0.499
273.000	217.071	80.007	19.995	103.906	19.933	4.240	0.502
273.500	217.307	80.008	19.993	103.905	19.932	4.306	0.490
274.000	217.562	80.008	19.993	103.905	19.937	3.959	0.481
274.500	217.814	80.008	19.992	103.905	19.934	4.155	0.499
275.000	218.060	80.006	19.991	103.905	19.934	4.153	0.502
275.500	218.338	80.006	19.992	103.906	19.932	4.324	0.511
276.000	218.565	80.007	19.992	103.906	19.932	4.289	0.514
276.500	218.828	80.006	19.993	103.907	19.937	3.936	0.497
277.000	219.075	80.006	19.994	103.907	19.935	4.112	0.500
277.500	219.340	80.007	19.992	103.907	19.934	4.134	0.511
278.000	219.558	80.006	19.993	103.906	19.933	4.240	0.497
278.500	219.830	80.008	19.992	103.906	19.932	4.272	0.487
279.000	220.057	80.007	19.993	103.906	19.933	4.223	0.495
279.500	220.297	80.007	19.993	103.906	19.935	4.123	0.483
280.000	220.552	80.007	19.994	103.908	19.936	4.019	0.481
280.500	220.804	80.008	19.992	103.910	19.932	4.273	0.501
281.000	221.006	80.007	19.993	103.910	19.936	4.002	0.481
281.500	221.307	80.008	19.993	103.910	19.936	4.017	0.479
282.000	221.533	80.006	19.992	103.910	19.934	4.147	0.515
282.500	221.806	80.007	19.992	103.910	19.938	3.871	0.513
283.000	221.993	80.005	19.992	103.908	19.935	4.072	0.479
283.500	222.288	80.006	19.994	103.908	19.937	3.946	0.471
284.000	222.532	80.008	19.993	103.908	19.935	4.113	0.510
284.500	222.788	80.008	19.993	103.908	19.936	4.014	0.519
285.000	223.052	80.007	19.993	103.908	19.934	4.153	0.510
285.500	223.291	80.007	19.993	103.908	19.937	3.946	0.512
286.000	223.557	80.008	19.994	103.910	19.934	4.155	0.504
286.500	223.794	80.006	19.995	103.910	19.935	4.102	0.504
287.000	224.045	80.008	19.993	103.909	19.936	4.012	0.496
287.500	224.292	80.007	19.994	103.909	19.935	4.064	0.493
288.000	224.543	80.008	19.993	103.910	19.934	4.177	0.498
288.500	224.766	80.007	19.993	103.910	19.933	4.247	0.485
289.000	225.014	80.007	19.993	103.910	19.935	4.100	0.472
289.500	225.279	80.007	19.993	103.910	19.936	4.038	0.492
290.000	225.557	80.008	19.993	103.909	19.935	4.113	0.528
290.500	225.799	80.009	19.993	103.908	19.934	4.145	0.532
291.000	226.064	80.008	19.993	103.908	19.936	4.017	0.514
291.500	226.291	80.009	19.994	103.907	19.935	4.125	0.499
292.000	226.546	80.008	19.994	103.908	19.938	3.882	0.486
292.500	226.789	80.007	19.994	103.910	19.939	3.844	0.490
293.000	227.045	80.007	19.993	103.910	19.937	3.983	0.499
293.500	227.323	80.007	19.994	103.909	19.936	3.995	0.517
294.000	227.567	80.009	19.993	103.910	19.934	4.149	0.528
294.500	227.793	80.009	19.994	103.909	19.936	4.044	0.497
295.000	228.042	80.008	19.994	103.907	19.936	4.049	0.472
295.500	228.334	80.007	19.994	103.907	19.934	4.142	0.508
296.000	228.572	80.008	19.993	103.907	19.932	4.296	0.535
296.500	228.824	80.009	19.993	103.907	19.932	4.270	0.510
297.000	229.094	80.008	19.994	103.907	19.935	4.098	0.506
297.500	229.341	80.008	19.994	103.906	19.934	4.196	0.519
298.000	229.560	80.008	19.993	103.906	19.936	4.057	0.492
298.500	229.826	80.007	19.992	103.907	19.936	4.030	0.476
299.000	230.089	80.007	19.992	103.907	19.935	4.123	0.507
299.501	230.349	80.008	19.993	103.906	19.934	4.189	0.525
300.001	230.611	80.007	19.993	103.907	19.936	4.042	0.522
300.500	230.872	80.007	19.993	103.907	19.935	4.104	0.523
301.000	231.131	80.007	19.993	103.907	19.934	4.151	0.522
301.500	231.360	80.005	19.992	103.907	19.940	3.755	0.504
302.000	231.577	80.005	19.993	103.908	19.938	3.863	0.467
302.500	231.861	80.004	19.993	103.908	19.939	3.840	0.474
303.000	232.091	80.005	19.993	103.908	19.940	3.723	0.508
303.500	232.317	80.005	19.994	103.908	19.942	3.603	0.485
304.000	232.566	80.004	19.995	103.909	19.939	3.814	0.465
304.500	232.844	80.005	19.994	103.909	19.940	3.725	0.501
305.000	233.113	80.005	19.994	103.909	19.938	3.863	0.537
305.500	233.322	80.006	19.993	103.910	19.941	3.680	0.512
306.001	233.604	80.005	19.994	103.909	19.940	3.727	0.484
306.501	233.876	80.005	19.993	103.909	19.939	3.810	0.522
307.000	234.091	80.005	19.993	103.909	19.938	3.876	0.521
307.500	234.355	80.007	19.993	103.909	19.936	4.006	0.483
308.000	234.624	80.006	19.993	103.908	19.939	3.847	0.506
308.500	234.876	80.007	19.994	103.908	19.940	3.778	0.528
309.000	235.098	80.006	19.994	103.908	19.937	3.953	0.498
309.500	235.331	80.005	19.993	103.907	19.934	4.158	0.464
310.000	235.581	80.005	19.994	103.906	19.937	3.964	0.469
310.500	235.827	80.005	19.993	103.905	19.936	3.991	0.490
311.000	236.108	80.004	19.993	103.905	19.937	3.949	0.511
311.500	236.328	80.007	19.992	103.905	19.936	4.006	0.514
312.000	236.575	80.007	19.993	103.905	19.938	3.859	0.484
312.500	236.853	80.006	19.993	103.905	19.935	4.064	0.496
313.000	237.087	80.006	19.994	103.904	19.936	4.011	0.519
313.500	237.297	80.005	19.993	103.903	19.934	4.179	0.478
314.000	237.608	80.007	19.994	103.902	19.937	3.936	0.482
314.500	237.879	80.006	19.993	103.902	19.935	4.107	0.551
315.000	238.109	80.006	19.993	103.903	19.937	3.936	0.541
315.500	238.363	80.006	19.994	103.903	19.937	3.940	0.493
316.000	238.620	80.007	19.994	103.903	19.936	4.043	0.498
316.500	238.869	80.007	19.995	103.904	19.936	4.058	0.508
317.000	239.113	80.007	19.994	103.903	19.936	4.047	0.499
317.500	239.370	80.007	19.993	103.903	19.933	4.256	0.497
318.000	239.628	80.007	19.993	103.901	19.936	4.032	0.509
318.500	239.863	80.006	19.993	103.898	19.935	4.076	0.504
319.000	240.080	80.005	19.993	103.897	19.936	4.030	0.472
319.500	240.302	80.007	19.994	103.898	19.937	3.936	0.446
320.000	240.562	80.006	19.993	103.898	19.936	4.030	0.460
320.501	240.818	80.005	19.994	103.900	19.935	4.117	0.498
321.000	241.052	80.004	19.994	103.901	19.932	4.333	0.503
321.500	241.294	80.004	19.995	103.901	19.936	4.021	0.484
322.000	241.587	80.006	19.994	103.900	19.938	3.911	0.506
322.500	241.818	80.006	19.993	103.901	19.934	4.192	0.529
323.000	242.062	80.007	19.994	103.900	19.936	4.017	0.499
323.500	242.332	80.006	19.993	103.901	19.937	3.961	0.494
324.000	242.560	80.006	19.994	103.901	19.935	4.085	0.506
324.500	242.819	80.007	19.997	103.896	19.936	4.019	0.493
325.000	243.065	80.006	19.995	103.895	19.934	4.155	0.496
325.500	243.326	80.005	19.996	103.895	19.937	3.957	0.506
326.000	243.583	80.007	19.996	103.897	19.936	4.004	0.513
326.500	243.847	80.006	19.994	103.897	19.940	3.776	0.519
327.000	244.080	80.004	19.994	103.898	19.935	4.077	0.508
327.500	244.297	80.006	19.994	103.899	19.934	4.187	0.473
328.000	244.562	80.007	19.994	103.900	19.936	4.030	0.466
328.500	244.779	80.007	19.996	103.899	19.935	4.104	0.482
329.000	245.045	80.007	19.993	103.899	19.933	4.215	0.482
329.500	245.303	80.006	19.995	103.903	19.931	4.398	0.504
330.000	245.504	80.007	19.993	103.902	19.933	4.221	0.492
330.500	245.784	80.006	19.993	103.901	19.934	4.183	0.470
331.000	246.025	80.007	19.994	103.900	19.936	4.008	0.501
331.500	246.290	80.006	19.993	103.895	19.936	4.045	0.514
332.000	246.539	80.006	19.994	103.893	19.935	4.089	0.510
332.500	246.789	80.006	19.993	103.894	19.934	4.160	0.507
333.000	247.013	80.005	19.994	103.895	19.934	4.179	0.487
333.500	247.297	80.007	19.993	103.897	19.934	4.158	0.491
334.000	247.514	80.007	19.994	103.902	19.935	4.098	0.504
334.500	247.753	80.006	19.993	103.904	19.933	4.228	0.478
335.000	247.989	80.006	19.993	103.905	19.934	4.166	0.466
335.500	248.255	80.006	19.994	103.904	19.934	4.179	0.489
336.000	248.545	80.005	19.992	103.901	19.934	4.171	0.529
336.500	248.783	80.006	19.992	103.900	19.934	4.171	0.542
337.000	249.023	80.005	19.994	103.900	19.934	4.154	0.503
337.500	249.278	80.007	19.992	103.900	19.937	3.975	0.487
338.000	249.529	80.006	19.993	103.900	19.934	4.132	0.500
338.500	249.814	80.007	19.993	103.900	19.936	4.054	0.521
339.000	250.089	80.004	19.993	103.901	19.934	4.196	0.548
339.500	250.332	80.005	19.992	103.901	19.935	4.109	0.539
340.000	250.556	80.006	19.993	103.901	19.936	4.051	0.492
340.500	250.800	80.006	19.993	103.903	19.937	3.962	0.467
341.000	251.040	80.005	19.994	103.906	19.935	4.096	0.476
341.500	251.280	80.005	19.994	103.905	19.935	4.111	0.482
342.000	251.525	80.006	19.992	103.904	19.935	4.087	0.482
342.500	251.818	80.007	19.992	103.904	19.934	4.158	0.511
343.000	252.035	80.005	19.992	103.902	19.935	4.083	0.524
343.500	252.289	80.007	19.994	103.899	19.939	3.846	0.491
344.000	252.525	80.006	19.993	103.899	19.941	3.712	0.480
344.500	252.791	80.008	19.993	103.899	19.937	3.988	0.496
345.000	253.081	80.007	19.994	103.899	19.937	3.925	0.529
345.500	253.268	80.007	19.994	103.900	19.941	3.685	0.517
346.000	253.532	80.008	19.993	103.901	19.937	3.932	0.464
346.500	253.798	80.007	19.993	103.901	19.938	3.921	0.491
347.000	254.013	80.007	19.993	103.897	19.940	3.770	0.506
347.500	254.235	80.007	19.992	103.893	19.939	3.825	0.459
348.000	254.534	80.008	19.993	103.889	19.938	3.921	0.479
348.500	254.768	80.009	19.993	103.890	19.939	3.827	0.527
349.000	255.015	80.008	19.993	103.889	19.937	3.940	0.507
349.500	255.272	80.008	19.993	103.894	19.936	3.998	0.493
350.000	255.494	80.007	19.994	103.897	19.937	3.981	0.491
350.500	255.776	80.007	19.993	103.901	19.939	3.834	0.491
351.000	256.025	80.007	19.992	103.899	19.938	3.900	0.517
351.500	256.274	80.007	19.992	103.898	19.934	4.127	0.514
352.000	256.528	80.007	19.992	103.897	19.937	3.937	0.501
352.500	256.766	80.007	19.993	103.898	19.935	4.062	0.498
353.000	257.029	80.007	19.993	103.900	19.938	3.898	0.496
353.500	257.220	80.007	19.993	103.899	19.935	4.062	0.477
354.000	257.525	80.008	19.993	103.903	19.938	3.868	0.475
354.500	257.744	80.007	19.992	103.902	19.937	3.983	0.510
355.000	257.985	80.008	19.993	103.898	19.935	4.100	0.492
355.500	258.234	80.007	19.993	103.892	19.935	4.083	0.474
356.000	258.528	80.007	19.994	103.895	19.935	4.069	0.516
356.500	258.737	80.008	19.995	103.891	19.935	4.069	0.523
357.000	259.009	80.008	19.993	103.889	19.932	4.329	0.492
357.500	259.302	80.007	19.994	103.891	19.935	4.126	0.523
358.000	259.518	80.006	19.993	103.896	19.933	4.258	0.537
358.500	259.766	80.007	19.992	103.897	19.937	3.955	0.486
359.000	259.995	80.006	19.992	103.898	19.937	3.946	0.470
359.500	260.223	80.007	19.994	103.901	19.936	4.012	0.467
360.000	260.474	80.006	19.992	103.900	19.936	3.991	0.468
360.500	260.762	80.007	19.993	103.895	19.936	4.021	0.509
361.000	260.998	80.008	19.995	103.889	19.938	3.887	0.532
361.500	261.205	80.007	19.992	103.885	19.938	3.888	0.483
362.000	261.456	80.007	19.994	103.882	19.935	4.069	0.450
362.500	261.693	80.006	19.993	103.881	19.938	3.860	0.473
363.000	261.940	80.008	19.993	103.882	19.936	4.041	0.486
363.500	262.154	80.007	19.993	103.886	19.936	4.051	0.472
364.000	262.435	80.008	19.993	103.892	19.936	4.024	0.478
364.500	262.663	80.007	19.993	103.897	19.936	4.028	0.502
365.000	262.924	80.007	19.993	103.898	19.937	3.989	0.499
365.500	263.166	80.007	19.992	103.899	19.938	3.876	0.496
366.000	263.430	80.007	19.993	103.898	19.934	4.152	0.505
366.500	263.656	80.008	19.993	103.892	19.935	4.062	0.498
367.000	263.908	80.006	19.993	103.886	19.936	4.007	0.484
367.500	264.155	80.007	19.993	103.881	19.935	4.092	0.489
368.000	264.393	80.006	19.992	103.883	19.936	4.048	0.492
368.501	264.648	80.008	19.992	103.885	19.939	3.805	0.488
369.000	264.888	80.007	19.991	103.890	19.936	4.058	0.494
369.500	265.136	80.007	19.994	103.896	19.933	4.233	0.492
370.000	265.371	80.007	19.993	103.903	19.937	3.964	0.486
370.500	265.621	80.007	19.992	103.904	19.936	4.012	0.485
371.000	265.847	80.008	19.991	103.901	19.935	4.073	0.481
371.500	266.075	80.007	19.991	103.896	19.936	4.035	0.465
372.000	266.340	80.008	19.992	103.891	19.937	3.969	0.473
372.500	266.610	80.007	19.992	103.886	19.936	4.000	0.514
373.000	266.867	80.007	19.992	103.883	19.935	4.085	0.531
373.500	267.120	80.008	19.992	103.885	19.935	4.079	0.518
374.000	267.349	80.008	19.992	103.886	19.937	3.987	0.496
374.500	267.602	80.009	19.993	103.890	19.934	4.182	0.482
375.000	267.859	80.008	19.992	103.893	19.934	4.132	0.496
375.500	268.095	80.009	19.992	103.893	19.934	4.192	0.501
376.000	268.340	80.009	19.993	103.892	19.933	4.235	0.487
376.500	268.585	80.008	19.992	103.896	19.935	4.104	0.485
377.000	268.831	80.008	19.993	103.896	19.936	4.015	0.491
377.500	269.075	80.009	19.993	103.890	19.933	4.260	0.491
378.000	269.321	80.010	19.993	103.886	19.934	4.128	0.489
378.500	269.560	80.009	19.993	103.886	19.933	4.222	0.487
379.000	269.803	80.008	19.992	103.884	19.931	4.365	0.483
379.500	270.077	80.010	19.993	103.880	19.933	4.212	0.500
380.000	270.317	80.008	19.993	103.881	19.934	4.156	0.516
380.500	270.584	80.008	19.992	103.882	19.933	4.259	0.511
381.000	270.837	80.008	19.993	103.878	19.933	4.231	0.513
381.500	271.089	80.008	19.994	103.875	19.935	4.065	0.513
382.000	271.312	80.008	19.992	103.877	19.935	4.105	0.490
382.500	271.591	80.008	19.993	103.881	19.932	4.275	0.489
383.000	271.843	80.007	19.993	103.886	19.932	4.311	0.517
383.500	272.069	80.006	19.994	103.892	19.936	4.017	0.504
384.000	272.318	80.007	19.994	103.893	19.935	4.064	0.476
384.500	272.578	80.004	19.993	103.891	19.933	4.261	0.492
385.000	272.799	80.007	19.993	103.889	19.931	4.380	0.495
385.500	273.064	80.005	19.993	103.889	19.933	4.234	0.484
386.000	273.308	80.006	19.994	103.889	19.932	4.321	0.497
386.500	273.553	80.006	19.993	103.894	19.933	4.240	0.499
387.000	273.786	80.007	19.993	103.897	19.937	3.952	0.483
387.500	274.044	80.007	19.993	103.899	19.935	4.097	0.485
388.000	274.277	80.006	19.994	103.899	19.937	3.976	0.491
388.500	274.538	80.007	19.994	103.897	19.935	4.118	0.493
389.000	274.769	80.006	19.995	103.892	19.936	4.016	0.493
389.500	274.981	80.007	19.993	103.888	19.932	4.276	0.467
390.000	275.233	80.005	19.992	103.886	19.934	4.178	0.453
390.500	275.513	80.006	19.994	103.881	19.933	4.254	0.498
391.000	275.755	80.007	19.994	103.879	19.936	4.037	0.527
391.500	276.009	80.005	19.995	103.878	19.935	4.069	0.509
392.000	276.254	80.008	19.992	103.881	19.938	3.866	0.498
392.500	276.519	80.006	19.994	103.882	19.939	3.838	0.505
393.000	276.755	80.008	19.995	103.890	19.934	4.194	0.506
393.500	277.010	80.005	19.995	103.895	19.937	3.937	0.496
394.000	277.270	80.007	19.994	103.900	19.937	3.971	0.503
394.500	277.501	80.006	19.994	103.901	19.936	4.043	0.503
395.000	277.761	80.008	19.994	103.894	19.936	4.046	0.491
395.500	277.997	80.005	19.994	103.887	19.934	4.165	0.494
396.000	278.266	80.006	19.995	103.879	19.935	4.075	0.500
396.500	278.500	80.007	19.994	103.873	19.933	4.256	0.504
397.000	278.726	80.006	19.994	103.870	19.933	4.201	0.481
397.500	279.000	80.007	19.994	103.871	19.935	4.092	0.480
398.000	279.252	80.005	19.994	103.871	19.930	4.433	0.513
398.500	279.514	80.007	19.994	103.872	19.932	4.293	0.520
399.000	279.764	80.006	19.994	103.872	19.933	4.208	0.513
399.500	280.042	80.007	19.994	103.871	19.936	4.041	0.520
400.000	280.264	80.006	19.993	103.875	19.934	4.150	0.514
400.500	280.508	80.007	19.994	103.881	19.934	4.188	0.483
401.000	280.753	80.006	19.994	103.882	19.934	4.144	0.478
401.500	281.021	80.007	19.993	103.883	19.935	4.097	0.501
402.000	281.254	80.006	19.993	103.885	19.935	4.107	0.507
402.500	281.490	80.006	19.994	103.886	19.935	4.122	0.485
403.000	281.747	80.007	19.993	103.887	19.932	4.282	0.481
403.500	281.994	80.005	19.995	103.886	19.933	4.216	0.498
404.000	282.257	80.008	19.995	103.887	19.935	4.109	0.507
404.500	282.527	80.005	19.995	103.887	19.933	4.225	0.522
405.000	282.768	80.006	19.994	103.883	19.936	4.043	0.522
405.500	283.008	80.006	19.992	103.877	19.930	4.418	0.496
406.000	283.290	80.007	19.995	103.879	19.935	4.060	0.502
406.500	283.506	80.006	19.993	103.880	19.934	4.194	0.510
407.000	283.759	80.005	19.995	103.879	19.934	4.160	0.483
407.500	284.011	80.006	19.994	103.885	19.936	4.049	0.487
408.000	284.255	80.005	19.994	103.887	19.936	4.030	0.501
408.500	284.483	80.006	19.994	103.886	19.934	4.156	0.484
409.000	284.749	80.006	19.994	103.888	19.933	4.261	0.483
409.500	284.994	80.006	19.994	103.889	19.934	4.172	0.502
410.000	285.261	80.005	19.994	103.882	19.933	4.231	0.511
410.500	285.502	80.005	19.994	103.880	19.933	4.252	0.510
411.000	285.741	80.004	19.994	103.881	19.932	4.269	0.494
411.500	286.004	80.006	19.994	103.883	19.934	4.163	0.491
412.000	286.233	80.005	19.994	103.882	19.934	4.186	0.497
412.500	286.480	80.006	19.995	103.883	19.932	4.333	0.484
413.000	286.727	80.006	19.994	103.888	19.936	4.054	0.485
413.500	286.985	80.005	19.993	103.887	19.932	4.295	0.500
414.000	287.217	80.005	19.995	103.884	19.934	4.146	0.497
414.501	287.495	80.006	19.995	103.884	19.935	4.105	0.500
415.001	287.761	80.005	19.994	103.883	19.933	4.212	0.527
415.500	288.035	80.003	19.995	103.880	19.933	4.251	0.542
416.000	288.223	80.006	19.994	103.884	19.934	4.167	0.501
416.500	288.441	80.007	19.994	103.886	19.932	4.289	0.434
417.000	288.723	80.005	19.993	103.889	19.933	4.200	0.453
417.500	288.983	80.004	19.994	103.892	19.934	4.193	0.521
418.000	289.205	80.005	19.996	103.891	19.934	4.153	0.512
418.500	289.466	80.005	19.996	103.886	19.934	4.133	0.483
419.000	289.714	80.004	19.994	103.881	19.932	4.321	0.496
419.500	289.977	80.004	19.993	103.878	19.933	4.201	0.510
420.000	290.192	80.004	19.994	103.875	19.936	4.013	0.495
420.500	290.446	80.004	19.994	103.876	19.933	4.208	0.474
421.000	290.710	80.004	19.994	103.876	19.933	4.233	0.493
421.500	290.969	80.004	19.994	103.878	19.934	4.170	0.520
422.000	291.226	80.005	19.994	103.879	19.934	4.168	0.519
422.500	291.471	80.005	19.994	103.880	19.934	4.136	0.509
423.000	291.721	80.005	19.995	103.879	19.932	4.285	0.499
423.500	291.946	80.006	19.996	103.878	19.935	4.088	0.485
424.000	292.216	80.006	19.994	103.875	19.932	4.306	0.485
424.500	292.487	80.006	19.995	103.875	19.933	4.221	0.518
425.001	292.708	80.006	19.994	103.873	19.931	4.366	0.517
425.501	292.927	80.006	19.994	103.873	19.932	4.298	0.467
426.001	293.207	80.006	19.993	103.873	19.933	4.212	0.469
426.500	293.394	80.007	19.995	103.873	19.934	4.193	0.483
427.000	293.666	80.007	19.994	103.873	19.935	4.112	0.463
427.500	293.884	80.006	19.993	103.873	19.934	4.172	0.474
428.000	294.160	80.006	19.993	103.872	19.935	4.103	0.492
428.500	294.408	80.006	19.993	103.871	19.936	4.010	0.509
429.000	294.652	80.007	19.993	103.871	19.934	4.151	0.508
429.500	294.906	80.005	19.993	103.871	19.930	4.406	0.495
430.000	295.166	80.008	19.993	103.878	19.932	4.319	0.506
430.500	295.416	80.005	19.993	103.883	19.935	4.091	0.512
431.000	295.648	80.007	19.994	103.883	19.932	4.283	0.496
431.500	295.875	80.005	19.993	103.883	19.933	4.263	0.470
432.001	296.131	80.006	19.993	103.882	19.933	4.202	0.471
432.500	296.376	80.007	19.994	103.875	19.934	4.148	0.493
433.000	296.661	80.005	19.994	103.870	19.935	4.108	0.516
433.500	296.874	80.008	19.993	103.872	19.935	4.097	0.514
434.000	297.138	80.007	19.992	103.872	19.935	4.117	0.487
434.500	297.343	80.009	19.993	103.873	19.936	4.053	0.473
435.000	297.608	80.005	19.993	103.873	19.934	4.151	0.469
435.500	297.857	80.007	19.993	103.873	19.934	4.129	0.492
436.000	298.085	80.006	19.993	103.871	19.933	4.238	0.496
436.500	298.318	80.008	19.992	103.871	19.935	4.093	0.469
437.000	298.602	80.007	19.992	103.870	19.934	4.178	0.489
437.500	298.844	80.008	19.993	103.872	19.935	4.123	0.522
438.000	299.077	80.007	19.993	103.872	19.935	4.101	0.501
438.500	299.310	80.007	19.992	103.873	19.929	4.514	0.470
439.000	299.563	80.007	19.992	103.873	19.933	4.207	0.475
439.500	299.795	80.007	19.993	103.872	19.937	3.966	0.485
440.000	300.057	80.008	19.992	103.871	19.936	4.001	0.490
440.500	300.252	80.007	19.993	103.870	19.933	4.259	0.476
441.000	300.551	80.008	19.994	103.868	19.934	4.163	0.475
441.501	300.775	80.008	19.992	103.871	19.933	4.222	0.508
442.000	301.046	80.008	19.993	103.873	19.933	4.233	0.509
442.500	301.294	80.006	19.994	103.872	19.930	4.450	0.507
443.000	301.545	80.006	19.993	103.872	19.931	4.344	0.509
443.500	301.780	80.007	19.994	103.872	19.934	4.186	0.492
444.000	302.009	80.007	19.993	103.869	19.933	4.225	0.475
444.500	302.245	80.008	19.993	103.868	19.933	4.255	0.465
445.000	302.506	80.007	19.993	103.868	19.931	4.353	0.481
445.500	302.772	80.007	19.993	103.868	19.933	4.227	0.512
446.000	302.984	80.007	19.995	103.867	19.933	4.199	0.503
446.500	303.221	80.007	19.994	103.868	19.930	4.460	0.464
447.000	303.513	80.006	19.994	103.868	19.932	4.272	0.489
447.500	303.783	80.009	19.993	103.870	19.930	4.412	0.545
448.000	303.986	80.007	19.994	103.871	19.929	4.519	0.517
448.500	304.223	80.008	19.993	103.877	19.928	4.557	0.456
449.000	304.462	80.007	19.993	103.881	19.930	4.414	0.458
449.500	304.707	80.007	19.994	103.888	19.933	4.237	0.480
450.001	304.939	80.008	19.994	103.890	19.932	4.323	0.481
450.500	305.157	80.006	19.993	103.889	19.932	4.310	0.464
451.000	305.451	80.009	19.993	103.885	19.929	4.507	0.481
451.500	305.688	80.007	19.993	103.883	19.931	4.370	0.521
452.000	305.961	80.008	19.992	103.882	19.932	4.310	0.520
452.501	306.248	80.006	19.994	103.883	19.934	4.138	0.535
453.001	306.458	80.009	19.993	103.888	19.933	4.201	0.529
453.500	306.693	80.008	19.993	103.889	19.934	4.178	0.471
454.000	307.011	80.007	19.995	103.887	19.933	4.228	0.499
454.500	307.215	80.008	19.993	103.880	19.933	4.241	0.537
455.000	307.473	80.009	19.993	103.876	19.932	4.292	0.491
455.500	307.708	80.009	19.993	103.870	19.934	4.164	0.478
456.000	307.935	80.007	19.993	103.868	19.931	4.338	0.478
456.500	308.224	80.009	19.993	103.870	19.932	4.327	0.489
457.000	308.470	80.008	19.993	103.872	19.932	4.331	0.526
457.500	308.712	80.009	19.992	103.874	19.932	4.310	0.512
458.000	308.977	80.008	19.993	103.877	19.930	4.451	0.497
458.500	309.210	80.008	19.993	103.883	19.932	4.302	0.502
459.000	309.434	80.008	19.993	103.886	19.930	4.433	0.478
459.500	309.704	80.008	19.993	103.884	19.932	4.278	0.475
460.000	309.971	80.008	19.992	103.884	19.932	4.329	0.515
460.500	310.238	80.009	19.993	103.880	19.930	4.425	0.536
461.000	310.477	80.010	19.993	103.874	19.928	4.551	0.520
461.500	310.705	80.008	19.993	103.868	19.929	4.518	0.486
462.000	310.986	80.009	19.993	103.868	19.929	4.474	0.487
462.500	311.233	80.009	19.991	103.867	19.929	4.517	0.518
463.000	311.482	80.007	19.991	103.868	19.930	4.438	0.512
463.500	311.757	80.007	19.993	103.871	19.928	4.581	0.510
464.000	311.998	80.009	19.993	103.878	19.927	4.662	0.521
464.500	312.250	80.009	19.992	103.884	19.927	4.613	0.504
465.000	312.537	80.008	19.994	103.889	19.926	4.739	0.516
465.500	312.757	80.008	19.994	103.892	19.927	4.675	0.523
466.000	313.041	80.008	19.994	103.893	19.926	4.721	0.506
466.500	313.322	80.008	19.992	103.889	19.928	4.595	0.535
467.000	313.576	80.007	19.992	103.882	19.926	4.706	0.550
467.500	313.859	80.008	19.992	103.877	19.928	4.606	0.536
468.000	314.094	80.006	19.993	103.874	19.927	4.670	0.528
468.500	314.366	80.006	19.993	103.876	19.926	4.681	0.513
469.000	314.590	80.007	19.993	103.879	19.924	4.867	0.501
469.500	314.892	80.007	19.993	103.879	19.924	4.867	0.511
470.000	315.111	80.006	19.992	103.882	19.926	4.707	0.524
470.500	315.353	80.007	19.994	103.888	19.928	4.575	0.491
471.000	315.616	80.006	19.993	103.887	19.926	4.705	0.483
471.500	315.906	80.006	19.994	103.884	19.927	4.666	0.529
472.000	316.145	80.006	19.992	103.889	19.929	4.511	0.541
472.500	316.410	80.007	19.993	103.893	19.930	4.458	0.517
473.000	316.676	80.006	19.993	103.891	19.927	4.639	0.518
473.500	316.900	80.005	19.993	103.887	19.929	4.491	0.510
474.000	317.180	80.005	19.993	103.886	19.926	4.683	0.497
474.500	317.441	80.004	19.993	103.885	19.925	4.789	0.522
475.000	317.702	80.006	19.992	103.880	19.929	4.529	0.532
475.500	317.966	80.006	19.992	103.876	19.926	4.719	0.524
476.000	318.252	80.007	19.993	103.881	19.926	4.693	0.538
476.500	318.506	80.005	19.993	103.882	19.929	4.496	0.545
477.000	318.750	80.006	19.993	103.883	19.929	4.498	0.519
477.500	318.997	80.006	19.994	103.888	19.926	4.707	0.494
478.000	319.285	80.005	19.994	103.889	19.927	4.636	0.513
478.500	319.544	80.005	19.993	103.889	19.928	4.542	0.541
479.000	319.796	80.007	19.993	103.888	19.927	4.668	0.529
479.500	320.087	80.005	19.994	103.884	19.931	4.361	0.527
480.000	320.296	80.006	19.994	103.880	19.929	4.488	0.522
480.500	320.595	80.006	19.993	103.880	19.928	4.556	0.504
481.000	320.859	80.005	19.993	103.876	19.928	4.549	0.535
481.500	321.125	80.005	19.994	103.874	19.930	4.406	0.546
482.000	321.365	80.006	19.994	103.876	19.927	4.641	0.518
482.500	321.631	80.006	19.993	103.874	19.928	4.600	0.506
483.000	321.925	80.006	19.993	103.873	19.932	4.298	0.533
483.500	322.154	80.005	19.994	103.873	19.929	4.511	0.542
484.001	322.434	80.006	19.994	103.876	19.926	4.743	0.516
484.501	322.710	80.006	19.994	103.878	19.928	4.551	0.532
485.000	322.977	80.005	19.993	103.884	19.927	4.652	0.549
485.500	323.240	80.006	19.995	103.888	19.927	4.632	0.537
486.000	323.499	80.007	19.994	103.892	19.927	4.650	0.526
486.500	323.788	80.007	19.994	103.890	19.930	4.438	0.535
487.000	324.069	80.007	19.994	103.886	19.931	4.377	0.559
487.500	324.305	80.006	19.993	103.880	19.927	4.622	0.544
488.000	324.549	80.006	19.995	103.878	19.927	4.654	0.499
488.500	324.807	80.006	19.994	103.879	19.929	4.475	0.491
489.000	325.078	80.007	19.994	103.879	19.927	4.662	0.515
489.500	325.349	80.007	19.993	103.880	19.928	4.562	0.536
490.000	325.613	80.007	19.994	103.880	19.930	4.417	0.538
490.500	325.874	80.007	19.993	103.878	19.929	4.487	0.530
491.000	326.150	80.007	19.993	103.871	19.926	4.679	0.531
491.500	326.414	80.006	19.994	103.869	19.928	4.571	0.539
492.000	326.696	80.006	19.993	103.868	19.930	4.457	0.543
492.500	326.994	80.008	19.993	103.868	19.930	4.408	0.563
493.000	327.216	80.007	19.993	103.869	19.929	4.526	0.550
493.500	327.464	80.006	19.993	103.871	19.931	4.372	0.495
494.000	327.759	80.006	19.993	103.872	19.928	4.560	0.506
494.500	328.060	80.006	19.993	103.875	19.927	4.611	0.570
495.000	328.289	80.006	19.993	103.876	19.928	4.600	0.563
495.500	328.560	80.006	19.993	103.876	19.929	4.526	0.516
496.000	328.782	80.006	19.993	103.875	19.928	4.562	0.497
496.500	329.088	80.005	19.993	103.875	19.926	4.716	0.510
497.000	329.374	80.005	19.994	103.871	19.930	4.438	0.560
497.500	329.617	80.006	19.994	103.870	19.933	4.261	0.560
498.000	329.912	80.006	19.993	103.870	19.931	4.391	0.533
498.500	330.143	80.005	19.993	103.870	19.930	4.423	0.532
499.000	330.427	80.006	19.994	103.869	19.930	4.419	0.521
499.500	330.672	80.005	19.993	103.870	19.931	4.355	0.522
500.000	330.940	80.006	19.994	103.870	19.931	4.372	0.521
500.500	331.225	80.006	19.993	103.871	19.931	4.394	0.533
501.000	331.480	80.006	19.994	103.871	19.930	4.419	0.546
501.500	331.727	80.005	19.995	103.871	19.927	4.664	0.521
502.000	332.000	80.006	19.994	103.869	19.930	4.451	0.511
502.500	332.285	80.005	19.994	103.871	19.930	4.430	0.539
503.000	332.548	80.006	19.993	103.872	19.930	4.411	0.553
503.500	332.781	80.006	19.994	103.871	19.927	4.630	0.522
504.000	333.077	80.007	19.993	103.872	19.929	4.511	0.512
504.500	333.378	80.004	19.994	103.874	19.931	4.400	0.563
505.000	333.627	80.005	19.994	103.871	19.930	4.402	0.574
505.500	333.895	80.005	19.994	103.869	19.927	4.637	0.534
506.000	334.148	80.006	19.994	103.869	19.931	4.396	0.519
506.500	334.442	80.005	19.994	103.868	19.929	4.473	0.534
507.000	334.686	80.006	19.993	103.868	19.930	4.426	0.542
507.500	334.975	80.006	19.994	103.868	19.927	4.654	0.536
508.000	335.233	80.006	19.994	103.868	19.928	4.543	0.540
508.500	335.487	80.006	19.994	103.868	19.929	4.515	0.529
509.000	335.740	80.005	19.996	103.869	19.928	4.579	0.509
509.500	336.013	80.006	19.995	103.871	19.931	4.396	0.517
510.000	336.298	80.006	19.994	103.869	19.928	4.554	0.542
510.500	336.557	80.006	19.994	103.869	19.932	4.294	0.551
511.000	336.829	80.006	19.994	103.870	19.928	4.554	0.538
511.500	337.096	80.006	19.994	103.868	19.928	4.582	0.536
512.000	337.336	80.006	19.995	103.869	19.927	4.637	0.523
512.500	337.613	80.007	19.994	103.869	19.929	4.494	0.512
513.000	337.901	80.007	19.995	103.869	19.927	4.658	0.541
513.500	338.177	80.006	19.994	103.869	19.928	4.547	0.565
514.000	338.456	80.006	19.995	103.869	19.927	4.658	0.560
514.500	338.672	80.007	19.995	103.867	19.932	4.306	0.525
515.000	338.925	80.007	19.995	103.868	19.928	4.588	0.482
515.500	339.221	80.008	19.995	103.869	19.932	4.315	0.509
516.000	339.466	80.007	19.995	103.870	19.927	4.660	0.545
516.500	339.680	80.007	19.994	103.869	19.932	4.324	0.500
517.001	339.978	80.008	19.994	103.869	19.930	4.453	0.485
517.500	340.214	80.007	19.995	103.867	19.929	4.477	0.523
518.000	340.521	80.008	19.994	103.866	19.931	4.366	0.539
518.500	340.735	80.006	19.994	103.866	19.931	4.349	0.532
519.001	340.996	80.007	19.995	103.865	19.927	4.631	0.498
519.500	341.279	80.007	19.993	103.867	19.930	4.443	0.509
520.000	341.540	80.007	19.994	103.869	19.930	4.436	0.544
520.500	341.852	80.007	19.995	103.868	19.931	4.390	0.559
521.000	342.058	80.009	19.995	103.868	19.931	4.381	0.546
521.500	342.332	80.007	19.994	103.868	19.928	4.547	0.499
522.000	342.575	80.008	19.993	103.867	19.930	4.456	0.498
522.500	342.781	80.007	19.994	103.865	19.932	4.324	0.483
523.000	343.031	80.007	19.993	103.865	19.929	4.520	0.452
523.500	343.302	80.007	19.993	103.865	19.930	4.462	0.489
524.000	343.590	80.008	19.995	103.866	19.932	4.302	0.540
524.500	343.830	80.009	19.994	103.870	19.932	4.317	0.544
525.000	344.111	80.008	19.994	103.871	19.932	4.270	0.525
525.500	344.351	80.008	19.994	103.870	19.931	4.347	0.521
526.000	344.596	80.007	19.994	103.871	19.928	4.539	0.502
526.500	344.883	80.006	19.994	103.870	19.929	4.509	0.509
527.000	345.132	80.007	19.994	103.865	19.929	4.516	0.534
527.500	345.390	80.007	19.994	103.865	19.931	4.339	0.521
528.000	345.650	80.008	19.993	103.866	19.929	4.515	0.512
528.500	345.932	80.007	19.993	103.866	19.929	4.496	0.530
529.000	346.157	80.007	19.994	103.866	19.931	4.381	0.525
529.500	346.460	80.007	19.994	103.866	19.931	4.400	0.517
530.000	346.719	80.008	19.993	103.866	19.929	4.488	0.545
530.500	346.951	80.007	19.994	103.866	19.930	4.407	0.527
531.000	347.190	80.008	19.994	103.864	19.929	4.473	0.481
531.500	347.471	80.008	19.995	103.864	19.927	4.633	0.496
532.000	347.733	80.008	19.994	103.864	19.930	4.405	0.531
532.500	347.975	80.006	19.993	103.864	19.928	4.547	0.523
533.000	348.217	80.009	19.993	103.864	19.927	4.654	0.494
533.500	348.481	80.008	19.992	103.865	19.927	4.620	0.495
534.000	348.736	80.008	19.994	103.866	19.929	4.518	0.512
534.500	349.001	80.009	19.994	103.866	19.927	4.663	0.519
535.000	349.269	80.008	19.992	103.866	19.925	4.769	0.526
535.500	349.513	80.008	19.993	103.870	19.927	4.662	0.522
536.000	349.822	80.008	19.993	103.870	19.929	4.526	0.533
536.500	350.043	80.009	19.994	103.869	19.929	4.513	0.542
537.000	350.329	80.006	19.992	103.868	19.931	4.366	0.518
537.500	350.595	80.007	19.994	103.868	19.927	4.658	0.529
538.000	350.871	80.008	19.993	103.863	19.926	4.703	0.547
538.500	351.105	80.008	19.994	103.862	19.928	4.592	0.526
539.000	351.350	80.008	19.993	103.864	19.928	4.603	0.495
539.500	351.610	80.009	19.993	103.864	19.926	4.712	0.492
540.000	351.854	80.010	19.992	103.864	19.927	4.609	0.504
540.500	352.153	80.009	19.993	103.865	19.927	4.635	0.524
541.000	352.420	80.007	19.994	103.866	19.928	4.552	0.555
541.500	352.632	80.008	19.993	103.866	19.928	4.582	0.523
542.000	352.879	80.009	19.992	103.866	19.926	4.690	0.469
542.500	353.188	80.008	19.992	103.866	19.926	4.712	0.507
543.000	353.432	80.008	19.993	103.866	19.926	4.712	0.555
543.500	353.675	80.007	19.993	103.866	19.927	4.613	0.521
544.001	353.919	80.007	19.992	103.866	19.926	4.735	0.487
544.501	354.222	80.008	19.993	103.866	19.926	4.731	0.517
545.000	354.477	80.008	19.993	103.866	19.927	4.645	0.552
545.500	354.716	80.008	19.994	103.867	19.925	4.748	0.526
546.000	354.982	80.008	19.994	103.867	19.925	4.748	0.500
546.500	355.185	80.009	19.993	103.867	19.928	4.588	0.487
547.000	355.478	80.008	19.994	103.867	19.925	4.758	0.483
547.500	355.717	80.008	19.992	103.867	19.926	4.741	0.514
548.000	355.997	80.007	19.992	103.867	19.924	4.839	0.526
548.500	356.259	80.007	19.993	103.867	19.926	4.743	0.531
549.000	356.494	80.006	19.994	103.867	19.924	4.871	0.519
549.500	356.751	80.008	19.994	103.867	19.926	4.709	0.494
550.000	357.013	80.007	19.992	103.865	19.924	4.822	0.506
550.500	357.270	80.006	19.993	103.864	19.925	4.771	0.519
551.000	357.530	80.006	19.994	103.863	19.927	4.667	0.518
551.500	357.813	80.006	19.994	103.863	19.926	4.711	0.530
552.000	358.039	80.007	19.994	103.863	19.925	4.769	0.526
552.500	358.299	80.006	19.994	103.866	19.925	4.769	0.497
553.000	358.562	80.007	19.993	103.867	19.929	4.470	0.505
553.500	358.821	80.006	19.994	103.868	19.924	4.859	0.522
554.000	359.076	80.008	19.993	103.868	19.927	4.609	0.518
554.500	359.333	80.006	19.994	103.867	19.926	4.716	0.513
555.000	359.610	80.007	19.994	103.866	19.926	4.707	0.523
555.500	359.852	80.007	19.994	103.867	19.923	4.916	0.527
556.000	360.137	80.007	19.993	103.867	19.925	4.769	0.523
556.500	360.362	80.006	19.994	103.867	19.926	4.703	0.519
557.000	360.625	80.006	19.993	103.868	19.925	4.778	0.499
557.500	360.891	80.005	19.994	103.869	19.926	4.693	0.509
558.000	361.110	80.007	19.993	103.869	19.926	4.742	0.507
558.500	361.390	80.006	19.993	103.871	19.925	4.748	0.492
559.000	361.641	80.007	19.992	103.871	19.928	4.548	0.515
559.500	361.908	80.006	19.993	103.871	19.929	4.513	0.524
560.000	362.135	80.006	19.993	103.871	19.926	4.716	0.506
560.500	362.442	80.006	19.993	103.871	19.924	4.840	0.514
561.000	362.672	80.006	19.993	103.870	19.927	4.641	0.536
561.500	362.924	80.006	19.994	103.870	19.929	4.499	0.509
562.000	363.122	80.006	19.993	103.870	19.929	4.511	0.466
562.500	363.438	80.004	19.993	103.870	19.927	4.661	0.482
563.000	363.673	80.005	19.993	103.871	19.930	4.418	0.532
563.500	363.975	80.006	19.993	103.871	19.929	4.507	0.544
564.000	364.215	80.005	19.992	103.871	19.930	4.418	0.540
564.500	364.440	80.005	19.993	103.869	19.925	4.768	0.503
565.000	364.741	80.007	19.993	103.870	19.928	4.565	0.495
565.500	364.971	80.006	19.993	103.868	19.927	4.674	0.528
566.000	365.232	80.006	19.993	103.869	19.927	4.672	0.511
566.500	365.508	80.006	19.993	103.869	19.924	4.821	0.514
567.000	365.764	80.006	19.993	103.871	19.924	4.868	0.534
567.500	366.055	80.005	19.993	103.869	19.927	4.648	0.539
568.000	366.279	80.007	19.992	103.868	19.929	4.469	0.531
568.500	366.539	80.007	19.993	103.865	19.927	4.664	0.500
569.000	366.792	80.006	19.993	103.864	19.926	4.721	0.498
569.500	367.039	80.007	19.994	103.864	19.927	4.649	0.507
570.000	367.297	80.007	19.994	103.865	19.925	4.809	0.503
570.500	367.591	80.006	19.993	103.865	19.924	4.849	0.529
571.000	367.792	80.007	19.994	103.865	19.923	4.893	0.524
571.500	368.026	80.007	19.993	103.865	19.927	4.657	0.465
572.000	368.342	80.005	19.994	103.866	19.923	4.896	0.492
572.500	368.602	80.007	19.993	103.863	19.924	4.813	0.563
573.000	368.882	80.007	19.994	103.860	19.926	4.700	0.558
573.500	369.108	80.007	19.993	103.861	19.923	4.926	0.524
574.000	369.413	80.006	19.994	103.858	19.925	4.785	0.518
574.500	369.621	80.007	19.994	103.852	19.928	4.589	0.522
575.000	369.916	80.006	19.994	103.848	19.924	4.817	0.508
575.500	370.142	80.006	19.993	103.850	19.925	4.793	0.512
576.000	370.404	80.006	19.994	103.850	19.924	4.843	0.504
576.500	370.663	80.006	19.994	103.849	19.925	4.766	0.504
577.000	370.930	80.007	19.994	103.850	19.923	4.881	0.524
577.500	371.165	80.006	19.994	103.856	19.923	4.881	0.514
578.000	371.424	80.007	19.993	103.857	19.928	4.584	0.498
578.500	371.678	80.006	19.993	103.851	19.923	4.942	0.503
579.000	371.937	80.007	19.993	103.847	19.924	4.851	0.513
579.500	372.197	80.006	19.994	103.848	19.926	4.721	0.516
580.000	372.451	80.006	19.994	103.845	19.927	4.653	0.517
580.500	372.716	80.006	19.994	103.843	19.925	4.793	0.516
581.000	372.997	80.006	19.994	103.850	19.925	4.797	0.532
581.500	373.245	80.006	19.994	103.853	19.926	4.678	0.537
582.000	373.512	80.007	19.994	103.854	19.924	4.843	0.522
582.500	373.745	80.006	19.994	103.852	19.927	4.627	0.508
583.000	373.995	80.004	19.992	103.852	19.923	4.888	0.492
583.500	374.272	80.006	19.994	103.851	19.925	4.798	0.505
584.000	374.511	80.005	19.995	103.853	19.926	4.734	0.521
584.500	374.784	80.006	19.994	103.856	19.926	4.695	0.514
585.000	375.014	80.005	19.994	103.857	19.925	4.761	0.508
585.500	375.261	80.006	19.994	103.855	19.923	4.900	0.490
586.000	375.538	80.005	19.995	103.854	19.925	4.744	0.501
586.500	375.809	80.004	19.995	103.849	19.925	4.776	0.536
587.000	376.021	80.006	19.993	103.845	19.924	4.868	0.515
587.500	376.294	80.006	19.994	103.845	19.925	4.796	0.484
588.000	376.555	80.006	19.993	103.846	19.924	4.821	0.510
588.500	376.834	80.006	19.994	103.848	19.928	4.601	0.537
589.000	377.073	80.007	19.994	103.855	19.926	4.717	0.528
589.500	377.301	80.007	19.993	103.857	19.926	4.702	0.492
590.000	377.570	80.005	19.993	103.854	19.928	4.595	0.482
590.500	377.861	80.005	19.993	103.855	19.922	4.955	0.529
591.000	378.074	80.007	19.993	103.854	19.926	4.712	0.532
591.500	378.327	80.006	19.994	103.853	19.923	4.919	0.485
592.000	378.570	80.005	19.993	103.855	19.925	4.751	0.481
592.500	378.858	80.006	19.995	103.854	19.924	4.875	0.513
593.000	379.102	80.006	19.994	103.852	19.926	4.687	0.531
593.500	379.352	80.006	19.994	103.850	19.926	4.737	0.513
594.000	379.622	80.006	19.994	103.847	19.927	4.671	0.507
594.500	379.866	80.006	19.995	103.848	19.925	4.767	0.517
595.000	380.116	80.005	19.992	103.852	19.923	4.931	0.504
595.500	380.374	80.006	19.994	103.855	19.923	4.931	0.501
596.000	380.636	80.006	19.993	103.852	19.919	5.167	0.514
596.500	380.888	80.007	19.994	103.854	19.923	4.938	0.517
597.000	381.126	80.007	19.993	103.854	19.924	4.861	0.502
597.500	381.387	80.007	19.994	103.855	19.923	4.898	0.495
598.000	381.662	80.008	19.994	103.854	19.922	4.957	0.517
598.500	381.926	80.008	19.994	103.852	19.925	4.765	0.538
599.000	382.194	80.008	19.993	103.852	19.922	4.970	0.536
599.500	382.403	80.007	19.995	103.851	19.925	4.763	0.504
600.000	382.653	80.009	19.994	103.847	19.923	4.919	0.468
600.500	382.907	80.007	19.995	103.847	19.927	4.666	0.482
601.000	383.180	80.007	19.994	103.854	19.924	4.862	0.515
601.500	383.409	80.007	19.994	103.855	19.926	4.735	0.514
602.000	383.705	80.007	19.994	103.851	19.924	4.843	0.513
602.500	383.924	80.005	19.994	103.854	19.922	4.990	0.520
603.000	384.177	80.007	19.994	103.854	19.922	4.952	0.494
603.500	384.443	80.006	19.995	103.847	19.922	4.954	0.496
604.000	384.683	80.005	19.994	103.840	19.924	4.834	0.512
604.500	384.930	80.006	19.994	103.838	19.926	4.721	0.496
605.000	385.201	80.006	19.994	103.832	19.924	4.840	0.503
605.500	385.427	80.007	19.994	103.832	19.922	4.989	0.507
606.000	385.694	80.005	19.994	103.835	19.924	4.855	0.495
606.500	385.936	80.006	19.995	103.840	19.926	4.714	0.501
607.000	386.197	80.005	19.994	103.845	19.926	4.697	0.506
607.500	386.441	80.006	19.994	103.852	19.927	4.636	0.504
608.000	386.722	80.005	19.995	103.854	19.928	4.570	0.515
608.500	386.926	80.005	19.996	103.858	19.926	4.704	0.505
609.000	387.181	80.005	19.994	103.858	19.923	4.885	0.471
609.500	387.446	80.005	19.995	103.856	19.923	4.947	0.490
610.000	387.677	80.005	19.994	103.854	19.922	4.962	0.508
610.500	387.930	80.005	19.995	103.853	19.920	5.096	0.490
611.000	388.182	80.004	19.993	103.847	19.921	5.066	0.494
611.500	388.418	80.005	19.995	103.842	19.925	4.791	0.497
612.000	388.677	80.007	19.995	103.839	19.924	4.873	0.492
612.500	388.887	80.004	19.995	103.837	19.922	5.003	0.482
613.000	389.178	80.007	19.994	103.837	19.922	4.980	0.485
613.500	389.391	80.005	19.993	103.837	19.924	4.877	0.503
614.000	389.692	80.005	19.995	103.838	19.923	4.928	0.509
614.500	389.927	80.006	19.994	103.840	19.924	4.825	0.525
615.000	390.179	80.006	19.994	103.844	19.924	4.836	0.511
615.500	390.408	80.006	19.994	103.846	19.923	4.919	0.484
616.000	390.660	80.006	19.994	103.850	19.922	4.955	0.481
616.500	390.944	80.007	19.994	103.855	19.925	4.774	0.508
617.000	391.173	80.006	19.993	103.859	19.922	5.003	0.524
617.500	391.452	80.008	19.995	103.857	19.922	4.954	0.511
618.000	391.687	80.007	19.993	103.855	19.921	5.050	0.511
618.500	391.932	80.008	19.993	103.852	19.925	4.802	0.497
619.000	392.215	80.007	19.994	103.848	19.923	4.917	0.504
619.500	392.474	80.008	19.995	103.845	19.921	5.048	0.535
620.000	392.698	80.009	19.994	103.845	19.922	4.981	0.513
620.500	392.977	80.008	19.993	103.847	19.920	5.150	0.493
621.000	393.236	80.008	19.992	103.849	19.919	5.195	0.520
621.500	393.483	80.008	19.995	103.854	19.920	5.127	0.522
622.000	393.735	80.008	19.994	103.854	19.920	5.120	0.503
622.500	394.019	80.008	19.993	103.853	19.918	5.250	0.518
623.000	394.222	80.009	19.994	103.849	19.921	5.086	0.512
623.500	394.471	80.008	19.993	103.849	19.919	5.200	0.470
624.000	394.728	80.009	19.992	103.842	19.919	5.187	0.479
624.500	394.965	80.008	19.993	103.843	19.921	5.021	0.500
625.000	395.248	80.009	19.994	103.847	19.918	5.234	0.507
625.500	395.527	80.009	19.994	103.850	19.919	5.193	0.541
626.000	395.726	80.009	19.993	103.850	19.918	5.245	0.520
626.500	396.010	80.009	19.993	103.855	19.921	5.031	0.480
627.000	396.210	80.009	19.993	103.856	19.918	5.238	0.483
627.500	396.499	80.008	19.992	103.851	19.919	5.206	0.486
628.000	396.729	80.007	19.993	103.848	19.920	5.097	0.504
628.500	396.997	80.008	19.994	103.846	19.921	5.061	0.508
629.000	397.245	80.007	19.993	103.844	19.922	5.012	0.507
629.500	397.483	80.006	19.991	103.844	19.920	5.087	0.501
630.000	397.737	80.006	19.993	103.849	19.918	5.261	0.489
630.500	397.978	80.007	19.992	103.849	19.918	5.282	0.494
631.000	398.227	80.006	19.993	103.849	19.918	5.286	0.493
631.500	398.472	80.008	19.992	103.851	19.917	5.357	0.492
632.000	398.724	80.007	19.992	103.851	19.919	5.212	0.495
632.500	398.967	80.005	19.993	103.847	19.917	5.340	0.496
633.000	399.216	80.007	19.992	103.847	19.918	5.272	0.494
633.500	399.442	80.006	19.992	103.843	19.918	5.245	0.484
634.000	399.683	80.007	19.993	103.839	19.920	5.102	0.471
634.500	399.947	80.005	19.993	103.834	19.918	5.255	0.486
635.000	400.197	80.005	19.993	103.832	19.917	5.340	0.509
635.500	400.409	80.006	19.993	103.830	19.916	5.404	0.487
636.000	400.685	80.006	19.993	103.830	19.920	5.151	0.475
636.500	400.940	80.005	19.993	103.833	19.917	5.294	0.510
637.000	401.187	80.007	19.993	103.833	19.919	5.161	0.517
637.500	401.421	80.006	19.993	103.834	19.918	5.289	0.491
638.000	401.690	80.006	19.992	103.837	19.919	5.212	0.492
638.500	401.935	80.005	19.994	103.836	19.921	5.072	0.509
639.000	402.159	80.007	19.993	103.834	19.920	5.148	0.492
639.500	402.443	80.006	19.994	103.833	19.916	5.419	0.488
640.000	402.689	80.006	19.994	103.834	19.919	5.216	0.519
640.500	402.935	80.005	19.994	103.833	19.916	5.404	0.511
641.000	403.200	80.005	19.994	103.838	19.917	5.319	0.501
641.500	403.441	80.006	19.993	103.844	19.918	5.276	0.509
642.000	403.701	80.005	19.994	103.851	19.918	5.226	0.503
642.500	403.941	80.006	19.994	103.851	19.917	5.348	0.500
643.000	404.204	80.005	19.993	103.849	19.916	5.399	0.501
643.500	404.455	80.005	19.994	103.845	19.919	5.174	0.508
644.000	404.680	80.006	19.994	103.839	19.919	5.214	0.495
644.500	404.965	80.005	19.995	103.834	19.918	5.242	0.493
645.000	405.187	80.006	19.993	103.834	19.919	5.176	0.509
645.500	405.414	80.005	19.993	103.837	19.920	5.140	0.479
646.000	405.686	80.006	19.993	103.837	19.917	5.353	0.474
646.500	405.920	80.006	19.993	103.838	19.920	5.121	0.502
647.000	406.191	80.008	19.993	103.835	19.918	5.251	0.505
647.500	406.439	80.006	19.993	103.834	19.916	5.372	0.512
648.000	406.711	80.007	19.993	103.832	19.920	5.110	0.520
648.500	406.962	80.006	19.993	103.834	19.917	5.355	0.522
649.000	407.187	80.006	19.992	103.836	19.916	5.399	0.500
649.500	407.465	80.005	19.993	103.837	19.917	5.351	0.490
650.000	407.712	80.006	19.993	103.837	19.919	5.161	0.514
650.500	407.984	80.006	19.993	103.838	19.918	5.292	0.522
651.000	408.217	80.006	19.992	103.839	19.917	5.301	0.512
651.500	408.458	80.007	19.994	103.838	19.915	5.446	0.489
652.000	408.688	80.007	19.992	103.843	19.915	5.493	0.472
652.500	408.950	80.008	19.993	103.845	19.914	5.562	0.482
653.000	409.215	80.007	19.993	103.851	19.916	5.419	0.510
653.500	409.450	80.007	19.993	103.850	19.913	5.573	0.513
654.000	409.711	80.007	19.994	103.849	19.915	5.477	0.498
654.500	409.965	80.006	19.993	103.843	19.917	5.343	0.505
655.000	410.202	80.007	19.993	103.841	19.918	5.283	0.503
655.500	410.440	80.006	19.993	103.835	19.916	5.393	0.483
656.000	410.716	80.008	19.993	103.832	19.914	5.519	0.495
656.500	410.994	80.006	19.993	103.832	19.915	5.463	0.534
657.000	411.231	80.006	19.993	103.834	19.917	5.316	0.534
657.500	411.466	80.007	19.994	103.833	19.915	5.442	0.494
658.000	411.747	80.007	19.993	103.834	19.918	5.257	0.494
658.500	411.977	80.007	19.993	103.836	19.915	5.447	0.513
659.000	412.217	80.007	19.993	103.836	19.916	5.406	0.490
659.500	412.445	80.006	19.993	103.842	19.916	5.411	0.469
660.000	412.729	80.007	19.993	103.848	19.918	5.291	0.490
660.501	412.977	80.007	19.992	103.848	19.916	5.395	0.522
661.001	413.200	80.006	19.994	103.850	19.915	5.464	0.502
661.500	413.463	80.006	19.992	103.853	19.917	5.349	0.479
662.000	413.709	80.006	19.994	103.852	19.914	5.556	0.497
662.500	413.955	80.006	19.993	103.853	19.912	5.678	0.500
663.000	414.222	80.008	19.993	103.854	19.913	5.633	0.502
663.500	414.430	80.007	19.994	103.850	19.914	5.534	0.494
664.000	414.702	80.006	19.994	103.845	19.916	5.419	0.478
664.500	414.948	80.007	19.993	103.840	19.910	5.773	0.499
665.000	415.217	80.006	19.993	103.834	19.913	5.626	0.517
665.500	415.417	80.006	19.993	103.831	19.910	5.834	0.492
666.000	415.677	80.005	19.992	103.834	19.912	5.690	0.464
666.500	415.909	80.006	19.994	103.841	19.912	5.675	0.476
667.000	416.163	80.005	19.994	103.847	19.910	5.773	0.489
667.500	416.431	80.005	19.993	103.848	19.914	5.559	0.504
668.000	416.672	80.005	19.993	103.851	19.915	5.464	0.516
668.500	416.949	80.006	19.993	103.850	19.915	5.457	0.514
669.000	417.198	80.006	19.995	103.846	19.915	5.476	0.522
669.500	417.428	80.004	19.994	103.841	19.914	5.540	0.503
670.000	417.697	80.005	19.995	103.840	19.913	5.570	0.489
670.500	417.942	80.005	19.994	103.841	19.914	5.543	0.506
671.000	418.162	80.005	19.994	103.844	19.913	5.586	0.489
671.500	418.432	80.005	19.995	103.844	19.912	5.690	0.477
672.000	418.709	80.006	19.995	103.844	19.914	5.553	0.519
672.500	418.949	80.006	19.994	103.842	19.914	5.553	0.532
673.000	419.199	80.005	19.995	103.838	19.915	5.464	0.503
673.500	419.450	80.005	19.994	103.833	19.914	5.515	0.496
674.000	419.693	80.005	19.995	103.833	19.916	5.411	0.498
674.500	419.955	80.005	19.994	103.838	19.915	5.468	0.500
675.000	420.208	80.005	19.994	103.844	19.915	5.494	0.510
675.500	420.465	80.005	19.995	103.847	19.913	5.613	0.513
676.000	420.654	80.006	19.994	103.850	19.913	5.572	0.478
676.500	420.970	80.006	19.994	103.850	19.911	5.762	0.475
677.000	421.195	80.005	19.995	103.846	19.912	5.647	0.523
677.500	421.454	80.005	19.995	103.843	19.911	5.729	0.512
678.000	421.659	80.005	19.995	103.846	19.910	5.820	0.474
678.500	421.929	80.005	19.995	103.847	19.909	5.887	0.470
679.000	422.201	80.006	19.994	103.848	19.911	5.747	0.509
679.500	422.413	80.006	19.995	103.850	19.910	5.803	0.513
680.000	422.718	80.007	19.994	103.851	19.910	5.775	0.500
680.500	422.972	80.008	19.994	103.846	19.908	5.911	0.538
681.000	423.250	80.007	19.994	103.842	19.911	5.722	0.546
681.500	423.491	80.009	19.993	103.841	19.910	5.835	0.525
682.000	423.727	80.007	19.994	103.841	19.909	5.858	0.498
682.500	423.964	80.008	19.993	103.842	19.908	5.943	0.475
683.000	424.220	80.007	19.994	103.842	19.909	5.898	0.483
683.500	424.488	80.007	19.994	103.842	19.907	6.003	0.509
684.000	424.710	80.008	19.993	103.844	19.907	6.034	0.507
684.501	424.983	80.008	19.994	103.841	19.911	5.723	0.493
685.001	425.256	80.007	19.994	103.839	19.909	5.844	0.520
685.500	425.506	80.007	19.993	103.841	19.910	5.787	0.534
686.000	425.751	80.008	19.994	103.843	19.911	5.753	0.509
686.500	426.019	80.008	19.993	103.844	19.909	5.879	0.504
687.000	426.267	80.007	19.994	103.846	19.910	5.814	0.515
687.500	426.514	80.006	19.993	103.845	19.909	5.854	0.505
688.000	426.763	80.007	19.993	103.842	19.907	5.995	0.496
688.500	427.035	80.007	19.993	103.840	19.907	5.995	0.509
689.000	427.290	80.007	19.993	103.836	19.908	5.957	0.524
689.500	427.497	80.007	19.993	103.839	19.907	5.980	0.495
690.000	427.754	80.008	19.993	103.844	19.909	5.865	0.463
690.500	428.021	80.006	19.993	103.846	19.907	6.014	0.494
691.000	428.270	80.007	19.993	103.846	19.910	5.788	0.521
691.500	428.518	80.005	19.993	103.849	19.909	5.880	0.507
692.000	428.798	80.006	19.994	103.845	19.906	6.067	0.512
692.500	429.027	80.006	19.994	103.843	19.906	6.115	0.518
693.000	429.301	80.006	19.993	103.847	19.909	5.899	0.506
693.500	429.537	80.006	19.994	103.849	19.905	6.145	0.507
694.000	429.793	80.006	19.993	103.851	19.904	6.219	0.501
694.500	430.009	80.006	19.994	103.855	19.905	6.129	0.482
695.000	430.268	80.006	19.993	103.858	19.906	6.057	0.474
695.500	430.532	80.007	19.993	103.860	19.906	6.065	0.499
696.000	430.802	80.006	19.994	103.865	19.905	6.184	0.528
696.500	431.059	80.005	19.994	103.860	19.903	6.304	0.531
697.000	431.290	80.007	19.995	103.853	19.902	6.347	0.508
697.500	431.594	80.005	19.994	103.847	19.902	6.375	0.512
698.000	431.803	80.006	19.995	103.842	19.902	6.323	0.524
698.500	432.055	80.006	19.994	103.838	19.904	6.206	0.487
699.000	432.331	80.006	19.994	103.838	19.901	6.409	0.495
699.500	432.603	80.006	19.995	103.837	19.902	6.332	0.538
700.000	432.817	80.007	19.994	103.839	19.901	6.393	0.517
700.500	433.096	80.007	19.993	103.838	19.900	6.502	0.490
701.001	433.353	80.007	19.995	103.838	19.900	6.462	0.515
701.500	433.613	80.007	19.993	103.840	19.901	6.449	0.526
702.000	433.864	80.008	19.995	103.844	19.903	6.283	0.514
702.500	434.130	80.007	19.995	103.844	19.901	6.447	0.514
703.000	434.396	80.006	19.993	103.843	19.903	6.300	0.525
703.500	434.646	80.007	19.995	103.840	19.903	6.310	0.524
704.000	434.886	80.009	19.995	103.837	19.899	6.584	0.503
704.500	435.115	80.008	19.994	103.840	19.898	6.642	0.480
705.000	435.390	80.007	19.994	103.845	19.899	6.561	0.487
705.500	435.654	80.009	19.994	103.847	19.898	6.626	0.521
706.000	435.851	80.008	19.995	103.848	19.899	6.588	0.499
706.500	436.143	80.009	19.994	103.851	19.899	6.569	0.475
707.000	436.391	80.008	19.993	103.849	19.896	6.741	0.515
707.500	436.659	80.009	19.993	103.844	19.895	6.831	0.528
708.000	436.904	80.008	19.995	103.843	19.895	6.803	0.515
708.500	437.147	80.008	19.994	103.847	19.893	6.967	0.500
709.000	437.404	80.009	19.995	103.845	19.897	6.688	0.494
709.500	437.640	80.008	19.994	103.842	19.897	6.720	0.497
710.000	437.912	80.008	19.994	103.847	19.894	6.878	0.500
710.500	438.153	80.009	19.993	103.850	19.897	6.718	0.510
711.000	438.393	80.008	19.994	103.849	19.897	6.671	0.497
711.500	438.675	80.008	19.994	103.852	19.896	6.741	0.501
712.000	438.884	80.008	19.994	103.852	19.894	6.935	0.506
712.500	439.128	80.009	19.994	103.851	19.896	6.749	0.472
713.000	439.399	80.009	19.993	103.851	19.895	6.819	0.484
713.500	439.665	80.008	19.994	103.851	19.894	6.907	0.526
714.000	439.916	80.008	19.994	103.847	19.893	6.949	0.527
714.500	440.185	80.006	19.994	103.848	19.890	7.182	0.519
715.000	440.429	80.007	19.994	103.847	19.888	7.302	0.517
715.500	440.646	80.007	19.994	103.842	19.888	7.295	0.487
716.000	440.905	80.008	19.993	103.841	19.888	7.340	0.468
716.500	441.151	80.006	19.993	103.844	19.890	7.201	0.491
717.000	441.419	80.006	19.994	103.843	19.888	7.325	0.509
717.500	441.703	80.007	19.992	103.844	19.889	7.263	0.533
718.000	441.930	80.006	19.993	103.849	19.887	7.355	0.532
718.500	442.137	80.006	19.994	103.849	19.888	7.344	0.473
719.000	442.386	80.006	19.993	103.850	19.886	7.453	0.445
719.500	442.652	80.006	19.993	103.850	19.886	7.453	0.485
720.000	442.915	80.005	19.994	103.848	19.888	7.312	0.522
720.500	443.168	80.007	19.993	103.844	19.887	7.408	0.522
721.000	443.431	80.006	19.994	103.846	19.885	7.549	0.516
721.500	443.675	80.006	19.994	103.847	19.885	7.514	0.512
722.000	443.889	80.006	19.994	103.847	19.882	7.700	0.482
722.500	444.160	80.006	19.995	103.850	19.881	7.768	0.471
723.000	444.477	80.006	19.994	103.857	19.881	7.777	0.536
723.500	444.676	80.005	19.993	103.859	19.884	7.581	0.552
724.000	444.933	80.006	19.993	103.861	19.880	7.838	0.486
724.500	445.207	80.007	19.994	103.865	19.877	8.079	0.494
725.000	445.425	80.006	19.994	103.865	19.876	8.128	0.512
725.500	445.699	80.007	19.993	103.859	19.878	7.982	0.492
726.000	445.966	80.006	19.993	103.858	19.877	8.071	0.516
726.500	446.192	80.006	19.993	103.857	19.872	8.397	0.517
727.000	446.474	80.006	19.994	103.857	19.878	7.982	0.501
727.500	446.688	80.007	19.992	103.859	19.874	8.278	0.502
728.000	446.937	80.006	19.994	103.866	19.875	8.218	0.479
728.500	447.206	80.008	19.994	103.867	19.877	8.093	0.491
729.000	447.439	80.006	19.994	103.864	19.871	8.519	0.510
729.501	447.708	80.006	19.993	103.861	19.873	8.348	0.502
730.001	447.934	80.006	19.994	103.860	19.870	8.579	0.498
730.500	448.197	80.006	19.993	103.859	19.867	8.773	0.491
731.000	448.496	80.007	19.994	103.859	19.863	9.047	0.525
731.500	448.734	80.007	19.993	103.861	19.866	8.811	0.549
732.000	448.954	80.006	19.994	103.864	19.866	8.802	0.497
732.500	449.244	80.006	19.993	103.866	19.862	9.122	0.484
733.000	449.496	80.007	19.993	103.866	19.864	8.994	0.526
733.500	449.745	80.006	19.993	103.866	19.860	9.222	0.522
734.000	450.024	80.006	19.994	103.859	19.858	9.361	0.515
734.500	450.271	80.006	19.993	103.856	19.859	9.306	0.527
735.000	450.526	80.006	19.993	103.853	19.855	9.562	0.514
735.500	450.793	80.005	19.993	103.853	19.856	9.539	0.512
736.000	450.973	80.007	19.993	103.853	19.855	9.611	0.484
736.500	451.285	80.005	19.994	103.860	19.851	9.886	0.469
737.000	451.500	80.007	19.994	103.862	19.849	9.994	0.510
737.500	451.778	80.006	19.993	103.865	19.847	10.140	0.510
738.000	452.032	80.007	19.992	103.864	19.844	10.336	0.512
738.500	452.263	80.007	19.995	103.862	19.846	10.195	0.509
739.000	452.539	80.006	19.994	103.862	19.843	10.410	0.496
739.500	452.765	80.006	19.994	103.863	19.843	10.410	0.504
740.000	453.036	80.006	19.994	103.862	19.842	10.465	0.499
740.500	453.308	80.006	19.994	103.865	19.840	10.596	0.520
741.000	453.502	80.005	19.993	103.867	19.841	10.544	0.505
741.500	453.770	80.006	19.994	103.868	19.836	10.920	0.464
742.000	454.039	80.005	19.994	103.869	19.833	11.076	0.500
742.500	454.313	80.006	19.994	103.871	19.830	11.272	0.540
743.000	454.567	80.006	19.994	103.871	19.830	11.332	0.535
743.500	454.813	80.007	19.993	103.871	19.827	11.541	0.514
744.000	455.030	80.007	19.994	103.871	19.826	11.545	0.482
744.500	455.352	80.006	19.995	103.868	19.819	12.033	0.501
745.000	455.598	80.007	19.994	103.865	19.819	12.033	0.553
745.500	455.836	80.005	19.993	103.864	19.821	11.920	0.526
746.000	456.097	80.006	19.995	103.863	19.813	12.479	0.492
746.500	456.334	80.006	19.994	103.863	19.813	12.451	0.499
747.000	456.608	80.007	19.994	103.865	19.813	12.446	0.504
747.500	456.836	80.006	19.994	103.868	19.810	12.698	0.506
748.000	457.074	80.006	19.994	103.869	19.807	12.884	0.484
748.500	457.346	80.006	19.994	103.870	19.801	13.312	0.488
749.000	457.555	80.005	19.993	103.870	19.800	13.337	0.495
749.500	457.840	80.005	19.994	103.872	19.798	13.484	0.488
750.000	458.067	80.006	19.993	103.873	19.794	13.746	0.504
750.500	458.344	80.006	19.993	103.873	19.791	13.993	0.508
751.000	458.626	80.005	19.993	103.873	19.789	14.125	0.531
751.500	458.874	80.006	19.994	103.872	19.788	14.208	0.544
752.000	459.086	80.005	19.993	103.872	19.783	14.518	0.495
752.500	459.393	80.005	19.994	103.871	19.780	14.746	0.490
753.000	459.578	80.005	19.993	103.871	19.780	14.771	0.505
753.500	459.873	80.006	19.996	103.871	19.776	15.013	0.486
754.000	460.151	80.005	19.993	103.871	19.770	15.415	0.527
754.500	460.389	80.008	19.993	103.871	19.768	15.546	0.545
755.000	460.642	80.006	19.994	103.871	19.760	16.107	0.503
755.500	460.887	80.007	19.994	103.871	19.761	16.011	0.494
756.000	461.120	80.007	19.992	103.871	19.757	16.333	0.488
756.500	461.375	80.006	19.992	103.871	19.752	16.656	0.483
757.000	461.637	80.007	19.993	103.871	19.749	16.860	0.502
757.500	461.842	80.006	19.992	103.873	19.746	17.086	0.492
758.000	462.135	80.006	19.994	103.875	19.742	17.337	0.483
758.500	462.399	80.007	19.993	103.876	19.736	17.774	0.527
759.000	462.640	80.006	19.994	103.876	19.731	18.107	0.531
759.500	462.922	80.007	19.993	103.878	19.727	18.405	0.514
760.000	463.118	80.008	19.994	103.880	19.722	18.753	0.501
760.500	463.389	80.008	19.993	103.884	19.718	18.975	0.473
761.000	463.652	80.007	19.994	103.887	19.714	19.297	0.501
761.500	463.912	80.007	19.993	103.889	19.711	19.463	0.528
762.000	464.135	80.008	19.993	103.888	19.706	19.826	0.503
762.500	464.390	80.008	19.994	103.886	19.698	20.342	0.481
763.000	464.667	80.006	19.993	103.884	19.693	20.721	0.505
763.500	464.898	80.007	19.995	103.886	19.689	20.988	0.519
764.000	465.169	80.007	19.993	103.891	19.682	21.444	0.505
764.500	465.435	80.008	19.995	103.897	19.677	21.789	0.519
765.000	465.697	80.008	19.995	103.903	19.672	22.137	0.533
765.500	465.983	80.008	19.995	103.906	19.662	22.855	0.538
766.000	466.161	80.008	19.994	103.905	19.662	22.825	0.506
766.500	466.434	80.006	19.994	103.905	19.656	23.294	0.458
767.000	466.703	80.008	19.994	103.904	19.650	23.703	0.497
767.500	466.968	80.008	19.993	103.904	19.643	24.186	0.538
768.000	467.189	80.007	19.994	103.904	19.634	24.742	0.510
768.500	467.464	80.007	19.993	103.905	19.630	25.032	0.491
769.000	467.728	80.009	19.994	103.905	19.623	25.551	0.517
769.500	467.981	80.008	19.993	103.907	19.613	26.238	0.528
770.000	468.250	80.008	19.995	103.907	19.613	26.233	0.520
770.500	468.505	80.007	19.995	103.907	19.600	27.080	0.523
771.000	468.723	80.008	19.993	103.907	19.592	27.685	0.499
771.500	469.000	80.007	19.995	103.907	19.586	28.046	0.484
772.000	469.240	80.006	19.995	103.905	19.576	28.756	0.506
772.500	469.497	80.007	19.995	103.904	19.570	29.200	0.507
773.000	469.754	80.007	19.996	103.905	19.563	29.655	0.506
773.500	469.990	80.007	19.994	103.905	19.551	30.465	0.503
774.000	470.239	80.006	19.995	103.907	19.544	30.931	0.489
774.500	470.474	80.007	19.995	103.913	19.533	31.707	0.485
775.000	470.768	80.008	19.994	103.920	19.522	32.458	0.506
775.500	471.025	80.007	19.994	103.924	19.511	33.212	0.540
776.000	471.285	80.008	19.993	103.928	19.502	33.818	0.534
776.500	471.511	80.006	19.994	103.933	19.497	34.214	0.502
777.000	471.792	80.007	19.994	103.933	19.478	35.492	0.497
777.500	472.035	80.007	19.993	103.932	19.470	36.032	0.515
778.000	472.256	80.007	19.994	103.933	19.461	36.698	0.493
778.500	472.543	80.005	19.993	103.935	19.446	37.665	0.486
779.000	472.784	80.007	19.995	103.936	19.438	38.224	0.518
779.500	473.047	80.006	19.993	103.938	19.425	39.140	0.516
780.000	473.285	80.007	19.993	103.941	19.412	40.066	0.503
780.500	473.575	80.007	19.996	103.944	19.395	41.209	0.514
781.000	473.903	80.008	19.995	103.947	19.382	42.087	0.572
781.500	474.063	80.008	19.995	103.950	19.367	43.119	0.553
782.000	474.372	80.007	19.994	103.951	19.353	44.103	0.479
782.500	474.601	80.008	19.995	103.949	19.335	45.328	0.504
783.000	474.950	80.007	19.995	103.949	19.323	46.113	0.558
783.500	475.107	80.008	19.994	103.947	19.302	47.554	0.542
784.000	475.446	80.008	19.993	103.947	19.288	48.518	0.501
784.500	475.640	80.009	19.993	103.949	19.270	49.786	0.515
785.000	475.903	80.007	19.994	103.951	19.257	50.685	0.495
785.500	476.178	80.007	19.994	103.954	19.241	51.739	0.497
786.000	476.417	80.008	19.993	103.958	19.221	53.166	0.526
786.500	476.653	80.008	19.994	103.958	19.189	55.340	0.495
787.000	476.989	80.007	19.996	103.958	19.170	56.689	0.524
787.500	477.168	80.009	19.995	103.959	19.149	58.118	0.544
788.000	477.413	80.008	19.995	103.959	19.131	59.355	0.469
788.500	477.713	80.008	19.993	103.961	19.107	61.003	0.485
789.000	477.845	80.008	19.993	103.960	19.089	62.301	0.489
789.500	478.191	80.009	19.993	103.960	19.065	63.946	0.455
790.000	478.493	80.008	19.994	103.960	19.056	64.565	0.563
790.500	478.679	80.009	19.994	103.959	19.039	65.721	0.568
791.000	478.908	80.009	19.994	103.955	19.024	66.794	0.452
791.500	479.213	80.008	19.993	103.955	19.011	67.647	0.475
792.000	479.444	80.009	19.995	103.953	18.999	68.522	0.535
792.500	479.671	80.008	19.994	103.952	18.987	69.308	0.497
793.000	480.025	80.008	19.993	103.948	18.979	69.847	0.520
793.500	480.143	80.009	19.995	103.940	18.972	70.379	0.526
794.000	480.493	80.007	19.996	103.935	18.965	70.811	0.470
794.500	480.746	80.008	19.995	103.930	18.962	71.013	0.536
795.000	480.871	80.007	19.994	103.925	18.955	71.531	0.491
795.500	481.130	80.007	19.994	103.919	18.944	72.258	0.381
796.000	481.440	80.008	19.994	103.918	18.943	72.373	0.476
796.500	481.749	80.008	19.993	103.921	18.931	73.187	0.594
797.000	482.205	80.007	19.995	103.924	18.925	73.557	0.692
797.500	482.144	80.006	19.995	103.934	18.920	73.909	0.580
798.000	482.457	80.006	19.995	103.953	18.913	74.416	0.323
798.500	482.543	80.006	19.995	103.973	18.905	74.981	0.325
799.000	483.361	80.006	19.996	103.998	18.896	75.579	0.652
799.500	483.715	80.006	19.994	104.022	18.889	76.059	1.038
800.000	483.459	80.005	19.993	104.045	18.881	76.615	0.635
800.500	483.265	80.004	19.994	104.061	18.873	77.175	-0.176
801.000	483.560	80.005	19.996	104.076	18.862	77.910	-0.175
801.500	483.953	80.006	19.995	104.084	18.854	78.481	0.394
802.000	484.480	80.007	19.993	104.090	18.845	79.127	0.804
802.500	484.949	80.007	19.995	104.091	18.831	80.061	0.958
803.000	485.295	80.006	19.995	104.089	18.820	80.855	0.906
803.500	484.989	80.006	19.994	104.085	18.809	81.608	0.428
804.000	485.425	80.006	19.994	104.079	18.795	82.535	0.085
804.500	486.059	80.006	19.994	104.078	18.783	83.407	0.600
805.000	486.031	80.004	19.995	104.078	18.770	84.278	0.838
805.500	486.343	80.006	19.995	104.079	18.757	85.178	0.444
806.000	486.449	80.005	19.994	104.078	18.742	86.247	0.351
806.500	486.773	80.004	19.995	104.079	18.726	87.335	0.424
807.000	487.100	80.007	19.993	104.079	18.711	88.371	0.540
807.501	487.369	80.005	19.995	104.078	18.696	89.400	0.623
808.001	487.640	80.005	19.993	104.078	18.673	90.995	0.568
808.500	487.805	80.005	19.993	104.082	18.657	92.087	0.488
809.000	488.037	80.006	19.995	104.083	18.643	93.058	0.417
809.500	488.336	80.006	19.994	104.085	18.624	94.329	0.464
810.000	488.629	80.006	19.994	104.090	18.604	95.719	0.561
810.500	488.777	80.007	19.994	104.094	18.587	96.938	0.516
811.000	489.177	80.006	19.995	104.098	18.565	98.448	0.494
811.500	489.391	80.006	19.993	104.103	18.547	99.685	0.581
812.000	489.692	80.004	19.994	104.105	18.528	100.949	0.565
812.500	489.919	80.006	19.994	104.105	18.507	102.460	0.522
813.000	490.135	80.005	19.993	104.106	18.487	103.843	0.485
813.500	490.480	80.006	19.994	104.108	18.464	105.400	0.502
814.000	490.703	80.006	19.993	104.114	18.444	106.798	0.565
814.500	490.996	80.006	19.994	104.118	18.422	108.342	0.542
815.000	491.186	80.006	19.993	104.125	18.399	109.896	0.499
815.500	491.391	80.006	19.994	104.132	18.377	111.405	0.439
816.000	491.743	80.005	19.993	104.138	18.356	112.849	0.476
816.500	492.021	80.005	19.993	104.140	18.334	114.409	0.593
817.000	492.233	80.006	19.994	104.143	18.311	116.005	0.560
817.500	492.551	80.005	19.993	104.144	18.285	117.775	0.510
818.000	492.756	80.006	19.993	104.144	18.265	119.139	0.527
818.500	493.081	80.006	19.992	104.144	18.245	120.517	0.527
819.000	493.308	80.006	19.993	104.144	18.221	122.223	0.540
819.500	493.606	80.006	19.993	104.145	18.199	123.712	0.538
820.000	493.812	80.005	19.993	104.146	18.178	125.216	0.515
820.500	494.104	80.007	19.992	104.152	18.152	126.986	0.501
821.000	494.399	80.005	19.993	104.155	18.135	128.186	0.542
821.500	494.679	80.006	19.993	104.156	18.113	129.680	0.581
822.000	494.899	80.005	19.994	104.162	18.092	131.100	0.537
822.500	495.144	80.007	19.993	104.165	18.068	132.755	0.482
823.000	495.489	80.005	19.992	104.165	18.045	134.360	0.527
823.500	495.679	80.007	19.994	104.170	18.023	135.871	0.563
824.000	495.930	80.005	19.994	104.178	18.001	137.430	0.488
824.500	496.240	80.005	19.995	104.183	17.979	138.906	0.501
825.000	496.494	80.004	19.993	104.191	17.953	140.729	0.563
825.500	496.768	80.006	19.995	104.199	17.932	142.169	0.546
826.000	497.069	80.006	19.993	104.200	17.911	143.677	0.552
826.500	497.276	80.007	19.995	104.204	17.886	145.391	0.542
827.000	497.605	80.007	19.994	104.206	17.863	146.987	0.522
827.500	497.813	80.006	19.992	104.210	17.843	148.362	0.536
828.000	498.073	80.006	19.994	104.214	17.819	149.985	0.502
828.500	498.314	80.005	19.994	104.221	17.794	151.701	0.485
829.000	498.618	80.005	19.993	104.225	17.776	152.994	0.523
829.500	498.882	80.005	19.994	104.235	17.753	154.590	0.556
830.001	499.124	80.005	19.993	104.242	17.729	156.235	0.537
830.500	499.451	80.005	19.993	104.246	17.706	157.804	0.538
831.000	499.630	80.005	19.994	104.251	17.685	159.308	0.538
831.500	499.951	80.006	19.993	104.257	17.662	160.846	0.503
832.000	500.189	80.005	19.994	104.258	17.640	162.407	0.529
832.500	500.462	80.005	19.994	104.258	17.616	164.060	0.535
833.000	500.713	80.005	19.994	104.259	17.593	165.667	0.517
833.500	500.974	80.005	19.995	104.261	17.572	167.128	0.518
834.000	501.305	80.006	19.994	104.263	17.554	168.375	0.552
834.500	501.525	80.006	19.994	104.262	17.530	170.022	0.572
835.000	501.801	80.006	19.995	104.266	17.511	171.353	0.524
835.500	502.087	80.005	19.994	104.274	17.486	173.034	0.529
836.000	502.341	80.004	19.994	104.281	17.468	174.334	0.550
836.500	502.612	80.006	19.995	104.286	17.445	175.897	0.532
837.000	502.863	80.006	19.995	104.294	17.425	177.269	0.524
837.500	503.134	80.005	19.994	104.297	17.405	178.647	0.522
838.000	503.385	80.007	19.995	104.297	17.383	180.176	0.522
838.500	503.649	80.007	19.993	104.297	17.363	181.567	0.518
839.000	503.901	80.008	19.995	104.301	17.343	182.964	0.515
839.500	504.204	80.008	19.994	104.308	17.322	184.379	0.535
840.000	504.431	80.008	19.993	104.315	17.302	185.796	0.542
840.500	504.690	80.007	19.994	104.322	17.282	187.173	0.508
841.000	504.927	80.007	19.995	104.330	17.265	188.306	0.491
841.500	505.170	80.008	19.993	104.331	17.246	189.656	0.488
842.000	505.486	80.005	19.994	104.328	17.225	191.128	0.520
842.500	505.707	80.008	19.994	104.329	17.210	192.154	0.548
843.000	506.003	80.007	19.993	104.330	17.195	193.137	0.527
843.500	506.280	80.008	19.992	104.330	17.176	194.503	0.545
844.000	506.542	80.007	19.993	104.337	17.159	195.675	0.557
844.500	506.811	80.008	19.994	104.345	17.145	196.631	0.535
845.000	507.051	80.008	19.994	104.351	17.128	197.786	0.520
845.500	507.253	80.008	19.994	104.358	17.113	198.843	0.475
846.000	507.581	80.007	19.995	104.364	17.096	199.977	0.486
846.500	507.802	80.008	19.994	104.368	17.079	201.169	0.540
847.000	508.066	80.009	19.993	104.370	17.069	201.901	0.517
847.500	508.400	80.010	19.993	104.371	17.053	202.980	0.541
848.000	508.636	80.009	19.993	104.371	17.039	203.914	0.584
848.500	508.891	80.008	19.994	104.373	17.026	204.837	0.531
849.000	509.181	80.009	19.992	104.372	17.014	205.673	0.518
849.500	509.448	80.009	19.994	104.374	17.003	206.437	0.551
850.000	509.689	80.007	19.994	104.374	16.995	206.972	0.533
850.500	509.932	80.009	19.993	104.376	16.987	207.564	0.496
851.000	510.219	80.007	19.994	104.377	16.977	208.211	0.507
851.500	510.513	80.010	19.993	104.379	16.968	208.866	0.555
852.000	510.747	80.008	19.993	104.380	16.958	209.527	0.554
852.500	511.023	80.009	19.994	104.382	16.954	209.775	0.519
853.000	511.280	80.008	19.993	104.382	16.947	210.257	0.522
853.500	511.545	80.007	19.994	104.380	16.942	210.621	0.527
854.000	511.710	80.008	19.994	104.380	16.935	211.097	0.475
854.500	512.029	80.009	19.993	104.382	16.932	211.282	0.457
855.000	512.269	80.007	19.993	104.382	16.927	211.604	0.522
855.500	512.538	80.008	19.994	104.383	16.927	211.604	0.534
856.000	512.773	80.007	19.994	104.385	16.926	211.694	0.506
856.500	513.061	80.007	19.993	104.387	16.926	211.717	0.514
857.000	513.311	80.007	19.993	104.388	16.927	211.636	0.531
857.500	513.585	80.008	19.994	104.390	16.924	211.863	0.531
858.000	513.855	80.008	19.993	104.390	16.925	211.810	0.534
858.500	514.138	80.007	19.993	104.391	16.930	211.434	0.548
859.000	514.395	80.008	19.993	104.391	16.932	211.315	0.547
859.500	514.650	80.007	19.995	104.390	16.939	210.765	0.526
860.000	514.958	80.008	19.993	104.392	16.946	210.279	0.537
860.500	515.185	80.007	19.994	104.390	16.955	209.640	0.549
861.000	515.457	80.008	19.994	104.389	16.962	209.158	0.517
861.500	515.751	80.007	19.994	104.388	16.969	208.670	0.533
862.000	515.971	80.008	19.994	104.386	16.979	207.963	0.540
862.500	516.247	80.008	19.994	104.385	16.988	207.376	0.505
863.000	516.520	80.006	19.994	104.387	16.998	206.672	0.522
863.500	516.767	80.006	19.995	104.385	17.010	205.803	0.534
864.000	517.096	80.009	19.994	104.383	17.023	204.909	0.548
864.500	517.318	80.007	19.994	104.382	17.038	203.858	0.564
865.000	517.583	80.007	19.995	104.377	17.056	202.635	0.519
865.500	517.826	80.008	19.993	104.375	17.068	201.781	0.498
866.000	518.136	80.009	19.993	104.372	17.088	200.379	0.531
866.500	518.411	80.008	19.995	104.372	17.100	199.535	0.569
867.000	518.663	80.008	19.995	104.372	17.124	197.875	0.556
867.500	518.884	80.008	19.994	104.371	17.143	196.596	0.500
868.001	519.152	80.008	19.995	104.372	17.161	195.348	0.481
868.500	519.414	80.008	19.995	104.374	17.180	194.014	0.510
869.000	519.689	80.007	19.994	104.372	17.202	192.488	0.534
869.500	519.915	80.008	19.995	104.372	17.225	190.896	0.519
870.000	520.198	80.009	19.994	104.367	17.243	189.658	0.505
870.500	520.505	80.008	19.993	104.362	17.268	187.954	0.550
871.000	520.748	80.008	19.995	104.354	17.294	186.130	0.570
871.500	520.980	80.009	19.993	104.348	17.320	184.318	0.512
872.000	521.222	80.008	19.993	104.341	17.349	182.335	0.474
872.500	521.517	80.008	19.994	104.339	17.373	180.635	0.506
873.000	521.796	80.009	19.993	104.336	17.402	178.665	0.555
873.501	522.056	80.008	19.994	104.335	17.430	176.767	0.557
874.001	522.326	80.008	19.995	104.334	17.455	174.984	0.535
874.500	522.580	80.010	19.994	104.326	17.484	172.988	0.527
875.000	522.849	80.009	19.993	104.324	17.513	170.983	0.524
875.500	523.120	80.008	19.993	104.321	17.545	168.794	0.532
876.000	523.375	80.008	19.994	104.314	17.575	166.653	0.533
876.500	523.639	80.010	19.994	104.309	17.609	164.346	0.523
877.000	523.915	80.009	19.994	104.308	17.639	162.280	0.530
877.500	524.152	80.009	19.994	104.302	17.670	160.088	0.526
878.000	524.409	80.008	19.994	104.298	17.705	157.687	0.503
878.500	524.666	80.009	19.993	104.297	17.736	155.571	0.504
879.000	524.938	80.008	19.994	104.293	17.770	153.254	0.522
879.501	525.184	80.008	19.993	104.293	17.804	150.884	0.523
880.000	525.485	80.009	19.994	104.290	17.836	148.677	0.532
880.500	525.734	80.007	19.994	104.289	17.867	146.481	0.548
881.000	525.961	80.007	19.993	104.288	17.898	144.344	0.514
881.500	526.224	80.007	19.994	104.285	17.934	141.892	0.484
882.000	526.523	80.005	19.994	104.277	17.966	139.702	0.526
882.500	526.760	80.007	19.994	104.271	18.002	137.204	0.549
883.000	527.006	80.004	19.993	104.264	18.035	134.878	0.509
883.500	527.283	80.006	19.995	104.257	18.067	132.667	0.503
884.000	527.497	80.007	19.996	104.256	18.100	130.388	0.507
884.500	527.821	80.006	19.996	104.256	18.134	128.053	0.515
885.000	528.040	80.006	19.996	104.254	18.170	125.588	0.541
885.501	528.348	80.006	19.996	104.247	18.198	123.609	0.535
886.000	528.576	80.007	19.995	104.239	18.231	121.358	0.532
886.500	528.856	80.006	19.995	104.227	18.264	119.067	0.522
887.000	529.075	80.006	19.994	104.217	18.295	116.930	0.503
887.500	529.353	80.005	19.994	104.210	18.327	114.744	0.497
888.000	529.577	80.006	19.993	104.206	18.360	112.509	0.499
888.500	529.883	80.005	19.994	104.206	18.391	110.310	0.516
889.000	530.097	80.006	19.994	104.206	18.423	108.115	0.525
889.500	530.389	80.004	19.994	104.202	18.449	106.322	0.513
890.000	530.643	80.005	19.994	104.197	18.483	103.972	0.526
890.500	530.912	80.005	19.995	104.191	18.508	102.226	0.535
891.000	531.144	80.005	19.994	104.183	18.539	100.125	0.512
891.500	531.398	80.006	19.994	104.178	18.569	98.093	0.493
892.000	531.685	80.005	19.995	104.174	18.597	96.156	0.513
892.500	531.954	80.004	19.995	104.168	18.629	93.937	0.549
893.000	532.204	80.004	19.995	104.162	18.654	92.171	0.538
893.500	532.465	80.006	19.995	104.155	18.683	90.179	0.515
894.000	532.717	80.005	19.995	104.148	18.712	88.177	0.512
894.500	532.996	80.005	19.994	104.139	18.738	86.396	0.522
895.000	533.265	80.005	19.995	104.129	18.761	84.847	0.539
895.500	533.506	80.006	19.996	104.121	18.784	83.214	0.529
896.000	533.741	80.005	19.995	104.115	18.809	81.551	0.493
896.500	534.031	80.006	19.996	104.109	18.832	79.946	0.500
897.000	534.261	80.006	19.996	104.105	18.855	78.350	0.522
897.500	534.554	80.006	19.995	104.104	18.878	76.778	0.521
898.000	534.802	80.006	19.996	104.103	18.896	75.552	0.532
898.500	535.098	80.007	19.996	104.101	18.922	73.730	0.543
899.000	535.347	80.007	19.995	104.097	18.942	72.356	0.545
899.500	535.574	80.006	19.995	104.089	18.962	70.963	0.510
900.000	535.859	80.006	19.995	104.084	18.983	69.521	0.494
900.500	536.099	80.006	19.995	104.076	19.002	68.223	0.519
901.000	536.381	80.007	19.994	104.069	19.020	66.979	0.524
901.500	536.622	80.007	19.994	104.064	19.042	65.509	0.522
902.000	536.847	80.005	19.994	104.064	19.057	64.482	0.494
902.500	537.116	80.006	19.995	104.062	19.076	63.153	0.479
903.000	537.356	80.006	19.994	104.062	19.093	61.962	0.501
903.500	537.658	80.005	19.994	104.057	19.109	60.840	0.526
904.000	537.901	80.006	19.994	104.049	19.124	59.861	0.543
904.500	538.135	80.007	19.994	104.041	19.142	58.627	0.511
905.000	538.408	80.006	19.995	104.037	19.158	57.465	0.492
905.500	538.663	80.006	19.995	104.030	19.175	56.358	0.518
906.000	538.925	80.006	19.995	104.026	19.184	55.685	0.522
906.500	539.209	80.006	19.994	104.026	19.202	54.495	0.531
907.000	539.473	80.006	19.994	104.026	19.215	53.593	0.547
907.500	539.736	80.005	19.993	104.023	19.228	52.684	0.538
908.000	539.994	80.005	19.994	104.022	19.242	51.701	0.524
908.500	540.258	80.007	19.994	104.018	19.255	50.842	0.522
909.000	540.481	80.008	19.994	104.017	19.266	50.077	0.504
909.500	540.754	80.007	19.993	104.011	19.279	49.148	0.491
910.000	541.004	80.007	19.994	104.006	19.290	48.441	0.509
910.500	541.268	80.006	19.994	104.003	19.301	47.659	0.518
911.000	541.530	80.007	19.993	104.001	19.315	46.677	0.520
911.500	541.775	80.006	19.994	103.996	19.325	46.017	0.517
912.000	542.027	80.006	19.995	103.996	19.334	45.416	0.502
912.500	542.321	80.006	19.994	103.994	19.344	44.703	0.521
913.000	542.597	80.006	19.994	103.991	19.354	43.975	0.558
913.500	542.865	80.007	19.993	103.988	19.367	43.147	0.557
914.000	543.068	80.006	19.993	103.986	19.380	42.256	0.507
914.500	543.369	80.006	19.994	103.985	19.387	41.733	0.487
915.000	543.604	80.007	19.995	103.983	19.395	41.169	0.520
915.500	543.861	80.007	19.994	103.980	19.405	40.504	0.514
916.000	544.102	80.007	19.994	103.976	19.410	40.145	0.495
916.500	544.411	80.006	19.993	103.974	19.424	39.226	0.524
917.000	544.618	80.005	19.995	103.973	19.431	38.693	0.533
917.500	544.895	80.006	19.993	103.971	19.441	38.053	0.500
918.000	545.107	80.007	19.994	103.970	19.448	37.547	0.487
918.500	545.386	80.006	19.994	103.968	19.457	36.928	0.490
919.000	545.650	80.006	19.995	103.962	19.458	36.895	0.517
919.500	545.884	80.007	19.994	103.956	19.468	36.187	0.520
920.000	546.197	80.006	19.996	103.951	19.478	35.487	0.522
920.500	546.415	80.006	19.994	103.948	19.485	35.004	0.539
921.000	546.681	80.006	19.994	103.947	19.493	34.442	0.508
921.500	546.942	80.006	19.994	103.947	19.495	34.297	0.506
922.000	547.210	80.006	19.995	103.945	19.504	33.679	0.528
922.500	547.454	80.006	19.994	103.940	19.512	33.173	0.520
923.000	547.712	80.006	19.995	103.936	19.516	32.894	0.507
923.500	547.966	80.007	19.995	103.934	19.523	32.403	0.507
924.000	548.241	80.006	19.994	103.932	19.530	31.925	0.521
924.500	548.495	80.008	19.995	103.933	19.535	31.597	0.529
925.000	548.731	80.007	19.995	103.938	19.542	31.119	0.510
925.500	548.979	80.008	19.994	103.941	19.542	31.070	0.487
926.000	549.234	80.008	19.992	103.943	19.550	30.565	0.494
926.500	549.545	80.007	19.994	103.943	19.557	30.031	0.534
927.000	549.772	80.009	19.994	103.941	19.562	29.723	0.552
927.500	549.987	80.007	19.994	103.936	19.564	29.559	0.490
928.000	550.270	80.008	19.994	103.933	19.571	29.083	0.470
928.500	550.557	80.007	19.994	103.928	19.575	28.815	0.534
929.000	550.824	80.008	19.994	103.925	19.580	28.469	0.562
929.500	551.043	80.008	19.994	103.921	19.584	28.202	0.520
930.000	551.298	80.008	19.994	103.925	19.589	27.863	0.480
930.500	551.578	80.006	19.994	103.925	19.590	27.786	0.505
931.000	551.824	80.007	19.993	103.928	19.595	27.420	0.530
931.500	552.097	80.008	19.993	103.925	19.598	27.233	0.522
932.000	552.344	80.008	19.994	103.923	19.605	26.760	0.519
932.500	552.564	80.008	19.993	103.917	19.605	26.758	0.493
933.000	552.827	80.007	19.993	103.913	19.612	26.309	0.475
933.500	553.089	80.008	19.993	103.907	19.613	26.203	0.504
934.000	553.332	80.008	19.994	103.908	19.616	26.031	0.515
934.500	553.602	80.007	19.994	103.908	19.621	25.656	0.510
935.000	553.885	80.008	19.994	103.910	19.625	25.396	0.533
935.500	554.144	80.009	19.994	103.910	19.631	25.003	0.547
936.000	554.386	80.007	19.994	103.910	19.633	24.813	0.521
936.500	554.639	80.009	19.994	103.910	19.636	24.653	0.498
937.000	554.892	80.006	19.993	103.911	19.640	24.368	0.501
937.500	555.219	80.008	19.995	103.908	19.642	24.220	0.543
938.000	555.425	80.008	19.994	103.908	19.646	23.959	0.557
938.500	555.719	80.008	19.994	103.908	19.644	24.090	0.516
939.000	555.952	80.008	19.994	103.906	19.649	23.742	0.514
939.500	556.210	80.008	19.994	103.901	19.654	23.374	0.509
940.000	556.470	80.007	19.993	103.898	19.656	23.270	0.504
940.500	556.718	80.008	19.993	103.898	19.659	23.016	0.512
941.000	556.985	80.008	19.994	103.898	19.662	22.859	0.512
941.500	557.245	80.008	19.993	103.901	19.662	22.856	0.522
942.000	557.457	80.007	19.994	103.906	19.663	22.752	0.500
942.500	557.721	80.007	19.993	103.909	19.665	22.641	0.474
943.000	557.977	80.006	19.992	103.909	19.669	22.385	0.498
943.500	558.231	80.006	19.994	103.907	19.673	22.105	0.515
944.000	558.468	80.008	19.994	103.907	19.675	21.930	0.500
944.500	558.740	80.008	19.993	103.904	19.679	21.685	0.500
945.000	558.996	80.007	19.994	103.901	19.678	21.707	0.519
945.500	559.250	80.008	19.993	103.899	19.679	21.681	0.519
946.000	559.483	80.008	19.993	103.898	19.681	21.509	0.498
946.500	559.719	80.008	19.994	103.895	19.684	21.348	0.478
947.000	560.008	80.008	19.993	103.895	19.689	20.969	0.497
947.500	560.253	80.008	19.992	103.896	19.690	20.944	0.530
948.000	560.506	80.007	19.993	103.892	19.687	21.145	0.516
948.500	560.771	80.007	19.993	103.894	19.692	20.760	0.508
949.000	561.007	80.008	19.993	103.898	19.696	20.476	0.509
949.500	561.292	80.008	19.992	103.896	19.696	20.534	0.511
950.000	561.548	80.009	19.993	103.895	19.696	20.503	0.531
950.500	561.815	80.008	19.993	103.895	19.699	20.274	0.532
951.000	562.064	80.009	19.993	103.890	19.701	20.167	0.519
951.500	562.322	80.008	19.992	103.883	19.701	20.127	0.512
952.000	562.549	80.009	19.992	103.880	19.705	19.865	0.496
952.500	562.809	80.008	19.992	103.876	19.704	19.978	0.486
953.000	563.104	80.008	19.993	103.875	19.703	20.014	0.521
953.500	563.353	80.009	19.993	103.875	19.706	19.848	0.550
954.000	563.568	80.008	19.994	103.875	19.707	19.741	0.504
954.500	563.833	80.009	19.993	103.875	19.710	19.566	0.472
955.000	564.051	80.008	19.993	103.880	19.714	19.262	0.482
955.500	564.316	80.009	19.993	103.885	19.711	19.452	0.483
956.000	564.570	80.009	19.993	103.885	19.712	19.407	0.501
956.500	564.826	80.009	19.992	103.887	19.716	19.123	0.514
957.000	565.094	80.008	19.993	103.890	19.716	19.121	0.517
957.500	565.324	80.008	19.993	103.888	19.715	19.202	0.511
958.000	565.587	80.009	19.994	103.883	19.717	19.036	0.495
958.500	565.856	80.009	19.993	103.882	19.723	18.678	0.512
959.000	566.065	80.009	19.993	103.879	19.720	18.851	0.506
959.500	566.327	80.008	19.993	103.876	19.723	18.648	0.475
960.000	566.575	80.008	19.994	103.874	19.720	18.842	0.490
960.500	566.855	80.008	19.993	103.872	19.723	18.669	0.519
961.000	567.100	80.008	19.995	103.871	19.724	18.605	0.527
961.500	567.355	80.007	19.992	103.873	19.724	18.567	0.513
962.000	567.602	80.007	19.995	103.872	19.726	18.409	0.501
962.500	567.804	80.008	19.994	103.871	19.732	18.029	0.475
963.000	568.117	80.006	19.994	103.871	19.730	18.170	0.483
963.500	568.330	80.007	19.994	103.871	19.733	17.976	0.521
964.000	568.609	80.006	19.994	103.871	19.733	17.989	0.509
964.500	568.843	80.006	19.993	103.871	19.736	17.726	0.503
965.000	569.119	80.007	19.995	103.871	19.733	17.935	0.511
965.500	569.322	80.005	19.994	103.870	19.737	17.699	0.494
966.000	569.591	80.006	19.994	103.870	19.736	17.769	0.476
966.500	569.839	80.006	19.994	103.869	19.739	17.547	0.495
967.000	570.119	80.007	19.994	103.867	19.738	17.627	0.522
967.500	570.308	80.006	19.994	103.868	19.740	17.456	0.499
968.000	570.587	80.006	19.994	103.868	19.745	17.141	0.469
968.500	570.832	80.006	19.994	103.867	19.740	17.459	0.496
969.000	571.066	80.006	19.994	103.867	19.744	17.237	0.501
969.500	571.378	80.006	19.994	103.867	19.744	17.195	0.512
970.000	571.584	80.006	19.993	103.867	19.746	17.037	0.532
970.500	571.860	80.007	19.994	103.867	19.742	17.343	0.501
971.000	572.104	80.005	19.995	103.867	19.746	17.076	0.501
971.500	572.329	80.005	19.993	103.867	19.747	17.002	0.494
972.000	572.591	80.007	19.994	103.867	19.748	16.951	0.478
972.500	572.865	80.006	19.994	103.867	19.751	16.732	0.511
973.000	573.139	80.007	19.994	103.867	19.750	16.807	0.542
973.500	573.362	80.007	19.993	103.867	19.750	16.821	0.523
974.000	573.653	80.006	19.995	103.867	19.751	16.710	0.505
974.500	573.923	80.005	19.994	103.866	19.752	16.673	0.537
975.001	574.145	80.005	19.994	103.866	19.751	16.701	0.526
975.501	574.420	80.007	19.994	103.867	19.752	16.639	0.494
976.000	574.657	80.008	19.994	103.867	19.751	16.693	0.505
976.500	574.957	80.007	19.994	103.868	19.758	16.248	0.525
977.000	575.194	80.006	19.994	103.867	19.754	16.543	0.537
977.500	575.489	80.006	19.993	103.867	19.757	16.325	0.534
978.000	575.742	80.005	19.995	103.865	19.756	16.368	0.540
978.500	575.955	80.006	19.994	103.865	19.752	16.681	0.507
979.000	576.254	80.006	19.994	103.863	19.757	16.300	0.489
979.500	576.490	80.006	19.994	103.862	19.757	16.293	0.524
980.000	576.740	80.007	19.995	103.861	19.756	16.382	0.511
980.500	576.993	80.005	19.994	103.860	19.756	16.366	0.495
981.000	577.224	80.006	19.994	103.860	19.757	16.334	0.493
981.500	577.502	80.006	19.995	103.862	19.759	16.186	0.497
982.000	577.753	80.005	19.995	103.864	19.762	15.981	0.519
982.500	578.032	80.005	19.994	103.864	19.762	15.994	0.529
983.000	578.277	80.007	19.993	103.865	19.763	15.868	0.527
983.500	578.536	80.005	19.994	103.861	19.763	15.912	0.514
984.000	578.778	80.006	19.995	103.856	19.763	15.888	0.502
984.500	579.020	80.006	19.994	103.852	19.764	15.844	0.492
985.000	579.294	80.006	19.994	103.852	19.764	15.818	0.500
985.500	579.524	80.006	19.995	103.853	19.767	15.619	0.510
986.000	579.780	80.005	19.994	103.854	19.768	15.560	0.495
986.500	580.042	80.006	19.996	103.856	19.770	15.422	0.502
987.000	580.294	80.007	19.994	103.852	19.768	15.553	0.516
987.500	580.534	80.006	19.995	103.848	19.766	15.722	0.503
988.000	580.804	80.006	19.996	103.844	19.768	15.558	0.501
988.500	581.073	80.006	19.995	103.842	19.773	15.231	0.525
989.000	581.352	80.006	19.994	103.842	19.771	15.368	0.543
989.500	581.572	80.006	19.994	103.845	19.772	15.309	0.523
990.000	581.829	80.005	19.995	103.843	19.771	15.358	0.488
990.500	582.123	80.006	19.995	103.845	19.776	15.010	0.514
991.000	582.335	80.006	19.995	103.846	19.776	15.009	0.528
991.500	582.617	80.006	19.996	103.844	19.776	15.030	0.500
992.000	582.851	80.005	19.995	103.843	19.776	15.023	0.505
992.500	583.105	80.005	19.994	103.847	19.774	15.128	0.502
993.000	583.341	80.007	19.994	103.846	19.776	15.031	0.489
993.500	583.572	80.005	19.995	103.847	19.776	15.023	0.478
994.000	583.819	80.005	19.995	103.848	19.775	15.061	0.473
994.500	584.126	80.006	19.995	103.854	19.780	14.710	0.516
995.000	584.336	80.007	19.995	103.853	19.779	14.810	0.536
995.500	584.594	80.006	19.995	103.852	19.784	14.463	0.492
996.000	584.867	80.007	19.995	103.852	19.781	14.632	0.499
996.500	585.110	80.005	19.995	103.855	19.780	14.703	0.524
997.000	585.403	80.006	19.995	103.850	19.781	14.680	0.526
997.500	585.632	80.006	19.995	103.848	19.780	14.701	0.529
998.000	585.905	80.004	19.995	103.844	19.781	14.669	0.512
998.500	586.155	80.006	19.994	103.840	19.784	14.466	0.512
999.000	586.411	80.006	19.994	103.836	19.782	14.615	0.515
999.500	586.679	80.006	19.994	103.840	19.783	14.552	0.515
1000.000	586.932	80.005	19.993	103.840	19.784	14.489	0.522
1000.500	587.194	80.007	19.994	103.845	19.785	14.404	0.518
1001.000	587.448	80.006	19.994	103.845	19.782	14.620	0.516
1001.500	587.701	80.007	19.994	103.846	19.784	14.471	0.512
1002.000	587.969	80.007	19.994	103.844	19.785	14.375	0.514
1002.500	588.215	80.006	19.993	103.847	19.786	14.298	0.517
1003.000	588.483	80.005	19.992	103.846	19.786	14.284	0.514
1003.500	588.716	80.006	19.994	103.847	19.787	14.237	0.508
1004.000	588.961	80.008	19.994	103.850	19.784	14.471	0.489
1004.500	589.217	80.006	19.995	103.851	19.788	14.213	0.489
1005.000	589.508	80.007	19.995	103.853	19.790	14.052	0.524
1005.500	589.742	80.007	19.994	103.854	19.788	14.171	0.536
1006.000	589.981	80.007	19.993	103.858	19.784	14.462	0.499
1006.500	590.222	80.006	19.994	103.857	19.788	14.148	0.477
1007.000	590.475	80.007	19.993	103.854	19.789	14.137	0.487
1007.500	590.761	80.007	19.994	103.847	19.787	14.244	0.516
1008.000	591.001	80.007	19.993	103.846	19.789	14.113	0.532
1008.500	591.234	80.007	19.993	103.847	19.790	14.045	0.500
1009.000	591.505	80.007	19.993	103.849	19.788	14.167	0.489
1009.501	591.754	80.007	19.993	103.850	19.790	14.024	0.512
1010.000	592.024	80.008	19.993	103.850	19.793	13.872	0.520
1010.500	592.267	80.009	19.994	103.847	19.793	13.838	0.517
1011.000	592.487	80.008	19.994	103.840	19.795	13.689	0.488
1011.500	592.783	80.008	19.994	103.835	19.792	13.891	0.489
1012.000	593.030	80.008	19.994	103.833	19.794	13.737	0.529
1012.500	593.273	80.009	19.993	103.832	19.794	13.768	0.516
1013.000	593.551	80.007	19.993	103.832	19.795	13.706	0.506
1013.500	593.784	80.007	19.993	103.834	19.795	13.670	0.517
1014.000	594.012	80.006	19.992	103.838	19.795	13.726	0.487
1014.500	594.288	80.007	19.993	103.841	19.795	13.696	0.483
1015.000	594.521	80.007	19.992	103.841	19.795	13.709	0.506
1015.500	594.770	80.007	19.992	103.840	19.797	13.585	0.495
1016.000	595.076	80.006	19.993	103.840	19.796	13.658	0.518
1016.500	595.320	80.007	19.992	103.836	19.796	13.609	0.552
1017.000	595.511	80.006	19.993	103.832	19.797	13.568	0.493
1017.500	595.822	80.007	19.993	103.834	19.799	13.436	0.469
1018.000	596.029	80.006	19.993	103.836	19.797	13.555	0.510
1018.500	596.310	80.007	19.993	103.837	19.797	13.575	0.503
1019.000	596.577	80.005	19.993	103.840	19.798	13.475	0.518
1019.500	596.808	80.007	19.993	103.841	19.801	13.276	0.523
1020.000	597.078	80.005	19.993	103.840	19.801	13.255	0.499
1020.500	597.294	80.006	19.993	103.841	19.800	13.338	0.494
1021.000	597.574	80.008	19.994	103.842	19.803	13.133	0.492
1021.500	597.820	80.005	19.993	103.840	19.801	13.304	0.511
1022.000	598.066	80.006	19.994	103.839	19.799	13.411	0.509
1022.500	598.319	80.006	19.994	103.842	19.801	13.292	0.496
1023.000	598.586	80.007	19.993	103.843	19.800	13.356	0.510
1023.500	598.830	80.007	19.994	103.839	19.804	13.074	0.515
1024.000	599.108	80.007	19.994	103.838	19.801	13.266	0.516
1024.500	599.339	80.007	19.993	103.838	19.801	13.308	0.515
1025.000	599.597	80.005	19.993	103.836	19.804	13.106	0.499
1025.500	599.815	80.007	19.993	103.832	19.803	13.172	0.482
1026.000	600.092	80.007	19.994	103.833	19.803	13.132	0.485
1026.500	600.337	80.007	19.995	103.833	19.802	13.214	0.509
1027.000	600.597	80.006	19.994	103.833	19.803	13.180	0.514
1027.500	600.867	80.008	19.993	103.834	19.808	12.785	0.518
1028.000	601.082	80.007	19.993	103.833	19.807	12.868	0.507
1028.500	601.360	80.006	19.994	103.832	19.805	13.013	0.489
1029.000	601.607	80.007	19.993	103.832	19.805	13.005	0.509
1029.500	601.838	80.008	19.994	103.832	19.809	12.731	0.502
1030.000	602.115	80.008	19.994	103.831	19.809	12.724	0.493
1030.500	602.355	80.008	19.993	103.831	19.811	12.577	0.512
1031.000	602.623	80.007	19.994	103.830	19.812	12.558	0.513
1031.500	602.868	80.008	19.994	103.829	19.808	12.797	0.510
1032.000	603.099	80.008	19.993	103.828	19.810	12.684	0.494
1032.501	603.347	80.008	19.994	103.827	19.811	12.630	0.477
1033.001	603.596	80.007	19.993	103.827	19.813	12.445	0.488
1033.501	603.882	80.007	19.993	103.827	19.811	12.579	0.516
1034.000	604.141	80.008	19.994	103.828	19.811	12.608	0.540
1034.500	604.347	80.010	19.993	103.830	19.814	12.388	0.505
1035.000	604.588	80.009	19.992	103.831	19.811	12.568	0.456
1035.501	604.828	80.009	19.993	103.830	19.812	12.548	0.464
1036.001	605.103	80.008	19.993	103.830	19.813	12.435	0.498
1036.500	605.364	80.008	19.993	103.830	19.811	12.583	0.525
1037.000	605.600	80.009	19.992	103.827	19.814	12.406	0.516
1037.500	605.862	80.009	19.993	103.829	19.812	12.508	0.498
1038.000	606.127	80.010	19.992	103.833	19.814	12.368	0.513
1038.500	606.351	80.010	19.993	103.833	19.814	12.417	0.508
1039.000	606.636	80.011	19.994	103.833	19.818	12.148	0.499
1039.500	606.857	80.010	19.993	103.833	19.817	12.208	0.507
1040.000	607.130	80.009	19.991	103.830	19.819	12.073	0.500
1040.500	607.342	80.009	19.992	103.825	19.816	12.235	0.489
1041.000	607.619	80.008	19.993	103.824	19.816	12.231	0.487
1041.500	607.872	80.010	19.992	103.824	19.821	11.945	0.510
1042.000	608.093	80.009	19.993	103.825	19.821	11.904	0.502
1042.500	608.386	80.009	19.993	103.826	19.819	12.028	0.494
1043.000	608.625	80.009	19.992	103.826	19.821	11.913	0.523
1043.500	608.889	80.008	19.993	103.827	19.819	12.078	0.518
1044.000	609.144	80.008	19.993	103.827	19.822	11.848	0.511
1044.500	609.377	80.009	19.994	103.829	19.820	11.991	0.503
1045.000	609.618	80.006	19.994	103.831	19.825	11.656	0.481
1045.500	609.876	80.008	19.994	103.832	19.822	11.826	0.487
1046.000	610.121	80.007	19.993	103.832	19.820	11.963	0.501
1046.500	610.347	80.006	19.993	103.832	19.823	11.796	0.487
1047.000	610.642	80.007	19.993	103.830	19.824	11.721	0.496
1047.500	610.886	80.008	19.993	103.829	19.823	11.749	0.530
1048.000	611.151	80.006	19.994	103.828	19.824	11.696	0.524
1048.500	611.394	80.007	19.995	103.827	19.827	11.478	0.508
1049.000	611.649	80.007	19.994	103.827	19.824	11.693	0.503
1049.500	611.893	80.007	19.993	103.828	19.828	11.441	0.499
1050.000	612.120	80.006	19.993	103.827	19.828	11.463	0.485
1050.500	612.406	80.006	19.994	103.828	19.830	11.299	0.492
1051.000	612.648	80.007	19.995	103.828	19.829	11.342	0.520
1051.500	612.891	80.007	19.994	103.829	19.830	11.327	0.507
1052.000	613.166	80.006	19.994	103.829	19.825	11.615	0.502
1052.500	613.394	80.007	19.994	103.831	19.827	11.527	0.510
1053.000	613.656	80.006	19.995	103.830	19.824	11.700	0.496
1053.500	613.892	80.006	19.994	103.829	19.829	11.379	0.494
1054.000	614.152	80.006	19.994	103.826	19.832	11.166	0.497
1054.500	614.425	80.006	19.994	103.824	19.831	11.220	0.515
1055.000	614.699	80.008	19.994	103.821	19.830	11.320	0.541
1055.500	614.917	80.007	19.995	103.821	19.830	11.328	0.520
1056.000	615.206	80.007	19.994	103.821	19.832	11.150	0.499
1056.500	615.451	80.006	19.995	103.824	19.831	11.211	0.521
1057.000	615.683	80.006	19.993	103.825	19.830	11.272	0.505
1057.500	615.954	80.007	19.994	103.827	19.833	11.082	0.490
1058.000	616.207	80.006	19.995	103.828	19.832	11.156	0.514
1058.500	616.510	80.007	19.994	103.828	19.829	11.342	0.540
1059.000	616.771	80.005	19.994	103.828	19.832	11.169	0.560
1059.500	616.979	80.006	19.994	103.827	19.834	11.015	0.516
1060.000	617.253	80.006	19.995	103.828	19.834	11.051	0.475
1060.501	617.495	80.006	19.995	103.828	19.837	10.803	0.499
1061.001	617.766	80.006	19.993	103.827	19.837	10.801	0.515
1061.500	618.012	80.006	19.994	103.826	19.837	10.799	0.515
1062.000	618.257	80.006	19.994	103.826	19.836	10.862	0.504
1062.501	618.481	80.005	19.994	103.826	19.839	10.693	0.480
1063.001	618.749	80.006	19.992	103.826	19.840	10.633	0.481
1063.501	619.001	80.005	19.994	103.827	19.838	10.733	0.506
1064.000	619.250	80.007	19.995	103.828	19.836	10.894	0.510
1064.500	619.526	80.007	19.995	103.829	19.837	10.831	0.513
1065.000	619.806	80.005	19.994	103.829	19.837	10.795	0.541
1065.500	619.987	80.006	19.994	103.829	19.840	10.643	0.508
1066.000	620.257	80.007	19.994	103.828	19.840	10.611	0.456
1066.500	620.475	80.008	19.993	103.827	19.840	10.601	0.470
1067.000	620.750	80.007	19.993	103.825	19.842	10.458	0.490
1067.500	621.017	80.006	19.995	103.825	19.841	10.565	0.517
1068.000	621.268	80.007	19.995	103.822	19.841	10.557	0.530
1068.500	621.508	80.007	19.993	103.818	19.846	10.228	0.505
1069.000	621.751	80.006	19.994	103.820	19.842	10.481	0.487
1069.500	622.031	80.007	19.993	103.821	19.843	10.430	0.503
1070.000	622.263	80.006	19.993	103.822	19.845	10.281	0.517
1070.500	622.523	80.006	19.993	103.825	19.847	10.159	0.502
1071.000	622.786	80.007	19.993	103.830	19.847	10.155	0.508
1071.500	623.013	80.007	19.994	103.831	19.846	10.176	0.506
1072.000	623.274	80.006	19.993	103.829	19.848	10.076	0.489
1072.500	623.512	80.005	19.993	103.829	19.847	10.097	0.493
1073.000	623.763	80.007	19.993	103.825	19.846	10.198	0.494
1073.500	624.036	80.005	19.994	103.824	19.846	10.221	0.506
1074.000	624.262	80.005	19.993	103.824	19.845	10.268	0.512
1074.500	624.545	80.006	19.994	103.825	19.846	10.212	0.505
1075.000	624.767	80.006	19.994	103.824	19.845	10.268	0.507
1075.500	625.039	80.005	19.994	103.828	19.846	10.208	0.500
1076.000	625.317	80.006	19.994	103.829	19.845	10.274	0.522
1076.500	625.527	80.006	19.994	103.829	19.847	10.097	0.519
1077.000	625.800	80.005	19.994	103.828	19.847	10.111	0.485
1077.500	626.033	80.005	19.995	103.824	19.847	10.115	0.495
1078.000	626.224	80.005	19.995	103.824	19.847	10.102	0.465
1078.500	626.500	80.005	19.993	103.823	19.848	10.083	0.445
1079.000	626.769	80.005	19.993	103.823	19.847	10.144	0.506
1079.501	626.993	80.005	19.994	103.823	19.849	9.995	0.519
1080.001	627.291	80.005	19.995	103.826	19.849	9.980	0.507
1080.500	627.507	80.006	19.995	103.827	19.849	9.974	0.518
1081.000	627.766	80.006	19.993	103.826	19.851	9.853	0.495
1081.500	628.014	80.006	19.995	103.825	19.849	9.976	0.491
1082.000	628.240	80.006	19.994	103.825	19.855	9.588	0.491
1082.500	628.549	80.004	19.995	103.825	19.850	9.901	0.505
1083.000	628.796	80.004	19.994	103.824	19.854	9.622	0.545
1083.500	629.030	80.005	19.995	103.826	19.857	9.473	0.518
1084.000	629.314	80.005	19.994	103.827	19.853	9.688	0.499
1084.500	629.530	80.005	19.995	103.827	19.855	9.608	0.509
1085.000	629.788	80.005	19.995	103.827	19.857	9.449	0.488
1085.500	630.030	80.006	19.994	103.828	19.854	9.639	0.487
1086.000	630.283	80.005	19.995	103.828	19.857	9.461	0.497
1086.500	630.525	80.004	19.995	103.825	19.862	9.128	0.495
1087.000	630.779	80.006	19.995	103.826	19.859	9.318	0.495
1087.500	631.022	80.005	19.995	103.825	19.859	9.285	0.496
1088.000	631.257	80.005	19.995	103.823	19.860	9.211	0.487
1088.500	631.543	80.006	19.995	103.824	19.861	9.195	0.500
1089.000	631.779	80.006	19.994	103.826	19.859	9.292	0.522
1089.500	632.013	80.004	19.994	103.826	19.860	9.255	0.496
1090.000	632.267	80.005	19.995	103.827	19.862	9.082	0.478
1090.500	632.525	80.007	19.995	103.827	19.861	9.174	0.500
1091.000	632.768	80.007	19.994	103.825	19.862	9.101	0.507
1091.500	633.048	80.007	19.995	103.821	19.863	9.059	0.512
1092.000	633.307	80.008	19.994	103.820	19.860	9.225	0.532
1092.500	633.527	80.007	19.994	103.819	19.862	9.112	0.509
1093.000	633.822	80.008	19.993	103.821	19.862	9.106	0.496
1093.500	634.064	80.009	19.994	103.823	19.862	9.121	0.526
1094.000	634.325	80.008	19.994	103.825	19.867	8.729	0.520
1094.500	634.583	80.007	19.993	103.821	19.865	8.876	0.511
1095.000	634.841	80.009	19.994	103.818	19.867	8.774	0.518
1095.500	635.098	80.008	19.993	103.812	19.865	8.899	0.515
1096.000	635.375	80.009	19.994	103.806	19.864	8.974	0.524
1096.500	635.613	80.007	19.994	103.805	19.865	8.865	0.525
1097.000	635.910	80.008	19.993	103.809	19.865	8.859	0.525
1097.500	636.162	80.008	19.994	103.809	19.869	8.643	0.542
1098.000	636.409	80.009	19.993	103.814	19.868	8.658	0.524
1098.500	636.653	80.008	19.993	103.816	19.868	8.675	0.495
1099.000	636.879	80.008	19.993	103.817	19.866	8.814	0.480
1099.500	637.173	80.007	19.993	103.819	19.866	8.807	0.495
1100.000	637.416	80.008	19.992	103.818	19.868	8.684	0.529
1100.500	637.659	80.008	19.993	103.818	19.868	8.663	0.512
1101.000	637.916	80.006	19.993	103.820	19.871	8.515	0.493
1101.500	638.183	80.006	19.993	103.821	19.871	8.513	0.512
1102.000	638.428	80.007	19.993	103.821	19.867	8.725	0.518
1102.500	638.681	80.007	19.994	103.823	19.868	8.664	0.505
1103.000	638.929	80.008	19.994	103.822	19.868	8.683	0.500
1103.500	639.209	80.008	19.994	103.823	19.871	8.451	0.515
1104.000	639.467	80.008	19.994	103.822	19.872	8.425	0.533
1104.501	639.706	80.008	19.995	103.821	19.869	8.627	0.517
1105.001	639.971	80.006	19.993	103.815	19.871	8.469	0.500
1105.501	640.192	80.008	19.995	103.809	19.870	8.550	0.495
1106.001	640.477	80.007	19.993	103.802	19.869	8.648	0.496
1106.500	640.723	80.007	19.993	103.797	19.874	8.246	0.519
1107.000	640.967	80.007	19.994	103.791	19.870	8.527	0.510
1107.500	641.266	80.007	19.994	103.790	19.871	8.472	0.516
1108.000	641.481	80.006	19.993	103.791	19.870	8.526	0.528
1108.500	641.740	80.008	19.993	103.791	19.871	8.471	0.494
1109.000	641.988	80.007	19.993	103.792	19.870	8.516	0.491
1109.500	642.224	80.007	19.993	103.792	19.871	8.510	0.496
1110.000	642.474	80.009	19.994	103.795	19.869	8.638	0.486
1110.500	642.726	80.007	19.994	103.802	19.870	8.554	0.494
1111.000	643.001	80.007	19.993	103.808	19.872	8.407	0.514
1111.500	643.244	80.007	19.994	103.813	19.874	8.281	0.522
1112.000	643.482	80.008	19.994	103.817	19.876	8.144	0.499
1112.500	643.713	80.007	19.994	103.815	19.873	8.317	0.474
1113.000	643.994	80.007	19.994	103.808	19.876	8.161	0.491
1113.500	644.237	80.008	19.994	103.802	19.876	8.143	0.518
1114.000	644.512	80.009	19.994	103.801	19.873	8.316	0.520
1114.500	644.771	80.008	19.994	103.796	19.875	8.218	0.526
1115.000	644.982	80.010	19.993	103.796	19.877	8.103	0.503
1115.500	645.232	80.010	19.994	103.800	19.876	8.157	0.465
1116.000	645.512	80.009	19.993	103.807	19.876	8.143	0.495
1116.500	645.758	80.009	19.994	103.807	19.876	8.133	0.528
1117.000	646.002	80.009	19.995	103.813	19.878	7.979	0.509
1117.500	646.247	80.008	19.993	103.818	19.875	8.211	0.490
1118.000	646.515	80.010	19.995	103.821	19.877	8.053	0.501
1118.501	646.783	80.009	19.993	103.820	19.875	8.186	0.525
1119.001	647.022	80.009	19.994	103.817	19.879	7.929	0.521
1119.500	647.251	80.008	19.993	103.813	19.873	8.319	0.487
1120.000	647.506	80.011	19.994	103.808	19.879	7.950	0.476
1120.500	647.764	80.008	19.993	103.801	19.876	8.136	0.498
1121.000	648.017	80.009	19.993	103.802	19.877	8.063	0.512
1121.500	648.229	80.009	19.994	103.807	19.876	8.139	0.488
1122.000	648.521	80.009	19.993	103.810	19.876	8.154	0.484
1122.500	648.736	80.007	19.994	103.811	19.880	7.861	0.505
1123.000	648.978	80.008	19.993	103.817	19.877	8.088	0.482
1123.500	649.329	80.009	19.995	103.816	19.877	8.070	0.525
1124.000	649.574	80.008	19.993	103.816	19.877	8.055	0.594
1124.500	649.741	80.008	19.995	103.817	19.875	8.221	0.504
1125.001	650.025	80.010	19.995	103.820	19.876	8.157	0.431
1125.501	650.275	80.008	19.995	103.817	19.875	8.183	0.492
1126.001	650.548	80.009	19.994	103.814	19.877	8.076	0.528
1126.500	650.782	80.008	19.994	103.809	19.878	7.995	0.515
1127.000	651.065	80.008	19.994	103.804	19.877	8.082	0.512
1127.500	651.307	80.007	19.995	103.798	19.878	8.024	0.521
1128.000	651.534	80.007	19.993	103.797	19.879	7.902	0.497
1128.500	651.799	80.005	19.994	103.798	19.879	7.953	0.481
1129.000	652.068	80.006	19.994	103.798	19.878	8.032	0.513
1129.500	652.289	80.007	19.993	103.799	19.882	7.712	0.512
1130.000	652.544	80.007	19.994	103.808	19.878	8.020	0.483
1130.500	652.818	80.006	19.994	103.806	19.881	7.819	0.502
1131.000	653.084	80.006	19.994	103.806	19.882	7.711	0.534
1131.500	653.307	80.006	19.992	103.808	19.880	7.880	0.515
1132.000	653.584	80.007	19.993	103.805	19.882	7.699	0.495
1132.500	653.825	80.007	19.993	103.798	19.881	7.814	0.509
1133.000	654.113	80.006	19.994	103.796	19.881	7.765	0.523
1133.500	654.359	80.005	19.993	103.796	19.879	7.951	0.532
1134.000	654.618	80.007	19.994	103.794	19.883	7.663	0.519
1134.500	654.845	80.006	19.994	103.801	19.878	7.989	0.495
1135.000	655.088	80.006	19.993	103.806	19.882	7.742	0.478
1135.500	655.360	80.006	19.994	103.809	19.880	7.859	0.493
1136.000	655.610	80.006	19.993	103.810	19.880	7.863	0.518
1136.500	655.866	80.008	19.993	103.810	19.881	7.791	0.514
1137.000	656.102	80.006	19.994	103.809	19.881	7.770	0.499
1137.500	656.310	80.006	19.993	103.812	19.884	7.577	0.468
1138.000	656.608	80.006	19.993	103.814	19.882	7.706	0.475
1138.501	656.866	80.005	19.992	103.815	19.883	7.656	0.531
1139.001	657.102	80.007	19.994	103.819	19.886	7.481	0.525
1139.500	657.327	80.005	19.993	103.821	19.881	7.761	0.478
1140.000	657.592	80.007	19.993	103.820	19.882	7.729	0.476
1140.500	657.889	80.006	19.993	103.821	19.881	7.799	0.526
1141.000	658.117	80.005	19.994	103.820	19.881	7.784	0.543
1141.500	658.367	80.006	19.993	103.817	19.882	7.750	0.501
1142.000	658.626	80.006	19.994	103.811	19.883	7.658	0.493
1142.500	658.878	80.007	19.994	103.806	19.884	7.564	0.510
1143.000	659.103	80.005	19.994	103.803	19.882	7.705	0.495
1143.500	659.375	80.007	19.993	103.801	19.886	7.479	0.487
1144.000	659.658	80.006	19.993	103.800	19.883	7.655	0.526
1144.500	659.891	80.007	19.994	103.802	19.883	7.679	0.535
1145.000	660.163	80.007	19.994	103.801	19.884	7.576	0.510
1145.500	660.414	80.006	19.993	103.801	19.884	7.587	0.514
1146.000	660.631	80.006	19.994	103.803	19.883	7.681	0.495
1146.501	660.885	80.007	19.994	103.803	19.885	7.523	0.470
1147.001	661.130	80.004	19.994	103.799	19.884	7.563	0.485
1147.501	661.405	80.005	19.994	103.799	19.885	7.546	0.510
1148.001	661.621	80.006	19.994	103.796	19.884	7.575	0.505
1148.500	661.883	80.005	19.993	103.798	19.885	7.543	0.484
1149.000	662.139	80.008	19.994	103.797	19.883	7.691	0.498
1149.500	662.426	80.007	19.993	103.799	19.885	7.491	0.531
1150.000	662.683	80.007	19.995	103.801	19.887	7.361	0.543
1150.500	662.881	80.006	19.993	103.800	19.887	7.404	0.499
1151.000	663.156	80.006	19.994	103.797	19.891	7.124	0.464
1151.500	663.429	80.007	19.994	103.798	19.890	7.173	0.510
1152.000	663.665	80.005	19.994	103.803	19.890	7.197	0.528
1152.500	663.932	80.006	19.994	103.803	19.888	7.310	0.506
1153.000	664.165	80.005	19.994	103.804	19.893	6.999	0.502
1153.500	664.408	80.006	19.994	103.808	19.893	6.941	0.488
1154.000	664.688	80.005	19.993	103.809	19.895	6.867	0.500
1154.501	664.902	80.005	19.994	103.807	19.892	7.054	0.509
1155.001	665.161	80.007	19.994	103.811	19.893	6.992	0.484
1155.500	665.449	80.007	19.994	103.816	19.892	7.035	0.510
1156.000	665.699	80.006	19.995	103.814	19.893	6.992	0.543
1156.501	665.961	80.005	19.994	103.815	19.891	7.103	0.525
1157.001	666.214	80.005	19.994	103.813	19.891	7.121	0.513
1157.500	666.484	80.007	19.994	103.813	19.891	7.093	0.519
1158.000	666.734	80.008	19.994	103.815	19.890	7.158	0.521
1158.500	666.987	80.006	19.994	103.820	19.893	6.949	0.511
1159.000	667.256	80.006	19.995	103.823	19.892	7.047	0.512
1159.500	667.520	80.006	19.995	103.822	19.895	6.859	0.527
1160.000	667.767	80.006	19.995	103.816	19.892	7.056	0.522
1160.500	668.035	80.006	19.993	103.813	19.892	7.008	0.513
1161.000	668.251	80.005	19.994	103.808	19.895	6.835	0.500
1161.500	668.520	80.006	19.994	103.804	19.895	6.852	0.485
1162.000	668.779	80.006	19.993	103.806	19.894	6.899	0.506
1162.500	669.051	80.007	19.994	103.809	19.894	6.912	0.529
1163.001	669.294	80.005	19.995	103.805	19.896	6.738	0.523
1163.501	669.561	80.005	19.994	103.805	19.894	6.890	0.513
1164.000	669.882	80.004	19.994	103.802	19.895	6.835	0.549
1164.500	670.139	80.006	19.994	103.801	19.897	6.672	0.583
1165.001	670.365	80.006	19.994	103.799	19.894	6.926	0.531
1165.501	670.680	80.006	19.994	103.805	19.895	6.835	0.512
1166.000	670.891	80.005	19.994	103.808	19.897	6.714	0.533
1166.500	671.192	80.007	19.995	103.808	19.896	6.792	0.519
1167.000	671.463	80.005	19.994	103.806	19.895	6.845	0.542
1167.501	671.734	80.007	19.994	103.803	19.896	6.745	0.557
1168.001	671.989	80.004	19.994	103.799	19.892	7.022	0.534
1168.500	672.274	80.006	19.994	103.802	19.893	6.980	0.533
1169.000	672.502	80.007	19.994	103.806	19.894	6.896	0.527
1169.500	672.765	80.006	19.995	103.806	19.893	6.954	0.503
1170.000	673.041	80.007	19.994	103.810	19.895	6.857	0.515
1170.500	673.266	80.008	19.994	103.808	19.893	6.980	0.519
1171.000	673.562	80.008	19.994	103.800	19.894	6.893	0.511
1171.500	673.800	80.007	19.994	103.795	19.895	6.867	0.528
1172.000	674.057	80.007	19.995	103.798	19.896	6.743	0.514
1172.500	674.337	80.008	19.995	103.796	19.892	7.040	0.516
1173.000	674.618	80.006	19.994	103.797	19.895	6.813	0.549
1173.500	674.887	80.007	19.995	103.797	19.892	7.007	0.556
1174.000	675.154	80.008	19.994	103.803	19.894	6.909	0.543
1174.500	675.409	80.008	19.994	103.801	19.892	7.026	0.529
1175.000	675.670	80.007	19.994	103.800	19.893	6.956	0.519
1175.500	675.939	80.007	19.995	103.799	19.896	6.787	0.523
1176.000	676.184	80.007	19.993	103.800	19.893	6.985	0.522
1176.500	676.487	80.006	19.994	103.794	19.897	6.729	0.531
1177.000	676.718	80.007	19.995	103.792	19.892	7.070	0.541
1177.500	676.998	80.006	19.995	103.792	19.895	6.831	0.522
1178.000	677.270	80.007	19.994	103.796	19.896	6.782	0.531
1178.500	677.536	80.008	19.995	103.799	19.894	6.885	0.545
1179.000	677.757	80.007	19.995	103.799	19.895	6.836	0.513
1179.500	678.044	80.007	19.994	103.799	19.895	6.829	0.497
1180.000	678.291	80.008	19.995	103.801	19.897	6.712	0.521
1180.500	678.561	80.010	19.994	103.797	19.893	6.998	0.526
1181.001	678.835	80.007	19.995	103.793	19.895	6.807	0.531
1181.501	679.109	80.009	19.994	103.792	19.896	6.779	0.546
1182.000	679.321	80.008	19.995	103.793	19.895	6.814	0.516
1182.500	679.635	80.008	19.995	103.791	19.895	6.827	0.506
1183.000	679.886	80.006	19.993	103.793	19.897	6.705	0.546
1183.500	680.139	80.008	19.996	103.795	19.895	6.816	0.534
1184.000	680.404	80.008	19.996	103.798	19.895	6.812	0.511
1184.500	680.687	80.007	19.996	103.803	19.899	6.547	0.534
1185.000	680.951	80.008	19.995	103.805	19.896	6.743	0.548
1185.500	681.170	80.007	19.995	103.809	19.894	6.890	0.515
1186.000	681.413	80.008	19.995	103.810	19.896	6.750	0.472
1186.500	681.713	80.005	19.995	103.813	19.897	6.673	0.503
1187.000	681.973	80.007	19.994	103.815	19.895	6.835	0.552
1187.500	682.200	80.007	19.995	103.817	19.895	6.818	0.524
1188.000	682.484	80.007	19.994	103.819	19.897	6.721	0.499
1188.500	682.712	80.008	19.994	103.823	19.897	6.705	0.511
1189.000	682.956	80.006	19.995	103.821	19.898	6.602	0.492
1189.500	683.235	80.006	19.994	103.818	19.899	6.562	0.497
1190.000	683.535	80.007	19.995	103.816	19.894	6.912	0.551
1190.500	683.736	80.008	19.994	103.815	19.895	6.852	0.540
1191.000	684.063	80.006	19.994	103.812	19.896	6.754	0.514
1191.500	684.267	80.008	19.994	103.806	19.896	6.731	0.529
1192.000	684.573	80.008	19.994	103.804	19.896	6.790	0.521
1192.500	684.832	80.008	19.994	103.800	19.896	6.762	0.538
1193.000	685.060	80.007	19.993	103.794	19.897	6.720	0.526
1193.500	685.347	80.008	19.993	103.791	19.898	6.660	0.501
1194.000	685.587	80.007	19.992	103.791	19.895	6.856	0.521
1194.500	685.877	80.008	19.994	103.793	19.895	6.799	0.529
1195.000	686.133	80.008	19.993	103.793	19.893	6.982	0.538
1195.500	686.399	80.008	19.994	103.793	19.895	6.850	0.534
1196.000	686.659	80.007	19.994	103.792	19.895	6.823	0.524
1196.500	686.895	80.008	19.993	103.793	19.894	6.933	0.511
1197.000	687.172	80.009	19.993	103.792	19.896	6.741	0.504
1197.500	687.460	80.009	19.993	103.794	19.896	6.743	0.539
1198.000	687.711	80.009	19.994	103.799	19.895	6.868	0.552
1198.500	687.982	80.009	19.994	103.800	19.895	6.825	0.530
1199.000	688.257	80.009	19.994	103.799	19.894	6.881	0.533
1199.500	688.493	80.009	19.993	103.799	19.895	6.846	0.528
1200.001	688.760	80.009	19.994	103.795	19.892	7.043	0.507
1200.501	688.990	80.008	19.993	103.792	19.891	7.111	0.500
1201.000	689.284	80.008	19.994	103.791	19.894	6.894	0.511
1201.500	689.488	80.009	19.994	103.792	19.893	6.966	0.511
1202.000	689.785	80.008	19.993	103.792	19.895	6.832	0.500
1202.500	690.062	80.010	19.993	103.792	19.894	6.892	0.538
1203.000	690.306	80.010	19.993	103.792	19.892	7.071	0.548
1203.500	690.575	80.009	19.993	103.792	19.894	6.869	0.517
1204.000	690.810	80.009	19.993	103.793	19.895	6.822	0.508
1204.500	691.081	80.011	19.994	103.793	19.897	6.707	0.505
1205.000	691.349	80.007	19.993	103.793	19.898	6.657	0.523
1205.500	691.632	80.010	19.993	103.793	19.896	6.785	0.545
1206.001	691.880	80.009	19.993	103.792	19.893	6.975	0.541
1206.501	692.126	80.008	19.994	103.790	19.894	6.894	0.512
1207.000	692.365	80.007	19.993	103.790	19.896	6.781	0.489
1207.501	692.652	80.008	19.992	103.791	19.896	6.760	0.505
1208.001	692.902	80.009	19.994	103.792	19.894	6.907	0.532
1208.500	693.162	80.007	19.993	103.798	19.897	6.679	0.524
1209.000	693.438	80.008	19.992	103.802	19.894	6.877	0.523
1209.500	693.680	80.007	19.992	103.807	19.894	6.875	0.527
1210.000	693.946	80.007	19.993	103.809	19.892	7.068	0.514
1210.500	694.215	80.007	19.993	103.811	19.896	6.773	0.522
1211.001	694.488	80.007	19.993	103.808	19.894	6.869	0.538
1211.501	694.721	80.007	19.993	103.808	19.896	6.763	0.524
1212.000	695.008	80.007	19.993	103.806	19.897	6.716	0.513
1212.500	695.265	80.008	19.994	103.807	19.895	6.799	0.532
1213.000	695.529	80.006	19.993	103.807	19.895	6.867	0.533
1213.500	695.769	80.007	19.994	103.806	19.894	6.880	0.512
1214.000	696.006	80.006	19.994	103.803	19.895	6.839	0.490
1214.500	696.290	80.006	19.994	103.803	19.894	6.873	0.499
1215.001	696.546	80.007	19.993	103.802	19.894	6.888	0.530
1215.501	696.827	80.007	19.993	103.800	19.894	6.914	0.538
1216.001	697.058	80.006	19.993	103.800	19.892	7.027	0.524
1216.500	697.322	80.005	19.994	103.801	19.895	6.837	0.504
1217.000	697.593	80.007	19.994	103.799	19.895	6.805	0.515
1217.500	697.847	80.007	19.993	103.797	19.893	6.952	0.530
1218.000	698.078	80.006	19.994	103.796	19.895	6.861	0.505
1218.500	698.383	80.006	19.994	103.798	19.892	7.053	0.511
1219.000	698.634	80.006	19.994	103.801	19.895	6.861	0.546
1219.500	698.894	80.005	19.993	103.801	19.893	6.963	0.533
1220.000	699.141	80.006	19.993	103.801	19.891	7.104	0.509
1220.500	699.407	80.006	19.993	103.800	19.895	6.835	0.510
1221.000	699.653	80.007	19.993	103.796	19.896	6.762	0.512
1221.500	699.918	80.005	19.993	103.792	19.893	6.956	0.511
1222.000	700.209	80.006	19.993	103.792	19.895	6.834	0.534
1222.500	700.419	80.006	19.993	103.792	19.897	6.694	0.529
1223.000	700.675	80.007	19.993	103.793	19.893	6.959	0.483
1223.500	700.965	80.007	19.994	103.794	19.893	6.999	0.506
1224.000	701.195	80.007	19.993	103.795	19.892	7.070	0.533
1224.501	701.460	80.007	19.994	103.796	19.893	6.997	0.507
1225.001	701.723	80.006	19.993	103.796	19.896	6.752	0.511
1225.500	702.012	80.007	19.993	103.797	19.893	7.003	0.540
1226.000	702.221	80.006	19.993	103.799	19.895	6.799	0.525
1226.500	702.461	80.008	19.993	103.801	19.893	6.969	0.473
1227.000	702.751	80.008	19.993	103.800	19.893	6.952	0.489
1227.500	702.978	80.008	19.993	103.800	19.892	7.023	0.524
1228.000	703.189	80.005	19.994	103.798	19.893	6.973	0.478
1228.500	703.516	80.008	19.993	103.795	19.890	7.144	0.489
1229.000	703.722	80.007	19.992	103.791	19.892	7.034	0.536
1229.500	704.038	80.008	19.993	103.790	19.895	6.820	0.527
1230.000	704.255	80.007	19.993	103.790	19.893	6.956	0.527
1230.501	704.507	80.007	19.994	103.792	19.890	7.176	0.501
1231.001	704.799	80.008	19.993	103.793	19.889	7.274	0.506
1231.500	705.024	80.007	19.993	103.796	19.892	7.018	0.531
1232.000	705.288	80.008	19.994	103.798	19.893	6.941	0.503
1232.500	705.550	80.008	19.994	103.801	19.891	7.108	0.508
1233.000	705.814	80.008	19.993	103.800	19.892	7.072	0.526
1233.500	706.030	80.007	19.993	103.799	19.892	7.029	0.503
1234.001	706.271	80.007	19.994	103.797	19.893	6.983	0.469
1234.501	706.534	80.007	19.994	103.795	19.893	6.967	0.481
1235.000	706.855	80.006	19.994	103.794	19.892	7.042	0.544
1235.500	707.099	80.007	19.994	103.794	19.890	7.210	0.574
1236.000	707.356	80.008	19.993	103.797	19.893	6.990	0.533
1236.500	707.616	80.008	19.993	103.797	19.891	7.125	0.509
1237.000	707.839	80.008	19.994	103.797	19.890	7.163	0.500
1237.500	708.131	80.007	19.995	103.801	19.891	7.123	0.499
1238.000	708.327	80.007	19.993	103.802	19.891	7.115	0.501
1238.500	708.594	80.007	19.993	103.798	19.888	7.328	0.476
1239.000	708.867	80.008	19.993	103.798	19.892	7.055	0.502
1239.500	709.108	80.005	19.994	103.798	19.888	7.296	0.527
1240.000	709.387	80.006	19.994	103.793	19.893	7.000	0.517
1240.500	709.648	80.005	19.994	103.793	19.889	7.256	0.530
1241.000	709.932	80.006	19.994	103.795	19.891	7.106	0.543
1241.500	710.167	80.006	19.994	103.801	19.886	7.461	0.532
1242.000	710.400	80.006	19.994	103.805	19.889	7.247	0.493
1242.500	710.645	80.007	19.994	103.807	19.890	7.143	0.473
1243.001	710.903	80.006	19.992	103.805	19.889	7.264	0.491
1243.501	711.149	80.006	19.995	103.803	19.891	7.121	0.504
1244.000	711.407	80.005	19.995	103.798	19.890	7.162	0.504
1244.500	711.672	80.006	19.994	103.793	19.894	6.889	0.513
1245.000	711.907	80.006	19.995	103.791	19.891	7.083	0.511
1245.500	712.203	80.007	19.995	103.791	19.892	7.070	0.515
1246.000	712.419	80.006	19.994	103.794	19.890	7.205	0.522
1246.500	712.687	80.006	19.994	103.796	19.891	7.074	0.498
1247.000	712.982	80.006	19.995	103.797	19.887	7.388	0.523
1247.500	713.199	80.005	19.995	103.797	19.889	7.256	0.537
1248.000	713.462	80.007	19.994	103.797	19.887	7.388	0.496
1248.500	713.710	80.005	19.995	103.794	19.888	7.307	0.496
1249.000	713.955	80.007	19.995	103.790	19.889	7.269	0.502
1249.500	714.209	80.006	19.995	103.789	19.889	7.266	0.496
1250.000	714.460	80.007	19.995	103.789	19.889	7.262	0.501
1250.500	714.719	80.007	19.994	103.788	19.889	7.266	0.507
1251.001	714.949	80.006	19.994	103.788	19.889	7.277	0.500
1251.501	715.244	80.006	19.994	103.788	19.888	7.341	0.507
1252.000	715.494	80.007	19.994	103.788	19.889	7.245	0.535
1252.500	715.765	80.007	19.994	103.788	19.887	7.365	0.533
1253.000	716.004	80.007	19.995	103.789	19.886	7.439	0.516
1253.500	716.284	80.008	19.995	103.790	19.889	7.241	0.515
1254.001	716.566	80.009	19.994	103.790	19.886	7.439	0.540
1254.501	716.774	80.007	19.994	103.791	19.886	7.460	0.526
1255.001	717.016	80.008	19.995	103.792	19.887	7.352	0.470
1255.500	717.266	80.007	19.994	103.792	19.891	7.134	0.470
1256.000	717.569	80.008	19.994	103.791	19.890	7.207	0.522
1256.500	717.819	80.008	19.994	103.790	19.888	7.288	0.553
1257.001	718.057	80.008	19.995	103.789	19.888	7.331	0.520
1257.501	718.305	80.008	19.994	103.789	19.890	7.209	0.487
1258.000	718.596	80.007	19.994	103.789	19.889	7.241	0.513
1258.500	718.882	80.008	19.994	103.789	19.891	7.081	0.558
1259.000	719.098	80.009	19.994	103.790	19.894	6.889	0.539
1259.500	719.323	80.008	19.994	103.791	19.890	7.166	0.472
1260.000	719.593	80.008	19.994	103.792	19.889	7.228	0.468
1260.500	719.864	80.008	19.994	103.791	19.887	7.373	0.518
1261.000	720.099	80.009	19.995	103.791	19.892	7.017	0.524
1261.500	720.385	80.009	19.994	103.791	19.887	7.377	0.513
1262.001	720.613	80.009	19.993	103.790	19.891	7.123	0.518
1262.501	720.845	80.007	19.993	103.790	19.886	7.454	0.487
1263.000	721.106	80.008	19.994	103.791	19.886	7.450	0.476
1263.500	721.385	80.008	19.994	103.791	19.889	7.266	0.516
1264.000	721.626	80.008	19.993	103.791	19.886	7.426	0.531
1264.500	721.878	80.008	19.994	103.792	19.887	7.375	0.507
1265.000	722.152	80.007	19.994	103.792	19.889	7.256	0.509
1265.500	722.386	80.007	19.993	103.792	19.889	7.230	0.517
1266.000	722.645	80.006	19.994	103.792	19.886	7.456	0.500
1266.500	722.889	80.007	19.994	103.792	19.886	7.452	0.498
1267.000	723.150	80.007	19.993	103.792	19.888	7.339	0.504
1267.500	723.397	80.006	19.994	103.791	19.885	7.540	0.507
1268.000	723.676	80.006	19.994	103.791	19.885	7.542	0.517
1268.501	723.923	80.005	19.994	103.791	19.887	7.352	0.526
1269.001	724.155	80.006	19.995	103.791	19.887	7.382	0.502
1269.500	724.453	80.007	19.995	103.791	19.888	7.290	0.504
1270.000	724.687	80.007	19.994	103.791	19.889	7.254	0.531
1270.500	724.960	80.007	19.994	103.792	19.888	7.315	0.520
1271.000	725.205	80.006	19.994	103.791	19.889	7.245	0.513
1271.500	725.407	80.007	19.994	103.791	19.886	7.473	0.483
1272.001	725.725	80.006	19.995	103.791	19.888	7.286	0.483
1272.501	725.968	80.006	19.994	103.791	19.890	7.179	0.540
1273.000	726.229	80.006	19.995	103.790	19.887	7.384	0.532
1273.500	726.473	80.007	19.993	103.790	19.889	7.220	0.505
1274.000	726.771	80.007	19.994	103.790	19.887	7.348	0.524
1274.500	727.006	80.007	19.995	103.790	19.888	7.341	0.538
1275.001	727.255	80.009	19.994	103.790	19.886	7.482	0.509
1275.501	727.449	80.007	19.995	103.790	19.890	7.192	0.463
1276.000	727.733	80.006	19.995	103.790	19.888	7.284	0.460
1276.501	728.028	80.007	19.994	103.791	19.888	7.286	0.528
1277.001	728.252	80.007	19.994	103.791	19.889	7.258	0.549
1277.500	728.502	80.008	19.995	103.791	19.890	7.189	0.497
1278.000	728.763	80.008	19.994	103.791	19.888	7.335	0.493
1278.500	728.995	80.007	19.995	103.792	19.888	7.324	0.502
1279.000	729.276	80.008	19.994	103.791	19.889	7.215	0.503
1279.500	729.546	80.008	19.994	103.791	19.887	7.388	0.532
1280.000	729.779	80.008	19.994	103.791	19.890	7.209	0.527
1280.500	730.020	80.007	19.994	103.792	19.887	7.384	0.489
1281.000	730.287	80.009	19.993	103.793	19.888	7.322	0.491
1281.500	730.491	80.008	19.993	103.794	19.889	7.252	0.489
1282.000	730.779	80.008	19.994	103.793	19.889	7.245	0.481
1282.500	731.033	80.008	19.993	103.792	19.884	7.553	0.517
1283.000	731.291	80.009	19.993	103.791	19.888	7.305	0.527
1283.500	731.569	80.008	19.993	103.789	19.886	7.448	0.524
1284.000	731.806	80.008	19.993	103.789	19.891	7.121	0.525
1284.500	732.101	80.009	19.993	103.788	19.892	7.064	0.524
1285.000	732.328	80.009	19.994	103.789	19.890	7.183	0.527
1285.500	732.563	80.009	19.992	103.790	19.889	7.279	0.492
1286.000	732.867	80.008	19.993	103.790	19.888	7.280	0.500
1286.500	733.116	80.009	19.993	103.790	19.890	7.209	0.546
1287.000	733.358	80.008	19.993	103.791	19.888	7.305	0.522
1287.500	733.610	80.008	19.993	103.793	19.886	7.437	0.492
1288.000	733.788	80.009	19.993	103.793	19.886	7.470	0.462
1288.500	734.082	80.009	19.993	103.793	19.887	7.376	0.452
1289.000	734.333	80.008	19.993	103.794	19.884	7.559	0.509
1289.500	734.582	80.008	19.993	103.796	19.889	7.274	0.522
1290.000	734.827	80.008	19.994	103.794	19.888	7.299	0.497
1290.500	735.101	80.008	19.993	103.794	19.886	7.457	0.507
1291.000	735.367	80.007	19.994	103.794	19.886	7.421	0.530
1291.500	735.660	80.008	19.993	103.793	19.886	7.432	0.549
1292.000	735.868	80.007	19.993	103.791	19.885	7.546	0.530
1292.500	736.125	80.007	19.994	103.789	19.888	7.335	0.483
1293.000	736.407	80.007	19.993	103.788	19.886	7.465	0.502
1293.500	736.644	80.006	19.993	103.788	19.883	7.661	0.529
1294.000	736.910	80.008	19.993	103.789	19.884	7.589	0.511
1294.500	737.159	80.006	19.993	103.788	19.884	7.563	0.509
1295.000	737.404	80.006	19.994	103.789	19.885	7.527	0.505
1295.500	737.669	80.006	19.993	103.790	19.883	7.623	0.502
1296.000	737.903	80.006	19.994	103.789	19.886	7.450	0.504
1296.500	738.188	80.006	19.993	103.788	19.885	7.518	0.509
1297.000	738.485	80.007	19.994	103.788	19.887	7.361	0.550
1297.500	738.667	80.007	19.993	103.787	19.887	7.359	0.530
1298.001	738.963	80.006	19.994	103.787	19.888	7.344	0.478
1298.501	739.236	80.006	19.994	103.787	19.885	7.501	0.524
1299.000	739.460	80.006	19.994	103.788	19.885	7.510	0.533
1299.500	739.707	80.006	19.993	103.788	19.883	7.674	0.484
1300.000	739.944	80.006	19.994	103.788	19.888	7.292	0.478
1300.500	740.234	80.007	19.994	103.783	19.887	7.365	0.506
1301.000	740.492	80.007	19.994	103.781	19.886	7.452	0.537
1301.500	740.705	80.006	19.994	103.781	19.887	7.388	0.509
1302.000	740.961	80.007	19.994	103.781	19.887	7.393	0.470
1302.500	741.230	80.007	19.994	103.781	19.888	7.294	0.497
1303.000	741.507	80.007	19.992	103.787	19.886	7.438	0.536
1303.500	741.770	80.005	19.996	103.788	19.886	7.459	0.543
1304.000	742.019	80.006	19.994	103.789	19.886	7.455	0.526
1304.500	742.286	80.008	19.995	103.789	19.890	7.171	0.514
1305.000	742.541	80.006	19.994	103.790	19.886	7.453	0.519
1305.500	742.811	80.006	19.993	103.790	19.887	7.412	0.524
1306.000	743.038	80.006	19.994	103.790	19.888	7.312	0.511
1306.500	743.290	80.007	19.995	103.789	19.891	7.124	0.488
1307.000	743.526	80.007	19.993	103.788	19.889	7.213	0.483
